Data from 1960PennyLincolnUp.LampE5.5.200Scan.07172019.P1.ChangedAngle_HRD10591_13-15-16-822.txt Node
Date: Thu Jul 18 13:15:16 EDT 2019
User: cochatt
Spectrometer: HR+D1059
Trigger mode: 1
Integration Time (sec): 1.000000E-1
Scans to average: 1
Electric dark correction enabled: true
Nonlinearity correction enabled: false
Boxcar width: 0
XAxis mode: Wavelengths
Number of Pixels in Spectrum: 2048
>>>>>Begin Spectral Data<<<<<
223.165	-14.69
223.4	-14.69
223.635	-14.69
223.869	-18.69
224.104	-26.69
224.338	-22.69
224.573	-19.69
224.808	-6.69
225.042	-2.69
225.277	-10.69
225.511	-0.69
225.746	22.31
225.98	3.31
226.215	13.31
226.449	13.31
226.683	30.31
226.918	25.31
227.152	15.31
227.387	37.31
227.621	50.31
227.856	36.31
228.09	43.31
228.324	48.31
228.559	49.31
228.793	60.31
229.027	101.31
229.262	101.31
229.496	101.31
229.73	109.31
229.964	123.31
230.199	115.31
230.433	99.31
230.667	102.31
230.901	104.31
231.136	90.31
231.37	103.31
231.604	124.31
231.838	94.31
232.072	104.31
232.306	115.31
232.541	108.31
232.775	119.31
233.009	110.31
233.243	104.31
233.477	103.31
233.711	123.31
233.945	105.31
234.179	110.31
234.413	105.31
234.647	113.31
234.881	104.31
235.115	115.31
235.349	107.31
235.583	107.31
235.817	114.31
236.051	114.31
236.285	111.31
236.519	106.31
236.753	114.31
236.987	142.31
237.221	157.31
237.455	188.31
237.689	152.31
237.922	121.31
238.156	121.31
238.39	125.31
238.624	131.31
238.858	118.31
239.091	117.31
239.325	123.31
239.559	124.31
239.793	150.31
240.027	125.31
240.26	130.31
240.494	143.31
240.728	127.31
240.961	121.31
241.195	134.31
241.429	141.31
241.662	115.31
241.896	122.31
242.13	123.31
242.363	129.31
242.597	137.31
242.83	130.31
243.064	143.31
243.298	127.31
243.531	133.31
243.765	132.31
243.998	128.31
244.232	132.31
244.465	139.31
244.699	129.31
244.932	131.31
245.166	138.31
245.399	144.31
245.633	137.31
245.866	144.31
246.099	128.31
246.333	161.31
246.566	150.31
246.8	151.31
247.033	150.31
247.266	152.31
247.5	153.31
247.733	154.31
247.966	167.31
248.2	167.31
248.433	154.31
248.666	180.31
248.899	174.31
249.133	172.31
249.366	190.31
249.599	173.31
249.832	159.31
250.066	168.31
250.299	172.31
250.532	188.31
250.765	179.31
250.998	213.31
251.231	194.31
251.465	189.31
251.698	183.31
251.931	176.31
252.164	183.31
252.397	173.31
252.63	180.31
252.863	195.31
253.096	202.31
253.329	211.31
253.562	207.31
253.795	192.31
254.028	183.31
254.261	215.31
254.494	202.31
254.727	223.31
254.96	232.31
255.193	235.31
255.426	230.31
255.659	199.31
255.892	213.31
256.124	218.31
256.357	215.31
256.59	200.31
256.823	211.31
257.056	191.31
257.289	190.31
257.521	198.31
257.754	184.31
257.987	194.31
258.22	200.31
258.452	195.31
258.685	205.31
258.918	195.31
259.151	198.31
259.383	195.31
259.616	203.31
259.849	192.31
260.081	216.31
260.314	224.31
260.547	235.31
260.779	223.31
261.012	231.31
261.244	230.31
261.477	217.31
261.71	231.31
261.942	214.31
262.175	210.31
262.407	216.31
262.64	211.31
262.872	214.31
263.105	218.31
263.337	201.31
263.57	205.31
263.802	190.31
264.035	194.31
264.267	207.31
264.499	213.31
264.732	212.31
264.964	210.31
265.197	193.31
265.429	217.31
265.661	193.31
265.894	205.31
266.126	206.31
266.358	212.31
266.591	230.31
266.823	214.31
267.055	238.31
267.287	229.31
267.52	234.31
267.752	233.31
267.984	223.31
268.216	232.31
268.448	224.31
268.681	232.31
268.913	233.31
269.145	247.31
269.377	255.31
269.609	261.31
269.841	258.31
270.073	254.31
270.306	270.31
270.538	284.31
270.77	266.31
271.002	269.31
271.234	280.31
271.466	270.31
271.698	280.31
271.93	273.31
272.162	294.31
272.394	290.31
272.626	269.31
272.858	257.31
273.09	257.31
273.322	271.31
273.553	267.31
273.785	277.31
274.017	256.31
274.249	258.31
274.481	262.31
274.713	246.31
274.945	262.31
275.176	269.31
275.408	251.31
275.64	284.31
275.872	262.31
276.104	259.31
276.335	271.31
276.567	270.31
276.799	273.31
277.031	270.31
277.262	296.31
277.494	282.31
277.726	289.31
277.957	285.31
278.189	271.31
278.421	280.31
278.652	255.31
278.884	273.31
279.115	256.31
279.347	259.31
279.579	256.31
279.81	291.31
280.042	265.31
280.273	273.31
280.505	273.31
280.736	271.31
280.968	282.31
281.199	278.31
281.431	270.31
281.662	267.31
281.894	290.31
282.125	252.31
282.356	285.31
282.588	303.31
282.819	309.31
283.051	271.31
283.282	286.31
283.513	290.31
283.745	286.31
283.976	286.31
284.207	302.31
284.439	291.31
284.67	293.31
284.901	275.31
285.132	281.31
285.364	259.31
285.595	296.31
285.826	279.31
286.057	297.31
286.288	267.31
286.52	281.31
286.751	294.31
286.982	294.31
287.213	282.31
287.444	282.31
287.675	295.31
287.906	285.31
288.138	293.31
288.369	306.31
288.6	293.31
288.831	288.31
289.062	290.31
289.293	299.31
289.524	303.31
289.755	300.31
289.986	282.31
290.217	281.31
290.448	300.31
290.679	291.31
290.91	297.31
291.141	285.31
291.371	283.31
291.602	277.31
291.833	292.31
292.064	318.31
292.295	296.31
292.526	287.31
292.757	290.31
292.987	304.31
293.218	305.31
293.449	296.31
293.68	297.31
293.91	305.31
294.141	289.31
294.372	293.31
294.603	287.31
294.833	311.31
295.064	293.31
295.295	316.31
295.525	290.31
295.756	327.31
295.987	320.31
296.217	303.31
296.448	320.31
296.679	307.31
296.909	295.31
297.14	293.31
297.37	311.31
297.601	294.31
297.831	293.31
298.062	295.31
298.292	302.31
298.523	313.31
298.753	323.31
298.984	296.31
299.214	311.31
299.445	302.31
299.675	321.31
299.905	326.31
300.136	326.31
300.366	318.31
300.597	315.31
300.827	325.31
301.057	336.31
301.288	316.31
301.518	326.31
301.748	323.31
301.979	333.31
302.209	319.31
302.439	328.31
302.669	322.31
302.9	343.31
303.13	343.31
303.36	322.31
303.59	351.31
303.82	334.31
304.051	336.31
304.281	335.31
304.511	334.31
304.741	337.31
304.971	327.31
305.201	327.31
305.431	321.31
305.661	338.31
305.891	350.31
306.121	321.31
306.352	322.31
306.582	337.31
306.812	320.31
307.042	342.31
307.272	348.31
307.502	322.31
307.731	318.31
307.961	333.31
308.191	346.31
308.421	326.31
308.651	329.31
308.881	323.31
309.111	342.31
309.341	331.31
309.571	342.31
309.8	360.31
310.03	357.31
310.26	370.31
310.49	371.31
310.72	351.31
310.949	365.31
311.179	373.31
311.409	353.31
311.639	375.31
311.868	361.31
312.098	379.31
312.328	374.31
312.557	366.31
312.787	384.31
313.017	381.31
313.246	378.31
313.476	371.31
313.706	373.31
313.935	369.31
314.165	376.31
314.394	398.31
314.624	386.31
314.853	372.31
315.083	364.31
315.312	359.31
315.542	375.31
315.771	381.31
316.001	374.31
316.23	382.31
316.46	375.31
316.689	384.31
316.919	380.31
317.148	380.31
317.377	373.31
317.607	377.31
317.836	374.31
318.065	369.31
318.295	357.31
318.524	384.31
318.753	381.31
318.983	382.31
319.212	390.31
319.441	372.31
319.67	391.31
319.9	383.31
320.129	381.31
320.358	376.31
320.587	379.31
320.816	373.31
321.046	380.31
321.275	387.31
321.504	394.31
321.733	401.31
321.962	386.31
322.191	390.31
322.42	419.31
322.649	415.31
322.878	438.31
323.108	423.31
323.337	445.31
323.566	463.31
323.795	481.31
324.024	476.31
324.253	605.31
324.482	781.31
324.71	1092.31
324.939	1458.31
325.168	1277.31
325.397	709.31
325.626	555.31
325.855	477.31
326.084	465.31
326.313	445.31
326.542	477.31
326.77	485.31
326.999	583.31
327.228	719.31
327.457	978.31
327.686	1137.31
327.914	792.31
328.143	558.31
328.372	517.31
328.6	497.31
328.829	496.31
329.058	498.31
329.287	466.31
329.515	484.31
329.744	452.31
329.972	449.31
330.201	482.31
330.43	505.31
330.658	487.31
330.887	508.31
331.115	479.31
331.344	471.31
331.572	458.31
331.801	466.31
332.03	442.31
332.258	441.31
332.486	449.31
332.715	435.31
332.943	441.31
333.172	442.31
333.4	441.31
333.629	450.31
333.857	457.31
334.085	469.31
334.314	473.31
334.542	499.31
334.771	495.31
334.999	467.31
335.227	457.31
335.455	459.31
335.684	454.31
335.912	443.31
336.14	423.31
336.369	422.31
336.597	440.31
336.825	422.31
337.053	431.31
337.281	438.31
337.51	447.31
337.738	434.31
337.966	402.31
338.194	422.31
338.422	418.31
338.65	440.31
338.878	424.31
339.106	411.31
339.334	403.31
339.562	404.31
339.79	427.31
340.018	408.31
340.246	401.31
340.474	416.31
340.702	414.31
340.93	399.31
341.158	405.31
341.386	408.31
341.614	414.31
341.842	418.31
342.07	392.31
342.298	421.31
342.526	399.31
342.754	392.31
342.981	402.31
343.209	426.31
343.437	427.31
343.665	409.31
343.893	400.31
344.12	424.31
344.348	421.31
344.576	410.31
344.804	423.31
345.031	416.31
345.259	427.31
345.487	393.31
345.714	414.31
345.942	400.31
346.17	380.31
346.397	396.31
346.625	412.31
346.853	414.31
347.08	400.31
347.308	417.31
347.535	400.31
347.763	391.31
347.99	398.31
348.218	400.31
348.445	417.31
348.673	389.31
348.9	379.31
349.128	403.31
349.355	376.31
349.583	381.31
349.81	391.31
350.037	392.31
350.265	373.31
350.492	353.31
350.72	393.31
350.947	387.31
351.174	402.31
351.402	397.31
351.629	375.31
351.856	416.31
352.083	400.31
352.311	387.31
352.538	399.31
352.765	400.31
352.992	379.31
353.22	409.31
353.447	383.31
353.674	375.31
353.901	378.31
354.128	381.31
354.355	377.31
354.583	363.31
354.81	365.31
355.037	363.31
355.264	368.31
355.491	365.31
355.718	359.31
355.945	356.31
356.172	353.31
356.399	363.31
356.626	355.31
356.853	369.31
357.08	362.31
357.307	385.31
357.534	378.31
357.761	355.31
357.988	362.31
358.215	373.31
358.441	348.31
358.668	365.31
358.895	381.31
359.122	371.31
359.349	367.31
359.576	380.31
359.802	397.31
360.029	418.31
360.256	402.31
360.483	415.31
360.709	384.31
360.936	394.31
361.163	395.31
361.39	377.31
361.616	368.31
361.843	387.31
362.07	374.31
362.296	384.31
362.523	380.31
362.749	384.31
362.976	360.31
363.203	365.31
363.429	374.31
363.656	380.31
363.882	383.31
364.109	365.31
364.335	358.31
364.562	373.31
364.788	381.31
365.015	366.31
365.241	363.31
365.468	382.31
365.694	379.31
365.92	360.31
366.147	357.31
366.373	373.31
366.599	360.31
366.826	360.31
367.052	369.31
367.278	378.31
367.505	366.31
367.731	378.31
367.957	364.31
368.184	358.31
368.41	364.31
368.636	379.31
368.862	358.31
369.089	367.31
369.315	367.31
369.541	375.31
369.767	383.31
369.993	359.31
370.219	350.31
370.445	373.31
370.672	341.31
370.898	329.31
371.124	352.31
371.35	379.31
371.576	372.31
371.802	345.31
372.028	367.31
372.254	369.31
372.48	360.31
372.706	354.31
372.932	385.31
373.158	366.31
373.384	349.31
373.61	373.31
373.835	359.31
374.061	381.31
374.287	367.31
374.513	385.31
374.739	396.31
374.965	395.31
375.191	379.31
375.416	365.31
375.642	357.31
375.868	369.31
376.094	364.31
376.319	358.31
376.545	375.31
376.771	348.31
376.997	386.31
377.222	357.31
377.448	358.31
377.674	350.31
377.899	350.31
378.125	362.31
378.35	362.31
378.576	350.31
378.802	347.31
379.027	361.31
379.253	350.31
379.478	346.31
379.704	368.31
379.929	373.31
380.155	369.31
380.38	373.31
380.606	350.31
380.831	367.31
381.057	369.31
381.282	358.31
381.507	368.31
381.733	361.31
381.958	371.31
382.184	357.31
382.409	358.31
382.634	357.31
382.86	361.31
383.085	371.31
383.31	379.31
383.535	363.31
383.761	368.31
383.986	367.31
384.211	372.31
384.436	359.31
384.662	376.31
384.887	374.31
385.112	368.31
385.337	374.31
385.562	385.31
385.787	381.31
386.013	402.31
386.238	382.31
386.463	390.31
386.688	380.31
386.913	383.31
387.138	389.31
387.363	394.31
387.588	393.31
387.813	386.31
388.038	384.31
388.263	376.31
388.488	389.31
388.713	392.31
388.938	398.31
389.163	377.31
389.387	373.31
389.612	390.31
389.837	365.31
390.062	365.31
390.287	359.31
390.512	380.31
390.736	383.31
390.961	385.31
391.186	402.31
391.411	397.31
391.636	399.31
391.86	409.31
392.085	393.31
392.31	398.31
392.534	393.31
392.759	402.31
392.984	382.31
393.208	386.31
393.433	390.31
393.658	388.31
393.882	396.31
394.107	370.31
394.331	382.31
394.556	391.31
394.78	368.31
395.005	385.31
395.229	393.31
395.454	400.31
395.678	392.31
395.903	430.31
396.127	423.31
396.352	426.31
396.576	410.31
396.801	394.31
397.025	418.31
397.249	414.31
397.474	419.31
397.698	421.31
397.922	413.31
398.147	434.31
398.371	434.31
398.595	419.31
398.82	416.31
399.044	450.31
399.268	472.31
399.492	488.31
399.717	487.31
399.941	495.31
400.165	504.31
400.389	540.31
400.613	477.31
400.837	453.31
401.062	470.31
401.286	440.31
401.51	447.31
401.734	433.31
401.958	407.31
402.182	429.31
402.406	466.31
402.63	456.31
402.854	437.31
403.078	455.31
403.302	430.31
403.526	443.31
403.75	451.31
403.974	447.31
404.198	448.31
404.422	446.31
404.645	443.31
404.869	462.31
405.093	509.31
405.317	497.31
405.541	542.31
405.765	477.31
405.988	477.31
406.212	464.31
406.436	482.31
406.66	482.31
406.883	487.31
407.107	484.31
407.331	506.31
407.555	568.31
407.778	539.31
408.002	512.31
408.226	501.31
408.449	474.31
408.673	487.31
408.896	502.31
409.12	519.31
409.344	494.31
409.567	486.31
409.791	460.31
410.014	431.31
410.238	443.31
410.461	443.31
410.685	437.31
410.908	442.31
411.132	490.31
411.355	495.31
411.578	489.31
411.802	433.31
412.025	423.31
412.249	435.31
412.472	469.31
412.695	479.31
412.919	468.31
413.142	450.31
413.365	440.31
413.589	432.31
413.812	426.31
414.035	437.31
414.258	412.31
414.482	408.31
414.705	424.31
414.928	433.31
415.151	416.31
415.374	400.31
415.597	424.31
415.821	408.31
416.044	399.31
416.267	396.31
416.49	430.31
416.713	402.31
416.936	422.31
417.159	423.31
417.382	426.31
417.605	405.31
417.828	412.31
418.051	412.31
418.274	419.31
418.497	418.31
418.72	411.31
418.943	405.31
419.166	417.31
419.389	440.31
419.611	424.31
419.834	414.31
420.057	462.31
420.28	419.31
420.503	426.31
420.726	427.31
420.948	430.31
421.171	474.31
421.394	455.31
421.617	427.31
421.839	410.31
422.062	437.31
422.285	442.31
422.507	478.31
422.73	520.31
422.953	499.31
423.175	440.31
423.398	441.31
423.621	433.31
423.843	463.31
424.066	435.31
424.288	451.31
424.511	470.31
424.733	488.31
424.956	561.31
425.178	516.31
425.401	508.31
425.623	532.31
425.846	479.31
426.068	445.31
426.291	441.31
426.513	452.31
426.735	452.31
426.958	481.31
427.18	531.31
427.402	613.31
427.625	656.31
427.847	581.31
428.069	510.31
428.292	470.31
428.514	451.31
428.736	433.31
428.958	416.31
429.181	412.31
429.403	410.31
429.625	421.31
429.847	438.31
430.069	470.31
430.292	474.31
430.514	435.31
430.736	427.31
430.958	407.31
431.18	408.31
431.402	388.31
431.624	389.31
431.846	398.31
432.068	398.31
432.29	393.31
432.512	398.31
432.734	405.31
432.956	394.31
433.178	399.31
433.4	407.31
433.622	407.31
433.844	384.31
434.066	400.31
434.287	395.31
434.509	383.31
434.731	411.31
434.953	424.31
435.175	425.31
435.397	440.31
435.618	432.31
435.84	474.31
436.062	519.31
436.284	560.31
436.505	479.31
436.727	450.31
436.949	425.31
437.17	425.31
437.392	423.31
437.614	421.31
437.835	442.31
438.057	516.31
438.278	593.31
438.5	591.31
438.721	610.31
438.943	580.31
439.165	473.31
439.386	448.31
439.608	432.31
439.829	439.31
440.05	451.31
440.272	483.31
440.493	454.31
440.715	428.31
440.936	432.31
441.158	434.31
441.379	427.31
441.6	405.31
441.822	442.31
442.043	473.31
442.264	523.31
442.486	537.31
442.707	493.31
442.928	445.31
443.149	436.31
443.371	463.31
443.592	507.31
443.813	543.31
444.034	610.31
444.255	521.31
444.476	462.31
444.698	429.31
444.919	456.31
445.14	527.31
445.361	481.31
445.582	489.31
445.803	501.31
446.024	560.31
446.245	576.31
446.466	527.31
446.687	456.31
446.908	429.31
447.129	414.31
447.35	415.31
447.571	427.31
447.792	405.31
448.013	405.31
448.234	420.31
448.455	463.31
448.675	520.31
448.896	585.31
449.117	531.31
449.338	486.31
449.559	557.31
449.779	615.31
450	525.31
450.221	425.31
450.442	414.31
450.662	385.31
450.883	400.31
451.104	407.31
451.324	395.31
451.545	403.31
451.766	367.31
451.986	384.31
452.207	351.31
452.428	367.31
452.648	381.31
452.869	368.31
453.089	352.31
453.31	371.31
453.53	393.31
453.751	369.31
453.971	401.31
454.192	369.31
454.412	374.31
454.633	354.31
454.853	359.31
455.073	346.31
455.294	370.31
455.514	412.31
455.734	405.31
455.955	362.31
456.175	357.31
456.395	347.31
456.616	363.31
456.836	321.31
457.056	331.31
457.276	342.31
457.497	328.31
457.717	342.31
457.937	353.31
458.157	369.31
458.377	363.31
458.598	379.31
458.818	409.31
459.038	462.31
459.258	453.31
459.478	405.31
459.698	373.31
459.918	402.31
460.138	396.31
460.358	384.31
460.578	415.31
460.798	403.31
461.018	399.31
461.238	400.31
461.458	389.31
461.678	413.31
461.898	413.31
462.118	412.31
462.338	415.31
462.558	428.31
462.777	416.31
462.997	422.31
463.217	454.31
463.437	438.31
463.657	444.31
463.876	434.31
464.096	422.31
464.316	424.31
464.536	450.31
464.755	414.31
464.975	428.31
465.195	430.31
465.414	473.31
465.634	451.31
465.854	399.31
466.073	397.31
466.293	388.31
466.512	375.31
466.732	376.31
466.951	361.31
467.171	375.31
467.391	387.31
467.61	390.31
467.829	415.31
468.049	379.31
468.268	384.31
468.488	361.31
468.707	366.31
468.927	381.31
469.146	371.31
469.365	365.31
469.585	368.31
469.804	382.31
470.023	381.31
470.243	383.31
470.462	380.31
470.681	394.31
470.901	383.31
471.12	379.31
471.339	382.31
471.558	383.31
471.777	379.31
471.997	397.31
472.216	391.31
472.435	408.31
472.654	385.31
472.873	385.31
473.092	394.31
473.311	384.31
473.53	375.31
473.749	393.31
473.968	421.31
474.187	488.31
474.406	501.31
474.625	446.31
474.844	405.31
475.063	389.31
475.282	374.31
475.501	382.31
475.72	378.31
475.939	394.31
476.158	386.31
476.377	376.31
476.596	392.31
476.814	400.31
477.033	386.31
477.252	402.31
477.471	393.31
477.69	408.31
477.908	409.31
478.127	430.31
478.346	410.31
478.564	425.31
478.783	415.31
479.002	434.31
479.22	443.31
479.439	455.31
479.658	446.31
479.876	439.31
480.095	444.31
480.313	486.31
480.532	448.31
480.751	476.31
480.969	458.31
481.188	477.31
481.406	501.31
481.624	464.31
481.843	443.31
482.061	477.31
482.28	446.31
482.498	437.31
482.717	442.31
482.935	456.31
483.153	440.31
483.372	432.31
483.59	455.31
483.808	456.31
484.027	461.31
484.245	450.31
484.463	452.31
484.681	475.31
484.9	452.31
485.118	440.31
485.336	433.31
485.554	445.31
485.772	451.31
485.99	449.31
486.209	470.31
486.427	471.31
486.645	462.31
486.863	472.31
487.081	455.31
487.299	484.31
487.517	469.31
487.735	480.31
487.953	458.31
488.171	446.31
488.389	476.31
488.607	465.31
488.825	449.31
489.043	433.31
489.261	449.31
489.479	461.31
489.696	469.31
489.914	462.31
490.132	488.31
490.35	489.31
490.568	467.31
490.786	478.31
491.003	502.31
491.221	514.31
491.439	476.31
491.657	512.31
491.874	524.31
492.092	513.31
492.31	542.31
492.527	524.31
492.745	537.31
492.963	546.31
493.18	539.31
493.398	544.31
493.615	531.31
493.833	518.31
494.05	533.31
494.268	526.31
494.485	509.31
494.703	543.31
494.92	531.31
495.138	528.31
495.355	536.31
495.573	535.31
495.79	540.31
496.008	555.31
496.225	553.31
496.442	550.31
496.66	568.31
496.877	585.31
497.094	571.31
497.312	573.31
497.529	577.31
497.746	559.31
497.963	574.31
498.181	586.31
498.398	599.31
498.615	617.31
498.832	620.31
499.049	642.31
499.267	654.31
499.484	666.31
499.701	695.31
499.918	718.31
500.135	727.31
500.352	782.31
500.569	795.31
500.786	775.31
501.003	779.31
501.22	729.31
501.437	722.31
501.654	735.31
501.871	688.31
