Data from 1960PennyLincolnUp.LampE6.200Scan.07172019.P1_HRD10591_13-06-18-002.txt Node
Date: Thu Jul 18 13:06:18 EDT 2019
User: cochatt
Spectrometer: HR+D1059
Trigger mode: 1
Integration Time (sec): 1.000000E-1
Scans to average: 1
Electric dark correction enabled: true
Nonlinearity correction enabled: false
Boxcar width: 0
XAxis mode: Wavelengths
Number of Pixels in Spectrum: 2048
>>>>>Begin Spectral Data<<<<<
223.165	3.62
223.4	3.62
223.635	3.62
223.869	-11.38
224.104	-15.38
224.338	-12.38
224.573	-10.38
224.808	-8.38
225.042	1.62
225.277	-3.38
225.511	-10.38
225.746	2.62
225.98	10.62
226.215	-6.38
226.449	11.62
226.683	25.62
226.918	5.62
227.152	16.62
227.387	29.62
227.621	42.62
227.856	39.62
228.09	39.62
228.324	44.62
228.559	62.62
228.793	68.62
229.027	88.62
229.262	95.62
229.496	100.62
229.73	120.62
229.964	121.62
230.199	96.62
230.433	106.62
230.667	112.62
230.901	102.62
231.136	102.62
231.37	108.62
231.604	95.62
231.838	116.62
232.072	105.62
232.306	100.62
232.541	109.62
232.775	104.62
233.009	104.62
233.243	108.62
233.477	114.62
233.711	113.62
233.945	106.62
234.179	116.62
234.413	121.62
234.647	114.62
234.881	113.62
235.115	122.62
235.349	115.62
235.583	112.62
235.817	127.62
236.051	130.62
236.285	109.62
236.519	111.62
236.753	124.62
236.987	129.62
237.221	159.62
237.455	183.62
237.689	146.62
237.922	125.62
238.156	131.62
238.39	136.62
238.624	133.62
238.858	102.62
239.091	119.62
239.325	112.62
239.559	119.62
239.793	135.62
240.027	123.62
240.26	125.62
240.494	144.62
240.728	154.62
240.961	135.62
241.195	132.62
241.429	136.62
241.662	116.62
241.896	120.62
242.13	128.62
242.363	116.62
242.597	130.62
242.83	119.62
243.064	139.62
243.298	137.62
243.531	145.62
243.765	133.62
243.998	136.62
244.232	131.62
244.465	135.62
244.699	127.62
244.932	149.62
245.166	150.62
245.399	135.62
245.633	148.62
245.866	129.62
246.099	132.62
246.333	145.62
246.566	156.62
246.8	160.62
247.033	135.62
247.266	151.62
247.5	159.62
247.733	163.62
247.966	172.62
248.2	167.62
248.433	147.62
248.666	157.62
248.899	159.62
249.133	164.62
249.366	183.62
249.599	164.62
249.832	175.62
250.066	156.62
250.299	169.62
250.532	176.62
250.765	187.62
250.998	188.62
251.231	197.62
251.465	194.62
251.698	185.62
251.931	174.62
252.164	190.62
252.397	186.62
252.63	184.62
252.863	184.62
253.096	186.62
253.329	198.62
253.562	194.62
253.795	197.62
254.028	204.62
254.261	175.62
254.494	184.62
254.727	241.62
254.96	229.62
255.193	226.62
255.426	210.62
255.659	190.62
255.892	213.62
256.124	220.62
256.357	193.62
256.59	188.62
256.823	202.62
257.056	188.62
257.289	205.62
257.521	193.62
257.754	189.62
257.987	176.62
258.22	187.62
258.452	195.62
258.685	190.62
258.918	194.62
259.151	199.62
259.383	204.62
259.616	181.62
259.849	214.62
260.081	218.62
260.314	228.62
260.547	236.62
260.779	209.62
261.012	209.62
261.244	216.62
261.477	210.62
261.71	211.62
261.942	197.62
262.175	206.62
262.407	206.62
262.64	197.62
262.872	204.62
263.105	196.62
263.337	204.62
263.57	198.62
263.802	202.62
264.035	212.62
264.267	201.62
264.499	201.62
264.732	202.62
264.964	211.62
265.197	209.62
265.429	211.62
265.661	211.62
265.894	223.62
266.126	210.62
266.358	188.62
266.591	217.62
266.823	222.62
267.055	204.62
267.287	201.62
267.52	228.62
267.752	212.62
267.984	232.62
268.216	213.62
268.448	233.62
268.681	242.62
268.913	231.62
269.145	216.62
269.377	249.62
269.609	240.62
269.841	261.62
270.073	254.62
270.306	243.62
270.538	268.62
270.77	279.62
271.002	257.62
271.234	267.62
271.466	257.62
271.698	280.62
271.93	281.62
272.162	259.62
272.394	273.62
272.626	258.62
272.858	265.62
273.09	254.62
273.322	246.62
273.553	254.62
273.785	246.62
274.017	228.62
274.249	229.62
274.481	250.62
274.713	245.62
274.945	245.62
275.176	253.62
275.408	254.62
275.64	247.62
275.872	258.62
276.104	271.62
276.335	250.62
276.567	249.62
276.799	272.62
277.031	287.62
277.262	300.62
277.494	291.62
277.726	288.62
277.957	270.62
278.189	254.62
278.421	260.62
278.652	249.62
278.884	251.62
279.115	275.62
279.347	267.62
279.579	257.62
279.81	262.62
280.042	269.62
280.273	272.62
280.505	279.62
280.736	271.62
280.968	281.62
281.199	258.62
281.431	266.62
281.662	281.62
281.894	270.62
282.125	272.62
282.356	273.62
282.588	281.62
282.819	294.62
283.051	264.62
283.282	271.62
283.513	308.62
283.745	293.62
283.976	271.62
284.207	286.62
284.439	292.62
284.67	274.62
284.901	292.62
285.132	291.62
285.364	281.62
285.595	277.62
285.826	276.62
286.057	280.62
286.288	279.62
286.52	288.62
286.751	302.62
286.982	303.62
287.213	305.62
287.444	281.62
287.675	292.62
287.906	305.62
288.138	329.62
288.369	310.62
288.6	297.62
288.831	308.62
289.062	317.62
289.293	311.62
289.524	294.62
289.755	294.62
289.986	296.62
290.217	305.62
290.448	311.62
290.679	323.62
290.91	309.62
291.141	291.62
291.371	298.62
291.602	304.62
291.833	287.62
292.064	299.62
292.295	309.62
292.526	315.62
292.757	276.62
292.987	311.62
293.218	285.62
293.449	289.62
293.68	294.62
293.91	306.62
294.141	285.62
294.372	277.62
294.603	308.62
294.833	315.62
295.064	306.62
295.295	309.62
295.525	289.62
295.756	308.62
295.987	321.62
296.217	320.62
296.448	322.62
296.679	325.62
296.909	307.62
297.14	304.62
297.37	321.62
297.601	337.62
297.831	301.62
298.062	324.62
298.292	328.62
298.523	339.62
298.753	324.62
298.984	312.62
299.214	338.62
299.445	321.62
299.675	309.62
299.905	304.62
300.136	333.62
300.366	332.62
300.597	331.62
300.827	329.62
301.057	332.62
301.288	330.62
301.518	333.62
301.748	350.62
301.979	353.62
302.209	346.62
302.439	341.62
302.669	341.62
302.9	335.62
303.13	358.62
303.36	343.62
303.59	347.62
303.82	341.62
304.051	359.62
304.281	336.62
304.511	352.62
304.741	323.62
304.971	335.62
305.201	328.62
305.431	340.62
305.661	341.62
305.891	344.62
306.121	337.62
306.352	325.62
306.582	343.62
306.812	344.62
307.042	337.62
307.272	339.62
307.502	335.62
307.731	342.62
307.961	347.62
308.191	333.62
308.421	334.62
308.651	338.62
308.881	338.62
309.111	359.62
309.341	355.62
309.571	331.62
309.8	348.62
310.03	342.62
310.26	354.62
310.49	356.62
310.72	359.62
310.949	367.62
311.179	363.62
311.409	363.62
311.639	358.62
311.868	376.62
312.098	368.62
312.328	370.62
312.557	395.62
312.787	379.62
313.017	381.62
313.246	358.62
313.476	360.62
313.706	378.62
313.935	379.62
314.165	397.62
314.394	381.62
314.624	388.62
314.853	382.62
315.083	392.62
315.312	385.62
315.542	392.62
315.771	385.62
316.001	385.62
316.23	378.62
316.46	377.62
316.689	378.62
316.919	364.62
317.148	378.62
317.377	376.62
317.607	378.62
317.836	371.62
318.065	353.62
318.295	373.62
318.524	378.62
318.753	391.62
318.983	374.62
319.212	345.62
319.441	382.62
319.67	370.62
319.9	373.62
320.129	376.62
320.358	377.62
320.587	388.62
320.816	391.62
321.046	366.62
321.275	399.62
321.504	377.62
321.733	398.62
321.962	397.62
322.191	397.62
322.42	406.62
322.649	400.62
322.878	407.62
323.108	415.62
323.337	424.62
323.566	415.62
323.795	432.62
324.024	463.62
324.253	525.62
324.482	728.62
324.71	1008.62
324.939	1363.62
325.168	1119.62
325.397	648.62
325.626	482.62
325.855	466.62
326.084	444.62
326.313	445.62
326.542	435.62
326.77	485.62
326.999	550.62
327.228	665.62
327.457	919.62
327.686	1058.62
327.914	686.62
328.143	520.62
328.372	510.62
328.6	496.62
328.829	478.62
329.058	494.62
329.287	478.62
329.515	465.62
329.744	455.62
329.972	468.62
330.201	473.62
330.43	529.62
330.658	520.62
330.887	507.62
331.115	512.62
331.344	481.62
331.572	448.62
331.801	472.62
332.03	459.62
332.258	469.62
332.486	432.62
332.715	477.62
332.943	498.62
333.172	494.62
333.4	495.62
333.629	498.62
333.857	528.62
334.085	535.62
334.314	523.62
334.542	534.62
334.771	545.62
334.999	513.62
335.227	521.62
335.455	494.62
335.684	487.62
335.912	489.62
336.14	468.62
336.369	483.62
336.597	475.62
336.825	438.62
337.053	460.62
337.281	457.62
337.51	456.62
337.738	445.62
337.966	463.62
338.194	461.62
338.422	457.62
338.65	442.62
338.878	465.62
339.106	464.62
339.334	462.62
339.562	416.62
339.79	434.62
340.018	443.62
340.246	438.62
340.474	432.62
340.702	434.62
340.93	414.62
341.158	431.62
341.386	425.62
341.614	428.62
341.842	432.62
342.07	410.62
342.298	421.62
342.526	428.62
342.754	430.62
342.981	415.62
343.209	413.62
343.437	445.62
343.665	463.62
343.893	476.62
344.12	489.62
344.348	496.62
344.576	461.62
344.804	453.62
345.031	453.62
345.259	465.62
345.487	448.62
345.714	436.62
345.942	415.62
346.17	432.62
346.397	420.62
346.625	412.62
346.853	428.62
347.08	408.62
347.308	423.62
347.535	421.62
347.763	400.62
347.99	403.62
348.218	418.62
348.445	428.62
348.673	423.62
348.9	400.62
349.128	434.62
349.355	405.62
349.583	390.62
349.81	408.62
350.037	391.62
350.265	423.62
350.492	403.62
350.72	412.62
350.947	436.62
351.174	429.62
351.402	414.62
351.629	408.62
351.856	430.62
352.083	424.62
352.311	435.62
352.538	410.62
352.765	425.62
352.992	402.62
353.22	401.62
353.447	413.62
353.674	418.62
353.901	414.62
354.128	414.62
354.355	387.62
354.583	401.62
354.81	414.62
355.037	423.62
355.264	385.62
355.491	397.62
355.718	381.62
355.945	385.62
356.172	392.62
356.399	393.62
356.626	396.62
356.853	398.62
357.08	398.62
357.307	421.62
357.534	392.62
357.761	407.62
357.988	387.62
358.215	404.62
358.441	401.62
358.668	407.62
358.895	398.62
359.122	393.62
359.349	392.62
359.576	422.62
359.802	410.62
360.029	447.62
360.256	436.62
360.483	436.62
360.709	417.62
360.936	422.62
361.163	414.62
361.39	407.62
361.616	426.62
361.843	414.62
362.07	424.62
362.296	406.62
362.523	415.62
362.749	419.62
362.976	397.62
363.203	400.62
363.429	413.62
363.656	391.62
363.882	405.62
364.109	403.62
364.335	401.62
364.562	402.62
364.788	410.62
365.015	398.62
365.241	375.62
365.468	398.62
365.694	427.62
365.92	420.62
366.147	393.62
366.373	406.62
366.599	402.62
366.826	415.62
367.052	397.62
367.278	396.62
367.505	416.62
367.731	400.62
367.957	396.62
368.184	417.62
368.41	411.62
368.636	397.62
368.862	405.62
369.089	409.62
369.315	404.62
369.541	412.62
369.767	426.62
369.993	425.62
370.219	409.62
370.445	400.62
370.672	418.62
370.898	413.62
371.124	437.62
371.35	440.62
371.576	430.62
371.802	430.62
372.028	437.62
372.254	433.62
372.48	415.62
372.706	425.62
372.932	425.62
373.158	432.62
373.384	445.62
373.61	424.62
373.835	416.62
374.061	429.62
374.287	416.62
374.513	446.62
374.739	439.62
374.965	449.62
375.191	448.62
375.416	456.62
375.642	423.62
375.868	427.62
376.094	440.62
376.319	409.62
376.545	421.62
376.771	404.62
376.997	438.62
377.222	430.62
377.448	424.62
377.674	440.62
377.899	415.62
378.125	428.62
378.35	409.62
378.576	401.62
378.802	403.62
379.027	409.62
379.253	441.62
379.478	405.62
379.704	413.62
379.929	431.62
380.155	416.62
380.38	421.62
380.606	410.62
380.831	422.62
381.057	428.62
381.282	440.62
381.507	428.62
381.733	421.62
381.958	435.62
382.184	447.62
382.409	414.62
382.634	448.62
382.86	428.62
383.085	438.62
383.31	447.62
383.535	459.62
383.761	469.62
383.986	479.62
384.211	471.62
384.436	469.62
384.662	465.62
384.887	482.62
385.112	483.62
385.337	500.62
385.562	508.62
385.787	488.62
386.013	487.62
386.238	459.62
386.463	492.62
386.688	477.62
386.913	480.62
387.138	483.62
387.363	468.62
387.588	453.62
387.813	488.62
388.038	488.62
388.263	462.62
388.488	471.62
388.713	468.62
388.938	483.62
389.163	492.62
389.387	479.62
389.612	472.62
389.837	490.62
390.062	467.62
390.287	472.62
390.512	473.62
390.736	461.62
390.961	490.62
391.186	464.62
391.411	481.62
391.636	489.62
391.86	531.62
392.085	543.62
392.31	518.62
392.534	512.62
392.759	515.62
392.984	503.62
393.208	481.62
393.433	507.62
393.658	494.62
393.882	465.62
394.107	500.62
394.331	510.62
394.556	505.62
394.78	506.62
395.005	501.62
395.229	517.62
395.454	511.62
395.678	521.62
395.903	536.62
396.127	556.62
396.352	541.62
396.576	526.62
396.801	501.62
397.025	490.62
397.249	529.62
397.474	529.62
397.698	504.62
397.922	535.62
398.147	559.62
398.371	550.62
398.595	532.62
398.82	556.62
399.044	571.62
399.268	636.62
399.492	714.62
399.717	748.62
399.941	748.62
400.165	745.62
400.389	684.62
400.613	616.62
400.837	594.62
401.062	588.62
401.286	577.62
401.51	547.62
401.734	566.62
401.958	570.62
402.182	569.62
402.406	568.62
402.63	587.62
402.854	616.62
403.078	609.62
403.302	592.62
403.526	618.62
403.75	601.62
403.974	640.62
404.198	631.62
404.422	657.62
404.645	624.62
404.869	624.62
405.093	656.62
405.317	661.62
405.541	678.62
405.765	661.62
405.988	640.62
406.212	638.62
406.436	641.62
406.66	664.62
406.883	652.62
407.107	674.62
407.331	702.62
407.555	756.62
407.778	743.62
408.002	702.62
408.226	688.62
408.449	638.62
408.673	638.62
408.896	651.62
409.12	660.62
409.344	663.62
409.567	637.62
409.791	616.62
410.014	603.62
410.238	617.62
410.461	622.62
410.685	608.62
410.908	605.62
411.132	618.62
411.355	635.62
411.578	592.62
411.802	608.62
412.025	581.62
412.249	594.62
412.472	612.62
412.695	637.62
412.919	604.62
413.142	583.62
413.365	595.62
413.589	583.62
413.812	561.62
414.035	571.62
414.258	553.62
414.482	563.62
414.705	567.62
414.928	566.62
415.151	559.62
415.374	539.62
415.597	556.62
415.821	557.62
416.044	554.62
416.267	570.62
416.49	560.62
416.713	544.62
416.936	560.62
417.159	553.62
417.382	577.62
417.605	561.62
417.828	567.62
418.051	588.62
418.274	576.62
418.497	574.62
418.72	553.62
418.943	586.62
419.166	580.62
419.389	613.62
419.611	624.62
419.834	616.62
420.057	568.62
420.28	579.62
420.503	578.62
420.726	576.62
420.948	604.62
421.171	596.62
421.394	624.62
421.617	580.62
421.839	578.62
422.062	567.62
422.285	579.62
422.507	633.62
422.73	666.62
422.953	647.62
423.175	616.62
423.398	601.62
423.621	597.62
423.843	617.62
424.066	623.62
424.288	610.62
424.511	619.62
424.733	638.62
424.956	714.62
425.178	678.62
425.401	658.62
425.623	679.62
425.846	589.62
426.068	572.62
426.291	567.62
426.513	583.62
426.735	569.62
426.958	596.62
427.18	644.62
427.402	750.62
427.625	767.62
427.847	686.62
428.069	609.62
428.292	602.62
428.514	552.62
428.736	561.62
428.958	519.62
429.181	522.62
429.403	528.62
429.625	548.62
429.847	544.62
430.069	590.62
430.292	576.62
430.514	510.62
430.736	532.62
430.958	524.62
431.18	509.62
431.402	511.62
431.624	506.62
431.846	486.62
432.068	485.62
432.29	508.62
432.512	526.62
432.734	526.62
432.956	535.62
433.178	546.62
433.4	533.62
433.622	502.62
433.844	525.62
434.066	522.62
434.287	509.62
434.509	528.62
434.731	525.62
434.953	570.62
435.175	566.62
435.397	553.62
435.618	562.62
435.84	588.62
436.062	613.62
436.284	647.62
436.505	581.62
436.727	558.62
436.949	543.62
437.17	524.62
437.392	522.62
437.614	532.62
437.835	528.62
438.057	590.62
438.278	638.62
438.5	664.62
438.721	717.62
438.943	680.62
439.165	577.62
439.386	562.62
439.608	565.62
439.829	528.62
440.05	553.62
440.272	583.62
440.493	560.62
440.715	543.62
440.936	529.62
441.158	556.62
441.379	540.62
441.6	550.62
441.822	587.62
442.043	609.62
442.264	655.62
442.486	683.62
442.707	596.62
442.928	569.62
443.149	580.62
443.371	624.62
443.592	618.62
443.813	681.62
444.034	768.62
444.255	648.62
444.476	629.62
444.698	665.62
444.919	624.62
445.14	720.62
445.361	670.62
445.582	616.62
445.803	630.62
446.024	692.62
446.245	668.62
446.466	647.62
446.687	564.62
446.908	548.62
447.129	511.62
447.35	514.62
447.571	524.62
447.792	489.62
448.013	502.62
448.234	506.62
448.455	548.62
448.675	595.62
448.896	645.62
449.117	590.62
449.338	573.62
449.559	631.62
449.779	720.62
450	572.62
450.221	526.62
450.442	518.62
450.662	519.62
450.883	484.62
451.104	511.62
451.324	494.62
451.545	480.62
451.766	460.62
451.986	454.62
452.207	451.62
452.428	443.62
452.648	466.62
452.869	456.62
453.089	465.62
453.31	470.62
453.53	489.62
453.751	442.62
453.971	469.62
454.192	465.62
454.412	451.62
454.633	466.62
454.853	441.62
455.073	452.62
455.294	492.62
455.514	486.62
455.734	504.62
455.955	473.62
456.175	456.62
456.395	439.62
456.616	417.62
456.836	450.62
457.056	434.62
457.276	436.62
457.497	455.62
457.717	453.62
457.937	456.62
458.157	442.62
458.377	435.62
458.598	455.62
458.818	517.62
459.038	552.62
459.258	572.62
459.478	506.62
459.698	516.62
459.918	519.62
460.138	540.62
460.358	557.62
460.578	551.62
460.798	556.62
461.018	548.62
461.238	546.62
461.458	536.62
461.678	551.62
461.898	559.62
462.118	551.62
462.338	567.62
462.558	570.62
462.777	592.62
462.997	627.62
463.217	668.62
463.437	659.62
463.657	636.62
463.876	608.62
464.096	625.62
464.316	610.62
464.536	619.62
464.755	620.62
464.975	616.62
465.195	626.62
465.414	627.62
465.634	578.62
465.854	525.62
466.073	519.62
466.293	491.62
466.512	500.62
466.732	489.62
466.951	476.62
467.171	480.62
467.391	498.62
467.61	485.62
467.829	496.62
468.049	464.62
468.268	481.62
468.488	460.62
468.707	463.62
468.927	454.62
469.146	440.62
469.365	457.62
469.585	468.62
469.804	488.62
470.023	502.62
470.243	493.62
470.462	504.62
470.681	498.62
470.901	519.62
471.12	504.62
471.339	502.62
471.558	493.62
471.777	468.62
471.997	484.62
472.216	480.62
472.435	517.62
472.654	480.62
472.873	465.62
473.092	444.62
473.311	468.62
473.53	471.62
473.749	485.62
473.968	518.62
474.187	537.62
474.406	540.62
474.625	505.62
474.844	453.62
475.063	460.62
475.282	460.62
475.501	457.62
475.72	482.62
475.939	473.62
476.158	470.62
476.377	495.62
476.596	485.62
476.814	466.62
477.033	477.62
477.252	505.62
477.471	512.62
477.69	545.62
477.908	515.62
478.127	540.62
478.346	535.62
478.564	554.62
478.783	535.62
479.002	578.62
479.22	561.62
479.439	568.62
479.658	566.62
479.876	584.62
480.095	599.62
480.313	610.62
480.532	598.62
480.751	606.62
480.969	600.62
481.188	614.62
481.406	650.62
481.624	593.62
481.843	573.62
482.061	550.62
482.28	537.62
482.498	536.62
482.717	530.62
482.935	556.62
483.153	543.62
483.372	558.62
483.59	542.62
483.808	547.62
484.027	544.62
484.245	540.62
484.463	557.62
484.681	566.62
484.9	560.62
485.118	562.62
485.336	568.62
485.554	565.62
485.772	570.62
485.99	544.62
486.209	569.62
486.427	577.62
486.645	565.62
486.863	573.62
487.081	584.62
487.299	566.62
487.517	572.62
487.735	579.62
487.953	583.62
488.171	572.62
488.389	569.62
488.607	574.62
488.825	565.62
489.043	552.62
489.261	580.62
489.479	580.62
489.696	584.62
489.914	593.62
490.132	595.62
490.35	605.62
490.568	590.62
490.786	588.62
491.003	617.62
491.221	612.62
491.439	627.62
491.657	624.62
491.874	637.62
492.092	645.62
492.31	662.62
492.527	656.62
492.745	650.62
492.963	664.62
493.18	665.62
493.398	655.62
493.615	660.62
493.833	676.62
494.05	655.62
494.268	652.62
494.485	675.62
494.703	648.62
494.92	628.62
495.138	638.62
495.355	656.62
495.573	653.62
495.79	676.62
496.008	660.62
496.225	678.62
496.442	671.62
496.66	660.62
496.877	690.62
497.094	671.62
497.312	682.62
497.529	706.62
497.746	710.62
497.963	705.62
498.181	716.62
498.398	773.62
498.615	793.62
498.832	803.62
499.049	866.62
499.267	916.62
499.484	949.62
499.701	1036.62
499.918	1089.62
500.135	1182.62
500.352	1284.62
500.569	1333.62
500.786	1286.62
501.003	1249.62
501.22	1154.62
501.437	1071.62
501.654	1026.62
501.871	972.62
502.088	909.62
