Data from 1960PennyLincolnUp.LampE5.5.200Scan.07172019.P1.ChangedAngle_HRD10591_13-15-04-822.txt Node
Date: Thu Jul 18 13:15:04 EDT 2019
User: cochatt
Spectrometer: HR+D1059
Trigger mode: 1
Integration Time (sec): 1.000000E-1
Scans to average: 1
Electric dark correction enabled: true
Nonlinearity correction enabled: false
Boxcar width: 0
XAxis mode: Wavelengths
Number of Pixels in Spectrum: 2048
>>>>>Begin Spectral Data<<<<<
223.165	-0.75
223.4	-0.75
223.635	-0.75
223.869	-25.75
224.104	-18.75
224.338	-12.75
224.573	-9.75
224.808	-10.75
225.042	2.25
225.277	-12.75
225.511	-5.75
225.746	21.25
225.98	-2.75
226.215	-3.75
226.449	13.25
226.683	15.25
226.918	31.25
227.152	20.25
227.387	16.25
227.621	32.25
227.856	44.25
228.09	40.25
228.324	50.25
228.559	60.25
228.793	68.25
229.027	90.25
229.262	75.25
229.496	104.25
229.73	123.25
229.964	118.25
230.199	105.25
230.433	106.25
230.667	95.25
230.901	99.25
231.136	93.25
231.37	108.25
231.604	102.25
231.838	100.25
232.072	96.25
232.306	108.25
232.541	106.25
232.775	109.25
233.009	92.25
233.243	111.25
233.477	116.25
233.711	122.25
233.945	105.25
234.179	104.25
234.413	113.25
234.647	109.25
234.881	100.25
235.115	128.25
235.349	103.25
235.583	114.25
235.817	112.25
236.051	122.25
236.285	123.25
236.519	101.25
236.753	109.25
236.987	129.25
237.221	150.25
237.455	156.25
237.689	144.25
237.922	122.25
238.156	115.25
238.39	111.25
238.624	120.25
238.858	109.25
239.091	106.25
239.325	111.25
239.559	105.25
239.793	120.25
240.027	122.25
240.26	126.25
240.494	142.25
240.728	114.25
240.961	139.25
241.195	134.25
241.429	132.25
241.662	122.25
241.896	130.25
242.13	126.25
242.363	138.25
242.597	120.25
242.83	117.25
243.064	120.25
243.298	126.25
243.531	134.25
243.765	147.25
243.998	140.25
244.232	129.25
244.465	118.25
244.699	116.25
244.932	128.25
245.166	133.25
245.399	138.25
245.633	137.25
245.866	145.25
246.099	126.25
246.333	145.25
246.566	133.25
246.8	144.25
247.033	149.25
247.266	155.25
247.5	137.25
247.733	148.25
247.966	157.25
248.2	156.25
248.433	153.25
248.666	166.25
248.899	158.25
249.133	169.25
249.366	173.25
249.599	166.25
249.832	160.25
250.066	168.25
250.299	171.25
250.532	174.25
250.765	189.25
250.998	186.25
251.231	200.25
251.465	185.25
251.698	185.25
251.931	191.25
252.164	178.25
252.397	181.25
252.63	174.25
252.863	164.25
253.096	179.25
253.329	190.25
253.562	176.25
253.795	194.25
254.028	191.25
254.261	173.25
254.494	183.25
254.727	201.25
254.96	223.25
255.193	218.25
255.426	213.25
255.659	195.25
255.892	197.25
256.124	191.25
256.357	208.25
256.59	204.25
256.823	199.25
257.056	179.25
257.289	182.25
257.521	200.25
257.754	193.25
257.987	202.25
258.22	186.25
258.452	177.25
258.685	190.25
258.918	188.25
259.151	201.25
259.383	195.25
259.616	194.25
259.849	193.25
260.081	217.25
260.314	228.25
260.547	210.25
260.779	218.25
261.012	210.25
261.244	187.25
261.477	204.25
261.71	184.25
261.942	192.25
262.175	213.25
262.407	202.25
262.64	199.25
262.872	207.25
263.105	208.25
263.337	193.25
263.57	194.25
263.802	187.25
264.035	208.25
264.267	206.25
264.499	208.25
264.732	184.25
264.964	204.25
265.197	202.25
265.429	198.25
265.661	214.25
265.894	203.25
266.126	204.25
266.358	194.25
266.591	226.25
266.823	210.25
267.055	214.25
267.287	213.25
267.52	210.25
267.752	222.25
267.984	198.25
268.216	215.25
268.448	216.25
268.681	223.25
268.913	225.25
269.145	212.25
269.377	231.25
269.609	257.25
269.841	244.25
270.073	246.25
270.306	262.25
270.538	274.25
270.77	270.25
271.002	261.25
271.234	257.25
271.466	268.25
271.698	273.25
271.93	271.25
272.162	260.25
272.394	269.25
272.626	271.25
272.858	256.25
273.09	252.25
273.322	247.25
273.553	253.25
273.785	264.25
274.017	237.25
274.249	250.25
274.481	241.25
274.713	243.25
274.945	254.25
275.176	251.25
275.408	248.25
275.64	251.25
275.872	240.25
276.104	246.25
276.335	245.25
276.567	262.25
276.799	265.25
277.031	276.25
277.262	292.25
277.494	263.25
277.726	260.25
277.957	255.25
278.189	256.25
278.421	274.25
278.652	248.25
278.884	266.25
279.115	253.25
279.347	256.25
279.579	271.25
279.81	250.25
280.042	249.25
280.273	264.25
280.505	244.25
280.736	248.25
280.968	265.25
281.199	247.25
281.431	260.25
281.662	276.25
281.894	243.25
282.125	270.25
282.356	278.25
282.588	289.25
282.819	276.25
283.051	282.25
283.282	258.25
283.513	287.25
283.745	264.25
283.976	251.25
284.207	258.25
284.439	244.25
284.67	263.25
284.901	264.25
285.132	282.25
285.364	258.25
285.595	270.25
285.826	270.25
286.057	279.25
286.288	254.25
286.52	255.25
286.751	285.25
286.982	294.25
287.213	271.25
287.444	283.25
287.675	271.25
287.906	284.25
288.138	292.25
288.369	288.25
288.6	292.25
288.831	289.25
289.062	270.25
289.293	292.25
289.524	295.25
289.755	280.25
289.986	274.25
290.217	284.25
290.448	278.25
290.679	286.25
290.91	280.25
291.141	264.25
291.371	282.25
291.602	271.25
291.833	273.25
292.064	263.25
292.295	269.25
292.526	278.25
292.757	274.25
292.987	294.25
293.218	270.25
293.449	265.25
293.68	286.25
293.91	292.25
294.141	277.25
294.372	286.25
294.603	283.25
294.833	283.25
295.064	297.25
295.295	294.25
295.525	280.25
295.756	294.25
295.987	302.25
296.217	293.25
296.448	309.25
296.679	310.25
296.909	296.25
297.14	294.25
297.37	304.25
297.601	301.25
297.831	284.25
298.062	270.25
298.292	277.25
298.523	287.25
298.753	278.25
298.984	301.25
299.214	289.25
299.445	303.25
299.675	300.25
299.905	289.25
300.136	313.25
300.366	297.25
300.597	297.25
300.827	323.25
301.057	293.25
301.288	332.25
301.518	308.25
301.748	301.25
301.979	305.25
302.209	312.25
302.439	305.25
302.669	299.25
302.9	313.25
303.13	311.25
303.36	332.25
303.59	322.25
303.82	318.25
304.051	306.25
304.281	316.25
304.511	328.25
304.741	318.25
304.971	319.25
305.201	306.25
305.431	299.25
305.661	314.25
305.891	327.25
306.121	319.25
306.352	307.25
306.582	311.25
306.812	311.25
307.042	329.25
307.272	326.25
307.502	328.25
307.731	322.25
307.961	324.25
308.191	335.25
308.421	304.25
308.651	334.25
308.881	320.25
309.111	314.25
309.341	329.25
309.571	320.25
309.8	327.25
310.03	335.25
310.26	328.25
310.49	330.25
310.72	337.25
310.949	337.25
311.179	366.25
311.409	345.25
311.639	346.25
311.868	344.25
312.098	360.25
312.328	358.25
312.557	359.25
312.787	368.25
313.017	364.25
313.246	344.25
313.476	340.25
313.706	348.25
313.935	360.25
314.165	364.25
314.394	372.25
314.624	351.25
314.853	356.25
315.083	348.25
315.312	340.25
315.542	360.25
315.771	349.25
316.001	345.25
316.23	334.25
316.46	361.25
316.689	356.25
316.919	359.25
317.148	353.25
317.377	366.25
317.607	374.25
317.836	364.25
318.065	358.25
318.295	358.25
318.524	358.25
318.753	352.25
318.983	364.25
319.212	352.25
319.441	360.25
319.67	366.25
319.9	354.25
320.129	352.25
320.358	359.25
320.587	367.25
320.816	376.25
321.046	375.25
321.275	358.25
321.504	364.25
321.733	367.25
321.962	374.25
322.191	382.25
322.42	367.25
322.649	397.25
322.878	401.25
323.108	391.25
323.337	417.25
323.566	411.25
323.795	419.25
324.024	455.25
324.253	531.25
324.482	720.25
324.71	1020.25
324.939	1371.25
325.168	1186.25
325.397	674.25
325.626	511.25
325.855	473.25
326.084	419.25
326.313	425.25
326.542	408.25
326.77	465.25
326.999	534.25
327.228	671.25
327.457	904.25
327.686	1043.25
327.914	714.25
328.143	537.25
328.372	503.25
328.6	461.25
328.829	441.25
329.058	465.25
329.287	472.25
329.515	459.25
329.744	435.25
329.972	456.25
330.201	415.25
330.43	447.25
330.658	486.25
330.887	472.25
331.115	447.25
331.344	429.25
331.572	405.25
331.801	422.25
332.03	449.25
332.258	438.25
332.486	428.25
332.715	425.25
332.943	415.25
333.172	398.25
333.4	432.25
333.629	412.25
333.857	448.25
334.085	455.25
334.314	444.25
334.542	442.25
334.771	447.25
334.999	457.25
335.227	436.25
335.455	421.25
335.684	426.25
335.912	417.25
336.14	409.25
336.369	427.25
336.597	396.25
336.825	427.25
337.053	394.25
337.281	404.25
337.51	422.25
337.738	417.25
337.966	416.25
338.194	416.25
338.422	400.25
338.65	373.25
338.878	397.25
339.106	410.25
339.334	428.25
339.562	405.25
339.79	388.25
340.018	394.25
340.246	400.25
340.474	403.25
340.702	388.25
340.93	389.25
341.158	396.25
341.386	368.25
341.614	371.25
341.842	401.25
342.07	393.25
342.298	392.25
342.526	382.25
342.754	387.25
342.981	390.25
343.209	386.25
343.437	400.25
343.665	370.25
343.893	403.25
344.12	416.25
344.348	427.25
344.576	430.25
344.804	404.25
345.031	403.25
345.259	401.25
345.487	378.25
345.714	384.25
345.942	389.25
346.17	392.25
346.397	393.25
346.625	395.25
346.853	372.25
347.08	382.25
347.308	407.25
347.535	368.25
347.763	365.25
347.99	375.25
348.218	388.25
348.445	388.25
348.673	375.25
348.9	358.25
349.128	354.25
349.355	370.25
349.583	373.25
349.81	351.25
350.037	362.25
350.265	347.25
350.492	332.25
350.72	382.25
350.947	372.25
351.174	375.25
351.402	379.25
351.629	382.25
351.856	374.25
352.083	372.25
352.311	374.25
352.538	367.25
352.765	354.25
352.992	363.25
353.22	374.25
353.447	370.25
353.674	374.25
353.901	345.25
354.128	364.25
354.355	363.25
354.583	344.25
354.81	378.25
355.037	358.25
355.264	360.25
355.491	345.25
355.718	352.25
355.945	349.25
356.172	342.25
356.399	351.25
356.626	336.25
356.853	358.25
357.08	342.25
357.307	337.25
357.534	348.25
357.761	348.25
357.988	340.25
358.215	345.25
358.441	349.25
358.668	346.25
358.895	370.25
359.122	366.25
359.349	348.25
359.576	368.25
359.802	378.25
360.029	368.25
360.256	386.25
360.483	395.25
360.709	366.25
360.936	357.25
361.163	359.25
361.39	347.25
361.616	370.25
361.843	356.25
362.07	358.25
362.296	361.25
362.523	368.25
362.749	367.25
362.976	335.25
363.203	345.25
363.429	364.25
363.656	350.25
363.882	343.25
364.109	352.25
364.335	349.25
364.562	359.25
364.788	346.25
365.015	364.25
365.241	366.25
365.468	351.25
365.694	364.25
365.92	318.25
366.147	363.25
366.373	346.25
366.599	349.25
366.826	354.25
367.052	357.25
367.278	337.25
367.505	341.25
367.731	344.25
367.957	352.25
368.184	362.25
368.41	351.25
368.636	336.25
368.862	343.25
369.089	341.25
369.315	345.25
369.541	340.25
369.767	338.25
369.993	346.25
370.219	344.25
370.445	331.25
370.672	364.25
370.898	360.25
371.124	344.25
371.35	346.25
371.576	356.25
371.802	349.25
372.028	344.25
372.254	353.25
372.48	353.25
372.706	345.25
372.932	345.25
373.158	329.25
373.384	354.25
373.61	346.25
373.835	351.25
374.061	352.25
374.287	353.25
374.513	363.25
374.739	370.25
374.965	362.25
375.191	365.25
375.416	366.25
375.642	342.25
375.868	356.25
376.094	352.25
376.319	345.25
376.545	341.25
376.771	319.25
376.997	346.25
377.222	346.25
377.448	321.25
377.674	334.25
377.899	343.25
378.125	350.25
378.35	338.25
378.576	339.25
378.802	353.25
379.027	336.25
379.253	340.25
379.478	326.25
379.704	344.25
379.929	338.25
380.155	334.25
380.38	329.25
380.606	338.25
380.831	347.25
381.057	363.25
381.282	352.25
381.507	336.25
381.733	317.25
381.958	358.25
382.184	356.25
382.409	359.25
382.634	360.25
382.86	356.25
383.085	353.25
383.31	354.25
383.535	341.25
383.761	376.25
383.986	380.25
384.211	342.25
384.436	350.25
384.662	364.25
384.887	372.25
385.112	337.25
385.337	374.25
385.562	376.25
385.787	371.25
386.013	367.25
386.238	374.25
386.463	368.25
386.688	378.25
386.913	380.25
387.138	365.25
387.363	384.25
387.588	357.25
387.813	349.25
388.038	394.25
388.263	363.25
388.488	359.25
388.713	375.25
388.938	360.25
389.163	369.25
389.387	382.25
389.612	366.25
389.837	372.25
390.062	374.25
390.287	383.25
390.512	372.25
390.736	349.25
390.961	374.25
391.186	375.25
391.411	368.25
391.636	381.25
391.86	360.25
392.085	386.25
392.31	384.25
392.534	366.25
392.759	378.25
392.984	382.25
393.208	378.25
393.433	383.25
393.658	366.25
393.882	380.25
394.107	390.25
394.331	374.25
394.556	362.25
394.78	389.25
395.005	364.25
395.229	370.25
395.454	360.25
395.678	365.25
395.903	394.25
396.127	422.25
396.352	407.25
396.576	385.25
396.801	379.25
397.025	373.25
397.249	398.25
397.474	394.25
397.698	402.25
397.922	423.25
398.147	412.25
398.371	422.25
398.595	404.25
398.82	408.25
399.044	431.25
399.268	428.25
399.492	469.25
399.717	472.25
399.941	510.25
400.165	495.25
400.389	486.25
400.613	486.25
400.837	465.25
401.062	422.25
401.286	408.25
401.51	396.25
401.734	411.25
401.958	430.25
402.182	432.25
402.406	426.25
402.63	413.25
402.854	428.25
403.078	425.25
403.302	441.25
403.526	424.25
403.75	404.25
403.974	423.25
404.198	431.25
404.422	433.25
404.645	445.25
404.869	415.25
405.093	445.25
405.317	497.25
405.541	472.25
405.765	455.25
405.988	433.25
406.212	445.25
406.436	452.25
406.66	471.25
406.883	468.25
407.107	460.25
407.331	490.25
407.555	532.25
407.778	525.25
408.002	494.25
408.226	474.25
408.449	459.25
408.673	447.25
408.896	463.25
409.12	513.25
409.344	478.25
409.567	444.25
409.791	430.25
410.014	426.25
410.238	429.25
410.461	429.25
410.685	438.25
410.908	441.25
411.132	471.25
411.355	480.25
411.578	468.25
411.802	439.25
412.025	431.25
412.249	429.25
412.472	439.25
412.695	464.25
412.919	469.25
413.142	433.25
413.365	417.25
413.589	426.25
413.812	395.25
414.035	407.25
414.258	406.25
414.482	384.25
414.705	404.25
414.928	406.25
415.151	405.25
415.374	408.25
415.597	390.25
415.821	385.25
416.044	396.25
416.267	392.25
416.49	405.25
416.713	384.25
416.936	392.25
417.159	385.25
417.382	399.25
417.605	418.25
417.828	401.25
418.051	407.25
418.274	416.25
418.497	396.25
418.72	387.25
418.943	389.25
419.166	397.25
419.389	413.25
419.611	413.25
419.834	417.25
420.057	399.25
420.28	422.25
420.503	409.25
420.726	427.25
420.948	434.25
421.171	440.25
421.394	473.25
421.617	425.25
421.839	420.25
422.062	405.25
422.285	432.25
422.507	438.25
422.73	514.25
422.953	494.25
423.175	422.25
423.398	426.25
423.621	441.25
423.843	441.25
424.066	425.25
424.288	422.25
424.511	441.25
424.733	476.25
424.956	517.25
425.178	506.25
425.401	520.25
425.623	512.25
425.846	449.25
426.068	424.25
426.291	428.25
426.513	427.25
426.735	424.25
426.958	469.25
427.18	518.25
427.402	576.25
427.625	620.25
427.847	578.25
428.069	475.25
428.292	445.25
428.514	435.25
428.736	409.25
428.958	399.25
429.181	400.25
429.403	389.25
429.625	414.25
429.847	420.25
430.069	440.25
430.292	409.25
430.514	408.25
430.736	394.25
430.958	386.25
431.18	381.25
431.402	371.25
431.624	370.25
431.846	364.25
432.068	358.25
432.29	380.25
432.512	373.25
432.734	392.25
432.956	393.25
433.178	404.25
433.4	380.25
433.622	381.25
433.844	375.25
434.066	381.25
434.287	395.25
434.509	385.25
434.731	386.25
434.953	381.25
435.175	406.25
435.397	393.25
435.618	425.25
435.84	461.25
436.062	493.25
436.284	525.25
436.505	467.25
436.727	426.25
436.949	404.25
437.17	396.25
437.392	397.25
437.614	402.25
437.835	430.25
438.057	473.25
438.278	530.25
438.5	528.25
438.721	580.25
438.943	543.25
439.165	457.25
439.386	423.25
439.608	413.25
439.829	407.25
440.05	397.25
440.272	456.25
440.493	438.25
440.715	418.25
440.936	408.25
441.158	392.25
441.379	398.25
441.6	407.25
441.822	415.25
442.043	468.25
442.264	496.25
442.486	502.25
442.707	458.25
442.928	408.25
443.149	428.25
443.371	444.25
443.592	480.25
443.813	546.25
444.034	568.25
444.255	489.25
444.476	443.25
444.698	442.25
444.919	432.25
445.14	516.25
445.361	459.25
445.582	452.25
445.803	456.25
446.024	533.25
446.245	550.25
446.466	500.25
446.687	458.25
446.908	431.25
447.129	413.25
447.35	400.25
447.571	387.25
447.792	373.25
448.013	408.25
448.234	389.25
448.455	434.25
448.675	478.25
448.896	574.25
449.117	475.25
449.338	468.25
449.559	541.25
449.779	585.25
450	449.25
450.221	410.25
450.442	385.25
450.662	386.25
450.883	376.25
451.104	384.25
451.324	378.25
451.545	381.25
451.766	366.25
451.986	343.25
452.207	364.25
452.428	356.25
452.648	353.25
452.869	347.25
453.089	359.25
453.31	363.25
453.53	366.25
453.751	360.25
453.971	354.25
454.192	362.25
454.412	349.25
454.633	340.25
454.853	362.25
455.073	335.25
455.294	366.25
455.514	414.25
455.734	397.25
455.955	363.25
456.175	334.25
456.395	342.25
456.616	349.25
456.836	355.25
457.056	328.25
457.276	329.25
457.497	350.25
457.717	338.25
457.937	341.25
458.157	349.25
458.377	357.25
458.598	358.25
458.818	366.25
459.038	424.25
459.258	431.25
459.478	401.25
459.698	381.25
459.918	360.25
460.138	385.25
460.358	391.25
460.578	377.25
460.798	381.25
461.018	375.25
461.238	375.25
461.458	390.25
461.678	381.25
461.898	398.25
462.118	374.25
462.338	416.25
462.558	396.25
462.777	398.25
462.997	399.25
463.217	443.25
463.437	429.25
463.657	417.25
463.876	414.25
464.096	406.25
464.316	410.25
464.536	421.25
464.755	415.25
464.975	408.25
465.195	434.25
465.414	426.25
465.634	409.25
465.854	407.25
466.073	408.25
466.293	373.25
466.512	358.25
466.732	357.25
466.951	384.25
467.171	360.25
467.391	356.25
467.61	363.25
467.829	367.25
468.049	379.25
468.268	362.25
468.488	388.25
468.707	353.25
468.927	336.25
469.146	354.25
469.365	376.25
469.585	365.25
469.804	362.25
470.023	380.25
470.243	369.25
470.462	367.25
470.681	385.25
470.901	378.25
471.12	377.25
471.339	370.25
471.558	362.25
471.777	359.25
471.997	381.25
472.216	367.25
472.435	395.25
472.654	389.25
472.873	362.25
473.092	346.25
473.311	344.25
473.53	384.25
473.749	380.25
473.968	402.25
474.187	446.25
474.406	450.25
474.625	404.25
474.844	364.25
475.063	374.25
475.282	360.25
475.501	364.25
475.72	388.25
475.939	375.25
476.158	374.25
476.377	376.25
476.596	367.25
476.814	376.25
477.033	393.25
477.252	376.25
477.471	395.25
477.69	412.25
477.908	406.25
478.127	398.25
478.346	414.25
478.564	416.25
478.783	401.25
479.002	412.25
479.22	428.25
479.439	424.25
479.658	441.25
479.876	408.25
480.095	433.25
480.313	463.25
480.532	429.25
480.751	427.25
480.969	448.25
481.188	465.25
481.406	502.25
481.624	450.25
481.843	421.25
482.061	428.25
482.28	436.25
482.498	440.25
482.717	409.25
482.935	426.25
483.153	436.25
483.372	404.25
483.59	421.25
483.808	436.25
484.027	424.25
484.245	431.25
484.463	426.25
484.681	445.25
484.9	426.25
485.118	439.25
485.336	429.25
485.554	440.25
485.772	433.25
485.99	420.25
486.209	447.25
486.427	455.25
486.645	442.25
486.863	458.25
487.081	460.25
487.299	432.25
487.517	447.25
487.735	461.25
487.953	446.25
488.171	443.25
488.389	461.25
488.607	432.25
488.825	449.25
489.043	468.25
489.261	445.25
489.479	471.25
489.696	444.25
489.914	444.25
490.132	474.25
490.35	461.25
490.568	454.25
490.786	471.25
491.003	457.25
491.221	480.25
491.439	492.25
491.657	492.25
491.874	500.25
492.092	485.25
492.31	496.25
492.527	484.25
492.745	504.25
492.963	522.25
493.18	504.25
493.398	476.25
493.615	505.25
493.833	508.25
494.05	500.25
494.268	510.25
494.485	501.25
494.703	503.25
494.92	523.25
495.138	547.25
495.355	518.25
495.573	521.25
495.79	495.25
496.008	527.25
496.225	523.25
496.442	531.25
496.66	523.25
496.877	543.25
497.094	557.25
497.312	538.25
497.529	566.25
497.746	544.25
497.963	562.25
498.181	554.25
498.398	572.25
498.615	595.25
498.832	604.25
499.049	605.25
499.267	616.25
499.484	637.25
499.701	663.25
499.918	688.25
500.135	712.25
500.352	731.25
500.569	747.25
500.786	729.25
501.003	738.25
501.22	709.25
501.437	708.25
501.654	670.25
501.871	668.25
