Data from 1960PennyLincolnUp.LampE6.200Scan.07172019.P1_HRD10591_13-06-24-002.txt Node
Date: Thu Jul 18 13:06:24 EDT 2019
User: cochatt
Spectrometer: HR+D1059
Trigger mode: 1
Integration Time (sec): 1.000000E-1
Scans to average: 1
Electric dark correction enabled: true
Nonlinearity correction enabled: false
Boxcar width: 0
XAxis mode: Wavelengths
Number of Pixels in Spectrum: 2048
>>>>>Begin Spectral Data<<<<<
223.165	-17.06
223.4	-17.06
223.635	-17.06
223.869	-21.06
224.104	-29.06
224.338	-15.06
224.573	-7.06
224.808	-1.06
225.042	-8.06
225.277	-7.06
225.511	-14.06
225.746	8.94
225.98	1.94
226.215	13.94
226.449	9.94
226.683	25.94
226.918	29.94
227.152	28.94
227.387	36.94
227.621	29.94
227.856	49.94
228.09	45.94
228.324	48.94
228.559	44.94
228.793	54.94
229.027	96.94
229.262	80.94
229.496	82.94
229.73	110.94
229.964	112.94
230.199	104.94
230.433	114.94
230.667	112.94
230.901	91.94
231.136	107.94
231.37	108.94
231.604	114.94
231.838	102.94
232.072	108.94
232.306	112.94
232.541	107.94
232.775	106.94
233.009	104.94
233.243	113.94
233.477	92.94
233.711	105.94
233.945	102.94
234.179	116.94
234.413	109.94
234.647	124.94
234.881	92.94
235.115	111.94
235.349	143.94
235.583	110.94
235.817	120.94
236.051	108.94
236.285	109.94
236.519	106.94
236.753	111.94
236.987	130.94
237.221	140.94
237.455	161.94
237.689	151.94
237.922	114.94
238.156	133.94
238.39	105.94
238.624	117.94
238.858	116.94
239.091	113.94
239.325	129.94
239.559	116.94
239.793	101.94
240.027	104.94
240.26	115.94
240.494	132.94
240.728	135.94
240.961	140.94
241.195	142.94
241.429	132.94
241.662	124.94
241.896	131.94
242.13	130.94
242.363	118.94
242.597	115.94
242.83	128.94
243.064	130.94
243.298	128.94
243.531	132.94
243.765	132.94
243.998	116.94
244.232	127.94
244.465	124.94
244.699	137.94
244.932	129.94
245.166	150.94
245.399	153.94
245.633	136.94
245.866	147.94
246.099	148.94
246.333	140.94
246.566	136.94
246.8	142.94
247.033	148.94
247.266	150.94
247.5	162.94
247.733	156.94
247.966	156.94
248.2	143.94
248.433	156.94
248.666	154.94
248.899	161.94
249.133	168.94
249.366	170.94
249.599	163.94
249.832	154.94
250.066	161.94
250.299	170.94
250.532	179.94
250.765	180.94
250.998	193.94
251.231	176.94
251.465	183.94
251.698	176.94
251.931	180.94
252.164	166.94
252.397	187.94
252.63	180.94
252.863	188.94
253.096	192.94
253.329	188.94
253.562	198.94
253.795	190.94
254.028	192.94
254.261	209.94
254.494	192.94
254.727	219.94
254.96	248.94
255.193	209.94
255.426	213.94
255.659	224.94
255.892	198.94
256.124	205.94
256.357	210.94
256.59	196.94
256.823	179.94
257.056	191.94
257.289	194.94
257.521	191.94
257.754	185.94
257.987	179.94
258.22	176.94
258.452	181.94
258.685	190.94
258.918	183.94
259.151	191.94
259.383	205.94
259.616	186.94
259.849	188.94
260.081	195.94
260.314	217.94
260.547	237.94
260.779	209.94
261.012	214.94
261.244	203.94
261.477	200.94
261.71	216.94
261.942	196.94
262.175	208.94
262.407	216.94
262.64	189.94
262.872	204.94
263.105	196.94
263.337	203.94
263.57	195.94
263.802	195.94
264.035	190.94
264.267	205.94
264.499	201.94
264.732	203.94
264.964	212.94
265.197	199.94
265.429	200.94
265.661	205.94
265.894	218.94
266.126	197.94
266.358	204.94
266.591	210.94
266.823	209.94
267.055	229.94
267.287	223.94
267.52	226.94
267.752	222.94
267.984	210.94
268.216	218.94
268.448	223.94
268.681	223.94
268.913	218.94
269.145	234.94
269.377	235.94
269.609	260.94
269.841	250.94
270.073	232.94
270.306	261.94
270.538	292.94
270.77	282.94
271.002	258.94
271.234	260.94
271.466	251.94
271.698	267.94
271.93	276.94
272.162	289.94
272.394	268.94
272.626	278.94
272.858	264.94
273.09	252.94
273.322	245.94
273.553	241.94
273.785	258.94
274.017	246.94
274.249	241.94
274.481	257.94
274.713	260.94
274.945	259.94
275.176	268.94
275.408	244.94
275.64	253.94
275.872	249.94
276.104	243.94
276.335	251.94
276.567	261.94
276.799	265.94
277.031	287.94
277.262	269.94
277.494	288.94
277.726	282.94
277.957	271.94
278.189	262.94
278.421	256.94
278.652	259.94
278.884	270.94
279.115	267.94
279.347	255.94
279.579	267.94
279.81	266.94
280.042	257.94
280.273	260.94
280.505	288.94
280.736	256.94
280.968	265.94
281.199	273.94
281.431	266.94
281.662	263.94
281.894	273.94
282.125	267.94
282.356	280.94
282.588	298.94
282.819	277.94
283.051	267.94
283.282	277.94
283.513	262.94
283.745	293.94
283.976	289.94
284.207	284.94
284.439	294.94
284.67	275.94
284.901	282.94
285.132	281.94
285.364	310.94
285.595	282.94
285.826	283.94
286.057	284.94
286.288	287.94
286.52	286.94
286.751	272.94
286.982	288.94
287.213	301.94
287.444	292.94
287.675	309.94
287.906	308.94
288.138	294.94
288.369	290.94
288.6	296.94
288.831	281.94
289.062	308.94
289.293	308.94
289.524	291.94
289.755	288.94
289.986	303.94
290.217	294.94
290.448	298.94
290.679	293.94
290.91	294.94
291.141	305.94
291.371	294.94
291.602	302.94
291.833	296.94
292.064	313.94
292.295	312.94
292.526	302.94
292.757	298.94
292.987	312.94
293.218	278.94
293.449	308.94
293.68	301.94
293.91	291.94
294.141	312.94
294.372	297.94
294.603	314.94
294.833	306.94
295.064	327.94
295.295	310.94
295.525	298.94
295.756	316.94
295.987	304.94
296.217	316.94
296.448	333.94
296.679	305.94
296.909	317.94
297.14	315.94
297.37	310.94
297.601	313.94
297.831	321.94
298.062	316.94
298.292	316.94
298.523	336.94
298.753	315.94
298.984	337.94
299.214	319.94
299.445	314.94
299.675	327.94
299.905	334.94
300.136	315.94
300.366	321.94
300.597	334.94
300.827	325.94
301.057	335.94
301.288	315.94
301.518	330.94
301.748	328.94
301.979	356.94
302.209	310.94
302.439	322.94
302.669	338.94
302.9	342.94
303.13	326.94
303.36	330.94
303.59	327.94
303.82	348.94
304.051	321.94
304.281	331.94
304.511	354.94
304.741	346.94
304.971	342.94
305.201	335.94
305.431	338.94
305.661	352.94
305.891	337.94
306.121	333.94
306.352	331.94
306.582	325.94
306.812	328.94
307.042	344.94
307.272	345.94
307.502	340.94
307.731	342.94
307.961	358.94
308.191	345.94
308.421	352.94
308.651	352.94
308.881	332.94
309.111	346.94
309.341	346.94
309.571	353.94
309.8	348.94
310.03	365.94
310.26	352.94
310.49	353.94
310.72	365.94
310.949	381.94
311.179	386.94
311.409	364.94
311.639	362.94
311.868	359.94
312.098	360.94
312.328	375.94
312.557	375.94
312.787	391.94
313.017	375.94
313.246	384.94
313.476	364.94
313.706	375.94
313.935	372.94
314.165	388.94
314.394	376.94
314.624	378.94
314.853	381.94
315.083	368.94
315.312	397.94
315.542	373.94
315.771	360.94
316.001	377.94
316.23	369.94
316.46	380.94
316.689	372.94
316.919	355.94
317.148	378.94
317.377	376.94
317.607	389.94
317.836	379.94
318.065	372.94
318.295	381.94
318.524	380.94
318.753	377.94
318.983	380.94
319.212	374.94
319.441	367.94
319.67	377.94
319.9	378.94
320.129	373.94
320.358	363.94
320.587	381.94
320.816	371.94
321.046	383.94
321.275	380.94
321.504	378.94
321.733	377.94
321.962	384.94
322.191	377.94
322.42	398.94
322.649	418.94
322.878	396.94
323.108	404.94
323.337	416.94
323.566	431.94
323.795	445.94
324.024	489.94
324.253	537.94
324.482	691.94
324.71	1000.94
324.939	1331.94
325.168	1121.94
325.397	625.94
325.626	493.94
325.855	455.94
326.084	434.94
326.313	444.94
326.542	438.94
326.77	465.94
326.999	510.94
327.228	638.94
327.457	932.94
327.686	1052.94
327.914	728.94
328.143	544.94
328.372	488.94
328.6	493.94
328.829	476.94
329.058	493.94
329.287	474.94
329.515	474.94
329.744	467.94
329.972	467.94
330.201	459.94
330.43	482.94
330.658	512.94
330.887	521.94
331.115	510.94
331.344	466.94
331.572	450.94
331.801	477.94
332.03	464.94
332.258	473.94
332.486	450.94
332.715	462.94
332.943	485.94
333.172	490.94
333.4	511.94
333.629	515.94
333.857	512.94
334.085	517.94
334.314	523.94
334.542	538.94
334.771	580.94
334.999	525.94
335.227	508.94
335.455	481.94
335.684	479.94
335.912	487.94
336.14	479.94
336.369	450.94
336.597	482.94
336.825	490.94
337.053	462.94
337.281	461.94
337.51	456.94
337.738	475.94
337.966	456.94
338.194	454.94
338.422	454.94
338.65	439.94
338.878	438.94
339.106	432.94
339.334	432.94
339.562	429.94
339.79	437.94
340.018	419.94
340.246	418.94
340.474	426.94
340.702	437.94
340.93	415.94
341.158	404.94
341.386	398.94
341.614	430.94
341.842	429.94
342.07	424.94
342.298	417.94
342.526	426.94
342.754	400.94
342.981	440.94
343.209	426.94
343.437	430.94
343.665	462.94
343.893	466.94
344.12	475.94
344.348	469.94
344.576	459.94
344.804	445.94
345.031	446.94
345.259	435.94
345.487	438.94
345.714	426.94
345.942	408.94
346.17	397.94
346.397	405.94
346.625	417.94
346.853	399.94
347.08	420.94
347.308	418.94
347.535	430.94
347.763	414.94
347.99	411.94
348.218	432.94
348.445	406.94
348.673	419.94
348.9	411.94
349.128	407.94
349.355	404.94
349.583	419.94
349.81	434.94
350.037	401.94
350.265	410.94
350.492	411.94
350.72	397.94
350.947	392.94
351.174	402.94
351.402	409.94
351.629	395.94
351.856	408.94
352.083	421.94
352.311	434.94
352.538	416.94
352.765	419.94
352.992	395.94
353.22	420.94
353.447	384.94
353.674	397.94
353.901	397.94
354.128	395.94
354.355	395.94
354.583	397.94
354.81	376.94
355.037	393.94
355.264	389.94
355.491	386.94
355.718	396.94
355.945	387.94
356.172	393.94
356.399	397.94
356.626	399.94
356.853	394.94
357.08	400.94
357.307	382.94
357.534	380.94
357.761	402.94
357.988	397.94
358.215	385.94
358.441	401.94
358.668	398.94
358.895	387.94
359.122	384.94
359.349	404.94
359.576	431.94
359.802	435.94
360.029	449.94
360.256	437.94
360.483	426.94
360.709	406.94
360.936	425.94
361.163	412.94
361.39	405.94
361.616	403.94
361.843	387.94
362.07	402.94
362.296	413.94
362.523	392.94
362.749	412.94
362.976	409.94
363.203	414.94
363.429	407.94
363.656	379.94
363.882	395.94
364.109	384.94
364.335	397.94
364.562	369.94
364.788	394.94
365.015	402.94
365.241	409.94
365.468	407.94
365.694	398.94
365.92	413.94
366.147	406.94
366.373	421.94
366.599	422.94
366.826	406.94
367.052	402.94
367.278	409.94
367.505	393.94
367.731	440.94
367.957	392.94
368.184	422.94
368.41	408.94
368.636	423.94
368.862	401.94
369.089	418.94
369.315	403.94
369.541	396.94
369.767	402.94
369.993	419.94
370.219	420.94
370.445	417.94
370.672	428.94
370.898	419.94
371.124	420.94
371.35	422.94
371.576	434.94
371.802	424.94
372.028	428.94
372.254	409.94
372.48	411.94
372.706	436.94
372.932	426.94
373.158	438.94
373.384	428.94
373.61	414.94
373.835	407.94
374.061	418.94
374.287	426.94
374.513	428.94
374.739	426.94
374.965	443.94
375.191	444.94
375.416	466.94
375.642	453.94
375.868	448.94
376.094	424.94
376.319	413.94
376.545	400.94
376.771	415.94
376.997	422.94
377.222	441.94
377.448	437.94
377.674	416.94
377.899	400.94
378.125	431.94
378.35	427.94
378.576	405.94
378.802	402.94
379.027	432.94
379.253	400.94
379.478	412.94
379.704	418.94
379.929	419.94
380.155	412.94
380.38	420.94
380.606	428.94
380.831	412.94
381.057	425.94
381.282	422.94
381.507	422.94
381.733	409.94
381.958	416.94
382.184	405.94
382.409	422.94
382.634	438.94
382.86	457.94
383.085	417.94
383.31	449.94
383.535	454.94
383.761	449.94
383.986	448.94
384.211	461.94
384.436	459.94
384.662	476.94
384.887	492.94
385.112	466.94
385.337	503.94
385.562	488.94
385.787	452.94
386.013	492.94
386.238	470.94
386.463	488.94
386.688	481.94
386.913	477.94
387.138	480.94
387.363	491.94
387.588	472.94
387.813	484.94
388.038	474.94
388.263	461.94
388.488	490.94
388.713	482.94
388.938	473.94
389.163	474.94
389.387	474.94
389.612	458.94
389.837	467.94
390.062	479.94
390.287	476.94
390.512	492.94
390.736	453.94
390.961	486.94
391.186	486.94
391.411	514.94
391.636	492.94
391.86	522.94
392.085	508.94
392.31	508.94
392.534	531.94
392.759	498.94
392.984	484.94
393.208	507.94
393.433	503.94
393.658	507.94
393.882	500.94
394.107	499.94
394.331	498.94
394.556	492.94
394.78	482.94
395.005	522.94
395.229	501.94
395.454	530.94
395.678	540.94
395.903	515.94
396.127	530.94
396.352	526.94
396.576	520.94
396.801	522.94
397.025	524.94
397.249	508.94
397.474	517.94
397.698	522.94
397.922	544.94
398.147	540.94
398.371	550.94
398.595	548.94
398.82	571.94
399.044	582.94
399.268	639.94
399.492	694.94
399.717	765.94
399.941	768.94
400.165	727.94
400.389	715.94
400.613	650.94
400.837	590.94
401.062	580.94
401.286	562.94
401.51	570.94
401.734	569.94
401.958	578.94
402.182	585.94
402.406	592.94
402.63	581.94
402.854	591.94
403.078	603.94
403.302	614.94
403.526	613.94
403.75	625.94
403.974	624.94
404.198	618.94
404.422	640.94
404.645	620.94
404.869	613.94
405.093	635.94
405.317	660.94
405.541	666.94
405.765	646.94
405.988	634.94
406.212	633.94
406.436	636.94
406.66	661.94
406.883	645.94
407.107	664.94
407.331	712.94
407.555	798.94
407.778	745.94
408.002	680.94
408.226	667.94
408.449	646.94
408.673	647.94
408.896	640.94
409.12	667.94
409.344	662.94
409.567	628.94
409.791	594.94
410.014	591.94
410.238	595.94
410.461	580.94
410.685	609.94
410.908	602.94
411.132	635.94
411.355	652.94
411.578	613.94
411.802	588.94
412.025	584.94
412.249	595.94
412.472	604.94
412.695	628.94
412.919	602.94
413.142	581.94
413.365	575.94
413.589	560.94
413.812	566.94
414.035	569.94
414.258	558.94
414.482	561.94
414.705	563.94
414.928	562.94
415.151	573.94
415.374	556.94
415.597	533.94
415.821	569.94
416.044	562.94
416.267	572.94
416.49	547.94
416.713	550.94
416.936	569.94
417.159	542.94
417.382	566.94
417.605	564.94
417.828	554.94
418.051	566.94
418.274	577.94
418.497	566.94
418.72	582.94
418.943	572.94
419.166	592.94
419.389	610.94
419.611	624.94
419.834	596.94
420.057	604.94
420.28	602.94
420.503	578.94
420.726	575.94
420.948	579.94
421.171	609.94
421.394	618.94
421.617	588.94
421.839	560.94
422.062	564.94
422.285	572.94
422.507	631.94
422.73	655.94
422.953	623.94
423.175	595.94
423.398	588.94
423.621	600.94
423.843	604.94
424.066	612.94
424.288	615.94
424.511	620.94
424.733	643.94
424.956	697.94
425.178	682.94
425.401	651.94
425.623	669.94
425.846	622.94
426.068	561.94
426.291	566.94
426.513	573.94
426.735	577.94
426.958	597.94
427.18	634.94
427.402	713.94
427.625	769.94
427.847	684.94
428.069	625.94
428.292	590.94
428.514	547.94
428.736	558.94
428.958	524.94
429.181	497.94
429.403	498.94
429.625	531.94
429.847	520.94
430.069	573.94
430.292	585.94
430.514	514.94
430.736	513.94
430.958	514.94
431.18	518.94
431.402	506.94
431.624	494.94
431.846	521.94
432.068	523.94
432.29	522.94
432.512	516.94
432.734	521.94
432.956	520.94
433.178	547.94
433.4	526.94
433.622	512.94
433.844	503.94
434.066	528.94
434.287	531.94
434.509	516.94
434.731	548.94
434.953	553.94
435.175	568.94
435.397	597.94
435.618	577.94
435.84	568.94
436.062	600.94
436.284	699.94
436.505	589.94
436.727	556.94
436.949	516.94
437.17	529.94
437.392	534.94
437.614	502.94
437.835	524.94
438.057	593.94
438.278	656.94
438.5	657.94
438.721	673.94
438.943	687.94
439.165	583.94
439.386	544.94
439.608	557.94
439.829	543.94
440.05	577.94
440.272	595.94
440.493	565.94
440.715	552.94
440.936	517.94
441.158	529.94
441.379	545.94
441.6	569.94
441.822	580.94
442.043	603.94
442.264	645.94
442.486	681.94
442.707	583.94
442.928	582.94
443.149	582.94
443.371	593.94
443.592	640.94
443.813	684.94
444.034	692.94
444.255	645.94
444.476	634.94
444.698	626.94
444.919	656.94
445.14	732.94
445.361	646.94
445.582	597.94
445.803	625.94
446.024	688.94
446.245	674.94
446.466	629.94
446.687	572.94
446.908	533.94
447.129	499.94
447.35	500.94
447.571	495.94
447.792	465.94
448.013	495.94
448.234	531.94
448.455	542.94
448.675	609.94
448.896	669.94
449.117	602.94
449.338	563.94
449.559	632.94
449.779	692.94
450	587.94
450.221	490.94
450.442	498.94
450.662	476.94
450.883	469.94
451.104	520.94
451.324	494.94
451.545	472.94
451.766	462.94
451.986	495.94
452.207	463.94
452.428	467.94
452.648	477.94
452.869	461.94
453.089	497.94
453.31	494.94
453.53	451.94
453.751	439.94
453.971	455.94
454.192	442.94
454.412	442.94
454.633	451.94
454.853	436.94
455.073	460.94
455.294	466.94
455.514	507.94
455.734	494.94
455.955	452.94
456.175	435.94
456.395	442.94
456.616	425.94
456.836	454.94
457.056	438.94
457.276	445.94
457.497	438.94
457.717	437.94
457.937	449.94
458.157	440.94
458.377	431.94
458.598	459.94
458.818	500.94
459.038	552.94
459.258	567.94
459.478	512.94
459.698	505.94
459.918	512.94
460.138	506.94
460.358	544.94
460.578	552.94
460.798	549.94
461.018	536.94
461.238	564.94
461.458	545.94
461.678	559.94
461.898	544.94
462.118	556.94
462.338	555.94
462.558	583.94
462.777	573.94
462.997	599.94
463.217	646.94
463.437	650.94
463.657	630.94
463.876	619.94
464.096	600.94
464.316	592.94
464.536	624.94
464.755	596.94
464.975	609.94
465.195	606.94
465.414	612.94
465.634	550.94
465.854	521.94
466.073	517.94
466.293	501.94
466.512	461.94
466.732	463.94
466.951	466.94
467.171	474.94
467.391	473.94
467.61	510.94
467.829	494.94
468.049	482.94
468.268	470.94
468.488	449.94
468.707	450.94
468.927	466.94
469.146	462.94
469.365	465.94
469.585	443.94
469.804	480.94
470.023	495.94
470.243	497.94
470.462	486.94
470.681	512.94
470.901	518.94
471.12	490.94
471.339	492.94
471.558	457.94
471.777	494.94
471.997	475.94
472.216	453.94
472.435	499.94
472.654	484.94
472.873	472.94
473.092	463.94
473.311	454.94
473.53	457.94
473.749	474.94
473.968	496.94
474.187	536.94
474.406	529.94
474.625	486.94
474.844	468.94
475.063	469.94
475.282	469.94
475.501	463.94
475.72	481.94
475.939	490.94
476.158	482.94
476.377	488.94
476.596	493.94
476.814	478.94
477.033	487.94
477.252	492.94
477.471	525.94
477.69	521.94
477.908	520.94
478.127	536.94
478.346	510.94
478.564	538.94
478.783	541.94
479.002	554.94
479.22	557.94
479.439	589.94
479.658	572.94
479.876	569.94
480.095	588.94
480.313	616.94
480.532	644.94
480.751	622.94
480.969	585.94
481.188	636.94
481.406	659.94
481.624	581.94
481.843	561.94
482.061	548.94
482.28	549.94
482.498	527.94
482.717	534.94
482.935	538.94
483.153	524.94
483.372	550.94
483.59	526.94
483.808	552.94
484.027	552.94
484.245	532.94
484.463	528.94
484.681	533.94
484.9	560.94
485.118	571.94
485.336	537.94
485.554	572.94
485.772	547.94
485.99	554.94
486.209	539.94
486.427	542.94
486.645	578.94
486.863	575.94
487.081	570.94
487.299	565.94
487.517	568.94
487.735	577.94
487.953	569.94
488.171	590.94
488.389	590.94
488.607	573.94
488.825	577.94
489.043	558.94
489.261	575.94
489.479	576.94
489.696	587.94
489.914	578.94
490.132	574.94
490.35	581.94
490.568	603.94
490.786	600.94
491.003	621.94
491.221	605.94
491.439	659.94
491.657	614.94
491.874	644.94
492.092	667.94
492.31	640.94
492.527	657.94
492.745	646.94
492.963	633.94
493.18	658.94
493.398	673.94
493.615	665.94
493.833	654.94
494.05	667.94
494.268	674.94
494.485	671.94
494.703	666.94
494.92	654.94
495.138	666.94
495.355	692.94
495.573	669.94
495.79	676.94
496.008	655.94
496.225	653.94
496.442	665.94
496.66	679.94
496.877	656.94
497.094	674.94
497.312	676.94
497.529	699.94
497.746	697.94
497.963	738.94
498.181	744.94
498.398	742.94
498.615	793.94
498.832	814.94
499.049	841.94
499.267	886.94
499.484	964.94
499.701	986.94
499.918	1088.94
500.135	1190.94
500.352	1266.94
500.569	1324.94
500.786	1311.94
501.003	1250.94
501.22	1180.94
501.437	1076.94
501.654	999.94
501.871	936.94
502.088	902.94
