Data from 1960PennyLincolnUp.LampE6.200Scan.07172019.P1_HRD10591_13-06-12-002.txt Node
Date: Thu Jul 18 13:06:12 EDT 2019
User: cochatt
Spectrometer: HR+D1059
Trigger mode: 1
Integration Time (sec): 1.000000E-1
Scans to average: 1
Electric dark correction enabled: true
Nonlinearity correction enabled: false
Boxcar width: 0
XAxis mode: Wavelengths
Number of Pixels in Spectrum: 2048
>>>>>Begin Spectral Data<<<<<
223.165	-10.81
223.4	-10.81
223.635	-10.81
223.869	-22.81
224.104	-9.81
224.338	-24.81
224.573	-9.81
224.808	-27.81
225.042	-18.81
225.277	8.19
225.511	0.19
225.746	-4.81
225.98	9.19
226.215	0.19
226.449	12.19
226.683	27.19
226.918	34.19
227.152	38.19
227.387	41.19
227.621	33.19
227.856	52.19
228.09	59.19
228.324	58.19
228.559	57.19
228.793	60.19
229.027	98.19
229.262	85.19
229.496	104.19
229.73	124.19
229.964	140.19
230.199	104.19
230.433	118.19
230.667	111.19
230.901	108.19
231.136	96.19
231.37	100.19
231.604	96.19
231.838	115.19
232.072	119.19
232.306	112.19
232.541	116.19
232.775	115.19
233.009	109.19
233.243	116.19
233.477	123.19
233.711	126.19
233.945	120.19
234.179	116.19
234.413	116.19
234.647	113.19
234.881	113.19
235.115	118.19
235.349	133.19
235.583	128.19
235.817	125.19
236.051	124.19
236.285	118.19
236.519	119.19
236.753	119.19
236.987	133.19
237.221	150.19
237.455	191.19
237.689	158.19
237.922	127.19
238.156	130.19
238.39	126.19
238.624	130.19
238.858	116.19
239.091	122.19
239.325	121.19
239.559	118.19
239.793	124.19
240.027	111.19
240.26	134.19
240.494	146.19
240.728	146.19
240.961	136.19
241.195	142.19
241.429	138.19
241.662	142.19
241.896	133.19
242.13	145.19
242.363	135.19
242.597	139.19
242.83	142.19
243.064	136.19
243.298	137.19
243.531	128.19
243.765	137.19
243.998	130.19
244.232	142.19
244.465	149.19
244.699	154.19
244.932	125.19
245.166	163.19
245.399	147.19
245.633	140.19
245.866	140.19
246.099	134.19
246.333	142.19
246.566	153.19
246.8	159.19
247.033	152.19
247.266	142.19
247.5	161.19
247.733	161.19
247.966	169.19
248.2	171.19
248.433	166.19
248.666	170.19
248.899	180.19
249.133	176.19
249.366	195.19
249.599	171.19
249.832	184.19
250.066	169.19
250.299	160.19
250.532	166.19
250.765	196.19
250.998	193.19
251.231	190.19
251.465	209.19
251.698	194.19
251.931	180.19
252.164	180.19
252.397	181.19
252.63	195.19
252.863	184.19
253.096	170.19
253.329	208.19
253.562	227.19
253.795	190.19
254.028	198.19
254.261	194.19
254.494	204.19
254.727	233.19
254.96	240.19
255.193	214.19
255.426	191.19
255.659	201.19
255.892	208.19
256.124	217.19
256.357	204.19
256.59	212.19
256.823	194.19
257.056	193.19
257.289	183.19
257.521	192.19
257.754	183.19
257.987	196.19
258.22	197.19
258.452	185.19
258.685	183.19
258.918	200.19
259.151	196.19
259.383	205.19
259.616	200.19
259.849	201.19
260.081	212.19
260.314	234.19
260.547	233.19
260.779	213.19
261.012	219.19
261.244	223.19
261.477	214.19
261.71	215.19
261.942	201.19
262.175	199.19
262.407	217.19
262.64	214.19
262.872	207.19
263.105	194.19
263.337	211.19
263.57	206.19
263.802	196.19
264.035	192.19
264.267	199.19
264.499	215.19
264.732	220.19
264.964	202.19
265.197	204.19
265.429	218.19
265.661	202.19
265.894	214.19
266.126	207.19
266.358	210.19
266.591	195.19
266.823	223.19
267.055	229.19
267.287	223.19
267.52	224.19
267.752	228.19
267.984	226.19
268.216	220.19
268.448	224.19
268.681	248.19
268.913	238.19
269.145	258.19
269.377	257.19
269.609	276.19
269.841	242.19
270.073	243.19
270.306	260.19
270.538	281.19
270.77	274.19
271.002	267.19
271.234	281.19
271.466	277.19
271.698	287.19
271.93	282.19
272.162	282.19
272.394	280.19
272.626	270.19
272.858	259.19
273.09	246.19
273.322	250.19
273.553	251.19
273.785	263.19
274.017	252.19
274.249	252.19
274.481	256.19
274.713	258.19
274.945	265.19
275.176	274.19
275.408	264.19
275.64	268.19
275.872	262.19
276.104	283.19
276.335	271.19
276.567	276.19
276.799	267.19
277.031	287.19
277.262	303.19
277.494	301.19
277.726	297.19
277.957	277.19
278.189	288.19
278.421	270.19
278.652	270.19
278.884	271.19
279.115	280.19
279.347	274.19
279.579	263.19
279.81	269.19
280.042	255.19
280.273	261.19
280.505	283.19
280.736	251.19
280.968	287.19
281.199	274.19
281.431	282.19
281.662	283.19
281.894	275.19
282.125	281.19
282.356	289.19
282.588	276.19
282.819	307.19
283.051	292.19
283.282	283.19
283.513	278.19
283.745	290.19
283.976	279.19
284.207	275.19
284.439	296.19
284.67	286.19
284.901	267.19
285.132	286.19
285.364	272.19
285.595	286.19
285.826	311.19
286.057	297.19
286.288	292.19
286.52	294.19
286.751	287.19
286.982	292.19
287.213	300.19
287.444	307.19
287.675	299.19
287.906	321.19
288.138	315.19
288.369	321.19
288.6	297.19
288.831	312.19
289.062	300.19
289.293	311.19
289.524	305.19
289.755	292.19
289.986	292.19
290.217	290.19
290.448	324.19
290.679	316.19
290.91	287.19
291.141	338.19
291.371	308.19
291.602	312.19
291.833	301.19
292.064	303.19
292.295	312.19
292.526	307.19
292.757	316.19
292.987	306.19
293.218	298.19
293.449	279.19
293.68	320.19
293.91	310.19
294.141	327.19
294.372	324.19
294.603	331.19
294.833	319.19
295.064	309.19
295.295	309.19
295.525	317.19
295.756	308.19
295.987	321.19
296.217	319.19
296.448	311.19
296.679	321.19
296.909	331.19
297.14	323.19
297.37	320.19
297.601	300.19
297.831	327.19
298.062	322.19
298.292	334.19
298.523	313.19
298.753	322.19
298.984	315.19
299.214	341.19
299.445	331.19
299.675	335.19
299.905	355.19
300.136	330.19
300.366	329.19
300.597	334.19
300.827	320.19
301.057	350.19
301.288	344.19
301.518	331.19
301.748	358.19
301.979	340.19
302.209	344.19
302.439	348.19
302.669	342.19
302.9	355.19
303.13	343.19
303.36	354.19
303.59	341.19
303.82	358.19
304.051	360.19
304.281	344.19
304.511	356.19
304.741	345.19
304.971	345.19
305.201	351.19
305.431	350.19
305.661	352.19
305.891	348.19
306.121	345.19
306.352	342.19
306.582	356.19
306.812	344.19
307.042	352.19
307.272	336.19
307.502	355.19
307.731	361.19
307.961	329.19
308.191	346.19
308.421	352.19
308.651	351.19
308.881	343.19
309.111	355.19
309.341	340.19
309.571	371.19
309.8	370.19
310.03	374.19
310.26	362.19
310.49	367.19
310.72	371.19
310.949	382.19
311.179	370.19
311.409	383.19
311.639	378.19
311.868	392.19
312.098	378.19
312.328	378.19
312.557	388.19
312.787	406.19
313.017	392.19
313.246	408.19
313.476	368.19
313.706	394.19
313.935	392.19
314.165	384.19
314.394	407.19
314.624	420.19
314.853	386.19
315.083	372.19
315.312	391.19
315.542	376.19
315.771	381.19
316.001	383.19
316.23	391.19
316.46	364.19
316.689	377.19
316.919	391.19
317.148	381.19
317.377	393.19
317.607	408.19
317.836	371.19
318.065	392.19
318.295	362.19
318.524	391.19
318.753	383.19
318.983	388.19
319.212	378.19
319.441	380.19
319.67	393.19
319.9	384.19
320.129	367.19
320.358	399.19
320.587	391.19
320.816	379.19
321.046	408.19
321.275	394.19
321.504	393.19
321.733	404.19
321.962	408.19
322.191	391.19
322.42	403.19
322.649	413.19
322.878	425.19
323.108	429.19
323.337	437.19
323.566	432.19
323.795	459.19
324.024	471.19
324.253	560.19
324.482	718.19
324.71	1062.19
324.939	1422.19
325.168	1187.19
325.397	658.19
325.626	481.19
325.855	464.19
326.084	443.19
326.313	469.19
326.542	461.19
326.77	480.19
326.999	536.19
327.228	697.19
327.457	956.19
327.686	1092.19
327.914	754.19
328.143	568.19
328.372	534.19
328.6	503.19
328.829	496.19
329.058	502.19
329.287	495.19
329.515	470.19
329.744	485.19
329.972	463.19
330.201	489.19
330.43	506.19
330.658	513.19
330.887	511.19
331.115	504.19
331.344	492.19
331.572	494.19
331.801	475.19
332.03	470.19
332.258	468.19
332.486	487.19
332.715	481.19
332.943	492.19
333.172	486.19
333.4	514.19
333.629	528.19
333.857	561.19
334.085	525.19
334.314	525.19
334.542	548.19
334.771	556.19
334.999	538.19
335.227	520.19
335.455	522.19
335.684	496.19
335.912	508.19
336.14	487.19
336.369	486.19
336.597	471.19
336.825	481.19
337.053	502.19
337.281	473.19
337.51	476.19
337.738	485.19
337.966	464.19
338.194	476.19
338.422	453.19
338.65	450.19
338.878	463.19
339.106	445.19
339.334	461.19
339.562	451.19
339.79	448.19
340.018	438.19
340.246	444.19
340.474	437.19
340.702	456.19
340.93	430.19
341.158	426.19
341.386	441.19
341.614	431.19
341.842	432.19
342.07	426.19
342.298	464.19
342.526	450.19
342.754	445.19
342.981	439.19
343.209	437.19
343.437	449.19
343.665	459.19
343.893	478.19
344.12	484.19
344.348	484.19
344.576	472.19
344.804	478.19
345.031	454.19
345.259	461.19
345.487	438.19
345.714	451.19
345.942	431.19
346.17	453.19
346.397	423.19
346.625	422.19
346.853	420.19
347.08	431.19
347.308	447.19
347.535	425.19
347.763	440.19
347.99	430.19
348.218	420.19
348.445	420.19
348.673	433.19
348.9	431.19
349.128	412.19
349.355	406.19
349.583	414.19
349.81	417.19
350.037	414.19
350.265	404.19
350.492	419.19
350.72	422.19
350.947	415.19
351.174	423.19
351.402	419.19
351.629	429.19
351.856	386.19
352.083	406.19
352.311	422.19
352.538	432.19
352.765	424.19
352.992	437.19
353.22	405.19
353.447	410.19
353.674	422.19
353.901	424.19
354.128	411.19
354.355	420.19
354.583	404.19
354.81	405.19
355.037	414.19
355.264	384.19
355.491	419.19
355.718	397.19
355.945	418.19
356.172	408.19
356.399	414.19
356.626	408.19
356.853	419.19
357.08	414.19
357.307	399.19
357.534	405.19
357.761	391.19
357.988	396.19
358.215	427.19
358.441	404.19
358.668	392.19
358.895	406.19
359.122	426.19
359.349	404.19
359.576	403.19
359.802	417.19
360.029	447.19
360.256	454.19
360.483	458.19
360.709	426.19
360.936	437.19
361.163	426.19
361.39	439.19
361.616	429.19
361.843	427.19
362.07	408.19
362.296	435.19
362.523	426.19
362.749	424.19
362.976	427.19
363.203	422.19
363.429	443.19
363.656	420.19
363.882	434.19
364.109	422.19
364.335	414.19
364.562	430.19
364.788	417.19
365.015	408.19
365.241	415.19
365.468	439.19
365.694	437.19
365.92	411.19
366.147	407.19
366.373	396.19
366.599	425.19
366.826	410.19
367.052	417.19
367.278	411.19
367.505	398.19
367.731	418.19
367.957	418.19
368.184	398.19
368.41	410.19
368.636	440.19
368.862	441.19
369.089	422.19
369.315	426.19
369.541	428.19
369.767	434.19
369.993	429.19
370.219	412.19
370.445	425.19
370.672	442.19
370.898	439.19
371.124	425.19
371.35	445.19
371.576	401.19
371.802	429.19
372.028	418.19
372.254	438.19
372.48	428.19
372.706	426.19
372.932	425.19
373.158	452.19
373.384	422.19
373.61	408.19
373.835	438.19
374.061	434.19
374.287	453.19
374.513	458.19
374.739	443.19
374.965	452.19
375.191	468.19
375.416	457.19
375.642	450.19
375.868	425.19
376.094	435.19
376.319	427.19
376.545	426.19
376.771	430.19
376.997	421.19
377.222	435.19
377.448	432.19
377.674	440.19
377.899	437.19
378.125	426.19
378.35	438.19
378.576	433.19
378.802	422.19
379.027	412.19
379.253	420.19
379.478	420.19
379.704	415.19
379.929	411.19
380.155	420.19
380.38	430.19
380.606	433.19
380.831	421.19
381.057	435.19
381.282	438.19
381.507	419.19
381.733	443.19
381.958	398.19
382.184	419.19
382.409	454.19
382.634	450.19
382.86	442.19
383.085	450.19
383.31	462.19
383.535	479.19
383.761	479.19
383.986	463.19
384.211	447.19
384.436	474.19
384.662	465.19
384.887	491.19
385.112	499.19
385.337	494.19
385.562	475.19
385.787	474.19
386.013	504.19
386.238	497.19
386.463	463.19
386.688	503.19
386.913	465.19
387.138	466.19
387.363	480.19
387.588	475.19
387.813	486.19
388.038	478.19
388.263	465.19
388.488	488.19
388.713	485.19
388.938	482.19
389.163	495.19
389.387	459.19
389.612	479.19
389.837	467.19
390.062	481.19
390.287	487.19
390.512	506.19
390.736	455.19
390.961	490.19
391.186	509.19
391.411	504.19
391.636	512.19
391.86	498.19
392.085	530.19
392.31	506.19
392.534	514.19
392.759	503.19
392.984	506.19
393.208	503.19
393.433	491.19
393.658	514.19
393.882	495.19
394.107	496.19
394.331	506.19
394.556	501.19
394.78	513.19
395.005	491.19
395.229	542.19
395.454	520.19
395.678	550.19
395.903	554.19
396.127	534.19
396.352	509.19
396.576	519.19
396.801	499.19
397.025	515.19
397.249	510.19
397.474	521.19
397.698	541.19
397.922	534.19
398.147	538.19
398.371	555.19
398.595	565.19
398.82	577.19
399.044	592.19
399.268	646.19
399.492	723.19
399.717	765.19
399.941	778.19
400.165	725.19
400.389	702.19
400.613	622.19
400.837	617.19
401.062	611.19
401.286	595.19
401.51	582.19
401.734	582.19
401.958	581.19
402.182	591.19
402.406	585.19
402.63	612.19
402.854	585.19
403.078	618.19
403.302	608.19
403.526	599.19
403.75	636.19
403.974	624.19
404.198	650.19
404.422	634.19
404.645	655.19
404.869	632.19
405.093	693.19
405.317	693.19
405.541	668.19
405.765	651.19
405.988	655.19
406.212	642.19
406.436	658.19
406.66	677.19
406.883	662.19
407.107	691.19
407.331	719.19
407.555	764.19
407.778	744.19
408.002	691.19
408.226	697.19
408.449	686.19
408.673	673.19
408.896	671.19
409.12	686.19
409.344	640.19
409.567	616.19
409.791	633.19
410.014	632.19
410.238	642.19
410.461	620.19
410.685	604.19
410.908	603.19
411.132	640.19
411.355	612.19
411.578	615.19
411.802	611.19
412.025	602.19
412.249	619.19
412.472	602.19
412.695	640.19
412.919	646.19
413.142	608.19
413.365	588.19
413.589	577.19
413.812	581.19
414.035	589.19
414.258	570.19
414.482	592.19
414.705	603.19
414.928	559.19
415.151	577.19
415.374	565.19
415.597	583.19
415.821	576.19
416.044	582.19
416.267	571.19
416.49	557.19
416.713	555.19
416.936	578.19
417.159	572.19
417.382	563.19
417.605	544.19
417.828	576.19
418.051	583.19
418.274	574.19
418.497	573.19
418.72	596.19
418.943	587.19
419.166	610.19
419.389	632.19
419.611	615.19
419.834	620.19
420.057	602.19
420.28	593.19
420.503	573.19
420.726	594.19
420.948	573.19
421.171	628.19
421.394	618.19
421.617	586.19
421.839	553.19
422.062	575.19
422.285	600.19
422.507	628.19
422.73	675.19
422.953	637.19
423.175	604.19
423.398	622.19
423.621	614.19
423.843	643.19
424.066	647.19
424.288	612.19
424.511	616.19
424.733	639.19
424.956	709.19
425.178	679.19
425.401	663.19
425.623	681.19
425.846	608.19
426.068	614.19
426.291	594.19
426.513	578.19
426.735	621.19
426.958	600.19
427.18	658.19
427.402	736.19
427.625	753.19
427.847	712.19
428.069	619.19
428.292	568.19
428.514	566.19
428.736	547.19
428.958	550.19
429.181	532.19
429.403	524.19
429.625	543.19
429.847	551.19
430.069	598.19
430.292	609.19
430.514	545.19
430.736	539.19
430.958	536.19
431.18	527.19
431.402	529.19
431.624	535.19
431.846	523.19
432.068	487.19
432.29	555.19
432.512	515.19
432.734	543.19
432.956	504.19
433.178	544.19
433.4	517.19
433.622	527.19
433.844	553.19
434.066	533.19
434.287	550.19
434.509	547.19
434.731	549.19
434.953	582.19
435.175	564.19
435.397	603.19
435.618	569.19
435.84	601.19
436.062	643.19
436.284	698.19
436.505	601.19
436.727	549.19
436.949	551.19
437.17	544.19
437.392	543.19
437.614	558.19
437.835	567.19
438.057	614.19
438.278	658.19
438.5	686.19
438.721	699.19
438.943	672.19
439.165	575.19
439.386	569.19
439.608	581.19
439.829	568.19
440.05	571.19
440.272	623.19
440.493	584.19
440.715	568.19
440.936	558.19
441.158	564.19
441.379	571.19
441.6	599.19
441.822	607.19
442.043	632.19
442.264	648.19
442.486	663.19
442.707	608.19
442.928	610.19
443.149	596.19
443.371	627.19
443.592	650.19
443.813	694.19
444.034	723.19
444.255	657.19
444.476	652.19
444.698	651.19
444.919	622.19
445.14	750.19
445.361	657.19
445.582	619.19
445.803	644.19
446.024	707.19
446.245	685.19
446.466	629.19
446.687	582.19
446.908	575.19
447.129	518.19
447.35	542.19
447.571	523.19
447.792	522.19
448.013	507.19
448.234	516.19
448.455	537.19
448.675	620.19
448.896	683.19
449.117	633.19
449.338	604.19
449.559	655.19
449.779	706.19
450	603.19
450.221	535.19
450.442	513.19
450.662	489.19
450.883	520.19
451.104	526.19
451.324	473.19
451.545	508.19
451.766	463.19
451.986	478.19
452.207	450.19
452.428	481.19
452.648	471.19
452.869	474.19
453.089	485.19
453.31	494.19
453.53	481.19
453.751	481.19
453.971	477.19
454.192	486.19
454.412	454.19
454.633	452.19
454.853	453.19
455.073	459.19
455.294	492.19
455.514	506.19
455.734	494.19
455.955	450.19
456.175	449.19
456.395	455.19
456.616	449.19
456.836	450.19
457.056	452.19
457.276	434.19
457.497	454.19
457.717	424.19
457.937	449.19
458.157	451.19
458.377	471.19
458.598	483.19
458.818	527.19
459.038	566.19
459.258	596.19
459.478	535.19
459.698	515.19
459.918	517.19
460.138	539.19
460.358	566.19
460.578	564.19
460.798	569.19
461.018	550.19
461.238	544.19
461.458	559.19
461.678	554.19
461.898	567.19
462.118	559.19
462.338	580.19
462.558	595.19
462.777	609.19
462.997	647.19
463.217	672.19
463.437	678.19
463.657	634.19
463.876	624.19
464.096	632.19
464.316	624.19
464.536	635.19
464.755	599.19
464.975	582.19
465.195	617.19
465.414	640.19
465.634	558.19
465.854	551.19
466.073	545.19
466.293	500.19
466.512	507.19
466.732	473.19
466.951	495.19
467.171	515.19
467.391	488.19
467.61	489.19
467.829	497.19
468.049	501.19
468.268	500.19
468.488	492.19
468.707	466.19
468.927	496.19
469.146	500.19
469.365	487.19
469.585	465.19
469.804	471.19
470.023	493.19
470.243	509.19
470.462	498.19
470.681	526.19
470.901	518.19
471.12	517.19
471.339	502.19
471.558	496.19
471.777	496.19
471.997	473.19
472.216	489.19
472.435	518.19
472.654	500.19
472.873	454.19
473.092	467.19
473.311	481.19
473.53	484.19
473.749	482.19
473.968	473.19
474.187	545.19
474.406	559.19
474.625	500.19
474.844	511.19
475.063	455.19
475.282	488.19
475.501	500.19
475.72	481.19
475.939	485.19
476.158	511.19
476.377	494.19
476.596	501.19
476.814	505.19
477.033	501.19
477.252	506.19
477.471	525.19
477.69	522.19
477.908	520.19
478.127	557.19
478.346	542.19
478.564	559.19
478.783	557.19
479.002	559.19
479.22	582.19
479.439	564.19
479.658	576.19
479.876	597.19
480.095	608.19
480.313	614.19
480.532	594.19
480.751	603.19
480.969	619.19
481.188	663.19
481.406	646.19
481.624	595.19
481.843	566.19
482.061	545.19
482.28	538.19
482.498	543.19
482.717	550.19
482.935	526.19
483.153	530.19
483.372	537.19
483.59	556.19
483.808	549.19
484.027	545.19
484.245	556.19
484.463	550.19
484.681	569.19
484.9	546.19
485.118	582.19
485.336	551.19
485.554	597.19
485.772	568.19
485.99	580.19
486.209	560.19
486.427	563.19
486.645	594.19
486.863	610.19
487.081	584.19
487.299	589.19
487.517	570.19
487.735	570.19
487.953	591.19
488.171	598.19
488.389	569.19
488.607	583.19
488.825	598.19
489.043	574.19
489.261	592.19
489.479	586.19
489.696	563.19
489.914	591.19
490.132	599.19
490.35	596.19
490.568	630.19
490.786	625.19
491.003	635.19
491.221	632.19
491.439	647.19
491.657	653.19
491.874	679.19
492.092	666.19
492.31	672.19
492.527	642.19
492.745	650.19
492.963	663.19
493.18	671.19
493.398	681.19
493.615	676.19
493.833	700.19
494.05	659.19
494.268	666.19
494.485	689.19
494.703	695.19
494.92	649.19
495.138	677.19
495.355	697.19
495.573	684.19
495.79	663.19
496.008	646.19
496.225	663.19
496.442	688.19
496.66	688.19
496.877	689.19
497.094	680.19
497.312	715.19
497.529	694.19
497.746	713.19
497.963	750.19
498.181	752.19
498.398	773.19
498.615	810.19
498.832	802.19
499.049	849.19
499.267	908.19
499.484	956.19
499.701	1033.19
499.918	1092.19
500.135	1182.19
500.352	1290.19
500.569	1335.19
500.786	1338.19
501.003	1248.19
501.22	1161.19
501.437	1127.19
501.654	1035.19
501.871	994.19
