Data from 1960PennyLincolnUp.LampE5.5.200Scan.07172019.P1.ChangedAngle_HRD10591_13-14-37-821.txt Node
Date: Thu Jul 18 13:14:37 EDT 2019
User: cochatt
Spectrometer: HR+D1059
Trigger mode: 1
Integration Time (sec): 1.000000E-1
Scans to average: 1
Electric dark correction enabled: true
Nonlinearity correction enabled: false
Boxcar width: 0
XAxis mode: Wavelengths
Number of Pixels in Spectrum: 2048
>>>>>Begin Spectral Data<<<<<
223.165	-25.25
223.4	-25.25
223.635	-25.25
223.869	-8.25
224.104	-18.25
224.338	-16.25
224.573	-11.25
224.808	-11.25
225.042	-15.25
225.277	-5.25
225.511	-11.25
225.746	-8.25
225.98	9.75
226.215	19.75
226.449	28.75
226.683	21.75
226.918	29.75
227.152	20.75
227.387	23.75
227.621	36.75
227.856	31.75
228.09	54.75
228.324	46.75
228.559	60.75
228.793	71.75
229.027	90.75
229.262	98.75
229.496	92.75
229.73	85.75
229.964	106.75
230.199	105.75
230.433	120.75
230.667	104.75
230.901	82.75
231.136	104.75
231.37	110.75
231.604	108.75
231.838	111.75
232.072	96.75
232.306	108.75
232.541	105.75
232.775	111.75
233.009	111.75
233.243	110.75
233.477	96.75
233.711	109.75
233.945	87.75
234.179	110.75
234.413	114.75
234.647	116.75
234.881	110.75
235.115	106.75
235.349	108.75
235.583	111.75
235.817	122.75
236.051	82.75
236.285	129.75
236.519	100.75
236.753	108.75
236.987	123.75
237.221	140.75
237.455	168.75
237.689	141.75
237.922	124.75
238.156	116.75
238.39	114.75
238.624	111.75
238.858	120.75
239.091	128.75
239.325	118.75
239.559	118.75
239.793	121.75
240.027	110.75
240.26	121.75
240.494	136.75
240.728	114.75
240.961	120.75
241.195	118.75
241.429	126.75
241.662	122.75
241.896	124.75
242.13	118.75
242.363	129.75
242.597	112.75
242.83	128.75
243.064	134.75
243.298	118.75
243.531	126.75
243.765	149.75
243.998	141.75
244.232	131.75
244.465	134.75
244.699	142.75
244.932	127.75
245.166	141.75
245.399	134.75
245.633	145.75
245.866	127.75
246.099	118.75
246.333	127.75
246.566	131.75
246.8	147.75
247.033	147.75
247.266	132.75
247.5	150.75
247.733	157.75
247.966	153.75
248.2	139.75
248.433	154.75
248.666	146.75
248.899	167.75
249.133	156.75
249.366	166.75
249.599	164.75
249.832	153.75
250.066	178.75
250.299	170.75
250.532	147.75
250.765	164.75
250.998	190.75
251.231	187.75
251.465	171.75
251.698	170.75
251.931	185.75
252.164	172.75
252.397	172.75
252.63	175.75
252.863	181.75
253.096	172.75
253.329	199.75
253.562	195.75
253.795	202.75
254.028	183.75
254.261	182.75
254.494	199.75
254.727	200.75
254.96	207.75
255.193	224.75
255.426	197.75
255.659	200.75
255.892	202.75
256.124	198.75
256.357	202.75
256.59	194.75
256.823	175.75
257.056	190.75
257.289	186.75
257.521	198.75
257.754	203.75
257.987	182.75
258.22	187.75
258.452	184.75
258.685	179.75
258.918	173.75
259.151	185.75
259.383	197.75
259.616	192.75
259.849	205.75
260.081	198.75
260.314	210.75
260.547	233.75
260.779	207.75
261.012	203.75
261.244	185.75
261.477	211.75
261.71	208.75
261.942	203.75
262.175	178.75
262.407	200.75
262.64	195.75
262.872	184.75
263.105	194.75
263.337	198.75
263.57	196.75
263.802	192.75
264.035	192.75
264.267	195.75
264.499	196.75
264.732	196.75
264.964	205.75
265.197	189.75
265.429	204.75
265.661	205.75
265.894	197.75
266.126	178.75
266.358	196.75
266.591	206.75
266.823	202.75
267.055	213.75
267.287	226.75
267.52	206.75
267.752	198.75
267.984	205.75
268.216	214.75
268.448	214.75
268.681	220.75
268.913	215.75
269.145	226.75
269.377	239.75
269.609	249.75
269.841	237.75
270.073	234.75
270.306	251.75
270.538	262.75
270.77	260.75
271.002	251.75
271.234	253.75
271.466	254.75
271.698	241.75
271.93	240.75
272.162	264.75
272.394	252.75
272.626	262.75
272.858	254.75
273.09	253.75
273.322	235.75
273.553	232.75
273.785	253.75
274.017	238.75
274.249	229.75
274.481	237.75
274.713	255.75
274.945	248.75
275.176	238.75
275.408	215.75
275.64	242.75
275.872	221.75
276.104	234.75
276.335	249.75
276.567	257.75
276.799	257.75
277.031	252.75
277.262	271.75
277.494	258.75
277.726	262.75
277.957	260.75
278.189	260.75
278.421	243.75
278.652	247.75
278.884	256.75
279.115	243.75
279.347	261.75
279.579	252.75
279.81	258.75
280.042	259.75
280.273	245.75
280.505	253.75
280.736	257.75
280.968	264.75
281.199	243.75
281.431	246.75
281.662	248.75
281.894	253.75
282.125	270.75
282.356	264.75
282.588	261.75
282.819	264.75
283.051	252.75
283.282	255.75
283.513	263.75
283.745	246.75
283.976	261.75
284.207	272.75
284.439	274.75
284.67	264.75
284.901	248.75
285.132	278.75
285.364	257.75
285.595	267.75
285.826	265.75
286.057	280.75
286.288	271.75
286.52	254.75
286.751	272.75
286.982	253.75
287.213	258.75
287.444	282.75
287.675	273.75
287.906	268.75
288.138	283.75
288.369	277.75
288.6	282.75
288.831	291.75
289.062	280.75
289.293	279.75
289.524	293.75
289.755	279.75
289.986	296.75
290.217	279.75
290.448	279.75
290.679	282.75
290.91	264.75
291.141	273.75
291.371	273.75
291.602	268.75
291.833	263.75
292.064	285.75
292.295	286.75
292.526	267.75
292.757	260.75
292.987	263.75
293.218	275.75
293.449	269.75
293.68	291.75
293.91	270.75
294.141	279.75
294.372	257.75
294.603	278.75
294.833	291.75
295.064	284.75
295.295	278.75
295.525	283.75
295.756	292.75
295.987	278.75
296.217	285.75
296.448	294.75
296.679	264.75
296.909	283.75
297.14	266.75
297.37	266.75
297.601	281.75
297.831	279.75
298.062	280.75
298.292	294.75
298.523	290.75
298.753	299.75
298.984	284.75
299.214	294.75
299.445	296.75
299.675	268.75
299.905	294.75
300.136	305.75
300.366	291.75
300.597	291.75
300.827	296.75
301.057	296.75
301.288	303.75
301.518	300.75
301.748	282.75
301.979	320.75
302.209	302.75
302.439	301.75
302.669	299.75
302.9	304.75
303.13	303.75
303.36	325.75
303.59	303.75
303.82	309.75
304.051	310.75
304.281	313.75
304.511	297.75
304.741	317.75
304.971	308.75
305.201	291.75
305.431	305.75
305.661	310.75
305.891	317.75
306.121	315.75
306.352	302.75
306.582	308.75
306.812	303.75
307.042	292.75
307.272	310.75
307.502	307.75
307.731	326.75
307.961	323.75
308.191	304.75
308.421	316.75
308.651	320.75
308.881	317.75
309.111	322.75
309.341	304.75
309.571	328.75
309.8	328.75
310.03	328.75
310.26	339.75
310.49	332.75
310.72	339.75
310.949	348.75
311.179	343.75
311.409	344.75
311.639	328.75
311.868	327.75
312.098	336.75
312.328	361.75
312.557	362.75
312.787	347.75
313.017	352.75
313.246	330.75
313.476	352.75
313.706	320.75
313.935	334.75
314.165	356.75
314.394	348.75
314.624	350.75
314.853	350.75
315.083	352.75
315.312	342.75
315.542	357.75
315.771	342.75
316.001	370.75
316.23	366.75
316.46	330.75
316.689	330.75
316.919	345.75
317.148	347.75
317.377	360.75
317.607	341.75
317.836	344.75
318.065	345.75
318.295	336.75
318.524	340.75
318.753	340.75
318.983	332.75
319.212	358.75
319.441	366.75
319.67	371.75
319.9	340.75
320.129	343.75
320.358	372.75
320.587	351.75
320.816	351.75
321.046	360.75
321.275	354.75
321.504	366.75
321.733	356.75
321.962	350.75
322.191	391.75
322.42	380.75
322.649	390.75
322.878	385.75
323.108	396.75
323.337	391.75
323.566	407.75
323.795	443.75
324.024	439.75
324.253	529.75
324.482	683.75
324.71	955.75
324.939	1262.75
325.168	1094.75
325.397	631.75
325.626	489.75
325.855	436.75
326.084	431.75
326.313	434.75
326.542	414.75
326.77	440.75
326.999	498.75
327.228	632.75
327.457	860.75
327.686	976.75
327.914	690.75
328.143	530.75
328.372	463.75
328.6	458.75
328.829	430.75
329.058	435.75
329.287	468.75
329.515	429.75
329.744	448.75
329.972	431.75
330.201	419.75
330.43	451.75
330.658	478.75
330.887	445.75
331.115	439.75
331.344	407.75
331.572	417.75
331.801	421.75
332.03	419.75
332.258	402.75
332.486	422.75
332.715	401.75
332.943	402.75
333.172	397.75
333.4	398.75
333.629	410.75
333.857	436.75
334.085	440.75
334.314	439.75
334.542	468.75
334.771	484.75
334.999	428.75
335.227	422.75
335.455	437.75
335.684	409.75
335.912	402.75
336.14	384.75
336.369	395.75
336.597	419.75
336.825	409.75
337.053	402.75
337.281	392.75
337.51	392.75
337.738	397.75
337.966	406.75
338.194	392.75
338.422	399.75
338.65	380.75
338.878	397.75
339.106	396.75
339.334	379.75
339.562	368.75
339.79	363.75
340.018	372.75
340.246	375.75
340.474	396.75
340.702	376.75
340.93	384.75
341.158	388.75
341.386	370.75
341.614	367.75
341.842	378.75
342.07	368.75
342.298	375.75
342.526	394.75
342.754	383.75
342.981	384.75
343.209	388.75
343.437	377.75
343.665	368.75
343.893	406.75
344.12	391.75
344.348	394.75
344.576	388.75
344.804	388.75
345.031	391.75
345.259	392.75
345.487	376.75
345.714	378.75
345.942	367.75
346.17	388.75
346.397	357.75
346.625	380.75
346.853	372.75
347.08	364.75
347.308	375.75
347.535	359.75
347.763	359.75
347.99	374.75
348.218	370.75
348.445	365.75
348.673	360.75
348.9	347.75
349.128	359.75
349.355	354.75
349.583	371.75
349.81	368.75
350.037	341.75
350.265	359.75
350.492	357.75
350.72	358.75
350.947	355.75
351.174	363.75
351.402	388.75
351.629	366.75
351.856	355.75
352.083	358.75
352.311	373.75
352.538	364.75
352.765	382.75
352.992	347.75
353.22	355.75
353.447	351.75
353.674	357.75
353.901	349.75
354.128	354.75
354.355	347.75
354.583	348.75
354.81	316.75
355.037	342.75
355.264	328.75
355.491	354.75
355.718	338.75
355.945	348.75
356.172	339.75
356.399	331.75
356.626	344.75
356.853	350.75
357.08	360.75
357.307	362.75
357.534	356.75
357.761	351.75
357.988	341.75
358.215	339.75
358.441	337.75
358.668	341.75
358.895	346.75
359.122	340.75
359.349	338.75
359.576	359.75
359.802	356.75
360.029	364.75
360.256	380.75
360.483	374.75
360.709	354.75
360.936	359.75
361.163	366.75
361.39	332.75
361.616	343.75
361.843	347.75
362.07	358.75
362.296	344.75
362.523	359.75
362.749	352.75
362.976	346.75
363.203	333.75
363.429	348.75
363.656	346.75
363.882	339.75
364.109	340.75
364.335	339.75
364.562	341.75
364.788	338.75
365.015	335.75
365.241	344.75
365.468	364.75
365.694	356.75
365.92	333.75
366.147	358.75
366.373	337.75
366.599	346.75
366.826	347.75
367.052	321.75
367.278	350.75
367.505	322.75
367.731	346.75
367.957	315.75
368.184	328.75
368.41	324.75
368.636	342.75
368.862	367.75
369.089	358.75
369.315	335.75
369.541	354.75
369.767	351.75
369.993	331.75
370.219	341.75
370.445	325.75
370.672	329.75
370.898	365.75
371.124	355.75
371.35	334.75
371.576	344.75
371.802	334.75
372.028	341.75
372.254	336.75
372.48	360.75
372.706	354.75
372.932	350.75
373.158	353.75
373.384	342.75
373.61	353.75
373.835	337.75
374.061	341.75
374.287	334.75
374.513	348.75
374.739	339.75
374.965	344.75
375.191	361.75
375.416	360.75
375.642	363.75
375.868	356.75
376.094	341.75
376.319	343.75
376.545	331.75
376.771	351.75
376.997	354.75
377.222	330.75
377.448	346.75
377.674	344.75
377.899	331.75
378.125	317.75
378.35	306.75
378.576	335.75
378.802	351.75
379.027	334.75
379.253	331.75
379.478	314.75
379.704	320.75
379.929	343.75
380.155	322.75
380.38	349.75
380.606	337.75
380.831	348.75
381.057	334.75
381.282	328.75
381.507	333.75
381.733	325.75
381.958	333.75
382.184	325.75
382.409	340.75
382.634	337.75
382.86	326.75
383.085	341.75
383.31	343.75
383.535	352.75
383.761	355.75
383.986	329.75
384.211	352.75
384.436	351.75
384.662	342.75
384.887	365.75
385.112	357.75
385.337	348.75
385.562	359.75
385.787	364.75
386.013	363.75
386.238	364.75
386.463	359.75
386.688	388.75
386.913	381.75
387.138	352.75
387.363	376.75
387.588	368.75
387.813	368.75
388.038	367.75
388.263	371.75
388.488	356.75
388.713	366.75
388.938	376.75
389.163	373.75
389.387	380.75
389.612	350.75
389.837	357.75
390.062	360.75
390.287	350.75
390.512	365.75
390.736	354.75
390.961	365.75
391.186	377.75
391.411	382.75
391.636	383.75
391.86	377.75
392.085	382.75
392.31	356.75
392.534	366.75
392.759	373.75
392.984	367.75
393.208	362.75
393.433	378.75
393.658	368.75
393.882	351.75
394.107	370.75
394.331	338.75
394.556	376.75
394.78	372.75
395.005	346.75
395.229	361.75
395.454	392.75
395.678	383.75
395.903	388.75
396.127	403.75
396.352	398.75
396.576	371.75
396.801	371.75
397.025	365.75
397.249	359.75
397.474	393.75
397.698	380.75
397.922	405.75
398.147	392.75
398.371	410.75
398.595	399.75
398.82	394.75
399.044	414.75
399.268	450.75
399.492	435.75
399.717	473.75
399.941	483.75
400.165	513.75
400.389	492.75
400.613	446.75
400.837	432.75
401.062	422.75
401.286	449.75
401.51	425.75
401.734	412.75
401.958	410.75
402.182	419.75
402.406	398.75
402.63	416.75
402.854	418.75
403.078	403.75
403.302	416.75
403.526	420.75
403.75	429.75
403.974	422.75
404.198	417.75
404.422	421.75
404.645	411.75
404.869	418.75
405.093	432.75
405.317	459.75
405.541	479.75
405.765	454.75
405.988	422.75
406.212	454.75
406.436	446.75
406.66	466.75
406.883	426.75
407.107	466.75
407.331	482.75
407.555	525.75
407.778	520.75
408.002	481.75
408.226	456.75
408.449	452.75
408.673	444.75
408.896	466.75
409.12	495.75
409.344	458.75
409.567	441.75
409.791	434.75
410.014	422.75
410.238	414.75
410.461	433.75
410.685	418.75
410.908	436.75
411.132	442.75
411.355	440.75
411.578	443.75
411.802	421.75
412.025	406.75
412.249	429.75
412.472	451.75
412.695	451.75
412.919	456.75
413.142	447.75
413.365	425.75
413.589	399.75
413.812	415.75
414.035	383.75
414.258	390.75
414.482	401.75
414.705	380.75
414.928	396.75
415.151	399.75
415.374	391.75
415.597	374.75
415.821	368.75
416.044	380.75
416.267	385.75
416.49	390.75
416.713	391.75
416.936	397.75
417.159	365.75
417.382	392.75
417.605	394.75
417.828	390.75
418.051	408.75
418.274	404.75
418.497	378.75
418.72	396.75
418.943	409.75
419.166	399.75
419.389	424.75
419.611	399.75
419.834	403.75
420.057	414.75
420.28	408.75
420.503	397.75
420.726	386.75
420.948	391.75
421.171	427.75
421.394	452.75
421.617	407.75
421.839	398.75
422.062	399.75
422.285	415.75
422.507	437.75
422.73	482.75
422.953	478.75
423.175	423.75
423.398	418.75
423.621	397.75
423.843	442.75
424.066	422.75
424.288	413.75
424.511	424.75
424.733	475.75
424.956	508.75
425.178	495.75
425.401	462.75
425.623	492.75
425.846	427.75
426.068	408.75
426.291	414.75
426.513	429.75
426.735	423.75
426.958	458.75
427.18	487.75
427.402	560.75
427.625	602.75
427.847	505.75
428.069	468.75
428.292	438.75
428.514	404.75
428.736	383.75
428.958	387.75
429.181	391.75
429.403	404.75
429.625	391.75
429.847	397.75
430.069	447.75
430.292	446.75
430.514	403.75
430.736	384.75
430.958	382.75
431.18	367.75
431.402	382.75
431.624	363.75
431.846	358.75
432.068	366.75
432.29	380.75
432.512	377.75
432.734	376.75
432.956	372.75
433.178	362.75
433.4	375.75
433.622	378.75
433.844	370.75
434.066	371.75
434.287	351.75
434.509	381.75
434.731	376.75
434.953	404.75
435.175	385.75
435.397	431.75
435.618	402.75
435.84	430.75
436.062	483.75
436.284	519.75
436.505	440.75
436.727	415.75
436.949	382.75
437.17	375.75
437.392	396.75
437.614	399.75
437.835	389.75
438.057	465.75
438.278	512.75
438.5	526.75
438.721	570.75
438.943	543.75
439.165	444.75
439.386	430.75
439.608	424.75
439.829	375.75
440.05	413.75
440.272	426.75
440.493	420.75
440.715	390.75
440.936	375.75
441.158	398.75
441.379	388.75
441.6	394.75
441.822	424.75
442.043	405.75
442.264	468.75
442.486	502.75
442.707	441.75
442.928	438.75
443.149	417.75
443.371	440.75
443.592	458.75
443.813	516.75
444.034	551.75
444.255	461.75
444.476	437.75
444.698	418.75
444.919	428.75
445.14	518.75
445.361	491.75
445.582	455.75
445.803	458.75
446.024	509.75
446.245	518.75
446.466	462.75
446.687	424.75
446.908	394.75
447.129	366.75
447.35	399.75
447.571	388.75
447.792	360.75
448.013	390.75
448.234	384.75
448.455	426.75
448.675	466.75
448.896	541.75
449.117	505.75
449.338	461.75
449.559	523.75
449.779	568.75
450	472.75
450.221	410.75
450.442	383.75
450.662	368.75
450.883	372.75
451.104	367.75
451.324	376.75
451.545	357.75
451.766	361.75
451.986	346.75
452.207	343.75
452.428	331.75
452.648	345.75
452.869	334.75
453.089	328.75
453.31	347.75
453.53	352.75
453.751	354.75
453.971	323.75
454.192	348.75
454.412	346.75
454.633	338.75
454.853	320.75
455.073	339.75
455.294	360.75
455.514	400.75
455.734	395.75
455.955	362.75
456.175	348.75
456.395	330.75
456.616	342.75
456.836	335.75
457.056	324.75
457.276	320.75
457.497	338.75
457.717	339.75
457.937	344.75
458.157	343.75
458.377	325.75
458.598	346.75
458.818	380.75
459.038	414.75
459.258	434.75
459.478	396.75
459.698	387.75
459.918	368.75
460.138	371.75
460.358	358.75
460.578	378.75
460.798	391.75
461.018	370.75
461.238	372.75
461.458	391.75
461.678	366.75
461.898	396.75
462.118	378.75
462.338	396.75
462.558	395.75
462.777	401.75
462.997	398.75
463.217	386.75
463.437	417.75
463.657	405.75
463.876	409.75
464.096	402.75
464.316	395.75
464.536	396.75
464.755	389.75
464.975	390.75
465.195	418.75
465.414	468.75
465.634	396.75
465.854	376.75
466.073	366.75
466.293	349.75
466.512	351.75
466.732	359.75
466.951	354.75
467.171	346.75
467.391	356.75
467.61	362.75
467.829	361.75
468.049	355.75
468.268	372.75
468.488	348.75
468.707	364.75
468.927	348.75
469.146	344.75
469.365	358.75
469.585	356.75
469.804	350.75
470.023	358.75
470.243	341.75
470.462	358.75
470.681	373.75
470.901	359.75
471.12	360.75
471.339	351.75
471.558	366.75
471.777	356.75
471.997	361.75
472.216	372.75
472.435	397.75
472.654	372.75
472.873	365.75
473.092	338.75
473.311	349.75
473.53	366.75
473.749	358.75
473.968	397.75
474.187	439.75
474.406	430.75
474.625	390.75
474.844	398.75
475.063	366.75
475.282	362.75
475.501	384.75
475.72	371.75
475.939	380.75
476.158	352.75
476.377	364.75
476.596	391.75
476.814	372.75
477.033	387.75
477.252	363.75
477.471	376.75
477.69	377.75
477.908	387.75
478.127	400.75
478.346	419.75
478.564	403.75
478.783	433.75
479.002	414.75
479.22	411.75
479.439	427.75
479.658	412.75
479.876	404.75
480.095	432.75
480.313	450.75
480.532	441.75
480.751	447.75
480.969	442.75
481.188	463.75
481.406	470.75
481.624	452.75
481.843	433.75
482.061	438.75
482.28	427.75
482.498	403.75
482.717	406.75
482.935	412.75
483.153	419.75
483.372	414.75
483.59	431.75
483.808	425.75
484.027	430.75
484.245	410.75
484.463	425.75
484.681	435.75
484.9	424.75
485.118	427.75
485.336	412.75
485.554	420.75
485.772	439.75
485.99	447.75
486.209	439.75
486.427	425.75
486.645	444.75
486.863	448.75
487.081	444.75
487.299	462.75
487.517	453.75
487.735	423.75
487.953	447.75
488.171	448.75
488.389	431.75
488.607	429.75
488.825	438.75
489.043	451.75
489.261	440.75
489.479	434.75
489.696	448.75
489.914	449.75
490.132	441.75
490.35	439.75
490.568	436.75
490.786	463.75
491.003	445.75
491.221	469.75
491.439	480.75
491.657	498.75
491.874	478.75
492.092	475.75
492.31	490.75
492.527	480.75
492.745	486.75
492.963	487.75
493.18	484.75
493.398	508.75
493.615	500.75
493.833	485.75
494.05	492.75
494.268	516.75
494.485	508.75
494.703	493.75
494.92	488.75
495.138	500.75
495.355	514.75
495.573	517.75
495.79	484.75
496.008	518.75
496.225	510.75
496.442	484.75
496.66	495.75
496.877	522.75
497.094	534.75
497.312	543.75
497.529	522.75
497.746	553.75
497.963	555.75
498.181	557.75
498.398	576.75
498.615	568.75
498.832	577.75
499.049	598.75
499.267	592.75
499.484	634.75
499.701	666.75
499.918	652.75
500.135	710.75
500.352	709.75
500.569	727.75
500.786	730.75
501.003	731.75
501.22	704.75
501.437	691.75
501.654	650.75
501.871	631.75
