Data from 1960PennyLincolnUp.LampE6.200Scan.07172019.P1_HRD10591_13-05-16-001.txt Node
Date: Thu Jul 18 13:05:16 EDT 2019
User: cochatt
Spectrometer: HR+D1059
Trigger mode: 1
Integration Time (sec): 1.000000E-1
Scans to average: 1
Electric dark correction enabled: true
Nonlinearity correction enabled: false
Boxcar width: 0
XAxis mode: Wavelengths
Number of Pixels in Spectrum: 2048
>>>>>Begin Spectral Data<<<<<
223.165	0.75
223.4	0.75
223.635	0.75
223.869	-7.25
224.104	-27.25
224.338	-22.25
224.573	-16.25
224.808	-13.25
225.042	-6.25
225.277	-9.25
225.511	-6.25
225.746	2.75
225.98	4.75
226.215	8.75
226.449	16.75
226.683	17.75
226.918	27.75
227.152	28.75
227.387	42.75
227.621	24.75
227.856	42.75
228.09	46.75
228.324	63.75
228.559	49.75
228.793	59.75
229.027	90.75
229.262	97.75
229.496	92.75
229.73	108.75
229.964	117.75
230.199	110.75
230.433	90.75
230.667	96.75
230.901	104.75
231.136	111.75
231.37	110.75
231.604	112.75
231.838	93.75
232.072	112.75
232.306	121.75
232.541	112.75
232.775	124.75
233.009	114.75
233.243	110.75
233.477	119.75
233.711	117.75
233.945	112.75
234.179	100.75
234.413	115.75
234.647	119.75
234.881	104.75
235.115	103.75
235.349	120.75
235.583	107.75
235.817	109.75
236.051	114.75
236.285	113.75
236.519	114.75
236.753	115.75
236.987	107.75
237.221	127.75
237.455	152.75
237.689	134.75
237.922	115.75
238.156	120.75
238.39	126.75
238.624	99.75
238.858	122.75
239.091	114.75
239.325	119.75
239.559	123.75
239.793	105.75
240.027	115.75
240.26	138.75
240.494	122.75
240.728	133.75
240.961	130.75
241.195	121.75
241.429	138.75
241.662	118.75
241.896	135.75
242.13	134.75
242.363	118.75
242.597	125.75
242.83	124.75
243.064	131.75
243.298	126.75
243.531	128.75
243.765	139.75
243.998	135.75
244.232	140.75
244.465	136.75
244.699	137.75
244.932	124.75
245.166	135.75
245.399	138.75
245.633	126.75
245.866	136.75
246.099	146.75
246.333	136.75
246.566	142.75
246.8	138.75
247.033	152.75
247.266	148.75
247.5	165.75
247.733	154.75
247.966	147.75
248.2	159.75
248.433	146.75
248.666	147.75
248.899	169.75
249.133	153.75
249.366	172.75
249.599	160.75
249.832	158.75
250.066	163.75
250.299	149.75
250.532	156.75
250.765	178.75
250.998	189.75
251.231	186.75
251.465	178.75
251.698	182.75
251.931	169.75
252.164	170.75
252.397	169.75
252.63	188.75
252.863	183.75
253.096	183.75
253.329	177.75
253.562	177.75
253.795	178.75
254.028	192.75
254.261	201.75
254.494	193.75
254.727	206.75
254.96	226.75
255.193	206.75
255.426	174.75
255.659	180.75
255.892	191.75
256.124	197.75
256.357	206.75
256.59	182.75
256.823	203.75
257.056	174.75
257.289	179.75
257.521	180.75
257.754	178.75
257.987	196.75
258.22	182.75
258.452	188.75
258.685	183.75
258.918	183.75
259.151	176.75
259.383	170.75
259.616	190.75
259.849	194.75
260.081	208.75
260.314	203.75
260.547	214.75
260.779	197.75
261.012	199.75
261.244	201.75
261.477	203.75
261.71	179.75
261.942	185.75
262.175	208.75
262.407	199.75
262.64	171.75
262.872	190.75
263.105	195.75
263.337	188.75
263.57	210.75
263.802	187.75
264.035	192.75
264.267	187.75
264.499	187.75
264.732	199.75
264.964	188.75
265.197	197.75
265.429	195.75
265.661	187.75
265.894	179.75
266.126	205.75
266.358	208.75
266.591	205.75
266.823	208.75
267.055	213.75
267.287	218.75
267.52	205.75
267.752	191.75
267.984	206.75
268.216	218.75
268.448	192.75
268.681	203.75
268.913	230.75
269.145	225.75
269.377	232.75
269.609	229.75
269.841	252.75
270.073	226.75
270.306	232.75
270.538	240.75
270.77	245.75
271.002	249.75
271.234	244.75
271.466	258.75
271.698	256.75
271.93	248.75
272.162	254.75
272.394	255.75
272.626	245.75
272.858	243.75
273.09	233.75
273.322	248.75
273.553	232.75
273.785	227.75
274.017	244.75
274.249	245.75
274.481	259.75
274.713	253.75
274.945	231.75
275.176	243.75
275.408	245.75
275.64	250.75
275.872	238.75
276.104	241.75
276.335	250.75
276.567	255.75
276.799	235.75
277.031	260.75
277.262	283.75
277.494	276.75
277.726	274.75
277.957	250.75
278.189	249.75
278.421	254.75
278.652	252.75
278.884	245.75
279.115	243.75
279.347	242.75
279.579	265.75
279.81	261.75
280.042	252.75
280.273	258.75
280.505	264.75
280.736	249.75
280.968	251.75
281.199	264.75
281.431	259.75
281.662	256.75
281.894	267.75
282.125	255.75
282.356	257.75
282.588	274.75
282.819	264.75
283.051	269.75
283.282	273.75
283.513	252.75
283.745	272.75
283.976	273.75
284.207	279.75
284.439	299.75
284.67	264.75
284.901	272.75
285.132	283.75
285.364	273.75
285.595	272.75
285.826	273.75
286.057	283.75
286.288	278.75
286.52	285.75
286.751	281.75
286.982	260.75
287.213	291.75
287.444	267.75
287.675	290.75
287.906	293.75
288.138	294.75
288.369	302.75
288.6	282.75
288.831	287.75
289.062	287.75
289.293	268.75
289.524	286.75
289.755	295.75
289.986	284.75
290.217	292.75
290.448	282.75
290.679	281.75
290.91	268.75
291.141	281.75
291.371	282.75
291.602	293.75
291.833	288.75
292.064	297.75
292.295	281.75
292.526	274.75
292.757	278.75
292.987	301.75
293.218	281.75
293.449	291.75
293.68	275.75
293.91	303.75
294.141	311.75
294.372	286.75
294.603	298.75
294.833	286.75
295.064	282.75
295.295	287.75
295.525	278.75
295.756	287.75
295.987	290.75
296.217	315.75
296.448	310.75
296.679	303.75
296.909	292.75
297.14	293.75
297.37	288.75
297.601	298.75
297.831	306.75
298.062	296.75
298.292	293.75
298.523	304.75
298.753	319.75
298.984	314.75
299.214	315.75
299.445	316.75
299.675	321.75
299.905	303.75
300.136	299.75
300.366	303.75
300.597	316.75
300.827	333.75
301.057	321.75
301.288	320.75
301.518	322.75
301.748	337.75
301.979	342.75
302.209	324.75
302.439	323.75
302.669	315.75
302.9	321.75
303.13	335.75
303.36	327.75
303.59	350.75
303.82	331.75
304.051	330.75
304.281	330.75
304.511	315.75
304.741	326.75
304.971	326.75
305.201	321.75
305.431	336.75
305.661	334.75
305.891	328.75
306.121	323.75
306.352	337.75
306.582	322.75
306.812	317.75
307.042	333.75
307.272	326.75
307.502	322.75
307.731	329.75
307.961	326.75
308.191	305.75
308.421	323.75
308.651	317.75
308.881	326.75
309.111	323.75
309.341	323.75
309.571	329.75
309.8	341.75
310.03	336.75
310.26	337.75
310.49	338.75
310.72	345.75
310.949	363.75
311.179	350.75
311.409	348.75
311.639	351.75
311.868	347.75
312.098	344.75
312.328	354.75
312.557	371.75
312.787	354.75
313.017	364.75
313.246	355.75
313.476	343.75
313.706	360.75
313.935	356.75
314.165	321.75
314.394	356.75
314.624	366.75
314.853	346.75
315.083	351.75
315.312	358.75
315.542	350.75
315.771	340.75
316.001	341.75
316.23	338.75
316.46	345.75
316.689	340.75
316.919	354.75
317.148	340.75
317.377	381.75
317.607	350.75
317.836	370.75
318.065	355.75
318.295	356.75
318.524	341.75
318.753	352.75
318.983	353.75
319.212	346.75
319.441	340.75
319.67	356.75
319.9	364.75
320.129	346.75
320.358	338.75
320.587	368.75
320.816	358.75
321.046	384.75
321.275	377.75
321.504	366.75
321.733	379.75
321.962	372.75
322.191	346.75
322.42	358.75
322.649	379.75
322.878	386.75
323.108	358.75
323.337	390.75
323.566	396.75
323.795	441.75
324.024	434.75
324.253	470.75
324.482	599.75
324.71	831.75
324.939	1034.75
325.168	878.75
325.397	520.75
325.626	422.75
325.855	410.75
326.084	394.75
326.313	398.75
326.542	406.75
326.77	442.75
326.999	452.75
327.228	575.75
327.457	724.75
327.686	846.75
327.914	594.75
328.143	475.75
328.372	448.75
328.6	441.75
328.829	424.75
329.058	429.75
329.287	433.75
329.515	446.75
329.744	427.75
329.972	427.75
330.201	422.75
330.43	478.75
330.658	437.75
330.887	441.75
331.115	451.75
331.344	438.75
331.572	405.75
331.801	430.75
332.03	440.75
332.258	439.75
332.486	447.75
332.715	436.75
332.943	467.75
333.172	455.75
333.4	458.75
333.629	480.75
333.857	492.75
334.085	487.75
334.314	494.75
334.542	491.75
334.771	514.75
334.999	487.75
335.227	473.75
335.455	441.75
335.684	455.75
335.912	441.75
336.14	464.75
336.369	450.75
336.597	461.75
336.825	446.75
337.053	434.75
337.281	446.75
337.51	426.75
337.738	434.75
337.966	416.75
338.194	441.75
338.422	428.75
338.65	410.75
338.878	414.75
339.106	402.75
339.334	434.75
339.562	404.75
339.79	403.75
340.018	420.75
340.246	407.75
340.474	406.75
340.702	415.75
340.93	414.75
341.158	422.75
341.386	406.75
341.614	386.75
341.842	413.75
342.07	401.75
342.298	412.75
342.526	412.75
342.754	417.75
342.981	418.75
343.209	431.75
343.437	410.75
343.665	435.75
343.893	454.75
344.12	444.75
344.348	464.75
344.576	435.75
344.804	418.75
345.031	434.75
345.259	395.75
345.487	423.75
345.714	431.75
345.942	411.75
346.17	401.75
346.397	394.75
346.625	394.75
346.853	406.75
347.08	391.75
347.308	410.75
347.535	400.75
347.763	386.75
347.99	395.75
348.218	390.75
348.445	381.75
348.673	409.75
348.9	394.75
349.128	373.75
349.355	369.75
349.583	380.75
349.81	385.75
350.037	396.75
350.265	388.75
350.492	365.75
350.72	386.75
350.947	363.75
351.174	368.75
351.402	384.75
351.629	383.75
351.856	402.75
352.083	389.75
352.311	408.75
352.538	386.75
352.765	395.75
352.992	381.75
353.22	398.75
353.447	359.75
353.674	385.75
353.901	382.75
354.128	391.75
354.355	376.75
354.583	366.75
354.81	374.75
355.037	375.75
355.264	379.75
355.491	395.75
355.718	374.75
355.945	384.75
356.172	392.75
356.399	380.75
356.626	405.75
356.853	375.75
357.08	372.75
357.307	376.75
357.534	388.75
357.761	375.75
357.988	375.75
358.215	387.75
358.441	388.75
358.668	392.75
358.895	382.75
359.122	372.75
359.349	380.75
359.576	410.75
359.802	379.75
360.029	377.75
360.256	418.75
360.483	384.75
360.709	383.75
360.936	396.75
361.163	392.75
361.39	395.75
361.616	415.75
361.843	398.75
362.07	379.75
362.296	390.75
362.523	397.75
362.749	386.75
362.976	377.75
363.203	388.75
363.429	382.75
363.656	399.75
363.882	383.75
364.109	369.75
364.335	372.75
364.562	383.75
364.788	368.75
365.015	388.75
365.241	378.75
365.468	384.75
365.694	370.75
365.92	374.75
366.147	370.75
366.373	393.75
366.599	379.75
366.826	394.75
367.052	339.75
367.278	381.75
367.505	359.75
367.731	390.75
367.957	393.75
368.184	395.75
368.41	385.75
368.636	392.75
368.862	398.75
369.089	386.75
369.315	384.75
369.541	389.75
369.767	393.75
369.993	389.75
370.219	383.75
370.445	386.75
370.672	390.75
370.898	395.75
371.124	416.75
371.35	397.75
371.576	398.75
371.802	407.75
372.028	396.75
372.254	407.75
372.48	417.75
372.706	402.75
372.932	411.75
373.158	392.75
373.384	401.75
373.61	416.75
373.835	407.75
374.061	398.75
374.287	411.75
374.513	407.75
374.739	430.75
374.965	425.75
375.191	446.75
375.416	419.75
375.642	417.75
375.868	433.75
376.094	398.75
376.319	389.75
376.545	417.75
376.771	412.75
376.997	407.75
377.222	405.75
377.448	419.75
377.674	385.75
377.899	394.75
378.125	391.75
378.35	411.75
378.576	399.75
378.802	387.75
379.027	395.75
379.253	394.75
379.478	397.75
379.704	406.75
379.929	404.75
380.155	396.75
380.38	402.75
380.606	410.75
380.831	396.75
381.057	396.75
381.282	403.75
381.507	406.75
381.733	412.75
381.958	411.75
382.184	418.75
382.409	401.75
382.634	429.75
382.86	422.75
383.085	404.75
383.31	425.75
383.535	427.75
383.761	419.75
383.986	425.75
384.211	436.75
384.436	450.75
384.662	435.75
384.887	454.75
385.112	441.75
385.337	449.75
385.562	489.75
385.787	464.75
386.013	476.75
386.238	473.75
386.463	464.75
386.688	471.75
386.913	456.75
387.138	450.75
387.363	456.75
387.588	448.75
387.813	456.75
388.038	450.75
388.263	456.75
388.488	444.75
388.713	444.75
388.938	457.75
389.163	457.75
389.387	455.75
389.612	475.75
389.837	446.75
390.062	463.75
390.287	461.75
390.512	439.75
390.736	469.75
390.961	482.75
391.186	458.75
391.411	465.75
391.636	483.75
391.86	498.75
392.085	492.75
392.31	488.75
392.534	487.75
392.759	505.75
392.984	479.75
393.208	503.75
393.433	495.75
393.658	500.75
393.882	479.75
394.107	463.75
394.331	457.75
394.556	474.75
394.78	483.75
395.005	480.75
395.229	483.75
395.454	498.75
395.678	504.75
395.903	496.75
396.127	503.75
396.352	507.75
396.576	476.75
396.801	470.75
397.025	478.75
397.249	500.75
397.474	499.75
397.698	494.75
397.922	502.75
398.147	506.75
398.371	513.75
398.595	525.75
398.82	530.75
399.044	551.75
399.268	592.75
399.492	660.75
399.717	731.75
399.941	735.75
400.165	706.75
400.389	674.75
400.613	607.75
400.837	586.75
401.062	532.75
401.286	545.75
401.51	551.75
401.734	547.75
401.958	560.75
402.182	546.75
402.406	571.75
402.63	541.75
402.854	576.75
403.078	577.75
403.302	584.75
403.526	554.75
403.75	594.75
403.974	603.75
404.198	588.75
404.422	614.75
404.645	615.75
404.869	569.75
405.093	592.75
405.317	622.75
405.541	626.75
405.765	610.75
405.988	594.75
406.212	572.75
406.436	583.75
406.66	621.75
406.883	612.75
407.107	616.75
407.331	667.75
407.555	699.75
407.778	718.75
408.002	678.75
408.226	648.75
408.449	630.75
408.673	608.75
408.896	607.75
409.12	599.75
409.344	595.75
409.567	579.75
409.791	582.75
410.014	575.75
410.238	571.75
410.461	576.75
410.685	568.75
410.908	574.75
411.132	588.75
411.355	629.75
411.578	576.75
411.802	576.75
412.025	537.75
412.249	571.75
412.472	580.75
412.695	608.75
412.919	571.75
413.142	567.75
413.365	539.75
413.589	552.75
413.812	532.75
414.035	521.75
414.258	559.75
414.482	515.75
414.705	530.75
414.928	539.75
415.151	551.75
415.374	535.75
415.597	530.75
415.821	523.75
416.044	522.75
416.267	512.75
416.49	498.75
416.713	503.75
416.936	522.75
417.159	512.75
417.382	508.75
417.605	520.75
417.828	540.75
418.051	547.75
418.274	531.75
418.497	535.75
418.72	548.75
418.943	554.75
419.166	546.75
419.389	596.75
419.611	575.75
419.834	557.75
420.057	579.75
420.28	551.75
420.503	545.75
420.726	549.75
420.948	534.75
421.171	556.75
421.394	589.75
421.617	548.75
421.839	546.75
422.062	542.75
422.285	561.75
422.507	583.75
422.73	619.75
422.953	586.75
423.175	567.75
423.398	554.75
423.621	556.75
423.843	571.75
424.066	573.75
424.288	586.75
424.511	575.75
424.733	583.75
424.956	634.75
425.178	604.75
425.401	614.75
425.623	630.75
425.846	570.75
426.068	562.75
426.291	542.75
426.513	528.75
426.735	524.75
426.958	542.75
427.18	598.75
427.402	627.75
427.625	681.75
427.847	609.75
428.069	579.75
428.292	548.75
428.514	514.75
428.736	484.75
428.958	502.75
429.181	487.75
429.403	492.75
429.625	500.75
429.847	516.75
430.069	548.75
430.292	545.75
430.514	499.75
430.736	503.75
430.958	490.75
431.18	483.75
431.402	481.75
431.624	476.75
431.846	475.75
432.068	470.75
432.29	488.75
432.512	484.75
432.734	479.75
432.956	482.75
433.178	484.75
433.4	503.75
433.622	505.75
433.844	492.75
434.066	482.75
434.287	470.75
434.509	490.75
434.731	506.75
434.953	547.75
435.175	563.75
435.397	552.75
435.618	517.75
435.84	535.75
436.062	570.75
436.284	583.75
436.505	558.75
436.727	530.75
436.949	485.75
437.17	487.75
437.392	488.75
437.614	497.75
437.835	483.75
438.057	548.75
438.278	579.75
438.5	603.75
438.721	612.75
438.943	600.75
439.165	514.75
439.386	514.75
439.608	535.75
439.829	490.75
440.05	537.75
440.272	536.75
440.493	500.75
440.715	514.75
440.936	511.75
441.158	514.75
441.379	504.75
441.6	522.75
441.822	526.75
442.043	547.75
442.264	607.75
442.486	592.75
442.707	555.75
442.928	555.75
443.149	542.75
443.371	555.75
443.592	567.75
443.813	609.75
444.034	642.75
444.255	582.75
444.476	588.75
444.698	582.75
444.919	596.75
445.14	682.75
445.361	596.75
445.582	575.75
445.803	583.75
446.024	603.75
446.245	607.75
446.466	584.75
446.687	512.75
446.908	512.75
447.129	502.75
447.35	502.75
447.571	496.75
447.792	474.75
448.013	476.75
448.234	444.75
448.455	478.75
448.675	535.75
448.896	613.75
449.117	537.75
449.338	515.75
449.559	605.75
449.779	627.75
450	510.75
450.221	462.75
450.442	459.75
450.662	463.75
450.883	475.75
451.104	481.75
451.324	444.75
451.545	435.75
451.766	460.75
451.986	443.75
452.207	432.75
452.428	417.75
452.648	416.75
452.869	453.75
453.089	441.75
453.31	445.75
453.53	438.75
453.751	441.75
453.971	440.75
454.192	435.75
454.412	422.75
454.633	439.75
454.853	436.75
455.073	415.75
455.294	424.75
455.514	470.75
455.734	450.75
455.955	443.75
456.175	440.75
456.395	410.75
456.616	412.75
456.836	397.75
457.056	399.75
457.276	408.75
457.497	434.75
457.717	427.75
457.937	436.75
458.157	446.75
458.377	421.75
458.598	444.75
458.818	474.75
459.038	504.75
459.258	511.75
459.478	494.75
459.698	480.75
459.918	483.75
460.138	518.75
460.358	536.75
460.578	525.75
460.798	521.75
461.018	522.75
461.238	508.75
461.458	523.75
461.678	531.75
461.898	522.75
462.118	540.75
462.338	554.75
462.558	573.75
462.777	567.75
462.997	584.75
463.217	641.75
463.437	663.75
463.657	606.75
463.876	556.75
464.096	576.75
464.316	572.75
464.536	590.75
464.755	578.75
464.975	561.75
465.195	565.75
465.414	555.75
465.634	515.75
465.854	498.75
466.073	490.75
466.293	476.75
466.512	462.75
466.732	456.75
466.951	430.75
467.171	439.75
467.391	466.75
467.61	455.75
467.829	462.75
468.049	445.75
468.268	455.75
468.488	457.75
468.707	449.75
468.927	442.75
469.146	456.75
469.365	453.75
469.585	454.75
469.804	438.75
470.023	447.75
470.243	479.75
470.462	458.75
470.681	474.75
470.901	472.75
471.12	463.75
471.339	466.75
471.558	445.75
471.777	466.75
471.997	452.75
472.216	476.75
472.435	463.75
472.654	441.75
472.873	444.75
473.092	431.75
473.311	448.75
473.53	438.75
473.749	442.75
473.968	456.75
474.187	489.75
474.406	492.75
474.625	458.75
474.844	453.75
475.063	438.75
475.282	444.75
475.501	429.75
475.72	452.75
475.939	456.75
476.158	437.75
476.377	460.75
476.596	464.75
476.814	479.75
477.033	465.75
477.252	474.75
477.471	456.75
477.69	501.75
477.908	508.75
478.127	502.75
478.346	523.75
478.564	525.75
478.783	523.75
479.002	531.75
479.22	533.75
479.439	532.75
479.658	534.75
479.876	539.75
480.095	543.75
480.313	582.75
480.532	585.75
480.751	587.75
480.969	560.75
481.188	590.75
481.406	594.75
481.624	550.75
481.843	533.75
482.061	530.75
482.28	487.75
482.498	510.75
482.717	498.75
482.935	487.75
483.153	514.75
483.372	503.75
483.59	515.75
483.808	532.75
484.027	531.75
484.245	513.75
484.463	487.75
484.681	519.75
484.9	523.75
485.118	522.75
485.336	536.75
485.554	536.75
485.772	557.75
485.99	526.75
486.209	517.75
486.427	551.75
486.645	533.75
486.863	537.75
487.081	534.75
487.299	546.75
487.517	515.75
487.735	544.75
487.953	564.75
488.171	566.75
488.389	542.75
488.607	529.75
488.825	542.75
489.043	525.75
489.261	543.75
489.479	563.75
489.696	557.75
489.914	563.75
490.132	570.75
490.35	556.75
490.568	545.75
490.786	544.75
491.003	582.75
491.221	583.75
491.439	594.75
491.657	592.75
491.874	591.75
492.092	582.75
492.31	614.75
492.527	598.75
492.745	616.75
492.963	618.75
493.18	635.75
493.398	632.75
493.615	610.75
493.833	616.75
494.05	613.75
494.268	622.75
494.485	624.75
494.703	631.75
494.92	599.75
495.138	602.75
495.355	628.75
495.573	632.75
495.79	628.75
496.008	607.75
496.225	637.75
496.442	614.75
496.66	638.75
496.877	617.75
497.094	596.75
497.312	634.75
497.529	666.75
497.746	657.75
497.963	662.75
498.181	667.75
498.398	722.75
498.615	725.75
498.832	789.75
499.049	798.75
499.267	850.75
499.484	910.75
499.701	938.75
499.918	1017.75
500.135	1118.75
500.352	1233.75
500.569	1254.75
500.786	1246.75
501.003	1186.75
501.22	1118.75
501.437	1032.75
501.654	948.75
501.871	903.75
502.088	838.75
