Data from 1960PennyLincolnUp.LampE5.5.200Scan.07172019.P1.ChangedAngle_HRD10591_13-15-00-822.txt Node
Date: Thu Jul 18 13:15:00 EDT 2019
User: cochatt
Spectrometer: HR+D1059
Trigger mode: 1
Integration Time (sec): 1.000000E-1
Scans to average: 1
Electric dark correction enabled: true
Nonlinearity correction enabled: false
Boxcar width: 0
XAxis mode: Wavelengths
Number of Pixels in Spectrum: 2048
>>>>>Begin Spectral Data<<<<<
223.165	-34.62
223.4	-34.62
223.635	-34.62
223.869	-16.62
224.104	-14.62
224.338	-5.62
224.573	-4.62
224.808	3.38
225.042	-15.62
225.277	-21.62
225.511	5.38
225.746	13.38
225.98	16.38
226.215	3.38
226.449	25.38
226.683	14.38
226.918	14.38
227.152	17.38
227.387	30.38
227.621	45.38
227.856	48.38
228.09	43.38
228.324	45.38
228.559	59.38
228.793	63.38
229.027	86.38
229.262	93.38
229.496	96.38
229.73	107.38
229.964	146.38
230.199	99.38
230.433	106.38
230.667	109.38
230.901	97.38
231.136	109.38
231.37	104.38
231.604	105.38
231.838	93.38
232.072	104.38
232.306	89.38
232.541	121.38
232.775	102.38
233.009	91.38
233.243	111.38
233.477	104.38
233.711	103.38
233.945	125.38
234.179	104.38
234.413	116.38
234.647	125.38
234.881	114.38
235.115	110.38
235.349	110.38
235.583	109.38
235.817	108.38
236.051	110.38
236.285	122.38
236.519	125.38
236.753	114.38
236.987	127.38
237.221	145.38
237.455	176.38
237.689	152.38
237.922	126.38
238.156	123.38
238.39	114.38
238.624	111.38
238.858	101.38
239.091	113.38
239.325	115.38
239.559	100.38
239.793	115.38
240.027	113.38
240.26	122.38
240.494	127.38
240.728	120.38
240.961	135.38
241.195	131.38
241.429	132.38
241.662	111.38
241.896	131.38
242.13	137.38
242.363	125.38
242.597	118.38
242.83	117.38
243.064	128.38
243.298	118.38
243.531	137.38
243.765	134.38
243.998	124.38
244.232	134.38
244.465	134.38
244.699	144.38
244.932	141.38
245.166	150.38
245.399	144.38
245.633	138.38
245.866	136.38
246.099	139.38
246.333	126.38
246.566	142.38
246.8	124.38
247.033	142.38
247.266	153.38
247.5	142.38
247.733	147.38
247.966	155.38
248.2	158.38
248.433	166.38
248.666	154.38
248.899	154.38
249.133	158.38
249.366	187.38
249.599	162.38
249.832	167.38
250.066	158.38
250.299	155.38
250.532	158.38
250.765	176.38
250.998	169.38
251.231	187.38
251.465	193.38
251.698	181.38
251.931	160.38
252.164	185.38
252.397	166.38
252.63	170.38
252.863	184.38
253.096	190.38
253.329	197.38
253.562	180.38
253.795	177.38
254.028	184.38
254.261	191.38
254.494	201.38
254.727	203.38
254.96	223.38
255.193	213.38
255.426	204.38
255.659	209.38
255.892	214.38
256.124	202.38
256.357	191.38
256.59	182.38
256.823	205.38
257.056	185.38
257.289	188.38
257.521	190.38
257.754	201.38
257.987	189.38
258.22	184.38
258.452	191.38
258.685	193.38
258.918	193.38
259.151	190.38
259.383	207.38
259.616	193.38
259.849	189.38
260.081	220.38
260.314	222.38
260.547	229.38
260.779	228.38
261.012	230.38
261.244	199.38
261.477	200.38
261.71	195.38
261.942	200.38
262.175	214.38
262.407	204.38
262.64	205.38
262.872	201.38
263.105	201.38
263.337	190.38
263.57	206.38
263.802	190.38
264.035	180.38
264.267	200.38
264.499	206.38
264.732	204.38
264.964	202.38
265.197	200.38
265.429	204.38
265.661	207.38
265.894	196.38
266.126	215.38
266.358	218.38
266.591	216.38
266.823	224.38
267.055	214.38
267.287	207.38
267.52	203.38
267.752	209.38
267.984	206.38
268.216	223.38
268.448	211.38
268.681	221.38
268.913	223.38
269.145	218.38
269.377	247.38
269.609	222.38
269.841	236.38
270.073	237.38
270.306	236.38
270.538	250.38
270.77	273.38
271.002	257.38
271.234	253.38
271.466	253.38
271.698	257.38
271.93	268.38
272.162	268.38
272.394	261.38
272.626	270.38
272.858	246.38
273.09	249.38
273.322	243.38
273.553	248.38
273.785	248.38
274.017	253.38
274.249	252.38
274.481	236.38
274.713	248.38
274.945	242.38
275.176	262.38
275.408	241.38
275.64	231.38
275.872	243.38
276.104	243.38
276.335	262.38
276.567	254.38
276.799	259.38
277.031	277.38
277.262	256.38
277.494	271.38
277.726	282.38
277.957	258.38
278.189	253.38
278.421	253.38
278.652	260.38
278.884	253.38
279.115	259.38
279.347	234.38
279.579	250.38
279.81	258.38
280.042	262.38
280.273	264.38
280.505	248.38
280.736	267.38
280.968	247.38
281.199	258.38
281.431	257.38
281.662	256.38
281.894	262.38
282.125	251.38
282.356	265.38
282.588	278.38
282.819	289.38
283.051	288.38
283.282	264.38
283.513	258.38
283.745	258.38
283.976	245.38
284.207	266.38
284.439	268.38
284.67	248.38
284.901	246.38
285.132	282.38
285.364	276.38
285.595	276.38
285.826	258.38
286.057	271.38
286.288	276.38
286.52	273.38
286.751	282.38
286.982	270.38
287.213	259.38
287.444	282.38
287.675	307.38
287.906	279.38
288.138	277.38
288.369	276.38
288.6	276.38
288.831	285.38
289.062	289.38
289.293	276.38
289.524	288.38
289.755	284.38
289.986	259.38
290.217	268.38
290.448	275.38
290.679	271.38
290.91	270.38
291.141	272.38
291.371	271.38
291.602	291.38
291.833	271.38
292.064	297.38
292.295	279.38
292.526	282.38
292.757	280.38
292.987	290.38
293.218	273.38
293.449	290.38
293.68	276.38
293.91	285.38
294.141	282.38
294.372	270.38
294.603	279.38
294.833	290.38
295.064	304.38
295.295	276.38
295.525	284.38
295.756	282.38
295.987	281.38
296.217	289.38
296.448	321.38
296.679	287.38
296.909	314.38
297.14	292.38
297.37	288.38
297.601	301.38
297.831	301.38
298.062	283.38
298.292	299.38
298.523	294.38
298.753	298.38
298.984	307.38
299.214	306.38
299.445	297.38
299.675	303.38
299.905	310.38
300.136	305.38
300.366	301.38
300.597	306.38
300.827	312.38
301.057	315.38
301.288	314.38
301.518	296.38
301.748	305.38
301.979	310.38
302.209	319.38
302.439	316.38
302.669	314.38
302.9	314.38
303.13	318.38
303.36	324.38
303.59	318.38
303.82	300.38
304.051	321.38
304.281	322.38
304.511	325.38
304.741	302.38
304.971	288.38
305.201	310.38
305.431	308.38
305.661	333.38
305.891	311.38
306.121	320.38
306.352	323.38
306.582	326.38
306.812	299.38
307.042	302.38
307.272	318.38
307.502	332.38
307.731	311.38
307.961	322.38
308.191	324.38
308.421	317.38
308.651	334.38
308.881	315.38
309.111	325.38
309.341	315.38
309.571	330.38
309.8	345.38
310.03	329.38
310.26	344.38
310.49	344.38
310.72	344.38
310.949	350.38
311.179	372.38
311.409	362.38
311.639	332.38
311.868	346.38
312.098	351.38
312.328	374.38
312.557	366.38
312.787	363.38
313.017	378.38
313.246	366.38
313.476	354.38
313.706	354.38
313.935	348.38
314.165	354.38
314.394	375.38
314.624	368.38
314.853	353.38
315.083	363.38
315.312	348.38
315.542	348.38
315.771	361.38
316.001	363.38
316.23	350.38
316.46	349.38
316.689	362.38
316.919	362.38
317.148	343.38
317.377	366.38
317.607	348.38
317.836	348.38
318.065	342.38
318.295	351.38
318.524	358.38
318.753	351.38
318.983	349.38
319.212	366.38
319.441	361.38
319.67	356.38
319.9	374.38
320.129	365.38
320.358	354.38
320.587	364.38
320.816	354.38
321.046	360.38
321.275	377.38
321.504	383.38
321.733	376.38
321.962	361.38
322.191	366.38
322.42	375.38
322.649	397.38
322.878	405.38
323.108	401.38
323.337	422.38
323.566	421.38
323.795	445.38
324.024	466.38
324.253	526.38
324.482	729.38
324.71	1021.38
324.939	1359.38
325.168	1164.38
325.397	662.38
325.626	518.38
325.855	436.38
326.084	421.38
326.313	429.38
326.542	420.38
326.77	468.38
326.999	542.38
327.228	656.38
327.457	890.38
327.686	1022.38
327.914	728.38
328.143	571.38
328.372	486.38
328.6	459.38
328.829	457.38
329.058	470.38
329.287	461.38
329.515	459.38
329.744	437.38
329.972	427.38
330.201	456.38
330.43	455.38
330.658	464.38
330.887	471.38
331.115	476.38
331.344	445.38
331.572	434.38
331.801	434.38
332.03	413.38
332.258	433.38
332.486	408.38
332.715	410.38
332.943	394.38
333.172	431.38
333.4	431.38
333.629	441.38
333.857	437.38
334.085	452.38
334.314	446.38
334.542	463.38
334.771	480.38
334.999	437.38
335.227	425.38
335.455	442.38
335.684	412.38
335.912	410.38
336.14	432.38
336.369	425.38
336.597	442.38
336.825	428.38
337.053	414.38
337.281	391.38
337.51	407.38
337.738	401.38
337.966	413.38
338.194	397.38
338.422	371.38
338.65	413.38
338.878	402.38
339.106	390.38
339.334	405.38
339.562	405.38
339.79	399.38
340.018	403.38
340.246	400.38
340.474	383.38
340.702	391.38
340.93	397.38
341.158	406.38
341.386	384.38
341.614	378.38
341.842	373.38
342.07	364.38
342.298	385.38
342.526	393.38
342.754	403.38
342.981	375.38
343.209	379.38
343.437	377.38
343.665	383.38
343.893	412.38
344.12	423.38
344.348	372.38
344.576	395.38
344.804	412.38
345.031	382.38
345.259	396.38
345.487	410.38
345.714	400.38
345.942	387.38
346.17	391.38
346.397	383.38
346.625	364.38
346.853	390.38
347.08	368.38
347.308	366.38
347.535	380.38
347.763	409.38
347.99	374.38
348.218	383.38
348.445	365.38
348.673	366.38
348.9	373.38
349.128	368.38
349.355	354.38
349.583	359.38
349.81	364.38
350.037	372.38
350.265	368.38
350.492	368.38
350.72	374.38
350.947	358.38
351.174	372.38
351.402	371.38
351.629	370.38
351.856	370.38
352.083	379.38
352.311	364.38
352.538	375.38
352.765	367.38
352.992	377.38
353.22	382.38
353.447	368.38
353.674	370.38
353.901	353.38
354.128	349.38
354.355	350.38
354.583	381.38
354.81	348.38
355.037	359.38
355.264	362.38
355.491	365.38
355.718	354.38
355.945	364.38
356.172	360.38
356.399	353.38
356.626	356.38
356.853	336.38
357.08	340.38
357.307	348.38
357.534	345.38
357.761	345.38
357.988	360.38
358.215	328.38
358.441	354.38
358.668	363.38
358.895	353.38
359.122	353.38
359.349	369.38
359.576	386.38
359.802	368.38
360.029	381.38
360.256	386.38
360.483	370.38
360.709	375.38
360.936	364.38
361.163	381.38
361.39	368.38
361.616	365.38
361.843	360.38
362.07	345.38
362.296	368.38
362.523	346.38
362.749	358.38
362.976	324.38
363.203	340.38
363.429	356.38
363.656	339.38
363.882	340.38
364.109	357.38
364.335	346.38
364.562	357.38
364.788	350.38
365.015	361.38
365.241	339.38
365.468	333.38
365.694	367.38
365.92	378.38
366.147	349.38
366.373	362.38
366.599	340.38
366.826	351.38
367.052	366.38
367.278	334.38
367.505	341.38
367.731	353.38
367.957	369.38
368.184	362.38
368.41	347.38
368.636	362.38
368.862	364.38
369.089	363.38
369.315	359.38
369.541	341.38
369.767	366.38
369.993	360.38
370.219	344.38
370.445	358.38
370.672	358.38
370.898	349.38
371.124	346.38
371.35	334.38
371.576	340.38
371.802	353.38
372.028	342.38
372.254	375.38
372.48	354.38
372.706	368.38
372.932	348.38
373.158	362.38
373.384	362.38
373.61	358.38
373.835	362.38
374.061	343.38
374.287	351.38
374.513	356.38
374.739	361.38
374.965	330.38
375.191	349.38
375.416	360.38
375.642	360.38
375.868	357.38
376.094	352.38
376.319	353.38
376.545	336.38
376.771	330.38
376.997	343.38
377.222	333.38
377.448	348.38
377.674	356.38
377.899	342.38
378.125	345.38
378.35	349.38
378.576	326.38
378.802	341.38
379.027	359.38
379.253	353.38
379.478	338.38
379.704	338.38
379.929	349.38
380.155	344.38
380.38	340.38
380.606	353.38
380.831	348.38
381.057	365.38
381.282	341.38
381.507	360.38
381.733	350.38
381.958	356.38
382.184	352.38
382.409	349.38
382.634	352.38
382.86	348.38
383.085	357.38
383.31	364.38
383.535	352.38
383.761	343.38
383.986	349.38
384.211	346.38
384.436	368.38
384.662	352.38
384.887	359.38
385.112	360.38
385.337	367.38
385.562	384.38
385.787	367.38
386.013	402.38
386.238	361.38
386.463	399.38
386.688	375.38
386.913	373.38
387.138	390.38
387.363	375.38
387.588	367.38
387.813	367.38
388.038	360.38
388.263	386.38
388.488	382.38
388.713	365.38
388.938	357.38
389.163	360.38
389.387	353.38
389.612	369.38
389.837	370.38
390.062	377.38
390.287	353.38
390.512	376.38
390.736	362.38
390.961	365.38
391.186	384.38
391.411	366.38
391.636	372.38
391.86	392.38
392.085	398.38
392.31	393.38
392.534	374.38
392.759	388.38
392.984	372.38
393.208	343.38
393.433	392.38
393.658	388.38
393.882	374.38
394.107	359.38
394.331	378.38
394.556	358.38
394.78	369.38
395.005	383.38
395.229	380.38
395.454	367.38
395.678	384.38
395.903	399.38
396.127	400.38
396.352	398.38
396.576	388.38
396.801	392.38
397.025	384.38
397.249	400.38
397.474	397.38
397.698	409.38
397.922	395.38
398.147	402.38
398.371	416.38
398.595	416.38
398.82	414.38
399.044	409.38
399.268	438.38
399.492	450.38
399.717	475.38
399.941	493.38
400.165	488.38
400.389	489.38
400.613	478.38
400.837	452.38
401.062	438.38
401.286	437.38
401.51	401.38
401.734	390.38
401.958	424.38
402.182	412.38
402.406	420.38
402.63	416.38
402.854	410.38
403.078	416.38
403.302	413.38
403.526	430.38
403.75	432.38
403.974	430.38
404.198	412.38
404.422	440.38
404.645	441.38
404.869	431.38
405.093	458.38
405.317	475.38
405.541	479.38
405.765	465.38
405.988	418.38
406.212	443.38
406.436	436.38
406.66	465.38
406.883	462.38
407.107	447.38
407.331	502.38
407.555	532.38
407.778	529.38
408.002	495.38
408.226	469.38
408.449	468.38
408.673	463.38
408.896	477.38
409.12	471.38
409.344	473.38
409.567	450.38
409.791	429.38
410.014	428.38
410.238	428.38
410.461	443.38
410.685	428.38
410.908	441.38
411.132	468.38
411.355	478.38
411.578	466.38
411.802	423.38
412.025	434.38
412.249	421.38
412.472	458.38
412.695	453.38
412.919	443.38
413.142	424.38
413.365	430.38
413.589	409.38
413.812	407.38
414.035	421.38
414.258	404.38
414.482	409.38
414.705	400.38
414.928	406.38
415.151	385.38
415.374	396.38
415.597	387.38
415.821	387.38
416.044	400.38
416.267	401.38
416.49	393.38
416.713	394.38
416.936	391.38
417.159	397.38
417.382	383.38
417.605	409.38
417.828	410.38
418.051	422.38
418.274	396.38
418.497	383.38
418.72	399.38
418.943	375.38
419.166	399.38
419.389	428.38
419.611	427.38
419.834	420.38
420.057	401.38
420.28	420.38
420.503	412.38
420.726	436.38
420.948	401.38
421.171	429.38
421.394	452.38
421.617	414.38
421.839	400.38
422.062	421.38
422.285	441.38
422.507	432.38
422.73	491.38
422.953	462.38
423.175	449.38
423.398	428.38
423.621	421.38
423.843	428.38
424.066	430.38
424.288	420.38
424.511	430.38
424.733	473.38
424.956	508.38
425.178	505.38
425.401	496.38
425.623	527.38
425.846	465.38
426.068	434.38
426.291	414.38
426.513	410.38
426.735	439.38
426.958	454.38
427.18	489.38
427.402	572.38
427.625	630.38
427.847	571.38
428.069	495.38
428.292	445.38
428.514	402.38
428.736	413.38
428.958	408.38
429.181	412.38
429.403	392.38
429.625	406.38
429.847	439.38
430.069	465.38
430.292	449.38
430.514	426.38
430.736	383.38
430.958	397.38
431.18	382.38
431.402	379.38
431.624	386.38
431.846	381.38
432.068	378.38
432.29	386.38
432.512	397.38
432.734	391.38
432.956	385.38
433.178	390.38
433.4	378.38
433.622	385.38
433.844	366.38
434.066	375.38
434.287	367.38
434.509	396.38
434.731	374.38
434.953	402.38
435.175	413.38
435.397	402.38
435.618	431.38
435.84	455.38
436.062	505.38
436.284	546.38
436.505	471.38
436.727	431.38
436.949	401.38
437.17	403.38
437.392	414.38
437.614	424.38
437.835	414.38
438.057	460.38
438.278	538.38
438.5	537.38
438.721	579.38
438.943	564.38
439.165	476.38
439.386	424.38
439.608	417.38
439.829	418.38
440.05	423.38
440.272	464.38
440.493	450.38
440.715	440.38
440.936	390.38
441.158	402.38
441.379	389.38
441.6	411.38
441.822	416.38
442.043	424.38
442.264	492.38
442.486	500.38
442.707	448.38
442.928	424.38
443.149	429.38
443.371	448.38
443.592	457.38
443.813	532.38
444.034	559.38
444.255	475.38
444.476	453.38
444.698	426.38
444.919	454.38
445.14	518.38
445.361	509.38
445.582	447.38
445.803	469.38
446.024	538.38
446.245	527.38
446.466	494.38
446.687	430.38
446.908	429.38
447.129	397.38
447.35	392.38
447.571	385.38
447.792	381.38
448.013	402.38
448.234	403.38
448.455	414.38
448.675	519.38
448.896	562.38
449.117	489.38
449.338	450.38
449.559	537.38
449.779	588.38
450	496.38
450.221	406.38
450.442	383.38
450.662	376.38
450.883	385.38
451.104	377.38
451.324	365.38
451.545	373.38
451.766	359.38
451.986	359.38
452.207	353.38
452.428	335.38
452.648	347.38
452.869	344.38
453.089	363.38
453.31	361.38
453.53	348.38
453.751	343.38
453.971	357.38
454.192	341.38
454.412	362.38
454.633	384.38
454.853	330.38
455.073	330.38
455.294	363.38
455.514	403.38
455.734	388.38
455.955	347.38
456.175	323.38
456.395	346.38
456.616	325.38
456.836	337.38
457.056	344.38
457.276	308.38
457.497	337.38
457.717	316.38
457.937	343.38
458.157	344.38
458.377	352.38
458.598	341.38
458.818	395.38
459.038	424.38
459.258	439.38
459.478	390.38
459.698	376.38
459.918	366.38
460.138	351.38
460.358	394.38
460.578	384.38
460.798	381.38
461.018	383.38
461.238	374.38
461.458	388.38
461.678	377.38
461.898	374.38
462.118	368.38
462.338	379.38
462.558	409.38
462.777	402.38
462.997	418.38
463.217	424.38
463.437	446.38
463.657	419.38
463.876	432.38
464.096	410.38
464.316	408.38
464.536	406.38
464.755	413.38
464.975	428.38
465.195	416.38
465.414	455.38
465.634	408.38
465.854	396.38
466.073	378.38
466.293	361.38
466.512	382.38
466.732	365.38
466.951	374.38
467.171	370.38
467.391	372.38
467.61	371.38
467.829	372.38
468.049	367.38
468.268	373.38
468.488	362.38
468.707	351.38
468.927	361.38
469.146	371.38
469.365	366.38
469.585	347.38
469.804	380.38
470.023	384.38
470.243	368.38
470.462	346.38
470.681	374.38
470.901	362.38
471.12	362.38
471.339	389.38
471.558	347.38
471.777	362.38
471.997	366.38
472.216	366.38
472.435	382.38
472.654	393.38
472.873	384.38
473.092	357.38
473.311	367.38
473.53	370.38
473.749	378.38
473.968	411.38
474.187	454.38
474.406	476.38
474.625	423.38
474.844	378.38
475.063	384.38
475.282	358.38
475.501	372.38
475.72	374.38
475.939	376.38
476.158	396.38
476.377	380.38
476.596	382.38
476.814	395.38
477.033	383.38
477.252	384.38
477.471	406.38
477.69	387.38
477.908	414.38
478.127	407.38
478.346	395.38
478.564	400.38
478.783	404.38
479.002	422.38
479.22	415.38
479.439	420.38
479.658	433.38
479.876	436.38
480.095	451.38
480.313	449.38
480.532	454.38
480.751	449.38
480.969	440.38
481.188	474.38
481.406	478.38
481.624	448.38
481.843	445.38
482.061	442.38
482.28	433.38
482.498	409.38
482.717	427.38
482.935	417.38
483.153	414.38
483.372	426.38
483.59	424.38
483.808	424.38
484.027	428.38
484.245	429.38
484.463	436.38
484.681	454.38
484.9	431.38
485.118	426.38
485.336	425.38
485.554	432.38
485.772	417.38
485.99	433.38
486.209	448.38
486.427	439.38
486.645	443.38
486.863	440.38
487.081	475.38
487.299	466.38
487.517	474.38
487.735	445.38
487.953	438.38
488.171	444.38
488.389	454.38
488.607	458.38
488.825	438.38
489.043	431.38
489.261	441.38
489.479	458.38
489.696	455.38
489.914	468.38
490.132	448.38
490.35	458.38
490.568	440.38
490.786	463.38
491.003	486.38
491.221	451.38
491.439	480.38
491.657	479.38
491.874	490.38
492.092	507.38
492.31	495.38
492.527	491.38
492.745	515.38
492.963	522.38
493.18	508.38
493.398	495.38
493.615	521.38
493.833	524.38
494.05	510.38
494.268	479.38
494.485	491.38
494.703	530.38
494.92	517.38
495.138	515.38
495.355	495.38
495.573	506.38
495.79	523.38
496.008	513.38
496.225	525.38
496.442	538.38
496.66	521.38
496.877	531.38
497.094	537.38
497.312	525.38
497.529	511.38
497.746	539.38
497.963	578.38
498.181	578.38
498.398	575.38
498.615	583.38
498.832	577.38
499.049	600.38
499.267	591.38
499.484	654.38
499.701	667.38
499.918	692.38
500.135	717.38
500.352	729.38
500.569	762.38
500.786	749.38
501.003	748.38
501.22	728.38
501.437	713.38
501.654	688.38
501.871	666.38
