Data from 1960PennyLincolnUp.LampE5.5.200Scan.07172019.P1.ChangedAngle_HRD10591_13-14-09-821.txt Node
Date: Thu Jul 18 13:14:09 EDT 2019
User: cochatt
Spectrometer: HR+D1059
Trigger mode: 1
Integration Time (sec): 1.000000E-1
Scans to average: 1
Electric dark correction enabled: true
Nonlinearity correction enabled: false
Boxcar width: 0
XAxis mode: Wavelengths
Number of Pixels in Spectrum: 2048
>>>>>Begin Spectral Data<<<<<
223.165	-11.19
223.4	-11.19
223.635	-11.19
223.869	-26.19
224.104	-8.19
224.338	-12.19
224.573	-2.19
224.808	-13.19
225.042	-3.19
225.277	-7.19
225.511	3.81
225.746	8.81
225.98	-1.19
226.215	4.81
226.449	1.81
226.683	4.81
226.918	19.81
227.152	40.81
227.387	16.81
227.621	18.81
227.856	46.81
228.09	24.81
228.324	45.81
228.559	51.81
228.793	56.81
229.027	76.81
229.262	71.81
229.496	82.81
229.73	84.81
229.964	98.81
230.199	87.81
230.433	92.81
230.667	87.81
230.901	99.81
231.136	102.81
231.37	96.81
231.604	106.81
231.838	112.81
232.072	105.81
232.306	90.81
232.541	89.81
232.775	104.81
233.009	88.81
233.243	116.81
233.477	94.81
233.711	91.81
233.945	104.81
234.179	97.81
234.413	98.81
234.647	104.81
234.881	90.81
235.115	107.81
235.349	80.81
235.583	97.81
235.817	87.81
236.051	88.81
236.285	104.81
236.519	116.81
236.753	105.81
236.987	108.81
237.221	137.81
237.455	148.81
237.689	131.81
237.922	106.81
238.156	108.81
238.39	96.81
238.624	113.81
238.858	110.81
239.091	105.81
239.325	99.81
239.559	107.81
239.793	104.81
240.027	96.81
240.26	109.81
240.494	115.81
240.728	114.81
240.961	124.81
241.195	119.81
241.429	117.81
241.662	103.81
241.896	128.81
242.13	114.81
242.363	107.81
242.597	114.81
242.83	104.81
243.064	128.81
243.298	107.81
243.531	121.81
243.765	125.81
243.998	117.81
244.232	131.81
244.465	126.81
244.699	122.81
244.932	122.81
245.166	132.81
245.399	138.81
245.633	125.81
245.866	118.81
246.099	120.81
246.333	131.81
246.566	148.81
246.8	138.81
247.033	121.81
247.266	139.81
247.5	140.81
247.733	143.81
247.966	155.81
248.2	145.81
248.433	139.81
248.666	146.81
248.899	139.81
249.133	145.81
249.366	153.81
249.599	153.81
249.832	140.81
250.066	150.81
250.299	151.81
250.532	139.81
250.765	163.81
250.998	160.81
251.231	153.81
251.465	154.81
251.698	167.81
251.931	153.81
252.164	164.81
252.397	142.81
252.63	169.81
252.863	158.81
253.096	181.81
253.329	181.81
253.562	154.81
253.795	177.81
254.028	186.81
254.261	183.81
254.494	163.81
254.727	182.81
254.96	204.81
255.193	186.81
255.426	196.81
255.659	164.81
255.892	173.81
256.124	183.81
256.357	173.81
256.59	171.81
256.823	176.81
257.056	175.81
257.289	163.81
257.521	176.81
257.754	190.81
257.987	170.81
258.22	173.81
258.452	174.81
258.685	175.81
258.918	176.81
259.151	177.81
259.383	175.81
259.616	173.81
259.849	200.81
260.081	175.81
260.314	195.81
260.547	197.81
260.779	188.81
261.012	184.81
261.244	188.81
261.477	187.81
261.71	199.81
261.942	178.81
262.175	183.81
262.407	179.81
262.64	171.81
262.872	177.81
263.105	187.81
263.337	183.81
263.57	188.81
263.802	183.81
264.035	188.81
264.267	175.81
264.499	182.81
264.732	178.81
264.964	191.81
265.197	189.81
265.429	186.81
265.661	181.81
265.894	193.81
266.126	195.81
266.358	186.81
266.591	195.81
266.823	194.81
267.055	199.81
267.287	191.81
267.52	207.81
267.752	195.81
267.984	192.81
268.216	194.81
268.448	192.81
268.681	184.81
268.913	192.81
269.145	202.81
269.377	225.81
269.609	225.81
269.841	222.81
270.073	224.81
270.306	226.81
270.538	253.81
270.77	237.81
271.002	219.81
271.234	215.81
271.466	224.81
271.698	248.81
271.93	241.81
272.162	255.81
272.394	265.81
272.626	241.81
272.858	231.81
273.09	231.81
273.322	206.81
273.553	211.81
273.785	218.81
274.017	228.81
274.249	231.81
274.481	225.81
274.713	217.81
274.945	229.81
275.176	228.81
275.408	217.81
275.64	218.81
275.872	233.81
276.104	239.81
276.335	236.81
276.567	219.81
276.799	237.81
277.031	251.81
277.262	246.81
277.494	256.81
277.726	254.81
277.957	214.81
278.189	256.81
278.421	227.81
278.652	250.81
278.884	223.81
279.115	245.81
279.347	234.81
279.579	248.81
279.81	251.81
280.042	253.81
280.273	240.81
280.505	256.81
280.736	245.81
280.968	240.81
281.199	246.81
281.431	240.81
281.662	238.81
281.894	243.81
282.125	236.81
282.356	262.81
282.588	250.81
282.819	254.81
283.051	253.81
283.282	244.81
283.513	248.81
283.745	246.81
283.976	256.81
284.207	256.81
284.439	243.81
284.67	234.81
284.901	254.81
285.132	252.81
285.364	239.81
285.595	243.81
285.826	247.81
286.057	256.81
286.288	242.81
286.52	246.81
286.751	232.81
286.982	251.81
287.213	252.81
287.444	243.81
287.675	266.81
287.906	254.81
288.138	273.81
288.369	275.81
288.6	255.81
288.831	260.81
289.062	247.81
289.293	269.81
289.524	265.81
289.755	271.81
289.986	250.81
290.217	263.81
290.448	267.81
290.679	278.81
290.91	267.81
291.141	254.81
291.371	258.81
291.602	252.81
291.833	255.81
292.064	258.81
292.295	233.81
292.526	254.81
292.757	263.81
292.987	262.81
293.218	245.81
293.449	266.81
293.68	267.81
293.91	272.81
294.141	258.81
294.372	272.81
294.603	279.81
294.833	270.81
295.064	270.81
295.295	244.81
295.525	263.81
295.756	273.81
295.987	262.81
296.217	269.81
296.448	274.81
296.679	276.81
296.909	262.81
297.14	263.81
297.37	271.81
297.601	258.81
297.831	270.81
298.062	270.81
298.292	268.81
298.523	265.81
298.753	288.81
298.984	271.81
299.214	274.81
299.445	286.81
299.675	286.81
299.905	287.81
300.136	273.81
300.366	292.81
300.597	269.81
300.827	286.81
301.057	267.81
301.288	291.81
301.518	278.81
301.748	299.81
301.979	301.81
302.209	293.81
302.439	279.81
302.669	283.81
302.9	292.81
303.13	291.81
303.36	294.81
303.59	280.81
303.82	296.81
304.051	298.81
304.281	303.81
304.511	302.81
304.741	291.81
304.971	300.81
305.201	276.81
305.431	272.81
305.661	292.81
305.891	290.81
306.121	297.81
306.352	314.81
306.582	322.81
306.812	279.81
307.042	281.81
307.272	291.81
307.502	297.81
307.731	297.81
307.961	287.81
308.191	302.81
308.421	302.81
308.651	297.81
308.881	309.81
309.111	302.81
309.341	299.81
309.571	295.81
309.8	316.81
310.03	308.81
310.26	315.81
310.49	331.81
310.72	319.81
310.949	337.81
311.179	306.81
311.409	329.81
311.639	310.81
311.868	316.81
312.098	323.81
312.328	316.81
312.557	331.81
312.787	334.81
313.017	331.81
313.246	333.81
313.476	320.81
313.706	342.81
313.935	327.81
314.165	315.81
314.394	342.81
314.624	341.81
314.853	338.81
315.083	312.81
315.312	339.81
315.542	326.81
315.771	337.81
316.001	316.81
316.23	311.81
316.46	325.81
316.689	331.81
316.919	326.81
317.148	337.81
317.377	331.81
317.607	320.81
317.836	325.81
318.065	337.81
318.295	320.81
318.524	340.81
318.753	331.81
318.983	328.81
319.212	321.81
319.441	332.81
319.67	328.81
319.9	330.81
320.129	338.81
320.358	313.81
320.587	317.81
320.816	342.81
321.046	330.81
321.275	335.81
321.504	323.81
321.733	359.81
321.962	332.81
322.191	336.81
322.42	356.81
322.649	363.81
322.878	370.81
323.108	368.81
323.337	369.81
323.566	383.81
323.795	394.81
324.024	428.81
324.253	480.81
324.482	612.81
324.71	878.81
324.939	1208.81
325.168	1002.81
325.397	573.81
325.626	436.81
325.855	411.81
326.084	390.81
326.313	392.81
326.542	366.81
326.77	411.81
326.999	443.81
327.228	578.81
327.457	812.81
327.686	905.81
327.914	644.81
328.143	495.81
328.372	438.81
328.6	405.81
328.829	399.81
329.058	401.81
329.287	417.81
329.515	377.81
329.744	378.81
329.972	393.81
330.201	405.81
330.43	416.81
330.658	408.81
330.887	418.81
331.115	425.81
331.344	386.81
331.572	382.81
331.801	363.81
332.03	389.81
332.258	378.81
332.486	360.81
332.715	370.81
332.943	391.81
333.172	384.81
333.4	377.81
333.629	375.81
333.857	386.81
334.085	408.81
334.314	407.81
334.542	410.81
334.771	401.81
334.999	400.81
335.227	405.81
335.455	394.81
335.684	362.81
335.912	371.81
336.14	384.81
336.369	384.81
336.597	384.81
336.825	396.81
337.053	373.81
337.281	364.81
337.51	384.81
337.738	385.81
337.966	371.81
338.194	374.81
338.422	362.81
338.65	371.81
338.878	382.81
339.106	360.81
339.334	347.81
339.562	372.81
339.79	360.81
340.018	376.81
340.246	368.81
340.474	374.81
340.702	369.81
340.93	360.81
341.158	360.81
341.386	350.81
341.614	359.81
341.842	368.81
342.07	377.81
342.298	363.81
342.526	366.81
342.754	352.81
342.981	355.81
343.209	363.81
343.437	350.81
343.665	358.81
343.893	384.81
344.12	376.81
344.348	389.81
344.576	366.81
344.804	381.81
345.031	392.81
345.259	378.81
345.487	379.81
345.714	344.81
345.942	346.81
346.17	345.81
346.397	354.81
346.625	362.81
346.853	360.81
347.08	338.81
347.308	339.81
347.535	346.81
347.763	351.81
347.99	354.81
348.218	362.81
348.445	328.81
348.673	346.81
348.9	330.81
349.128	334.81
349.355	332.81
349.583	334.81
349.81	330.81
350.037	316.81
350.265	330.81
350.492	338.81
350.72	354.81
350.947	344.81
351.174	352.81
351.402	341.81
351.629	339.81
351.856	347.81
352.083	335.81
352.311	338.81
352.538	352.81
352.765	346.81
352.992	342.81
353.22	347.81
353.447	354.81
353.674	321.81
353.901	341.81
354.128	337.81
354.355	337.81
354.583	341.81
354.81	341.81
355.037	314.81
355.264	308.81
355.491	328.81
355.718	313.81
355.945	336.81
356.172	314.81
356.399	315.81
356.626	346.81
356.853	328.81
357.08	361.81
357.307	328.81
357.534	322.81
357.761	329.81
357.988	328.81
358.215	337.81
358.441	340.81
358.668	337.81
358.895	336.81
359.122	326.81
359.349	338.81
359.576	344.81
359.802	344.81
360.029	352.81
360.256	352.81
360.483	346.81
360.709	331.81
360.936	341.81
361.163	321.81
361.39	335.81
361.616	348.81
361.843	341.81
362.07	339.81
362.296	342.81
362.523	339.81
362.749	315.81
362.976	324.81
363.203	316.81
363.429	338.81
363.656	347.81
363.882	338.81
364.109	314.81
364.335	327.81
364.562	334.81
364.788	296.81
365.015	325.81
365.241	314.81
365.468	335.81
365.694	318.81
365.92	321.81
366.147	338.81
366.373	335.81
366.599	328.81
366.826	350.81
367.052	326.81
367.278	326.81
367.505	323.81
367.731	318.81
367.957	342.81
368.184	336.81
368.41	346.81
368.636	336.81
368.862	347.81
369.089	322.81
369.315	324.81
369.541	319.81
369.767	334.81
369.993	329.81
370.219	323.81
370.445	340.81
370.672	332.81
370.898	315.81
371.124	349.81
371.35	323.81
371.576	330.81
371.802	324.81
372.028	313.81
372.254	334.81
372.48	335.81
372.706	330.81
372.932	334.81
373.158	340.81
373.384	346.81
373.61	324.81
373.835	333.81
374.061	322.81
374.287	328.81
374.513	325.81
374.739	344.81
374.965	327.81
375.191	331.81
375.416	348.81
375.642	311.81
375.868	345.81
376.094	328.81
376.319	318.81
376.545	340.81
376.771	338.81
376.997	313.81
377.222	322.81
377.448	310.81
377.674	329.81
377.899	315.81
378.125	321.81
378.35	336.81
378.576	333.81
378.802	326.81
379.027	317.81
379.253	324.81
379.478	330.81
379.704	338.81
379.929	321.81
380.155	318.81
380.38	305.81
380.606	334.81
380.831	327.81
381.057	341.81
381.282	320.81
381.507	322.81
381.733	327.81
381.958	314.81
382.184	334.81
382.409	321.81
382.634	337.81
382.86	348.81
383.085	342.81
383.31	331.81
383.535	361.81
383.761	352.81
383.986	331.81
384.211	348.81
384.436	326.81
384.662	351.81
384.887	353.81
385.112	343.81
385.337	362.81
385.562	370.81
385.787	375.81
386.013	363.81
386.238	366.81
386.463	362.81
386.688	358.81
386.913	351.81
387.138	353.81
387.363	354.81
387.588	365.81
387.813	352.81
388.038	364.81
388.263	367.81
388.488	350.81
388.713	328.81
388.938	338.81
389.163	362.81
389.387	356.81
389.612	343.81
389.837	334.81
390.062	351.81
390.287	342.81
390.512	347.81
390.736	352.81
390.961	338.81
391.186	343.81
391.411	360.81
391.636	362.81
391.86	374.81
392.085	379.81
392.31	374.81
392.534	362.81
392.759	356.81
392.984	377.81
393.208	372.81
393.433	395.81
393.658	397.81
393.882	342.81
394.107	352.81
394.331	368.81
394.556	341.81
394.78	342.81
395.005	363.81
395.229	340.81
395.454	376.81
395.678	378.81
395.903	374.81
396.127	368.81
396.352	384.81
396.576	362.81
396.801	370.81
397.025	394.81
397.249	384.81
397.474	346.81
397.698	366.81
397.922	374.81
398.147	371.81
398.371	366.81
398.595	375.81
398.82	400.81
399.044	381.81
399.268	404.81
399.492	421.81
399.717	458.81
399.941	464.81
400.165	464.81
400.389	471.81
400.613	426.81
400.837	409.81
401.062	412.81
401.286	399.81
401.51	386.81
401.734	394.81
401.958	391.81
402.182	378.81
402.406	400.81
402.63	396.81
402.854	402.81
403.078	378.81
403.302	399.81
403.526	420.81
403.75	405.81
403.974	375.81
404.198	396.81
404.422	397.81
404.645	407.81
404.869	406.81
405.093	410.81
405.317	432.81
405.541	454.81
405.765	426.81
405.988	417.81
406.212	423.81
406.436	437.81
406.66	401.81
406.883	422.81
407.107	446.81
407.331	450.81
407.555	483.81
407.778	480.81
408.002	463.81
408.226	444.81
408.449	420.81
408.673	414.81
408.896	434.81
409.12	452.81
409.344	433.81
409.567	420.81
409.791	409.81
410.014	398.81
410.238	399.81
410.461	405.81
410.685	393.81
410.908	414.81
411.132	422.81
411.355	421.81
411.578	418.81
411.802	416.81
412.025	393.81
412.249	398.81
412.472	416.81
412.695	431.81
412.919	433.81
413.142	382.81
413.365	377.81
413.589	376.81
413.812	385.81
414.035	382.81
414.258	377.81
414.482	376.81
414.705	376.81
414.928	361.81
415.151	387.81
415.374	367.81
415.597	386.81
415.821	392.81
416.044	374.81
416.267	374.81
416.49	391.81
416.713	386.81
416.936	384.81
417.159	368.81
417.382	341.81
417.605	358.81
417.828	380.81
418.051	381.81
418.274	376.81
418.497	393.81
418.72	378.81
418.943	380.81
419.166	396.81
419.389	401.81
419.611	400.81
419.834	403.81
420.057	391.81
420.28	387.81
420.503	374.81
420.726	377.81
420.948	394.81
421.171	407.81
421.394	404.81
421.617	388.81
421.839	372.81
422.062	369.81
422.285	393.81
422.507	421.81
422.73	448.81
422.953	447.81
423.175	397.81
423.398	389.81
423.621	390.81
423.843	394.81
424.066	408.81
424.288	381.81
424.511	410.81
424.733	432.81
424.956	456.81
425.178	444.81
425.401	453.81
425.623	463.81
425.846	407.81
426.068	403.81
426.291	399.81
426.513	388.81
426.735	405.81
426.958	396.81
427.18	462.81
427.402	542.81
427.625	549.81
427.847	513.81
428.069	451.81
428.292	402.81
428.514	392.81
428.736	372.81
428.958	378.81
429.181	389.81
429.403	370.81
429.625	371.81
429.847	391.81
430.069	424.81
430.292	397.81
430.514	376.81
430.736	351.81
430.958	377.81
431.18	345.81
431.402	354.81
431.624	347.81
431.846	354.81
432.068	330.81
432.29	348.81
432.512	344.81
432.734	336.81
432.956	338.81
433.178	361.81
433.4	366.81
433.622	362.81
433.844	353.81
434.066	365.81
434.287	338.81
434.509	360.81
434.731	364.81
434.953	369.81
435.175	395.81
435.397	373.81
435.618	376.81
435.84	426.81
436.062	459.81
436.284	512.81
436.505	430.81
436.727	380.81
436.949	370.81
437.17	376.81
437.392	380.81
437.614	377.81
437.835	404.81
438.057	425.81
438.278	472.81
438.5	488.81
438.721	536.81
438.943	498.81
439.165	411.81
439.386	410.81
439.608	392.81
439.829	390.81
440.05	398.81
440.272	394.81
440.493	418.81
440.715	379.81
440.936	372.81
441.158	371.81
441.379	361.81
441.6	368.81
441.822	402.81
442.043	394.81
442.264	453.81
442.486	456.81
442.707	410.81
442.928	394.81
443.149	378.81
443.371	408.81
443.592	437.81
443.813	479.81
444.034	503.81
444.255	455.81
444.476	412.81
444.698	371.81
444.919	402.81
445.14	530.81
445.361	435.81
445.582	426.81
445.803	418.81
446.024	475.81
446.245	492.81
446.466	445.81
446.687	404.81
446.908	382.81
447.129	360.81
447.35	348.81
447.571	350.81
447.792	367.81
448.013	366.81
448.234	366.81
448.455	389.81
448.675	445.81
448.896	503.81
449.117	441.81
449.338	411.81
449.559	477.81
449.779	548.81
450	468.81
450.221	396.81
450.442	351.81
450.662	350.81
450.883	340.81
451.104	358.81
451.324	346.81
451.545	340.81
451.766	332.81
451.986	320.81
452.207	327.81
452.428	328.81
452.648	331.81
452.869	313.81
453.089	329.81
453.31	333.81
453.53	327.81
453.751	325.81
453.971	329.81
454.192	331.81
454.412	322.81
454.633	314.81
454.853	324.81
455.073	328.81
455.294	338.81
455.514	364.81
455.734	369.81
455.955	334.81
456.175	332.81
456.395	316.81
456.616	325.81
456.836	314.81
457.056	320.81
457.276	320.81
457.497	312.81
457.717	327.81
457.937	327.81
458.157	324.81
458.377	330.81
458.598	333.81
458.818	362.81
459.038	391.81
459.258	381.81
459.478	373.81
459.698	360.81
459.918	357.81
460.138	374.81
460.358	364.81
460.578	345.81
460.798	347.81
461.018	351.81
461.238	357.81
461.458	374.81
461.678	370.81
461.898	388.81
462.118	366.81
462.338	382.81
462.558	384.81
462.777	387.81
462.997	403.81
463.217	418.81
463.437	405.81
463.657	391.81
463.876	386.81
464.096	390.81
464.316	387.81
464.536	379.81
464.755	371.81
464.975	395.81
465.195	409.81
465.414	391.81
465.634	375.81
465.854	366.81
466.073	354.81
466.293	347.81
466.512	344.81
466.732	352.81
466.951	338.81
467.171	351.81
467.391	342.81
467.61	345.81
467.829	358.81
468.049	350.81
468.268	324.81
468.488	337.81
468.707	337.81
468.927	340.81
469.146	316.81
469.365	346.81
469.585	338.81
469.804	325.81
470.023	332.81
470.243	347.81
470.462	365.81
470.681	348.81
470.901	352.81
471.12	347.81
471.339	325.81
471.558	334.81
471.777	322.81
471.997	342.81
472.216	363.81
472.435	358.81
472.654	360.81
472.873	352.81
473.092	356.81
473.311	360.81
473.53	360.81
473.749	337.81
473.968	372.81
474.187	426.81
474.406	411.81
474.625	354.81
474.844	338.81
475.063	328.81
475.282	342.81
475.501	358.81
475.72	384.81
475.939	363.81
476.158	366.81
476.377	379.81
476.596	376.81
476.814	370.81
477.033	364.81
477.252	364.81
477.471	357.81
477.69	366.81
477.908	380.81
478.127	389.81
478.346	388.81
478.564	391.81
478.783	375.81
479.002	390.81
479.22	408.81
479.439	402.81
479.658	388.81
479.876	396.81
480.095	400.81
480.313	433.81
480.532	422.81
480.751	406.81
480.969	423.81
481.188	457.81
481.406	453.81
481.624	405.81
481.843	400.81
482.061	402.81
482.28	401.81
482.498	393.81
482.717	400.81
482.935	398.81
483.153	408.81
483.372	396.81
483.59	394.81
483.808	419.81
484.027	400.81
484.245	409.81
484.463	414.81
484.681	418.81
484.9	409.81
485.118	389.81
485.336	420.81
485.554	408.81
485.772	425.81
485.99	397.81
486.209	426.81
486.427	411.81
486.645	454.81
486.863	423.81
487.081	439.81
487.299	430.81
487.517	426.81
487.735	431.81
487.953	422.81
488.171	422.81
488.389	417.81
488.607	416.81
488.825	409.81
489.043	425.81
489.261	403.81
489.479	448.81
489.696	443.81
489.914	430.81
490.132	438.81
490.35	456.81
490.568	439.81
490.786	452.81
491.003	453.81
491.221	442.81
491.439	439.81
491.657	441.81
491.874	460.81
492.092	467.81
492.31	442.81
492.527	442.81
492.745	457.81
492.963	480.81
493.18	490.81
493.398	472.81
493.615	480.81
493.833	463.81
494.05	486.81
494.268	472.81
494.485	464.81
494.703	460.81
494.92	468.81
495.138	472.81
495.355	485.81
495.573	480.81
495.79	493.81
496.008	490.81
496.225	503.81
496.442	482.81
496.66	502.81
496.877	508.81
497.094	486.81
497.312	513.81
497.529	524.81
497.746	523.81
497.963	519.81
498.181	522.81
498.398	523.81
498.615	559.81
498.832	572.81
499.049	582.81
499.267	570.81
499.484	595.81
499.701	627.81
499.918	662.81
500.135	676.81
500.352	712.81
500.569	697.81
500.786	728.81
501.003	739.81
501.22	690.81
501.437	662.81
501.654	633.81
501.871	611.81
502.088	605.81
502.305	574.81
