Data from 1960PennyLincolnUp.LampE5.5.200Scan.07172019.P1.ChangedAngle_HRD10591_13-14-36-821.txt Node
Date: Thu Jul 18 13:14:36 EDT 2019
User: cochatt
Spectrometer: HR+D1059
Trigger mode: 1
Integration Time (sec): 1.000000E-1
Scans to average: 1
Electric dark correction enabled: true
Nonlinearity correction enabled: false
Boxcar width: 0
XAxis mode: Wavelengths
Number of Pixels in Spectrum: 2048
>>>>>Begin Spectral Data<<<<<
223.165	-10.56
223.4	-10.56
223.635	-10.56
223.869	-10.56
224.104	-29.56
224.338	-13.56
224.573	-26.56
224.808	-14.56
225.042	-1.56
225.277	-11.56
225.511	-1.56
225.746	1.44
225.98	16.44
226.215	16.44
226.449	25.44
226.683	16.44
226.918	13.44
227.152	30.44
227.387	34.44
227.621	34.44
227.856	39.44
228.09	50.44
228.324	52.44
228.559	36.44
228.793	56.44
229.027	82.44
229.262	80.44
229.496	86.44
229.73	113.44
229.964	108.44
230.199	99.44
230.433	91.44
230.667	93.44
230.901	90.44
231.136	108.44
231.37	101.44
231.604	85.44
231.838	104.44
232.072	87.44
232.306	94.44
232.541	98.44
232.775	117.44
233.009	97.44
233.243	105.44
233.477	112.44
233.711	97.44
233.945	106.44
234.179	100.44
234.413	109.44
234.647	117.44
234.881	101.44
235.115	107.44
235.349	112.44
235.583	114.44
235.817	107.44
236.051	101.44
236.285	110.44
236.519	118.44
236.753	116.44
236.987	135.44
237.221	135.44
237.455	171.44
237.689	134.44
237.922	118.44
238.156	109.44
238.39	108.44
238.624	105.44
238.858	103.44
239.091	104.44
239.325	101.44
239.559	105.44
239.793	119.44
240.027	126.44
240.26	116.44
240.494	130.44
240.728	123.44
240.961	124.44
241.195	124.44
241.429	133.44
241.662	129.44
241.896	122.44
242.13	129.44
242.363	138.44
242.597	132.44
242.83	124.44
243.064	121.44
243.298	134.44
243.531	109.44
243.765	115.44
243.998	136.44
244.232	124.44
244.465	130.44
244.699	138.44
244.932	136.44
245.166	126.44
245.399	126.44
245.633	139.44
245.866	130.44
246.099	146.44
246.333	125.44
246.566	140.44
246.8	140.44
247.033	130.44
247.266	144.44
247.5	137.44
247.733	137.44
247.966	145.44
248.2	156.44
248.433	132.44
248.666	165.44
248.899	171.44
249.133	166.44
249.366	178.44
249.599	168.44
249.832	152.44
250.066	154.44
250.299	157.44
250.532	171.44
250.765	174.44
250.998	182.44
251.231	203.44
251.465	180.44
251.698	184.44
251.931	173.44
252.164	163.44
252.397	185.44
252.63	178.44
252.863	173.44
253.096	191.44
253.329	206.44
253.562	199.44
253.795	175.44
254.028	172.44
254.261	196.44
254.494	196.44
254.727	194.44
254.96	211.44
255.193	222.44
255.426	209.44
255.659	214.44
255.892	189.44
256.124	182.44
256.357	202.44
256.59	216.44
256.823	210.44
257.056	185.44
257.289	196.44
257.521	196.44
257.754	189.44
257.987	170.44
258.22	197.44
258.452	184.44
258.685	186.44
258.918	191.44
259.151	184.44
259.383	184.44
259.616	195.44
259.849	196.44
260.081	211.44
260.314	230.44
260.547	218.44
260.779	205.44
261.012	194.44
261.244	194.44
261.477	189.44
261.71	182.44
261.942	193.44
262.175	196.44
262.407	197.44
262.64	187.44
262.872	196.44
263.105	202.44
263.337	186.44
263.57	207.44
263.802	201.44
264.035	194.44
264.267	200.44
264.499	176.44
264.732	201.44
264.964	193.44
265.197	193.44
265.429	191.44
265.661	211.44
265.894	204.44
266.126	204.44
266.358	184.44
266.591	196.44
266.823	213.44
267.055	202.44
267.287	216.44
267.52	202.44
267.752	230.44
267.984	202.44
268.216	218.44
268.448	232.44
268.681	226.44
268.913	226.44
269.145	215.44
269.377	230.44
269.609	247.44
269.841	229.44
270.073	238.44
270.306	251.44
270.538	252.44
270.77	266.44
271.002	250.44
271.234	253.44
271.466	262.44
271.698	267.44
271.93	255.44
272.162	264.44
272.394	260.44
272.626	256.44
272.858	240.44
273.09	264.44
273.322	235.44
273.553	248.44
273.785	248.44
274.017	238.44
274.249	251.44
274.481	237.44
274.713	232.44
274.945	244.44
275.176	228.44
275.408	243.44
275.64	243.44
275.872	212.44
276.104	222.44
276.335	239.44
276.567	251.44
276.799	259.44
277.031	263.44
277.262	265.44
277.494	273.44
277.726	283.44
277.957	238.44
278.189	258.44
278.421	260.44
278.652	242.44
278.884	242.44
279.115	255.44
279.347	247.44
279.579	244.44
279.81	255.44
280.042	243.44
280.273	228.44
280.505	256.44
280.736	266.44
280.968	255.44
281.199	265.44
281.431	261.44
281.662	246.44
281.894	257.44
282.125	257.44
282.356	260.44
282.588	273.44
282.819	289.44
283.051	269.44
283.282	274.44
283.513	260.44
283.745	262.44
283.976	269.44
284.207	270.44
284.439	276.44
284.67	265.44
284.901	259.44
285.132	264.44
285.364	245.44
285.595	270.44
285.826	261.44
286.057	266.44
286.288	272.44
286.52	242.44
286.751	276.44
286.982	263.44
287.213	267.44
287.444	267.44
287.675	269.44
287.906	275.44
288.138	269.44
288.369	262.44
288.6	285.44
288.831	276.44
289.062	288.44
289.293	255.44
289.524	264.44
289.755	285.44
289.986	283.44
290.217	277.44
290.448	279.44
290.679	286.44
290.91	275.44
291.141	278.44
291.371	283.44
291.602	273.44
291.833	280.44
292.064	288.44
292.295	272.44
292.526	268.44
292.757	284.44
292.987	277.44
293.218	274.44
293.449	270.44
293.68	286.44
293.91	277.44
294.141	288.44
294.372	275.44
294.603	290.44
294.833	277.44
295.064	292.44
295.295	276.44
295.525	280.44
295.756	278.44
295.987	277.44
296.217	303.44
296.448	313.44
296.679	297.44
296.909	277.44
297.14	288.44
297.37	280.44
297.601	295.44
297.831	300.44
298.062	283.44
298.292	285.44
298.523	306.44
298.753	279.44
298.984	282.44
299.214	289.44
299.445	285.44
299.675	306.44
299.905	296.44
300.136	300.44
300.366	321.44
300.597	288.44
300.827	299.44
301.057	304.44
301.288	315.44
301.518	333.44
301.748	293.44
301.979	318.44
302.209	330.44
302.439	314.44
302.669	295.44
302.9	308.44
303.13	311.44
303.36	324.44
303.59	311.44
303.82	329.44
304.051	324.44
304.281	315.44
304.511	313.44
304.741	309.44
304.971	311.44
305.201	310.44
305.431	302.44
305.661	331.44
305.891	322.44
306.121	309.44
306.352	296.44
306.582	309.44
306.812	313.44
307.042	321.44
307.272	302.44
307.502	336.44
307.731	330.44
307.961	308.44
308.191	314.44
308.421	307.44
308.651	313.44
308.881	315.44
309.111	308.44
309.341	318.44
309.571	314.44
309.8	335.44
310.03	352.44
310.26	328.44
310.49	345.44
310.72	332.44
310.949	337.44
311.179	344.44
311.409	336.44
311.639	353.44
311.868	339.44
312.098	336.44
312.328	345.44
312.557	353.44
312.787	360.44
313.017	366.44
313.246	348.44
313.476	342.44
313.706	339.44
313.935	341.44
314.165	355.44
314.394	372.44
314.624	349.44
314.853	357.44
315.083	335.44
315.312	356.44
315.542	346.44
315.771	358.44
316.001	339.44
316.23	336.44
316.46	351.44
316.689	342.44
316.919	346.44
317.148	333.44
317.377	354.44
317.607	357.44
317.836	356.44
318.065	368.44
318.295	341.44
318.524	353.44
318.753	335.44
318.983	350.44
319.212	363.44
319.441	360.44
319.67	349.44
319.9	359.44
320.129	338.44
320.358	364.44
320.587	349.44
320.816	356.44
321.046	385.44
321.275	367.44
321.504	350.44
321.733	354.44
321.962	363.44
322.191	385.44
322.42	386.44
322.649	392.44
322.878	401.44
323.108	388.44
323.337	407.44
323.566	423.44
323.795	429.44
324.024	449.44
324.253	524.44
324.482	726.44
324.71	1009.44
324.939	1342.44
325.168	1176.44
325.397	640.44
325.626	502.44
325.855	450.44
326.084	408.44
326.313	439.44
326.542	434.44
326.77	453.44
326.999	495.44
327.228	646.44
327.457	900.44
327.686	1006.44
327.914	692.44
328.143	525.44
328.372	481.44
328.6	452.44
328.829	469.44
329.058	464.44
329.287	464.44
329.515	441.44
329.744	424.44
329.972	420.44
330.201	447.44
330.43	446.44
330.658	466.44
330.887	465.44
331.115	470.44
331.344	440.44
331.572	421.44
331.801	411.44
332.03	435.44
332.258	405.44
332.486	417.44
332.715	411.44
332.943	397.44
333.172	407.44
333.4	416.44
333.629	422.44
333.857	425.44
334.085	440.44
334.314	446.44
334.542	477.44
334.771	458.44
334.999	454.44
335.227	420.44
335.455	432.44
335.684	428.44
335.912	406.44
336.14	424.44
336.369	422.44
336.597	422.44
336.825	396.44
337.053	425.44
337.281	407.44
337.51	404.44
337.738	416.44
337.966	390.44
338.194	408.44
338.422	421.44
338.65	400.44
338.878	386.44
339.106	388.44
339.334	393.44
339.562	407.44
339.79	386.44
340.018	390.44
340.246	400.44
340.474	403.44
340.702	382.44
340.93	391.44
341.158	396.44
341.386	411.44
341.614	375.44
341.842	383.44
342.07	397.44
342.298	397.44
342.526	395.44
342.754	393.44
342.981	378.44
343.209	383.44
343.437	369.44
343.665	394.44
343.893	393.44
344.12	402.44
344.348	422.44
344.576	396.44
344.804	409.44
345.031	421.44
345.259	386.44
345.487	401.44
345.714	412.44
345.942	394.44
346.17	385.44
346.397	363.44
346.625	387.44
346.853	361.44
347.08	368.44
347.308	377.44
347.535	398.44
347.763	382.44
347.99	392.44
348.218	376.44
348.445	386.44
348.673	376.44
348.9	374.44
349.128	366.44
349.355	377.44
349.583	369.44
349.81	368.44
350.037	366.44
350.265	360.44
350.492	361.44
350.72	355.44
350.947	374.44
351.174	347.44
351.402	366.44
351.629	376.44
351.856	373.44
352.083	356.44
352.311	368.44
352.538	347.44
352.765	376.44
352.992	363.44
353.22	376.44
353.447	362.44
353.674	371.44
353.901	348.44
354.128	359.44
354.355	341.44
354.583	348.44
354.81	358.44
355.037	352.44
355.264	339.44
355.491	360.44
355.718	368.44
355.945	360.44
356.172	356.44
356.399	357.44
356.626	366.44
356.853	347.44
357.08	330.44
357.307	354.44
357.534	337.44
357.761	340.44
357.988	344.44
358.215	338.44
358.441	341.44
358.668	354.44
358.895	370.44
359.122	356.44
359.349	357.44
359.576	339.44
359.802	369.44
360.029	384.44
360.256	380.44
360.483	389.44
360.709	357.44
360.936	342.44
361.163	376.44
361.39	356.44
361.616	350.44
361.843	349.44
362.07	348.44
362.296	367.44
362.523	358.44
362.749	367.44
362.976	355.44
363.203	340.44
363.429	360.44
363.656	363.44
363.882	359.44
364.109	352.44
364.335	337.44
364.562	356.44
364.788	356.44
365.015	357.44
365.241	368.44
365.468	358.44
365.694	358.44
365.92	361.44
366.147	362.44
366.373	323.44
366.599	352.44
366.826	353.44
367.052	358.44
367.278	328.44
367.505	365.44
367.731	352.44
367.957	341.44
368.184	356.44
368.41	363.44
368.636	351.44
368.862	352.44
369.089	349.44
369.315	348.44
369.541	339.44
369.767	346.44
369.993	338.44
370.219	337.44
370.445	349.44
370.672	339.44
370.898	336.44
371.124	340.44
371.35	353.44
371.576	363.44
371.802	362.44
372.028	348.44
372.254	364.44
372.48	342.44
372.706	340.44
372.932	347.44
373.158	376.44
373.384	354.44
373.61	364.44
373.835	376.44
374.061	346.44
374.287	334.44
374.513	359.44
374.739	364.44
374.965	368.44
375.191	364.44
375.416	354.44
375.642	353.44
375.868	337.44
376.094	344.44
376.319	354.44
376.545	345.44
376.771	352.44
376.997	336.44
377.222	333.44
377.448	338.44
377.674	349.44
377.899	358.44
378.125	343.44
378.35	351.44
378.576	366.44
378.802	344.44
379.027	346.44
379.253	337.44
379.478	345.44
379.704	338.44
379.929	331.44
380.155	356.44
380.38	347.44
380.606	356.44
380.831	348.44
381.057	356.44
381.282	357.44
381.507	343.44
381.733	352.44
381.958	346.44
382.184	347.44
382.409	360.44
382.634	346.44
382.86	360.44
383.085	342.44
383.31	363.44
383.535	360.44
383.761	345.44
383.986	366.44
384.211	353.44
384.436	339.44
384.662	355.44
384.887	371.44
385.112	377.44
385.337	386.44
385.562	386.44
385.787	373.44
386.013	382.44
386.238	362.44
386.463	361.44
386.688	355.44
386.913	372.44
387.138	357.44
387.363	365.44
387.588	365.44
387.813	380.44
388.038	363.44
388.263	366.44
388.488	373.44
388.713	384.44
388.938	372.44
389.163	383.44
389.387	393.44
389.612	389.44
389.837	375.44
390.062	373.44
390.287	388.44
390.512	376.44
390.736	359.44
390.961	363.44
391.186	366.44
391.411	370.44
391.636	367.44
391.86	393.44
392.085	377.44
392.31	382.44
392.534	392.44
392.759	373.44
392.984	370.44
393.208	379.44
393.433	363.44
393.658	374.44
393.882	368.44
394.107	373.44
394.331	392.44
394.556	396.44
394.78	359.44
395.005	388.44
395.229	358.44
395.454	366.44
395.678	386.44
395.903	392.44
396.127	385.44
396.352	416.44
396.576	390.44
396.801	385.44
397.025	394.44
397.249	390.44
397.474	417.44
397.698	400.44
397.922	420.44
398.147	406.44
398.371	404.44
398.595	405.44
398.82	407.44
399.044	428.44
399.268	445.44
399.492	453.44
399.717	478.44
399.941	479.44
400.165	516.44
400.389	486.44
400.613	478.44
400.837	442.44
401.062	417.44
401.286	418.44
401.51	420.44
401.734	428.44
401.958	396.44
402.182	436.44
402.406	426.44
402.63	438.44
402.854	412.44
403.078	401.44
403.302	416.44
403.526	416.44
403.75	430.44
403.974	409.44
404.198	421.44
404.422	410.44
404.645	426.44
404.869	453.44
405.093	452.44
405.317	454.44
405.541	497.44
405.765	462.44
405.988	452.44
406.212	429.44
406.436	450.44
406.66	466.44
406.883	458.44
407.107	477.44
407.331	492.44
407.555	549.44
407.778	515.44
408.002	498.44
408.226	456.44
408.449	455.44
408.673	453.44
408.896	457.44
409.12	511.44
409.344	483.44
409.567	420.44
409.791	423.44
410.014	426.44
410.238	435.44
410.461	435.44
410.685	418.44
410.908	440.44
411.132	459.44
411.355	461.44
411.578	469.44
411.802	459.44
412.025	439.44
412.249	433.44
412.472	455.44
412.695	460.44
412.919	472.44
413.142	412.44
413.365	422.44
413.589	430.44
413.812	417.44
414.035	416.44
414.258	404.44
414.482	388.44
414.705	388.44
414.928	392.44
415.151	395.44
415.374	407.44
415.597	410.44
415.821	390.44
416.044	398.44
416.267	377.44
416.49	386.44
416.713	381.44
416.936	400.44
417.159	372.44
417.382	390.44
417.605	401.44
417.828	400.44
418.051	391.44
418.274	409.44
418.497	406.44
418.72	381.44
418.943	382.44
419.166	399.44
419.389	418.44
419.611	440.44
419.834	410.44
420.057	405.44
420.28	392.44
420.503	392.44
420.726	408.44
420.948	413.44
421.171	437.44
421.394	452.44
421.617	409.44
421.839	421.44
422.062	410.44
422.285	426.44
422.507	445.44
422.73	499.44
422.953	451.44
423.175	442.44
423.398	402.44
423.621	411.44
423.843	424.44
424.066	438.44
424.288	420.44
424.511	426.44
424.733	468.44
424.956	499.44
425.178	508.44
425.401	488.44
425.623	505.44
425.846	439.44
426.068	433.44
426.291	410.44
426.513	429.44
426.735	434.44
426.958	445.44
427.18	503.44
427.402	584.44
427.625	644.44
427.847	562.44
428.069	498.44
428.292	453.44
428.514	410.44
428.736	391.44
428.958	436.44
429.181	397.44
429.403	388.44
429.625	414.44
429.847	422.44
430.069	458.44
430.292	452.44
430.514	385.44
430.736	390.44
430.958	389.44
431.18	388.44
431.402	387.44
431.624	380.44
431.846	371.44
432.068	369.44
432.29	381.44
432.512	380.44
432.734	382.44
432.956	370.44
433.178	392.44
433.4	393.44
433.622	354.44
433.844	375.44
434.066	364.44
434.287	374.44
434.509	380.44
434.731	404.44
434.953	377.44
435.175	396.44
435.397	413.44
435.618	404.44
435.84	449.44
436.062	498.44
436.284	550.44
436.505	441.44
436.727	432.44
436.949	413.44
437.17	416.44
437.392	387.44
437.614	395.44
437.835	407.44
438.057	499.44
438.278	530.44
438.5	539.44
438.721	601.44
438.943	580.44
439.165	448.44
439.386	417.44
439.608	413.44
439.829	430.44
440.05	431.44
440.272	445.44
440.493	418.44
440.715	424.44
440.936	395.44
441.158	395.44
441.379	395.44
441.6	412.44
441.822	425.44
442.043	443.44
442.264	483.44
442.486	523.44
442.707	455.44
442.928	428.44
443.149	442.44
443.371	464.44
443.592	468.44
443.813	532.44
444.034	569.44
444.255	488.44
444.476	425.44
444.698	429.44
444.919	444.44
445.14	501.44
445.361	473.44
445.582	456.44
445.803	463.44
446.024	520.44
446.245	535.44
446.466	499.44
446.687	449.44
446.908	386.44
447.129	412.44
447.35	398.44
447.571	400.44
447.792	382.44
448.013	390.44
448.234	404.44
448.455	423.44
448.675	509.44
448.896	538.44
449.117	480.44
449.338	460.44
449.559	520.44
449.779	583.44
450	464.44
450.221	408.44
450.442	384.44
450.662	367.44
450.883	377.44
451.104	388.44
451.324	364.44
451.545	348.44
451.766	368.44
451.986	328.44
452.207	352.44
452.428	364.44
452.648	363.44
452.869	346.44
453.089	362.44
453.31	370.44
453.53	349.44
453.751	339.44
453.971	357.44
454.192	368.44
454.412	346.44
454.633	346.44
454.853	334.44
455.073	339.44
455.294	362.44
455.514	402.44
455.734	398.44
455.955	368.44
456.175	347.44
456.395	354.44
456.616	329.44
456.836	336.44
457.056	362.44
457.276	334.44
457.497	342.44
457.717	338.44
457.937	352.44
458.157	342.44
458.377	358.44
458.598	340.44
458.818	390.44
459.038	428.44
459.258	442.44
459.478	408.44
459.698	376.44
459.918	381.44
460.138	376.44
460.358	374.44
460.578	374.44
460.798	371.44
461.018	398.44
461.238	397.44
461.458	392.44
461.678	361.44
461.898	388.44
462.118	398.44
462.338	387.44
462.558	405.44
462.777	413.44
462.997	388.44
463.217	446.44
463.437	414.44
463.657	415.44
463.876	420.44
464.096	423.44
464.316	414.44
464.536	402.44
464.755	404.44
464.975	410.44
465.195	438.44
465.414	451.44
465.634	409.44
465.854	378.44
466.073	372.44
466.293	370.44
466.512	359.44
466.732	395.44
466.951	366.44
467.171	374.44
467.391	369.44
467.61	359.44
467.829	357.44
468.049	376.44
468.268	374.44
468.488	362.44
468.707	368.44
468.927	363.44
469.146	354.44
469.365	355.44
469.585	366.44
469.804	371.44
470.023	354.44
470.243	368.44
470.462	366.44
470.681	389.44
470.901	382.44
471.12	374.44
471.339	364.44
471.558	367.44
471.777	358.44
471.997	366.44
472.216	381.44
472.435	367.44
472.654	388.44
472.873	389.44
473.092	361.44
473.311	371.44
473.53	362.44
473.749	372.44
473.968	382.44
474.187	456.44
474.406	474.44
474.625	392.44
474.844	403.44
475.063	372.44
475.282	365.44
475.501	370.44
475.72	364.44
475.939	360.44
476.158	368.44
476.377	363.44
476.596	389.44
476.814	371.44
477.033	382.44
477.252	383.44
477.471	393.44
477.69	396.44
477.908	399.44
478.127	394.44
478.346	409.44
478.564	421.44
478.783	432.44
479.002	428.44
479.22	424.44
479.439	425.44
479.658	453.44
479.876	414.44
480.095	428.44
480.313	444.44
480.532	449.44
480.751	437.44
480.969	437.44
481.188	490.44
481.406	492.44
481.624	429.44
481.843	426.44
482.061	425.44
482.28	432.44
482.498	429.44
482.717	424.44
482.935	416.44
483.153	418.44
483.372	424.44
483.59	414.44
483.808	412.44
484.027	440.44
484.245	424.44
484.463	438.44
484.681	442.44
484.9	424.44
485.118	430.44
485.336	418.44
485.554	436.44
485.772	445.44
485.99	456.44
486.209	453.44
486.427	461.44
486.645	428.44
486.863	460.44
487.081	462.44
487.299	441.44
487.517	464.44
487.735	437.44
487.953	454.44
488.171	474.44
488.389	452.44
488.607	455.44
488.825	440.44
489.043	455.44
489.261	453.44
489.479	466.44
489.696	464.44
489.914	461.44
490.132	453.44
490.35	470.44
490.568	442.44
490.786	482.44
491.003	482.44
491.221	480.44
491.439	496.44
491.657	469.44
491.874	477.44
492.092	478.44
492.31	522.44
492.527	500.44
492.745	490.44
492.963	510.44
493.18	526.44
493.398	493.44
493.615	507.44
493.833	502.44
494.05	494.44
494.268	506.44
494.485	502.44
494.703	493.44
494.92	520.44
495.138	521.44
495.355	501.44
495.573	507.44
495.79	524.44
496.008	518.44
496.225	505.44
496.442	502.44
496.66	528.44
496.877	536.44
497.094	527.44
497.312	539.44
497.529	543.44
497.746	540.44
497.963	557.44
498.181	558.44
498.398	580.44
498.615	596.44
498.832	610.44
499.049	601.44
499.267	616.44
499.484	646.44
499.701	696.44
499.918	706.44
500.135	724.44
500.352	755.44
500.569	761.44
500.786	779.44
501.003	750.44
501.22	745.44
501.437	708.44
501.654	682.44
501.871	656.44
