Data from 1960PennyLincolnUp.LampE5.5.200Scan.07172019.P1.ChangedAngle_HRD10591_13-14-41-821.txt Node
Date: Thu Jul 18 13:14:41 EDT 2019
User: cochatt
Spectrometer: HR+D1059
Trigger mode: 1
Integration Time (sec): 1.000000E-1
Scans to average: 1
Electric dark correction enabled: true
Nonlinearity correction enabled: false
Boxcar width: 0
XAxis mode: Wavelengths
Number of Pixels in Spectrum: 2048
>>>>>Begin Spectral Data<<<<<
223.165	-1.62
223.4	-1.62
223.635	-1.62
223.869	-2.62
224.104	-15.62
224.338	-31.62
224.573	-2.62
224.808	-2.62
225.042	-3.62
225.277	-5.62
225.511	8.38
225.746	-5.62
225.98	9.38
226.215	2.38
226.449	11.38
226.683	-10.62
226.918	28.38
227.152	22.38
227.387	37.38
227.621	41.38
227.856	43.38
228.09	46.38
228.324	39.38
228.559	55.38
228.793	73.38
229.027	89.38
229.262	99.38
229.496	111.38
229.73	110.38
229.964	126.38
230.199	112.38
230.433	103.38
230.667	115.38
230.901	106.38
231.136	126.38
231.37	123.38
231.604	117.38
231.838	111.38
232.072	116.38
232.306	99.38
232.541	113.38
232.775	114.38
233.009	112.38
233.243	108.38
233.477	111.38
233.711	107.38
233.945	110.38
234.179	116.38
234.413	113.38
234.647	107.38
234.881	115.38
235.115	114.38
235.349	133.38
235.583	115.38
235.817	125.38
236.051	119.38
236.285	119.38
236.519	127.38
236.753	121.38
236.987	118.38
237.221	159.38
237.455	190.38
237.689	140.38
237.922	128.38
238.156	126.38
238.39	116.38
238.624	118.38
238.858	109.38
239.091	103.38
239.325	118.38
239.559	119.38
239.793	116.38
240.027	121.38
240.26	130.38
240.494	141.38
240.728	144.38
240.961	142.38
241.195	129.38
241.429	127.38
241.662	114.38
241.896	119.38
242.13	123.38
242.363	119.38
242.597	133.38
242.83	141.38
243.064	115.38
243.298	133.38
243.531	124.38
243.765	143.38
243.998	125.38
244.232	134.38
244.465	143.38
244.699	147.38
244.932	147.38
245.166	157.38
245.399	162.38
245.633	137.38
245.866	134.38
246.099	142.38
246.333	147.38
246.566	136.38
246.8	144.38
247.033	144.38
247.266	149.38
247.5	142.38
247.733	172.38
247.966	176.38
248.2	154.38
248.433	174.38
248.666	182.38
248.899	180.38
249.133	170.38
249.366	186.38
249.599	175.38
249.832	168.38
250.066	184.38
250.299	171.38
250.532	167.38
250.765	180.38
250.998	187.38
251.231	205.38
251.465	221.38
251.698	186.38
251.931	181.38
252.164	185.38
252.397	192.38
252.63	202.38
252.863	190.38
253.096	185.38
253.329	183.38
253.562	206.38
253.795	185.38
254.028	206.38
254.261	193.38
254.494	213.38
254.727	210.38
254.96	227.38
255.193	203.38
255.426	208.38
255.659	202.38
255.892	227.38
256.124	205.38
256.357	199.38
256.59	207.38
256.823	194.38
257.056	202.38
257.289	210.38
257.521	197.38
257.754	203.38
257.987	199.38
258.22	205.38
258.452	196.38
258.685	205.38
258.918	199.38
259.151	198.38
259.383	195.38
259.616	222.38
259.849	208.38
260.081	210.38
260.314	215.38
260.547	234.38
260.779	215.38
261.012	223.38
261.244	217.38
261.477	195.38
261.71	215.38
261.942	215.38
262.175	232.38
262.407	205.38
262.64	205.38
262.872	193.38
263.105	197.38
263.337	208.38
263.57	212.38
263.802	200.38
264.035	207.38
264.267	215.38
264.499	207.38
264.732	207.38
264.964	208.38
265.197	220.38
265.429	210.38
265.661	204.38
265.894	204.38
266.126	217.38
266.358	220.38
266.591	202.38
266.823	228.38
267.055	213.38
267.287	213.38
267.52	219.38
267.752	223.38
267.984	216.38
268.216	220.38
268.448	232.38
268.681	229.38
268.913	249.38
269.145	235.38
269.377	249.38
269.609	262.38
269.841	235.38
270.073	247.38
270.306	284.38
270.538	265.38
270.77	268.38
271.002	269.38
271.234	257.38
271.466	281.38
271.698	281.38
271.93	281.38
272.162	284.38
272.394	274.38
272.626	272.38
272.858	252.38
273.09	249.38
273.322	239.38
273.553	255.38
273.785	251.38
274.017	257.38
274.249	264.38
274.481	256.38
274.713	269.38
274.945	268.38
275.176	257.38
275.408	259.38
275.64	266.38
275.872	266.38
276.104	263.38
276.335	265.38
276.567	244.38
276.799	279.38
277.031	285.38
277.262	290.38
277.494	292.38
277.726	278.38
277.957	268.38
278.189	280.38
278.421	271.38
278.652	256.38
278.884	251.38
279.115	264.38
279.347	255.38
279.579	274.38
279.81	267.38
280.042	271.38
280.273	265.38
280.505	245.38
280.736	265.38
280.968	250.38
281.199	288.38
281.431	265.38
281.662	266.38
281.894	273.38
282.125	274.38
282.356	301.38
282.588	290.38
282.819	301.38
283.051	265.38
283.282	249.38
283.513	298.38
283.745	271.38
283.976	280.38
284.207	299.38
284.439	287.38
284.67	259.38
284.901	288.38
285.132	299.38
285.364	284.38
285.595	283.38
285.826	271.38
286.057	285.38
286.288	290.38
286.52	283.38
286.751	296.38
286.982	296.38
287.213	277.38
287.444	283.38
287.675	289.38
287.906	289.38
288.138	293.38
288.369	303.38
288.6	284.38
288.831	292.38
289.062	285.38
289.293	286.38
289.524	281.38
289.755	286.38
289.986	298.38
290.217	291.38
290.448	288.38
290.679	287.38
290.91	299.38
291.141	277.38
291.371	298.38
291.602	295.38
291.833	289.38
292.064	299.38
292.295	299.38
292.526	311.38
292.757	297.38
292.987	285.38
293.218	262.38
293.449	299.38
293.68	289.38
293.91	265.38
294.141	291.38
294.372	286.38
294.603	305.38
294.833	297.38
295.064	292.38
295.295	290.38
295.525	301.38
295.756	291.38
295.987	298.38
296.217	297.38
296.448	298.38
296.679	311.38
296.909	292.38
297.14	314.38
297.37	297.38
297.601	301.38
297.831	304.38
298.062	307.38
298.292	305.38
298.523	320.38
298.753	314.38
298.984	312.38
299.214	312.38
299.445	298.38
299.675	331.38
299.905	298.38
300.136	308.38
300.366	306.38
300.597	295.38
300.827	321.38
301.057	330.38
301.288	335.38
301.518	312.38
301.748	320.38
301.979	318.38
302.209	330.38
302.439	322.38
302.669	323.38
302.9	327.38
303.13	324.38
303.36	318.38
303.59	331.38
303.82	346.38
304.051	344.38
304.281	321.38
304.511	334.38
304.741	327.38
304.971	328.38
305.201	324.38
305.431	340.38
305.661	326.38
305.891	337.38
306.121	317.38
306.352	323.38
306.582	360.38
306.812	329.38
307.042	327.38
307.272	328.38
307.502	333.38
307.731	332.38
307.961	328.38
308.191	327.38
308.421	313.38
308.651	332.38
308.881	342.38
309.111	338.38
309.341	319.38
309.571	341.38
309.8	344.38
310.03	336.38
310.26	350.38
310.49	347.38
310.72	364.38
310.949	364.38
311.179	362.38
311.409	357.38
311.639	345.38
311.868	351.38
312.098	334.38
312.328	356.38
312.557	369.38
312.787	377.38
313.017	368.38
313.246	365.38
313.476	349.38
313.706	346.38
313.935	377.38
314.165	372.38
314.394	393.38
314.624	383.38
314.853	369.38
315.083	369.38
315.312	366.38
315.542	377.38
315.771	367.38
316.001	364.38
316.23	362.38
316.46	346.38
316.689	369.38
316.919	369.38
317.148	373.38
317.377	371.38
317.607	393.38
317.836	366.38
318.065	383.38
318.295	361.38
318.524	383.38
318.753	375.38
318.983	375.38
319.212	372.38
319.441	377.38
319.67	367.38
319.9	383.38
320.129	372.38
320.358	371.38
320.587	378.38
320.816	379.38
321.046	378.38
321.275	401.38
321.504	380.38
321.733	385.38
321.962	383.38
322.191	392.38
322.42	394.38
322.649	409.38
322.878	411.38
323.108	403.38
323.337	427.38
323.566	446.38
323.795	420.38
324.024	481.38
324.253	570.38
324.482	739.38
324.71	1047.38
324.939	1354.38
325.168	1160.38
325.397	668.38
325.626	520.38
325.855	460.38
326.084	426.38
326.313	430.38
326.542	463.38
326.77	447.38
326.999	526.38
327.228	683.38
327.457	925.38
327.686	1033.38
327.914	743.38
328.143	577.38
328.372	503.38
328.6	495.38
328.829	476.38
329.058	474.38
329.287	458.38
329.515	453.38
329.744	463.38
329.972	453.38
330.201	452.38
330.43	479.38
330.658	492.38
330.887	497.38
331.115	457.38
331.344	457.38
331.572	424.38
331.801	434.38
332.03	436.38
332.258	444.38
332.486	433.38
332.715	423.38
332.943	417.38
333.172	440.38
333.4	447.38
333.629	451.38
333.857	451.38
334.085	452.38
334.314	467.38
334.542	470.38
334.771	455.38
334.999	468.38
335.227	451.38
335.455	431.38
335.684	434.38
335.912	456.38
336.14	450.38
336.369	446.38
336.597	436.38
336.825	417.38
337.053	431.38
337.281	424.38
337.51	444.38
337.738	411.38
337.966	428.38
338.194	419.38
338.422	430.38
338.65	413.38
338.878	407.38
339.106	412.38
339.334	426.38
339.562	409.38
339.79	405.38
340.018	407.38
340.246	409.38
340.474	404.38
340.702	403.38
340.93	379.38
341.158	393.38
341.386	409.38
341.614	408.38
341.842	405.38
342.07	385.38
342.298	418.38
342.526	402.38
342.754	414.38
342.981	397.38
343.209	415.38
343.437	403.38
343.665	427.38
343.893	419.38
344.12	433.38
344.348	420.38
344.576	410.38
344.804	415.38
345.031	396.38
345.259	410.38
345.487	418.38
345.714	408.38
345.942	388.38
346.17	375.38
346.397	388.38
346.625	388.38
346.853	394.38
347.08	383.38
347.308	377.38
347.535	410.38
347.763	385.38
347.99	402.38
348.218	381.38
348.445	388.38
348.673	394.38
348.9	410.38
349.128	385.38
349.355	375.38
349.583	393.38
349.81	384.38
350.037	371.38
350.265	376.38
350.492	379.38
350.72	384.38
350.947	359.38
351.174	392.38
351.402	394.38
351.629	401.38
351.856	382.38
352.083	399.38
352.311	393.38
352.538	405.38
352.765	400.38
352.992	389.38
353.22	374.38
353.447	376.38
353.674	359.38
353.901	359.38
354.128	360.38
354.355	355.38
354.583	344.38
354.81	367.38
355.037	365.38
355.264	354.38
355.491	362.38
355.718	357.38
355.945	343.38
356.172	371.38
356.399	371.38
356.626	330.38
356.853	364.38
357.08	356.38
357.307	375.38
357.534	373.38
357.761	353.38
357.988	360.38
358.215	361.38
358.441	376.38
358.668	359.38
358.895	375.38
359.122	360.38
359.349	363.38
359.576	370.38
359.802	386.38
360.029	404.38
360.256	403.38
360.483	405.38
360.709	390.38
360.936	385.38
361.163	370.38
361.39	372.38
361.616	373.38
361.843	404.38
362.07	375.38
362.296	372.38
362.523	389.38
362.749	367.38
362.976	362.38
363.203	370.38
363.429	340.38
363.656	361.38
363.882	383.38
364.109	350.38
364.335	375.38
364.562	361.38
364.788	359.38
365.015	368.38
365.241	348.38
365.468	351.38
365.694	385.38
365.92	368.38
366.147	363.38
366.373	372.38
366.599	370.38
366.826	359.38
367.052	345.38
367.278	351.38
367.505	371.38
367.731	364.38
367.957	383.38
368.184	367.38
368.41	370.38
368.636	373.38
368.862	374.38
369.089	368.38
369.315	361.38
369.541	354.38
369.767	367.38
369.993	353.38
370.219	355.38
370.445	352.38
370.672	348.38
370.898	370.38
371.124	363.38
371.35	372.38
371.576	357.38
371.802	361.38
372.028	365.38
372.254	371.38
372.48	375.38
372.706	367.38
372.932	367.38
373.158	372.38
373.384	390.38
373.61	369.38
373.835	365.38
374.061	373.38
374.287	376.38
374.513	354.38
374.739	371.38
374.965	385.38
375.191	368.38
375.416	374.38
375.642	373.38
375.868	375.38
376.094	370.38
376.319	375.38
376.545	366.38
376.771	375.38
376.997	364.38
377.222	345.38
377.448	359.38
377.674	367.38
377.899	356.38
378.125	357.38
378.35	354.38
378.576	357.38
378.802	364.38
379.027	352.38
379.253	361.38
379.478	363.38
379.704	339.38
379.929	355.38
380.155	360.38
380.38	370.38
380.606	357.38
380.831	369.38
381.057	369.38
381.282	333.38
381.507	362.38
381.733	356.38
381.958	363.38
382.184	361.38
382.409	362.38
382.634	352.38
382.86	367.38
383.085	371.38
383.31	368.38
383.535	386.38
383.761	363.38
383.986	380.38
384.211	394.38
384.436	378.38
384.662	391.38
384.887	404.38
385.112	373.38
385.337	380.38
385.562	398.38
385.787	379.38
386.013	410.38
386.238	383.38
386.463	381.38
386.688	388.38
386.913	377.38
387.138	381.38
387.363	416.38
387.588	377.38
387.813	403.38
388.038	388.38
388.263	398.38
388.488	402.38
388.713	388.38
388.938	383.38
389.163	396.38
389.387	377.38
389.612	384.38
389.837	388.38
390.062	385.38
390.287	381.38
390.512	395.38
390.736	396.38
390.961	388.38
391.186	401.38
391.411	393.38
391.636	380.38
391.86	397.38
392.085	417.38
392.31	408.38
392.534	406.38
392.759	384.38
392.984	381.38
393.208	389.38
393.433	392.38
393.658	393.38
393.882	372.38
394.107	402.38
394.331	386.38
394.556	392.38
394.78	391.38
395.005	418.38
395.229	399.38
395.454	385.38
395.678	403.38
395.903	407.38
396.127	407.38
396.352	433.38
396.576	400.38
396.801	386.38
397.025	412.38
397.249	415.38
397.474	411.38
397.698	401.38
397.922	427.38
398.147	417.38
398.371	429.38
398.595	428.38
398.82	424.38
399.044	457.38
399.268	438.38
399.492	474.38
399.717	493.38
399.941	514.38
400.165	509.38
400.389	540.38
400.613	508.38
400.837	469.38
401.062	440.38
401.286	449.38
401.51	453.38
401.734	431.38
401.958	426.38
402.182	426.38
402.406	440.38
402.63	436.38
402.854	422.38
403.078	425.38
403.302	440.38
403.526	432.38
403.75	435.38
403.974	450.38
404.198	450.38
404.422	435.38
404.645	435.38
404.869	452.38
405.093	484.38
405.317	500.38
405.541	523.38
405.765	489.38
405.988	454.38
406.212	468.38
406.436	476.38
406.66	466.38
406.883	462.38
407.107	499.38
407.331	526.38
407.555	565.38
407.778	561.38
408.002	515.38
408.226	488.38
408.449	489.38
408.673	482.38
408.896	486.38
409.12	529.38
409.344	515.38
409.567	477.38
409.791	455.38
410.014	427.38
410.238	454.38
410.461	466.38
410.685	455.38
410.908	432.38
411.132	482.38
411.355	480.38
411.578	447.38
411.802	450.38
412.025	466.38
412.249	451.38
412.472	470.38
412.695	503.38
412.919	474.38
413.142	455.38
413.365	432.38
413.589	447.38
413.812	415.38
414.035	428.38
414.258	449.38
414.482	437.38
414.705	418.38
414.928	418.38
415.151	417.38
415.374	409.38
415.597	397.38
415.821	415.38
416.044	396.38
416.267	423.38
416.49	409.38
416.713	403.38
416.936	412.38
417.159	416.38
417.382	424.38
417.605	418.38
417.828	427.38
418.051	436.38
418.274	416.38
418.497	411.38
418.72	411.38
418.943	403.38
419.166	416.38
419.389	441.38
419.611	412.38
419.834	413.38
420.057	441.38
420.28	407.38
420.503	416.38
420.726	409.38
420.948	440.38
421.171	463.38
421.394	471.38
421.617	428.38
421.839	423.38
422.062	431.38
422.285	431.38
422.507	461.38
422.73	536.38
422.953	499.38
423.175	460.38
423.398	435.38
423.621	457.38
423.843	445.38
424.066	459.38
424.288	432.38
424.511	459.38
424.733	492.38
424.956	527.38
425.178	514.38
425.401	510.38
425.623	561.38
425.846	462.38
426.068	432.38
426.291	447.38
426.513	430.38
426.735	446.38
426.958	489.38
427.18	535.38
427.402	590.38
427.625	643.38
427.847	562.38
428.069	521.38
428.292	467.38
428.514	444.38
428.736	399.38
428.958	405.38
429.181	406.38
429.403	434.38
429.625	424.38
429.847	442.38
430.069	450.38
430.292	480.38
430.514	425.38
430.736	394.38
430.958	407.38
431.18	393.38
431.402	413.38
431.624	380.38
431.846	404.38
432.068	400.38
432.29	415.38
432.512	398.38
432.734	386.38
432.956	395.38
433.178	396.38
433.4	393.38
433.622	414.38
433.844	392.38
434.066	398.38
434.287	388.38
434.509	393.38
434.731	406.38
434.953	408.38
435.175	419.38
435.397	435.38
435.618	439.38
435.84	472.38
436.062	516.38
436.284	532.38
436.505	466.38
436.727	420.38
436.949	416.38
437.17	409.38
437.392	397.38
437.614	408.38
437.835	438.38
438.057	480.38
438.278	538.38
438.5	533.38
438.721	585.38
438.943	581.38
439.165	457.38
439.386	440.38
439.608	425.38
439.829	434.38
440.05	466.38
440.272	459.38
440.493	470.38
440.715	428.38
440.936	434.38
441.158	419.38
441.379	425.38
441.6	412.38
441.822	423.38
442.043	455.38
442.264	484.38
442.486	529.38
442.707	454.38
442.928	435.38
443.149	454.38
443.371	471.38
443.592	468.38
443.813	543.38
444.034	572.38
444.255	501.38
444.476	467.38
444.698	436.38
444.919	437.38
445.14	548.38
445.361	486.38
445.582	480.38
445.803	492.38
446.024	548.38
446.245	554.38
446.466	507.38
446.687	463.38
446.908	431.38
447.129	410.38
447.35	406.38
447.571	401.38
447.792	380.38
448.013	416.38
448.234	399.38
448.455	452.38
448.675	532.38
448.896	582.38
449.117	511.38
449.338	464.38
449.559	567.38
449.779	635.38
450	495.38
450.221	430.38
450.442	405.38
450.662	389.38
450.883	396.38
451.104	397.38
451.324	385.38
451.545	366.38
451.766	375.38
451.986	354.38
452.207	358.38
452.428	373.38
452.648	356.38
452.869	372.38
453.089	382.38
453.31	368.38
453.53	376.38
453.751	368.38
453.971	361.38
454.192	359.38
454.412	356.38
454.633	373.38
454.853	364.38
455.073	362.38
455.294	387.38
455.514	415.38
455.734	402.38
455.955	351.38
456.175	369.38
456.395	332.38
456.616	327.38
456.836	350.38
457.056	366.38
457.276	347.38
457.497	347.38
457.717	354.38
457.937	360.38
458.157	330.38
458.377	340.38
458.598	369.38
458.818	407.38
459.038	446.38
459.258	436.38
459.478	415.38
459.698	394.38
459.918	380.38
460.138	401.38
460.358	383.38
460.578	373.38
460.798	391.38
461.018	403.38
461.238	417.38
461.458	398.38
461.678	392.38
461.898	420.38
462.118	413.38
462.338	407.38
462.558	427.38
462.777	408.38
462.997	425.38
463.217	459.38
463.437	445.38
463.657	441.38
463.876	450.38
464.096	438.38
464.316	441.38
464.536	414.38
464.755	436.38
464.975	435.38
465.195	425.38
465.414	476.38
465.634	420.38
465.854	395.38
466.073	395.38
466.293	380.38
466.512	365.38
466.732	371.38
466.951	373.38
467.171	372.38
467.391	401.38
467.61	372.38
467.829	382.38
468.049	385.38
468.268	367.38
468.488	356.38
468.707	364.38
468.927	364.38
469.146	364.38
469.365	369.38
469.585	368.38
469.804	393.38
470.023	382.38
470.243	362.38
470.462	399.38
470.681	391.38
470.901	373.38
471.12	376.38
471.339	377.38
471.558	379.38
471.777	396.38
471.997	366.38
472.216	386.38
472.435	396.38
472.654	385.38
472.873	394.38
473.092	378.38
473.311	375.38
473.53	387.38
473.749	388.38
473.968	408.38
474.187	475.38
474.406	476.38
474.625	418.38
474.844	379.38
475.063	390.38
475.282	382.38
475.501	379.38
475.72	387.38
475.939	391.38
476.158	391.38
476.377	375.38
476.596	375.38
476.814	400.38
477.033	396.38
477.252	416.38
477.471	404.38
477.69	401.38
477.908	415.38
478.127	412.38
478.346	421.38
478.564	430.38
478.783	412.38
479.002	421.38
479.22	452.38
479.439	441.38
479.658	443.38
479.876	463.38
480.095	472.38
480.313	445.38
480.532	462.38
480.751	458.38
480.969	470.38
481.188	468.38
481.406	468.38
481.624	466.38
481.843	442.38
482.061	442.38
482.28	436.38
482.498	428.38
482.717	438.38
482.935	442.38
483.153	440.38
483.372	456.38
483.59	443.38
483.808	435.38
484.027	419.38
484.245	452.38
484.463	452.38
484.681	445.38
484.9	450.38
485.118	466.38
485.336	462.38
485.554	476.38
485.772	458.38
485.99	450.38
486.209	443.38
486.427	447.38
486.645	466.38
486.863	463.38
487.081	468.38
487.299	449.38
487.517	450.38
487.735	463.38
487.953	475.38
488.171	483.38
488.389	480.38
488.607	464.38
488.825	457.38
489.043	456.38
489.261	466.38
489.479	484.38
489.696	482.38
489.914	496.38
490.132	491.38
490.35	478.38
490.568	476.38
490.786	477.38
491.003	490.38
491.221	504.38
491.439	511.38
491.657	507.38
491.874	504.38
492.092	529.38
492.31	540.38
492.527	523.38
492.745	512.38
492.963	497.38
493.18	523.38
493.398	527.38
493.615	534.38
493.833	520.38
494.05	517.38
494.268	514.38
494.485	517.38
494.703	525.38
494.92	532.38
495.138	528.38
495.355	529.38
495.573	539.38
495.79	514.38
496.008	547.38
496.225	511.38
496.442	517.38
496.66	528.38
496.877	536.38
497.094	548.38
497.312	564.38
497.529	536.38
497.746	565.38
497.963	568.38
498.181	589.38
498.398	591.38
498.615	610.38
498.832	580.38
499.049	641.38
499.267	648.38
499.484	687.38
499.701	705.38
499.918	718.38
500.135	761.38
500.352	773.38
500.569	787.38
500.786	779.38
501.003	779.38
501.22	749.38
501.437	744.38
501.654	704.38
501.871	664.38
