Data from 1960PennyLincolnUp.LampE6.200Scan.07172019.P1_HRD10591_13-05-02-002.txt Node
Date: Thu Jul 18 13:05:02 EDT 2019
User: cochatt
Spectrometer: HR+D1059
Trigger mode: 1
Integration Time (sec): 1.000000E-1
Scans to average: 1
Electric dark correction enabled: true
Nonlinearity correction enabled: false
Boxcar width: 0
XAxis mode: Wavelengths
Number of Pixels in Spectrum: 2048
>>>>>Begin Spectral Data<<<<<
223.165	-13.81
223.4	-13.81
223.635	-13.81
223.869	-26.81
224.104	-12.81
224.338	-13.81
224.573	-6.81
224.808	-11.81
225.042	-7.81
225.277	-11.81
225.511	8.19
225.746	2.19
225.98	13.19
226.215	13.19
226.449	7.19
226.683	26.19
226.918	16.19
227.152	19.19
227.387	44.19
227.621	40.19
227.856	46.19
228.09	36.19
228.324	28.19
228.559	48.19
228.793	60.19
229.027	79.19
229.262	82.19
229.496	95.19
229.73	117.19
229.964	120.19
230.199	106.19
230.433	109.19
230.667	102.19
230.901	114.19
231.136	94.19
231.37	91.19
231.604	96.19
231.838	110.19
232.072	119.19
232.306	104.19
232.541	104.19
232.775	102.19
233.009	105.19
233.243	119.19
233.477	109.19
233.711	115.19
233.945	113.19
234.179	116.19
234.413	95.19
234.647	117.19
234.881	112.19
235.115	96.19
235.349	90.19
235.583	110.19
235.817	114.19
236.051	113.19
236.285	112.19
236.519	105.19
236.753	127.19
236.987	107.19
237.221	116.19
237.455	147.19
237.689	153.19
237.922	114.19
238.156	102.19
238.39	102.19
238.624	109.19
238.858	119.19
239.091	95.19
239.325	123.19
239.559	121.19
239.793	126.19
240.027	113.19
240.26	115.19
240.494	130.19
240.728	116.19
240.961	124.19
241.195	135.19
241.429	147.19
241.662	120.19
241.896	112.19
242.13	130.19
242.363	120.19
242.597	125.19
242.83	125.19
243.064	118.19
243.298	128.19
243.531	130.19
243.765	125.19
243.998	129.19
244.232	121.19
244.465	136.19
244.699	134.19
244.932	128.19
245.166	122.19
245.399	125.19
245.633	128.19
245.866	118.19
246.099	132.19
246.333	130.19
246.566	140.19
246.8	139.19
247.033	127.19
247.266	148.19
247.5	142.19
247.733	152.19
247.966	135.19
248.2	139.19
248.433	161.19
248.666	154.19
248.899	154.19
249.133	165.19
249.366	169.19
249.599	168.19
249.832	151.19
250.066	160.19
250.299	176.19
250.532	159.19
250.765	160.19
250.998	173.19
251.231	197.19
251.465	170.19
251.698	175.19
251.931	180.19
252.164	182.19
252.397	155.19
252.63	151.19
252.863	161.19
253.096	172.19
253.329	194.19
253.562	180.19
253.795	181.19
254.028	178.19
254.261	168.19
254.494	167.19
254.727	189.19
254.96	207.19
255.193	180.19
255.426	167.19
255.659	180.19
255.892	178.19
256.124	186.19
256.357	194.19
256.59	190.19
256.823	167.19
257.056	190.19
257.289	188.19
257.521	181.19
257.754	172.19
257.987	168.19
258.22	170.19
258.452	178.19
258.685	189.19
258.918	182.19
259.151	173.19
259.383	189.19
259.616	190.19
259.849	190.19
260.081	166.19
260.314	208.19
260.547	185.19
260.779	196.19
261.012	202.19
261.244	193.19
261.477	195.19
261.71	180.19
261.942	200.19
262.175	196.19
262.407	197.19
262.64	194.19
262.872	195.19
263.105	198.19
263.337	201.19
263.57	189.19
263.802	185.19
264.035	173.19
264.267	204.19
264.499	204.19
264.732	187.19
264.964	190.19
265.197	192.19
265.429	201.19
265.661	194.19
265.894	186.19
266.126	197.19
266.358	202.19
266.591	207.19
266.823	214.19
267.055	201.19
267.287	204.19
267.52	203.19
267.752	215.19
267.984	190.19
268.216	188.19
268.448	208.19
268.681	220.19
268.913	214.19
269.145	219.19
269.377	239.19
269.609	249.19
269.841	214.19
270.073	226.19
270.306	238.19
270.538	228.19
270.77	240.19
271.002	244.19
271.234	239.19
271.466	235.19
271.698	238.19
271.93	252.19
272.162	252.19
272.394	262.19
272.626	238.19
272.858	224.19
273.09	237.19
273.322	233.19
273.553	216.19
273.785	224.19
274.017	249.19
274.249	243.19
274.481	248.19
274.713	246.19
274.945	232.19
275.176	240.19
275.408	246.19
275.64	238.19
275.872	239.19
276.104	247.19
276.335	238.19
276.567	243.19
276.799	236.19
277.031	249.19
277.262	261.19
277.494	274.19
277.726	251.19
277.957	249.19
278.189	244.19
278.421	265.19
278.652	233.19
278.884	242.19
279.115	247.19
279.347	256.19
279.579	254.19
279.81	277.19
280.042	280.19
280.273	269.19
280.505	260.19
280.736	254.19
280.968	233.19
281.199	254.19
281.431	253.19
281.662	258.19
281.894	264.19
282.125	251.19
282.356	275.19
282.588	275.19
282.819	270.19
283.051	270.19
283.282	260.19
283.513	264.19
283.745	264.19
283.976	250.19
284.207	244.19
284.439	260.19
284.67	275.19
284.901	269.19
285.132	260.19
285.364	273.19
285.595	277.19
285.826	291.19
286.057	297.19
286.288	279.19
286.52	264.19
286.751	264.19
286.982	272.19
287.213	275.19
287.444	272.19
287.675	276.19
287.906	296.19
288.138	286.19
288.369	289.19
288.6	295.19
288.831	276.19
289.062	292.19
289.293	270.19
289.524	274.19
289.755	282.19
289.986	286.19
290.217	269.19
290.448	296.19
290.679	269.19
290.91	283.19
291.141	278.19
291.371	273.19
291.602	292.19
291.833	278.19
292.064	297.19
292.295	276.19
292.526	298.19
292.757	281.19
292.987	278.19
293.218	274.19
293.449	286.19
293.68	304.19
293.91	294.19
294.141	288.19
294.372	283.19
294.603	278.19
294.833	296.19
295.064	264.19
295.295	272.19
295.525	295.19
295.756	276.19
295.987	290.19
296.217	311.19
296.448	289.19
296.679	296.19
296.909	306.19
297.14	292.19
297.37	294.19
297.601	301.19
297.831	289.19
298.062	298.19
298.292	314.19
298.523	305.19
298.753	292.19
298.984	302.19
299.214	303.19
299.445	298.19
299.675	311.19
299.905	306.19
300.136	307.19
300.366	325.19
300.597	317.19
300.827	327.19
301.057	339.19
301.288	329.19
301.518	316.19
301.748	311.19
301.979	322.19
302.209	333.19
302.439	337.19
302.669	332.19
302.9	314.19
303.13	294.19
303.36	311.19
303.59	330.19
303.82	330.19
304.051	342.19
304.281	314.19
304.511	337.19
304.741	312.19
304.971	306.19
305.201	313.19
305.431	313.19
305.661	318.19
305.891	330.19
306.121	321.19
306.352	317.19
306.582	316.19
306.812	330.19
307.042	319.19
307.272	312.19
307.502	323.19
307.731	308.19
307.961	322.19
308.191	326.19
308.421	331.19
308.651	312.19
308.881	324.19
309.111	323.19
309.341	319.19
309.571	340.19
309.8	332.19
310.03	330.19
310.26	341.19
310.49	335.19
310.72	332.19
310.949	348.19
311.179	338.19
311.409	356.19
311.639	339.19
311.868	340.19
312.098	343.19
312.328	346.19
312.557	349.19
312.787	352.19
313.017	365.19
313.246	353.19
313.476	366.19
313.706	345.19
313.935	350.19
314.165	350.19
314.394	365.19
314.624	344.19
314.853	360.19
315.083	357.19
315.312	359.19
315.542	352.19
315.771	358.19
316.001	362.19
316.23	352.19
316.46	354.19
316.689	342.19
316.919	362.19
317.148	353.19
317.377	353.19
317.607	350.19
317.836	365.19
318.065	342.19
318.295	350.19
318.524	357.19
318.753	346.19
318.983	353.19
319.212	366.19
319.441	354.19
319.67	357.19
319.9	329.19
320.129	354.19
320.358	368.19
320.587	361.19
320.816	355.19
321.046	372.19
321.275	362.19
321.504	356.19
321.733	360.19
321.962	372.19
322.191	378.19
322.42	377.19
322.649	393.19
322.878	377.19
323.108	399.19
323.337	401.19
323.566	411.19
323.795	435.19
324.024	434.19
324.253	480.19
324.482	674.19
324.71	933.19
324.939	1290.19
325.168	1047.19
325.397	597.19
325.626	468.19
325.855	415.19
326.084	410.19
326.313	397.19
326.542	426.19
326.77	438.19
326.999	504.19
327.228	611.19
327.457	888.19
327.686	1028.19
327.914	694.19
328.143	490.19
328.372	483.19
328.6	449.19
328.829	432.19
329.058	438.19
329.287	450.19
329.515	447.19
329.744	438.19
329.972	441.19
330.201	430.19
330.43	463.19
330.658	450.19
330.887	452.19
331.115	438.19
331.344	431.19
331.572	436.19
331.801	441.19
332.03	436.19
332.258	414.19
332.486	420.19
332.715	433.19
332.943	451.19
333.172	460.19
333.4	479.19
333.629	494.19
333.857	488.19
334.085	480.19
334.314	497.19
334.542	523.19
334.771	517.19
334.999	481.19
335.227	466.19
335.455	466.19
335.684	458.19
335.912	469.19
336.14	460.19
336.369	439.19
336.597	464.19
336.825	449.19
337.053	422.19
337.281	437.19
337.51	432.19
337.738	448.19
337.966	422.19
338.194	423.19
338.422	411.19
338.65	430.19
338.878	419.19
339.106	428.19
339.334	441.19
339.562	431.19
339.79	409.19
340.018	407.19
340.246	387.19
340.474	406.19
340.702	408.19
340.93	420.19
341.158	412.19
341.386	409.19
341.614	383.19
341.842	404.19
342.07	418.19
342.298	422.19
342.526	391.19
342.754	408.19
342.981	398.19
343.209	427.19
343.437	421.19
343.665	428.19
343.893	440.19
344.12	498.19
344.348	472.19
344.576	441.19
344.804	424.19
345.031	423.19
345.259	415.19
345.487	413.19
345.714	400.19
345.942	389.19
346.17	406.19
346.397	373.19
346.625	381.19
346.853	364.19
347.08	393.19
347.308	393.19
347.535	406.19
347.763	402.19
347.99	407.19
348.218	397.19
348.445	399.19
348.673	390.19
348.9	382.19
349.128	399.19
349.355	384.19
349.583	385.19
349.81	401.19
350.037	389.19
350.265	375.19
350.492	379.19
350.72	398.19
350.947	397.19
351.174	394.19
351.402	390.19
351.629	385.19
351.856	386.19
352.083	408.19
352.311	390.19
352.538	378.19
352.765	378.19
352.992	393.19
353.22	375.19
353.447	392.19
353.674	389.19
353.901	367.19
354.128	382.19
354.355	362.19
354.583	386.19
354.81	378.19
355.037	370.19
355.264	386.19
355.491	385.19
355.718	389.19
355.945	382.19
356.172	374.19
356.399	383.19
356.626	376.19
356.853	377.19
357.08	385.19
357.307	378.19
357.534	368.19
357.761	385.19
357.988	390.19
358.215	369.19
358.441	374.19
358.668	374.19
358.895	394.19
359.122	405.19
359.349	389.19
359.576	386.19
359.802	391.19
360.029	402.19
360.256	418.19
360.483	396.19
360.709	405.19
360.936	394.19
361.163	372.19
361.39	402.19
361.616	384.19
361.843	377.19
362.07	392.19
362.296	409.19
362.523	396.19
362.749	378.19
362.976	401.19
363.203	376.19
363.429	381.19
363.656	387.19
363.882	400.19
364.109	387.19
364.335	362.19
364.562	373.19
364.788	384.19
365.015	386.19
365.241	380.19
365.468	395.19
365.694	386.19
365.92	368.19
366.147	378.19
366.373	382.19
366.599	374.19
366.826	382.19
367.052	381.19
367.278	390.19
367.505	397.19
367.731	384.19
367.957	377.19
368.184	388.19
368.41	383.19
368.636	396.19
368.862	405.19
369.089	392.19
369.315	398.19
369.541	397.19
369.767	384.19
369.993	393.19
370.219	397.19
370.445	417.19
370.672	393.19
370.898	397.19
371.124	390.19
371.35	402.19
371.576	397.19
371.802	394.19
372.028	399.19
372.254	392.19
372.48	410.19
372.706	417.19
372.932	420.19
373.158	417.19
373.384	417.19
373.61	395.19
373.835	393.19
374.061	428.19
374.287	418.19
374.513	420.19
374.739	409.19
374.965	427.19
375.191	424.19
375.416	411.19
375.642	413.19
375.868	437.19
376.094	401.19
376.319	411.19
376.545	416.19
376.771	398.19
376.997	401.19
377.222	408.19
377.448	384.19
377.674	404.19
377.899	389.19
378.125	400.19
378.35	386.19
378.576	400.19
378.802	416.19
379.027	391.19
379.253	407.19
379.478	398.19
379.704	407.19
379.929	391.19
380.155	397.19
380.38	398.19
380.606	398.19
380.831	411.19
381.057	418.19
381.282	401.19
381.507	425.19
381.733	408.19
381.958	428.19
382.184	407.19
382.409	430.19
382.634	426.19
382.86	402.19
383.085	416.19
383.31	446.19
383.535	451.19
383.761	429.19
383.986	440.19
384.211	447.19
384.436	444.19
384.662	451.19
384.887	471.19
385.112	461.19
385.337	477.19
385.562	480.19
385.787	471.19
386.013	482.19
386.238	482.19
386.463	471.19
386.688	469.19
386.913	472.19
387.138	466.19
387.363	467.19
387.588	462.19
387.813	457.19
388.038	454.19
388.263	468.19
388.488	481.19
388.713	490.19
388.938	465.19
389.163	466.19
389.387	470.19
389.612	453.19
389.837	455.19
390.062	473.19
390.287	468.19
390.512	445.19
390.736	448.19
390.961	455.19
391.186	472.19
391.411	461.19
391.636	494.19
391.86	496.19
392.085	505.19
392.31	514.19
392.534	479.19
392.759	489.19
392.984	488.19
393.208	512.19
393.433	568.19
393.658	590.19
393.882	513.19
394.107	471.19
394.331	481.19
394.556	480.19
394.78	481.19
395.005	480.19
395.229	471.19
395.454	484.19
395.678	525.19
395.903	496.19
396.127	522.19
396.352	490.19
396.576	489.19
396.801	514.19
397.025	533.19
397.249	525.19
397.474	516.19
397.698	503.19
397.922	488.19
398.147	508.19
398.371	530.19
398.595	528.19
398.82	538.19
399.044	567.19
399.268	615.19
399.492	679.19
399.717	763.19
399.941	709.19
400.165	686.19
400.389	659.19
400.613	618.19
400.837	585.19
401.062	566.19
401.286	545.19
401.51	567.19
401.734	553.19
401.958	576.19
402.182	579.19
402.406	556.19
402.63	560.19
402.854	575.19
403.078	580.19
403.302	578.19
403.526	592.19
403.75	597.19
403.974	589.19
404.198	587.19
404.422	608.19
404.645	620.19
404.869	605.19
405.093	593.19
405.317	621.19
405.541	627.19
405.765	626.19
405.988	583.19
406.212	572.19
406.436	607.19
406.66	628.19
406.883	620.19
407.107	635.19
407.331	678.19
407.555	718.19
407.778	698.19
408.002	666.19
408.226	621.19
408.449	612.19
408.673	610.19
408.896	614.19
409.12	626.19
409.344	601.19
409.567	580.19
409.791	590.19
410.014	578.19
410.238	600.19
410.461	568.19
410.685	578.19
410.908	577.19
411.132	595.19
411.355	575.19
411.578	574.19
411.802	563.19
412.025	574.19
412.249	565.19
412.472	594.19
412.695	600.19
412.919	567.19
413.142	546.19
413.365	528.19
413.589	558.19
413.812	526.19
414.035	570.19
414.258	536.19
414.482	538.19
414.705	535.19
414.928	567.19
415.151	546.19
415.374	535.19
415.597	543.19
415.821	535.19
416.044	504.19
416.267	521.19
416.49	518.19
416.713	522.19
416.936	535.19
417.159	533.19
417.382	523.19
417.605	541.19
417.828	542.19
418.051	549.19
418.274	562.19
418.497	522.19
418.72	548.19
418.943	560.19
419.166	579.19
419.389	618.19
419.611	599.19
419.834	570.19
420.057	552.19
420.28	569.19
420.503	533.19
420.726	551.19
420.948	546.19
421.171	552.19
421.394	558.19
421.617	530.19
421.839	542.19
422.062	552.19
422.285	564.19
422.507	588.19
422.73	649.19
422.953	633.19
423.175	573.19
423.398	572.19
423.621	564.19
423.843	570.19
424.066	569.19
424.288	582.19
424.511	593.19
424.733	592.19
424.956	621.19
425.178	614.19
425.401	597.19
425.623	642.19
425.846	544.19
426.068	542.19
426.291	545.19
426.513	525.19
426.735	552.19
426.958	559.19
427.18	593.19
427.402	668.19
427.625	708.19
427.847	647.19
428.069	569.19
428.292	544.19
428.514	512.19
428.736	502.19
428.958	504.19
429.181	510.19
429.403	488.19
429.625	474.19
429.847	512.19
430.069	540.19
430.292	550.19
430.514	492.19
430.736	497.19
430.958	511.19
431.18	482.19
431.402	488.19
431.624	489.19
431.846	490.19
432.068	505.19
432.29	494.19
432.512	485.19
432.734	487.19
432.956	506.19
433.178	515.19
433.4	499.19
433.622	514.19
433.844	496.19
434.066	500.19
434.287	510.19
434.509	496.19
434.731	522.19
434.953	517.19
435.175	545.19
435.397	526.19
435.618	526.19
435.84	558.19
436.062	571.19
436.284	610.19
436.505	535.19
436.727	514.19
436.949	494.19
437.17	509.19
437.392	492.19
437.614	488.19
437.835	498.19
438.057	560.19
438.278	606.19
438.5	587.19
438.721	630.19
438.943	612.19
439.165	522.19
439.386	520.19
439.608	500.19
439.829	540.19
440.05	523.19
440.272	578.19
440.493	548.19
440.715	513.19
440.936	512.19
441.158	518.19
441.379	520.19
441.6	549.19
441.822	560.19
442.043	579.19
442.264	601.19
442.486	609.19
442.707	563.19
442.928	562.19
443.149	549.19
443.371	544.19
443.592	597.19
443.813	650.19
444.034	652.19
444.255	594.19
444.476	570.19
444.698	593.19
444.919	618.19
445.14	685.19
445.361	610.19
445.582	556.19
445.803	598.19
446.024	608.19
446.245	640.19
446.466	573.19
446.687	538.19
446.908	510.19
447.129	486.19
447.35	483.19
447.571	484.19
447.792	470.19
448.013	482.19
448.234	495.19
448.455	526.19
448.675	553.19
448.896	593.19
449.117	529.19
449.338	510.19
449.559	556.19
449.779	668.19
450	538.19
450.221	473.19
450.442	458.19
450.662	472.19
450.883	454.19
451.104	465.19
451.324	479.19
451.545	442.19
451.766	463.19
451.986	446.19
452.207	425.19
452.428	462.19
452.648	423.19
452.869	444.19
453.089	437.19
453.31	448.19
453.53	436.19
453.751	438.19
453.971	423.19
454.192	444.19
454.412	421.19
454.633	408.19
454.853	428.19
455.073	418.19
455.294	438.19
455.514	467.19
455.734	439.19
455.955	434.19
456.175	413.19
456.395	444.19
456.616	414.19
456.836	423.19
457.056	412.19
457.276	423.19
457.497	435.19
457.717	430.19
457.937	424.19
458.157	423.19
458.377	426.19
458.598	423.19
458.818	500.19
459.038	510.19
459.258	528.19
459.478	509.19
459.698	505.19
459.918	502.19
460.138	527.19
460.358	553.19
460.578	522.19
460.798	533.19
461.018	531.19
461.238	549.19
461.458	559.19
461.678	535.19
461.898	541.19
462.118	542.19
462.338	548.19
462.558	588.19
462.777	612.19
462.997	641.19
463.217	672.19
463.437	684.19
463.657	614.19
463.876	587.19
464.096	590.19
464.316	575.19
464.536	582.19
464.755	594.19
464.975	569.19
465.195	567.19
465.414	596.19
465.634	531.19
465.854	522.19
466.073	482.19
466.293	468.19
466.512	480.19
466.732	447.19
466.951	459.19
467.171	446.19
467.391	482.19
467.61	457.19
467.829	455.19
468.049	483.19
468.268	476.19
468.488	463.19
468.707	451.19
468.927	455.19
469.146	457.19
469.365	464.19
469.585	458.19
469.804	465.19
470.023	466.19
470.243	488.19
470.462	486.19
470.681	508.19
470.901	470.19
471.12	458.19
471.339	478.19
471.558	485.19
471.777	471.19
471.997	448.19
472.216	470.19
472.435	480.19
472.654	475.19
472.873	443.19
473.092	438.19
473.311	466.19
473.53	447.19
473.749	455.19
473.968	472.19
474.187	514.19
474.406	526.19
474.625	476.19
474.844	453.19
475.063	465.19
475.282	437.19
475.501	465.19
475.72	473.19
475.939	437.19
476.158	466.19
476.377	484.19
476.596	476.19
476.814	475.19
477.033	488.19
477.252	511.19
477.471	485.19
477.69	501.19
477.908	496.19
478.127	507.19
478.346	516.19
478.564	553.19
478.783	520.19
479.002	540.19
479.22	570.19
479.439	575.19
479.658	554.19
479.876	547.19
480.095	561.19
480.313	597.19
480.532	591.19
480.751	578.19
480.969	592.19
481.188	608.19
481.406	626.19
481.624	567.19
481.843	546.19
482.061	531.19
482.28	530.19
482.498	531.19
482.717	549.19
482.935	536.19
483.153	531.19
483.372	532.19
483.59	541.19
483.808	504.19
484.027	512.19
484.245	541.19
484.463	524.19
484.681	553.19
484.9	530.19
485.118	565.19
485.336	538.19
485.554	533.19
485.772	544.19
485.99	540.19
486.209	533.19
486.427	569.19
486.645	560.19
486.863	556.19
487.081	565.19
487.299	549.19
487.517	563.19
487.735	556.19
487.953	560.19
488.171	573.19
488.389	543.19
488.607	569.19
488.825	554.19
489.043	553.19
489.261	553.19
489.479	560.19
489.696	543.19
489.914	577.19
490.132	559.19
490.35	588.19
490.568	569.19
490.786	565.19
491.003	604.19
491.221	581.19
491.439	590.19
491.657	609.19
491.874	600.19
492.092	591.19
492.31	606.19
492.527	582.19
492.745	610.19
492.963	605.19
493.18	616.19
493.398	620.19
493.615	621.19
493.833	620.19
494.05	616.19
494.268	615.19
494.485	607.19
494.703	620.19
494.92	617.19
495.138	633.19
495.355	615.19
495.573	628.19
495.79	610.19
496.008	614.19
496.225	646.19
496.442	635.19
496.66	644.19
496.877	642.19
497.094	656.19
497.312	619.19
497.529	656.19
497.746	653.19
497.963	695.19
498.181	696.19
498.398	732.19
498.615	740.19
498.832	771.19
499.049	825.19
499.267	864.19
499.484	914.19
499.701	977.19
499.918	1034.19
500.135	1136.19
500.352	1286.19
500.569	1289.19
500.786	1296.19
501.003	1205.19
501.22	1114.19
501.437	1055.19
501.654	1003.19
501.871	918.19
502.088	887.19
