Data from 1960PennyLincolnUp.LampE5.5.200Scan.07172019.P1.ChangedAngle_HRD10591_13-15-19-822.txt Node
Date: Thu Jul 18 13:15:19 EDT 2019
User: cochatt
Spectrometer: HR+D1059
Trigger mode: 1
Integration Time (sec): 1.000000E-1
Scans to average: 1
Electric dark correction enabled: true
Nonlinearity correction enabled: false
Boxcar width: 0
XAxis mode: Wavelengths
Number of Pixels in Spectrum: 2048
>>>>>Begin Spectral Data<<<<<
223.165	-17.38
223.4	-17.38
223.635	-17.38
223.869	-19.38
224.104	-24.38
224.338	-28.38
224.573	-8.38
224.808	-10.38
225.042	-24.38
225.277	-3.38
225.511	5.62
225.746	14.62
225.98	11.62
226.215	9.62
226.449	17.62
226.683	27.62
226.918	22.62
227.152	26.62
227.387	41.62
227.621	28.62
227.856	39.62
228.09	44.62
228.324	56.62
228.559	53.62
228.793	72.62
229.027	70.62
229.262	92.62
229.496	84.62
229.73	105.62
229.964	101.62
230.199	99.62
230.433	105.62
230.667	103.62
230.901	78.62
231.136	102.62
231.37	93.62
231.604	112.62
231.838	109.62
232.072	103.62
232.306	102.62
232.541	103.62
232.775	121.62
233.009	113.62
233.243	111.62
233.477	102.62
233.711	94.62
233.945	107.62
234.179	105.62
234.413	102.62
234.647	113.62
234.881	102.62
235.115	119.62
235.349	108.62
235.583	95.62
235.817	119.62
236.051	121.62
236.285	103.62
236.519	110.62
236.753	113.62
236.987	113.62
237.221	148.62
237.455	168.62
237.689	141.62
237.922	105.62
238.156	105.62
238.39	131.62
238.624	120.62
238.858	129.62
239.091	106.62
239.325	112.62
239.559	115.62
239.793	109.62
240.027	128.62
240.26	133.62
240.494	123.62
240.728	136.62
240.961	127.62
241.195	130.62
241.429	128.62
241.662	117.62
241.896	114.62
242.13	135.62
242.363	117.62
242.597	132.62
242.83	121.62
243.064	119.62
243.298	130.62
243.531	121.62
243.765	137.62
243.998	140.62
244.232	139.62
244.465	113.62
244.699	148.62
244.932	133.62
245.166	146.62
245.399	127.62
245.633	118.62
245.866	127.62
246.099	141.62
246.333	154.62
246.566	139.62
246.8	147.62
247.033	146.62
247.266	148.62
247.5	136.62
247.733	145.62
247.966	157.62
248.2	157.62
248.433	154.62
248.666	157.62
248.899	154.62
249.133	146.62
249.366	185.62
249.599	171.62
249.832	158.62
250.066	158.62
250.299	156.62
250.532	171.62
250.765	183.62
250.998	197.62
251.231	187.62
251.465	189.62
251.698	167.62
251.931	168.62
252.164	171.62
252.397	179.62
252.63	174.62
252.863	184.62
253.096	188.62
253.329	189.62
253.562	193.62
253.795	189.62
254.028	179.62
254.261	183.62
254.494	196.62
254.727	202.62
254.96	222.62
255.193	238.62
255.426	218.62
255.659	218.62
255.892	194.62
256.124	193.62
256.357	204.62
256.59	205.62
256.823	206.62
257.056	196.62
257.289	181.62
257.521	183.62
257.754	183.62
257.987	180.62
258.22	193.62
258.452	189.62
258.685	192.62
258.918	189.62
259.151	171.62
259.383	184.62
259.616	189.62
259.849	203.62
260.081	213.62
260.314	231.62
260.547	229.62
260.779	203.62
261.012	221.62
261.244	193.62
261.477	205.62
261.71	206.62
261.942	201.62
262.175	201.62
262.407	206.62
262.64	213.62
262.872	205.62
263.105	191.62
263.337	219.62
263.57	201.62
263.802	202.62
264.035	205.62
264.267	204.62
264.499	199.62
264.732	199.62
264.964	193.62
265.197	188.62
265.429	191.62
265.661	205.62
265.894	203.62
266.126	190.62
266.358	201.62
266.591	209.62
266.823	197.62
267.055	217.62
267.287	209.62
267.52	209.62
267.752	198.62
267.984	217.62
268.216	222.62
268.448	211.62
268.681	217.62
268.913	222.62
269.145	244.62
269.377	248.62
269.609	252.62
269.841	235.62
270.073	237.62
270.306	269.62
270.538	270.62
270.77	262.62
271.002	254.62
271.234	267.62
271.466	260.62
271.698	281.62
271.93	289.62
272.162	274.62
272.394	279.62
272.626	256.62
272.858	236.62
273.09	267.62
273.322	262.62
273.553	222.62
273.785	236.62
274.017	235.62
274.249	239.62
274.481	265.62
274.713	253.62
274.945	247.62
275.176	255.62
275.408	254.62
275.64	239.62
275.872	246.62
276.104	252.62
276.335	247.62
276.567	230.62
276.799	262.62
277.031	290.62
277.262	265.62
277.494	283.62
277.726	272.62
277.957	260.62
278.189	270.62
278.421	247.62
278.652	257.62
278.884	227.62
279.115	269.62
279.347	250.62
279.579	269.62
279.81	250.62
280.042	250.62
280.273	250.62
280.505	244.62
280.736	241.62
280.968	273.62
281.199	266.62
281.431	255.62
281.662	265.62
281.894	261.62
282.125	247.62
282.356	275.62
282.588	303.62
282.819	289.62
283.051	266.62
283.282	269.62
283.513	258.62
283.745	255.62
283.976	261.62
284.207	262.62
284.439	270.62
284.67	250.62
284.901	268.62
285.132	270.62
285.364	272.62
285.595	267.62
285.826	275.62
286.057	282.62
286.288	277.62
286.52	274.62
286.751	279.62
286.982	290.62
287.213	279.62
287.444	273.62
287.675	288.62
287.906	278.62
288.138	276.62
288.369	287.62
288.6	292.62
288.831	277.62
289.062	277.62
289.293	280.62
289.524	288.62
289.755	251.62
289.986	287.62
290.217	268.62
290.448	280.62
290.679	287.62
290.91	289.62
291.141	265.62
291.371	289.62
291.602	293.62
291.833	278.62
292.064	268.62
292.295	280.62
292.526	273.62
292.757	278.62
292.987	279.62
293.218	289.62
293.449	269.62
293.68	286.62
293.91	283.62
294.141	281.62
294.372	269.62
294.603	294.62
294.833	276.62
295.064	282.62
295.295	292.62
295.525	289.62
295.756	290.62
295.987	275.62
296.217	292.62
296.448	301.62
296.679	282.62
296.909	307.62
297.14	293.62
297.37	292.62
297.601	290.62
297.831	280.62
298.062	282.62
298.292	273.62
298.523	301.62
298.753	281.62
298.984	301.62
299.214	297.62
299.445	283.62
299.675	312.62
299.905	290.62
300.136	297.62
300.366	308.62
300.597	298.62
300.827	287.62
301.057	314.62
301.288	305.62
301.518	303.62
301.748	317.62
301.979	312.62
302.209	306.62
302.439	315.62
302.669	319.62
302.9	329.62
303.13	318.62
303.36	297.62
303.59	313.62
303.82	302.62
304.051	302.62
304.281	314.62
304.511	316.62
304.741	305.62
304.971	305.62
305.201	322.62
305.431	314.62
305.661	332.62
305.891	313.62
306.121	318.62
306.352	321.62
306.582	303.62
306.812	323.62
307.042	325.62
307.272	308.62
307.502	322.62
307.731	327.62
307.961	313.62
308.191	308.62
308.421	319.62
308.651	317.62
308.881	316.62
309.111	330.62
309.341	307.62
309.571	331.62
309.8	341.62
310.03	330.62
310.26	350.62
310.49	346.62
310.72	354.62
310.949	331.62
311.179	364.62
311.409	350.62
311.639	329.62
311.868	347.62
312.098	345.62
312.328	359.62
312.557	346.62
312.787	371.62
313.017	357.62
313.246	358.62
313.476	344.62
313.706	342.62
313.935	348.62
314.165	357.62
314.394	361.62
314.624	352.62
314.853	369.62
315.083	356.62
315.312	347.62
315.542	364.62
315.771	350.62
316.001	358.62
316.23	326.62
316.46	345.62
316.689	342.62
316.919	367.62
317.148	355.62
317.377	352.62
317.607	348.62
317.836	363.62
318.065	358.62
318.295	344.62
318.524	343.62
318.753	348.62
318.983	356.62
319.212	362.62
319.441	371.62
319.67	348.62
319.9	335.62
320.129	354.62
320.358	350.62
320.587	358.62
320.816	365.62
321.046	363.62
321.275	376.62
321.504	365.62
321.733	360.62
321.962	379.62
322.191	386.62
322.42	396.62
322.649	397.62
322.878	398.62
323.108	404.62
323.337	408.62
323.566	428.62
323.795	430.62
324.024	492.62
324.253	533.62
324.482	765.62
324.71	1099.62
324.939	1393.62
325.168	1193.62
325.397	695.62
325.626	531.62
325.855	464.62
326.084	445.62
326.313	430.62
326.542	441.62
326.77	472.62
326.999	547.62
327.228	699.62
327.457	909.62
327.686	1053.62
327.914	755.62
328.143	553.62
328.372	506.62
328.6	484.62
328.829	467.62
329.058	473.62
329.287	484.62
329.515	459.62
329.744	435.62
329.972	441.62
330.201	469.62
330.43	493.62
330.658	490.62
330.887	486.62
331.115	471.62
331.344	449.62
331.572	445.62
331.801	417.62
332.03	433.62
332.258	434.62
332.486	412.62
332.715	420.62
332.943	423.62
333.172	451.62
333.4	417.62
333.629	421.62
333.857	429.62
334.085	445.62
334.314	459.62
334.542	486.62
334.771	466.62
334.999	453.62
335.227	442.62
335.455	451.62
335.684	438.62
335.912	427.62
336.14	425.62
336.369	400.62
336.597	430.62
336.825	403.62
337.053	407.62
337.281	411.62
337.51	419.62
337.738	406.62
337.966	393.62
338.194	398.62
338.422	428.62
338.65	430.62
338.878	398.62
339.106	383.62
339.334	409.62
339.562	396.62
339.79	409.62
340.018	393.62
340.246	377.62
340.474	395.62
340.702	378.62
340.93	395.62
341.158	407.62
341.386	382.62
341.614	403.62
341.842	388.62
342.07	375.62
342.298	407.62
342.526	380.62
342.754	382.62
342.981	389.62
343.209	374.62
343.437	379.62
343.665	389.62
343.893	395.62
344.12	385.62
344.348	383.62
344.576	397.62
344.804	397.62
345.031	391.62
345.259	406.62
345.487	404.62
345.714	376.62
345.942	384.62
346.17	377.62
346.397	371.62
346.625	374.62
346.853	363.62
347.08	366.62
347.308	383.62
347.535	377.62
347.763	382.62
347.99	397.62
348.218	375.62
348.445	381.62
348.673	377.62
348.9	371.62
349.128	373.62
349.355	345.62
349.583	355.62
349.81	375.62
350.037	367.62
350.265	357.62
350.492	351.62
350.72	357.62
350.947	380.62
351.174	364.62
351.402	365.62
351.629	373.62
351.856	374.62
352.083	368.62
352.311	374.62
352.538	366.62
352.765	369.62
352.992	369.62
353.22	367.62
353.447	366.62
353.674	361.62
353.901	358.62
354.128	349.62
354.355	359.62
354.583	367.62
354.81	348.62
355.037	358.62
355.264	361.62
355.491	339.62
355.718	377.62
355.945	346.62
356.172	341.62
356.399	359.62
356.626	338.62
356.853	337.62
357.08	363.62
357.307	357.62
357.534	344.62
357.761	348.62
357.988	365.62
358.215	342.62
358.441	358.62
358.668	333.62
358.895	360.62
359.122	377.62
359.349	362.62
359.576	367.62
359.802	372.62
360.029	398.62
360.256	396.62
360.483	380.62
360.709	358.62
360.936	371.62
361.163	351.62
361.39	364.62
361.616	366.62
361.843	381.62
362.07	343.62
362.296	365.62
362.523	353.62
362.749	346.62
362.976	362.62
363.203	376.62
363.429	355.62
363.656	338.62
363.882	351.62
364.109	336.62
364.335	341.62
364.562	339.62
364.788	340.62
365.015	355.62
365.241	361.62
365.468	341.62
365.694	330.62
365.92	350.62
366.147	347.62
366.373	345.62
366.599	335.62
366.826	350.62
367.052	350.62
367.278	326.62
367.505	349.62
367.731	353.62
367.957	351.62
368.184	325.62
368.41	352.62
368.636	357.62
368.862	364.62
369.089	347.62
369.315	357.62
369.541	363.62
369.767	357.62
369.993	360.62
370.219	348.62
370.445	345.62
370.672	342.62
370.898	354.62
371.124	350.62
371.35	346.62
371.576	358.62
371.802	357.62
372.028	356.62
372.254	354.62
372.48	361.62
372.706	348.62
372.932	365.62
373.158	364.62
373.384	339.62
373.61	353.62
373.835	365.62
374.061	360.62
374.287	336.62
374.513	337.62
374.739	365.62
374.965	346.62
375.191	353.62
375.416	361.62
375.642	351.62
375.868	331.62
376.094	342.62
376.319	341.62
376.545	348.62
376.771	328.62
376.997	362.62
377.222	323.62
377.448	335.62
377.674	364.62
377.899	335.62
378.125	344.62
378.35	340.62
378.576	324.62
378.802	345.62
379.027	341.62
379.253	357.62
379.478	341.62
379.704	335.62
379.929	330.62
380.155	357.62
380.38	359.62
380.606	344.62
380.831	347.62
381.057	328.62
381.282	355.62
381.507	330.62
381.733	371.62
381.958	364.62
382.184	341.62
382.409	357.62
382.634	345.62
382.86	343.62
383.085	334.62
383.31	358.62
383.535	362.62
383.761	366.62
383.986	365.62
384.211	359.62
384.436	360.62
384.662	364.62
384.887	351.62
385.112	353.62
385.337	373.62
385.562	346.62
385.787	361.62
386.013	375.62
386.238	370.62
386.463	369.62
386.688	373.62
386.913	371.62
387.138	368.62
387.363	385.62
387.588	348.62
387.813	356.62
388.038	371.62
388.263	376.62
388.488	363.62
388.713	370.62
388.938	340.62
389.163	383.62
389.387	373.62
389.612	359.62
389.837	380.62
390.062	375.62
390.287	363.62
390.512	353.62
390.736	373.62
390.961	382.62
391.186	379.62
391.411	377.62
391.636	389.62
391.86	378.62
392.085	396.62
392.31	378.62
392.534	373.62
392.759	363.62
392.984	359.62
393.208	372.62
393.433	384.62
393.658	388.62
393.882	364.62
394.107	367.62
394.331	377.62
394.556	363.62
394.78	370.62
395.005	365.62
395.229	359.62
395.454	384.62
395.678	387.62
395.903	390.62
396.127	407.62
396.352	401.62
396.576	370.62
396.801	386.62
397.025	382.62
397.249	386.62
397.474	379.62
397.698	387.62
397.922	402.62
398.147	391.62
398.371	417.62
398.595	412.62
398.82	427.62
399.044	417.62
399.268	439.62
399.492	446.62
399.717	455.62
399.941	494.62
400.165	505.62
400.389	499.62
400.613	450.62
400.837	438.62
401.062	404.62
401.286	409.62
401.51	402.62
401.734	403.62
401.958	416.62
402.182	421.62
402.406	432.62
402.63	411.62
402.854	415.62
403.078	402.62
403.302	399.62
403.526	410.62
403.75	400.62
403.974	435.62
404.198	421.62
404.422	404.62
404.645	431.62
404.869	425.62
405.093	462.62
405.317	493.62
405.541	501.62
405.765	453.62
405.988	453.62
406.212	458.62
406.436	465.62
406.66	471.62
406.883	431.62
407.107	475.62
407.331	489.62
407.555	551.62
407.778	547.62
408.002	488.62
408.226	474.62
408.449	471.62
408.673	458.62
408.896	470.62
409.12	509.62
409.344	466.62
409.567	446.62
409.791	446.62
410.014	441.62
410.238	434.62
410.461	427.62
410.685	435.62
410.908	446.62
411.132	458.62
411.355	459.62
411.578	461.62
411.802	407.62
412.025	430.62
412.249	430.62
412.472	445.62
412.695	462.62
412.919	465.62
413.142	431.62
413.365	429.62
413.589	415.62
413.812	409.62
414.035	401.62
414.258	404.62
414.482	403.62
414.705	409.62
414.928	397.62
415.151	392.62
415.374	404.62
415.597	412.62
415.821	394.62
416.044	373.62
416.267	395.62
416.49	403.62
416.713	382.62
416.936	386.62
417.159	405.62
417.382	375.62
417.605	405.62
417.828	404.62
418.051	425.62
418.274	435.62
418.497	381.62
418.72	382.62
418.943	373.62
419.166	411.62
419.389	423.62
419.611	397.62
419.834	395.62
420.057	403.62
420.28	410.62
420.503	407.62
420.726	402.62
420.948	419.62
421.171	444.62
421.394	448.62
421.617	422.62
421.839	406.62
422.062	406.62
422.285	414.62
422.507	428.62
422.73	497.62
422.953	479.62
423.175	433.62
423.398	427.62
423.621	423.62
423.843	419.62
424.066	430.62
424.288	431.62
424.511	446.62
424.733	474.62
424.956	536.62
425.178	499.62
425.401	507.62
425.623	525.62
425.846	451.62
426.068	438.62
426.291	447.62
426.513	426.62
426.735	443.62
426.958	447.62
427.18	499.62
427.402	575.62
427.625	669.62
427.847	535.62
428.069	502.62
428.292	456.62
428.514	423.62
428.736	412.62
428.958	391.62
429.181	391.62
429.403	389.62
429.625	395.62
429.847	424.62
430.069	469.62
430.292	440.62
430.514	415.62
430.736	387.62
430.958	415.62
431.18	393.62
431.402	367.62
431.624	397.62
431.846	379.62
432.068	367.62
432.29	361.62
432.512	370.62
432.734	405.62
432.956	399.62
433.178	379.62
433.4	399.62
433.622	387.62
433.844	395.62
434.066	386.62
434.287	370.62
434.509	370.62
434.731	401.62
434.953	377.62
435.175	396.62
435.397	396.62
435.618	417.62
435.84	429.62
436.062	501.62
436.284	538.62
436.505	464.62
436.727	422.62
436.949	403.62
437.17	376.62
437.392	394.62
437.614	407.62
437.835	410.62
438.057	463.62
438.278	527.62
438.5	550.62
438.721	589.62
438.943	542.62
439.165	461.62
439.386	429.62
439.608	414.62
439.829	427.62
440.05	423.62
440.272	452.62
440.493	447.62
440.715	402.62
440.936	410.62
441.158	388.62
441.379	403.62
441.6	409.62
441.822	387.62
442.043	436.62
442.264	468.62
442.486	528.62
442.707	450.62
442.928	437.62
443.149	439.62
443.371	437.62
443.592	461.62
443.813	525.62
444.034	567.62
444.255	485.62
444.476	441.62
444.698	439.62
444.919	429.62
445.14	513.62
445.361	449.62
445.582	447.62
445.803	483.62
446.024	536.62
446.245	539.62
446.466	504.62
446.687	442.62
446.908	421.62
447.129	397.62
447.35	372.62
447.571	389.62
447.792	358.62
448.013	382.62
448.234	399.62
448.455	429.62
448.675	478.62
448.896	554.62
449.117	495.62
449.338	457.62
449.559	561.62
449.779	620.62
450	495.62
450.221	417.62
450.442	390.62
450.662	371.62
450.883	381.62
451.104	394.62
451.324	391.62
451.545	366.62
451.766	365.62
451.986	306.62
452.207	340.62
452.428	349.62
452.648	353.62
452.869	350.62
453.089	357.62
453.31	365.62
453.53	340.62
453.751	361.62
453.971	359.62
454.192	357.62
454.412	367.62
454.633	350.62
454.853	341.62
455.073	348.62
455.294	402.62
455.514	405.62
455.734	399.62
455.955	350.62
456.175	336.62
456.395	364.62
456.616	321.62
456.836	318.62
457.056	327.62
457.276	322.62
457.497	345.62
457.717	348.62
457.937	350.62
458.157	352.62
458.377	344.62
458.598	369.62
458.818	383.62
459.038	423.62
459.258	443.62
459.478	401.62
459.698	362.62
459.918	388.62
460.138	375.62
460.358	374.62
460.578	381.62
460.798	383.62
461.018	392.62
461.238	371.62
461.458	371.62
461.678	387.62
461.898	383.62
462.118	389.62
462.338	401.62
462.558	392.62
462.777	397.62
462.997	412.62
463.217	413.62
463.437	425.62
463.657	405.62
463.876	414.62
464.096	417.62
464.316	393.62
464.536	424.62
464.755	405.62
464.975	399.62
465.195	400.62
465.414	419.62
465.634	412.62
465.854	405.62
466.073	377.62
466.293	384.62
466.512	366.62
466.732	369.62
466.951	366.62
467.171	358.62
467.391	365.62
467.61	375.62
467.829	378.62
468.049	350.62
468.268	371.62
468.488	348.62
468.707	365.62
468.927	371.62
469.146	357.62
469.365	363.62
469.585	337.62
469.804	345.62
470.023	371.62
470.243	371.62
470.462	364.62
470.681	375.62
470.901	363.62
471.12	360.62
471.339	366.62
471.558	358.62
471.777	369.62
471.997	373.62
472.216	369.62
472.435	373.62
472.654	379.62
472.873	371.62
473.092	358.62
473.311	375.62
473.53	371.62
473.749	382.62
473.968	409.62
474.187	419.62
474.406	446.62
474.625	406.62
474.844	378.62
475.063	381.62
475.282	375.62
475.501	365.62
475.72	393.62
475.939	366.62
476.158	393.62
476.377	371.62
476.596	362.62
476.814	381.62
477.033	413.62
477.252	381.62
477.471	382.62
477.69	384.62
477.908	403.62
478.127	399.62
478.346	401.62
478.564	409.62
478.783	408.62
479.002	412.62
479.22	411.62
479.439	412.62
479.658	451.62
479.876	429.62
480.095	426.62
480.313	463.62
480.532	455.62
480.751	422.62
480.969	443.62
481.188	483.62
481.406	483.62
481.624	466.62
481.843	437.62
482.061	426.62
482.28	432.62
482.498	427.62
482.717	417.62
482.935	428.62
483.153	422.62
483.372	423.62
483.59	392.62
483.808	418.62
484.027	434.62
484.245	430.62
484.463	433.62
484.681	407.62
484.9	446.62
485.118	435.62
485.336	409.62
485.554	434.62
485.772	443.62
485.99	443.62
486.209	445.62
486.427	429.62
486.645	447.62
486.863	450.62
487.081	448.62
487.299	458.62
487.517	447.62
487.735	441.62
487.953	452.62
488.171	448.62
488.389	450.62
488.607	470.62
488.825	447.62
489.043	459.62
489.261	462.62
489.479	463.62
489.696	460.62
489.914	454.62
490.132	450.62
490.35	464.62
490.568	470.62
490.786	478.62
491.003	489.62
491.221	485.62
491.439	493.62
491.657	481.62
491.874	497.62
492.092	478.62
492.31	487.62
492.527	494.62
492.745	500.62
492.963	493.62
493.18	514.62
493.398	500.62
493.615	513.62
493.833	502.62
494.05	526.62
494.268	521.62
494.485	513.62
494.703	520.62
494.92	491.62
495.138	527.62
495.355	509.62
495.573	504.62
495.79	506.62
496.008	513.62
496.225	510.62
496.442	535.62
496.66	513.62
496.877	520.62
497.094	541.62
497.312	518.62
497.529	549.62
497.746	547.62
497.963	550.62
498.181	566.62
498.398	594.62
498.615	568.62
498.832	604.62
499.049	618.62
499.267	626.62
499.484	629.62
499.701	673.62
499.918	687.62
500.135	718.62
500.352	747.62
500.569	754.62
500.786	745.62
501.003	737.62
501.22	713.62
501.437	695.62
501.654	689.62
501.871	674.62
