Data from 1960PennyLincolnUp.LampE5.5.200Scan.07172019.P1.ChangedAngle_HRD10591_13-14-14-821.txt Node
Date: Thu Jul 18 13:14:14 EDT 2019
User: cochatt
Spectrometer: HR+D1059
Trigger mode: 1
Integration Time (sec): 1.000000E-1
Scans to average: 1
Electric dark correction enabled: true
Nonlinearity correction enabled: false
Boxcar width: 0
XAxis mode: Wavelengths
Number of Pixels in Spectrum: 2048
>>>>>Begin Spectral Data<<<<<
223.165	-9.94
223.4	-9.94
223.635	-9.94
223.869	-19.94
224.104	-8.94
224.338	-14.94
224.573	-21.94
224.808	-16.94
225.042	-5.94
225.277	-10.94
225.511	9.06
225.746	7.06
225.98	7.06
226.215	9.06
226.449	9.06
226.683	19.06
226.918	20.06
227.152	29.06
227.387	28.06
227.621	20.06
227.856	31.06
228.09	33.06
228.324	51.06
228.559	47.06
228.793	55.06
229.027	74.06
229.262	91.06
229.496	88.06
229.73	95.06
229.964	106.06
230.199	95.06
230.433	99.06
230.667	104.06
230.901	101.06
231.136	99.06
231.37	107.06
231.604	119.06
231.838	97.06
232.072	92.06
232.306	91.06
232.541	101.06
232.775	108.06
233.009	92.06
233.243	99.06
233.477	88.06
233.711	125.06
233.945	111.06
234.179	112.06
234.413	123.06
234.647	104.06
234.881	120.06
235.115	118.06
235.349	107.06
235.583	92.06
235.817	95.06
236.051	105.06
236.285	105.06
236.519	116.06
236.753	129.06
236.987	111.06
237.221	129.06
237.455	163.06
237.689	136.06
237.922	128.06
238.156	107.06
238.39	113.06
238.624	114.06
238.858	115.06
239.091	109.06
239.325	104.06
239.559	113.06
239.793	114.06
240.027	113.06
240.26	130.06
240.494	123.06
240.728	114.06
240.961	128.06
241.195	113.06
241.429	117.06
241.662	110.06
241.896	119.06
242.13	125.06
242.363	122.06
242.597	108.06
242.83	115.06
243.064	117.06
243.298	125.06
243.531	118.06
243.765	127.06
243.998	135.06
244.232	131.06
244.465	123.06
244.699	135.06
244.932	121.06
245.166	129.06
245.399	132.06
245.633	138.06
245.866	136.06
246.099	149.06
246.333	135.06
246.566	136.06
246.8	133.06
247.033	144.06
247.266	148.06
247.5	140.06
247.733	134.06
247.966	147.06
248.2	133.06
248.433	159.06
248.666	155.06
248.899	161.06
249.133	172.06
249.366	171.06
249.599	154.06
249.832	150.06
250.066	138.06
250.299	160.06
250.532	149.06
250.765	167.06
250.998	161.06
251.231	184.06
251.465	164.06
251.698	181.06
251.931	172.06
252.164	159.06
252.397	161.06
252.63	173.06
252.863	169.06
253.096	159.06
253.329	194.06
253.562	176.06
253.795	192.06
254.028	193.06
254.261	192.06
254.494	179.06
254.727	190.06
254.96	218.06
255.193	216.06
255.426	188.06
255.659	189.06
255.892	187.06
256.124	201.06
256.357	175.06
256.59	200.06
256.823	196.06
257.056	194.06
257.289	175.06
257.521	175.06
257.754	181.06
257.987	183.06
258.22	187.06
258.452	194.06
258.685	175.06
258.918	170.06
259.151	173.06
259.383	182.06
259.616	168.06
259.849	184.06
260.081	199.06
260.314	207.06
260.547	196.06
260.779	201.06
261.012	207.06
261.244	202.06
261.477	195.06
261.71	186.06
261.942	196.06
262.175	193.06
262.407	206.06
262.64	181.06
262.872	187.06
263.105	204.06
263.337	194.06
263.57	182.06
263.802	183.06
264.035	184.06
264.267	190.06
264.499	191.06
264.732	201.06
264.964	194.06
265.197	188.06
265.429	176.06
265.661	213.06
265.894	193.06
266.126	183.06
266.358	202.06
266.591	195.06
266.823	197.06
267.055	197.06
267.287	208.06
267.52	215.06
267.752	201.06
267.984	207.06
268.216	195.06
268.448	206.06
268.681	200.06
268.913	227.06
269.145	225.06
269.377	219.06
269.609	231.06
269.841	227.06
270.073	219.06
270.306	228.06
270.538	241.06
270.77	233.06
271.002	243.06
271.234	221.06
271.466	234.06
271.698	241.06
271.93	254.06
272.162	248.06
272.394	248.06
272.626	248.06
272.858	240.06
273.09	241.06
273.322	225.06
273.553	215.06
273.785	231.06
274.017	248.06
274.249	234.06
274.481	226.06
274.713	231.06
274.945	229.06
275.176	241.06
275.408	231.06
275.64	224.06
275.872	226.06
276.104	220.06
276.335	236.06
276.567	247.06
276.799	246.06
277.031	257.06
277.262	252.06
277.494	273.06
277.726	254.06
277.957	249.06
278.189	234.06
278.421	241.06
278.652	251.06
278.884	247.06
279.115	242.06
279.347	245.06
279.579	250.06
279.81	262.06
280.042	251.06
280.273	239.06
280.505	244.06
280.736	239.06
280.968	236.06
281.199	262.06
281.431	245.06
281.662	249.06
281.894	246.06
282.125	264.06
282.356	251.06
282.588	254.06
282.819	258.06
283.051	257.06
283.282	245.06
283.513	258.06
283.745	271.06
283.976	263.06
284.207	265.06
284.439	260.06
284.67	257.06
284.901	268.06
285.132	253.06
285.364	255.06
285.595	246.06
285.826	263.06
286.057	265.06
286.288	254.06
286.52	267.06
286.751	265.06
286.982	271.06
287.213	258.06
287.444	277.06
287.675	291.06
287.906	283.06
288.138	272.06
288.369	261.06
288.6	268.06
288.831	270.06
289.062	267.06
289.293	285.06
289.524	272.06
289.755	279.06
289.986	260.06
290.217	256.06
290.448	292.06
290.679	267.06
290.91	269.06
291.141	252.06
291.371	259.06
291.602	271.06
291.833	273.06
292.064	263.06
292.295	264.06
292.526	261.06
292.757	273.06
292.987	273.06
293.218	292.06
293.449	267.06
293.68	257.06
293.91	265.06
294.141	262.06
294.372	265.06
294.603	258.06
294.833	278.06
295.064	273.06
295.295	274.06
295.525	258.06
295.756	282.06
295.987	283.06
296.217	283.06
296.448	297.06
296.679	288.06
296.909	267.06
297.14	282.06
297.37	271.06
297.601	276.06
297.831	279.06
298.062	277.06
298.292	283.06
298.523	292.06
298.753	291.06
298.984	284.06
299.214	283.06
299.445	296.06
299.675	285.06
299.905	285.06
300.136	261.06
300.366	290.06
300.597	304.06
300.827	289.06
301.057	292.06
301.288	327.06
301.518	290.06
301.748	314.06
301.979	287.06
302.209	301.06
302.439	308.06
302.669	287.06
302.9	310.06
303.13	296.06
303.36	316.06
303.59	305.06
303.82	305.06
304.051	330.06
304.281	309.06
304.511	308.06
304.741	295.06
304.971	297.06
305.201	302.06
305.431	300.06
305.661	291.06
305.891	306.06
306.121	284.06
306.352	310.06
306.582	303.06
306.812	289.06
307.042	292.06
307.272	293.06
307.502	317.06
307.731	313.06
307.961	294.06
308.191	311.06
308.421	298.06
308.651	311.06
308.881	305.06
309.111	304.06
309.341	300.06
309.571	306.06
309.8	313.06
310.03	321.06
310.26	323.06
310.49	340.06
310.72	321.06
310.949	338.06
311.179	337.06
311.409	322.06
311.639	341.06
311.868	318.06
312.098	343.06
312.328	339.06
312.557	326.06
312.787	348.06
313.017	337.06
313.246	341.06
313.476	336.06
313.706	352.06
313.935	352.06
314.165	336.06
314.394	333.06
314.624	334.06
314.853	359.06
315.083	349.06
315.312	339.06
315.542	340.06
315.771	353.06
316.001	339.06
316.23	331.06
316.46	342.06
316.689	332.06
316.919	317.06
317.148	346.06
317.377	352.06
317.607	349.06
317.836	346.06
318.065	358.06
318.295	347.06
318.524	330.06
318.753	338.06
318.983	334.06
319.212	347.06
319.441	362.06
319.67	329.06
319.9	353.06
320.129	351.06
320.358	352.06
320.587	343.06
320.816	340.06
321.046	367.06
321.275	346.06
321.504	360.06
321.733	360.06
321.962	356.06
322.191	362.06
322.42	380.06
322.649	361.06
322.878	362.06
323.108	375.06
323.337	386.06
323.566	392.06
323.795	416.06
324.024	426.06
324.253	473.06
324.482	601.06
324.71	889.06
324.939	1161.06
325.168	972.06
325.397	570.06
325.626	465.06
325.855	418.06
326.084	411.06
326.313	396.06
326.542	408.06
326.77	419.06
326.999	454.06
327.228	572.06
327.457	795.06
327.686	890.06
327.914	643.06
328.143	455.06
328.372	439.06
328.6	436.06
328.829	439.06
329.058	417.06
329.287	414.06
329.515	411.06
329.744	396.06
329.972	393.06
330.201	405.06
330.43	411.06
330.658	424.06
330.887	431.06
331.115	437.06
331.344	406.06
331.572	413.06
331.801	399.06
332.03	391.06
332.258	419.06
332.486	395.06
332.715	390.06
332.943	404.06
333.172	394.06
333.4	393.06
333.629	409.06
333.857	394.06
334.085	419.06
334.314	433.06
334.542	428.06
334.771	453.06
334.999	427.06
335.227	419.06
335.455	398.06
335.684	405.06
335.912	380.06
336.14	401.06
336.369	402.06
336.597	422.06
336.825	381.06
337.053	370.06
337.281	384.06
337.51	395.06
337.738	396.06
337.966	360.06
338.194	397.06
338.422	375.06
338.65	392.06
338.878	384.06
339.106	386.06
339.334	379.06
339.562	395.06
339.79	378.06
340.018	378.06
340.246	367.06
340.474	382.06
340.702	363.06
340.93	395.06
341.158	373.06
341.386	383.06
341.614	373.06
341.842	364.06
342.07	370.06
342.298	381.06
342.526	371.06
342.754	356.06
342.981	376.06
343.209	368.06
343.437	381.06
343.665	382.06
343.893	378.06
344.12	395.06
344.348	402.06
344.576	401.06
344.804	382.06
345.031	384.06
345.259	382.06
345.487	392.06
345.714	371.06
345.942	361.06
346.17	364.06
346.397	353.06
346.625	359.06
346.853	349.06
347.08	366.06
347.308	347.06
347.535	361.06
347.763	355.06
347.99	359.06
348.218	361.06
348.445	362.06
348.673	377.06
348.9	356.06
349.128	353.06
349.355	353.06
349.583	340.06
349.81	361.06
350.037	351.06
350.265	356.06
350.492	345.06
350.72	351.06
350.947	348.06
351.174	344.06
351.402	349.06
351.629	345.06
351.856	360.06
352.083	318.06
352.311	351.06
352.538	355.06
352.765	338.06
352.992	322.06
353.22	351.06
353.447	342.06
353.674	343.06
353.901	343.06
354.128	348.06
354.355	337.06
354.583	355.06
354.81	338.06
355.037	336.06
355.264	336.06
355.491	346.06
355.718	345.06
355.945	351.06
356.172	334.06
356.399	345.06
356.626	340.06
356.853	340.06
357.08	336.06
357.307	341.06
357.534	341.06
357.761	347.06
357.988	338.06
358.215	359.06
358.441	334.06
358.668	327.06
358.895	355.06
359.122	353.06
359.349	329.06
359.576	357.06
359.802	361.06
360.029	357.06
360.256	348.06
360.483	360.06
360.709	341.06
360.936	354.06
361.163	348.06
361.39	354.06
361.616	349.06
361.843	334.06
362.07	351.06
362.296	337.06
362.523	350.06
362.749	351.06
362.976	328.06
363.203	313.06
363.429	344.06
363.656	355.06
363.882	338.06
364.109	338.06
364.335	340.06
364.562	351.06
364.788	339.06
365.015	351.06
365.241	341.06
365.468	349.06
365.694	345.06
365.92	352.06
366.147	342.06
366.373	346.06
366.599	328.06
366.826	329.06
367.052	322.06
367.278	328.06
367.505	342.06
367.731	339.06
367.957	327.06
368.184	335.06
368.41	345.06
368.636	357.06
368.862	359.06
369.089	324.06
369.315	336.06
369.541	330.06
369.767	334.06
369.993	324.06
370.219	333.06
370.445	338.06
370.672	346.06
370.898	359.06
371.124	354.06
371.35	351.06
371.576	320.06
371.802	341.06
372.028	324.06
372.254	355.06
372.48	356.06
372.706	356.06
372.932	343.06
373.158	339.06
373.384	360.06
373.61	341.06
373.835	353.06
374.061	328.06
374.287	351.06
374.513	335.06
374.739	329.06
374.965	342.06
375.191	340.06
375.416	363.06
375.642	355.06
375.868	335.06
376.094	339.06
376.319	342.06
376.545	322.06
376.771	320.06
376.997	325.06
377.222	339.06
377.448	340.06
377.674	340.06
377.899	317.06
378.125	303.06
378.35	334.06
378.576	346.06
378.802	335.06
379.027	345.06
379.253	343.06
379.478	343.06
379.704	334.06
379.929	317.06
380.155	355.06
380.38	355.06
380.606	340.06
380.831	341.06
381.057	345.06
381.282	341.06
381.507	344.06
381.733	346.06
381.958	340.06
382.184	352.06
382.409	334.06
382.634	363.06
382.86	345.06
383.085	331.06
383.31	328.06
383.535	357.06
383.761	339.06
383.986	359.06
384.211	352.06
384.436	339.06
384.662	355.06
384.887	361.06
385.112	358.06
385.337	387.06
385.562	360.06
385.787	376.06
386.013	361.06
386.238	363.06
386.463	383.06
386.688	368.06
386.913	355.06
387.138	386.06
387.363	376.06
387.588	359.06
387.813	364.06
388.038	380.06
388.263	367.06
388.488	357.06
388.713	365.06
388.938	366.06
389.163	363.06
389.387	367.06
389.612	354.06
389.837	353.06
390.062	357.06
390.287	363.06
390.512	391.06
390.736	366.06
390.961	357.06
391.186	341.06
391.411	375.06
391.636	367.06
391.86	354.06
392.085	368.06
392.31	375.06
392.534	375.06
392.759	359.06
392.984	359.06
393.208	389.06
393.433	374.06
393.658	387.06
393.882	363.06
394.107	370.06
394.331	376.06
394.556	346.06
394.78	356.06
395.005	378.06
395.229	347.06
395.454	375.06
395.678	389.06
395.903	393.06
396.127	393.06
396.352	396.06
396.576	389.06
396.801	380.06
397.025	385.06
397.249	365.06
397.474	378.06
397.698	407.06
397.922	382.06
398.147	401.06
398.371	406.06
398.595	397.06
398.82	389.06
399.044	404.06
399.268	433.06
399.492	438.06
399.717	474.06
399.941	481.06
400.165	493.06
400.389	494.06
400.613	459.06
400.837	443.06
401.062	428.06
401.286	400.06
401.51	400.06
401.734	394.06
401.958	413.06
402.182	397.06
402.406	408.06
402.63	399.06
402.854	399.06
403.078	407.06
403.302	385.06
403.526	421.06
403.75	424.06
403.974	403.06
404.198	404.06
404.422	408.06
404.645	425.06
404.869	420.06
405.093	439.06
405.317	445.06
405.541	461.06
405.765	458.06
405.988	429.06
406.212	429.06
406.436	428.06
406.66	447.06
406.883	413.06
407.107	447.06
407.331	479.06
407.555	513.06
407.778	486.06
408.002	479.06
408.226	460.06
408.449	444.06
408.673	459.06
408.896	458.06
409.12	465.06
409.344	459.06
409.567	431.06
409.791	405.06
410.014	397.06
410.238	409.06
410.461	408.06
410.685	437.06
410.908	403.06
411.132	445.06
411.355	460.06
411.578	426.06
411.802	436.06
412.025	399.06
412.249	410.06
412.472	418.06
412.695	449.06
412.919	415.06
413.142	419.06
413.365	400.06
413.589	384.06
413.812	386.06
414.035	384.06
414.258	391.06
414.482	404.06
414.705	393.06
414.928	391.06
415.151	365.06
415.374	388.06
415.597	390.06
415.821	381.06
416.044	401.06
416.267	384.06
416.49	390.06
416.713	400.06
416.936	381.06
417.159	370.06
417.382	376.06
417.605	390.06
417.828	390.06
418.051	401.06
418.274	387.06
418.497	372.06
418.72	387.06
418.943	372.06
419.166	417.06
419.389	402.06
419.611	426.06
419.834	400.06
420.057	401.06
420.28	411.06
420.503	380.06
420.726	403.06
420.948	406.06
421.171	426.06
421.394	432.06
421.617	390.06
421.839	391.06
422.062	410.06
422.285	396.06
422.507	447.06
422.73	491.06
422.953	449.06
423.175	431.06
423.398	400.06
423.621	387.06
423.843	402.06
424.066	406.06
424.288	395.06
424.511	430.06
424.733	449.06
424.956	491.06
425.178	499.06
425.401	479.06
425.623	469.06
425.846	417.06
426.068	400.06
426.291	402.06
426.513	410.06
426.735	424.06
426.958	449.06
427.18	469.06
427.402	556.06
427.625	583.06
427.847	483.06
428.069	459.06
428.292	412.06
428.514	394.06
428.736	395.06
428.958	381.06
429.181	389.06
429.403	385.06
429.625	381.06
429.847	395.06
430.069	423.06
430.292	419.06
430.514	380.06
430.736	363.06
430.958	387.06
431.18	376.06
431.402	375.06
431.624	366.06
431.846	345.06
432.068	387.06
432.29	367.06
432.512	363.06
432.734	371.06
432.956	357.06
433.178	377.06
433.4	373.06
433.622	357.06
433.844	366.06
434.066	375.06
434.287	374.06
434.509	385.06
434.731	369.06
434.953	396.06
435.175	390.06
435.397	392.06
435.618	408.06
435.84	410.06
436.062	481.06
436.284	509.06
436.505	444.06
436.727	417.06
436.949	402.06
437.17	378.06
437.392	373.06
437.614	379.06
437.835	410.06
438.057	438.06
438.278	478.06
438.5	513.06
438.721	536.06
438.943	523.06
439.165	422.06
439.386	384.06
439.608	407.06
439.829	373.06
440.05	404.06
440.272	438.06
440.493	422.06
440.715	405.06
440.936	387.06
441.158	382.06
441.379	382.06
441.6	378.06
441.822	396.06
442.043	427.06
442.264	448.06
442.486	474.06
442.707	403.06
442.928	408.06
443.149	410.06
443.371	429.06
443.592	459.06
443.813	491.06
444.034	535.06
444.255	441.06
444.476	422.06
444.698	425.06
444.919	393.06
445.14	531.06
445.361	475.06
445.582	420.06
445.803	457.06
446.024	484.06
446.245	509.06
446.466	459.06
446.687	408.06
446.908	407.06
447.129	396.06
447.35	382.06
447.571	371.06
447.792	373.06
448.013	377.06
448.234	364.06
448.455	434.06
448.675	485.06
448.896	541.06
449.117	466.06
449.338	443.06
449.559	515.06
449.779	564.06
450	470.06
450.221	382.06
450.442	395.06
450.662	363.06
450.883	360.06
451.104	350.06
451.324	341.06
451.545	346.06
451.766	349.06
451.986	345.06
452.207	343.06
452.428	348.06
452.648	335.06
452.869	344.06
453.089	353.06
453.31	350.06
453.53	351.06
453.751	332.06
453.971	318.06
454.192	355.06
454.412	343.06
454.633	329.06
454.853	355.06
455.073	340.06
455.294	359.06
455.514	371.06
455.734	372.06
455.955	335.06
456.175	310.06
456.395	326.06
456.616	339.06
456.836	337.06
457.056	313.06
457.276	316.06
457.497	346.06
457.717	323.06
457.937	331.06
458.157	360.06
458.377	327.06
458.598	346.06
458.818	363.06
459.038	388.06
459.258	415.06
459.478	382.06
459.698	374.06
459.918	373.06
460.138	367.06
460.358	345.06
460.578	385.06
460.798	357.06
461.018	364.06
461.238	353.06
461.458	363.06
461.678	384.06
461.898	360.06
462.118	372.06
462.338	381.06
462.558	407.06
462.777	401.06
462.997	412.06
463.217	410.06
463.437	446.06
463.657	417.06
463.876	397.06
464.096	415.06
464.316	389.06
464.536	401.06
464.755	405.06
464.975	397.06
465.195	411.06
465.414	409.06
465.634	375.06
465.854	370.06
466.073	370.06
466.293	356.06
466.512	370.06
466.732	359.06
466.951	363.06
467.171	324.06
467.391	357.06
467.61	357.06
467.829	372.06
468.049	373.06
468.268	360.06
468.488	334.06
468.707	323.06
468.927	342.06
469.146	346.06
469.365	338.06
469.585	335.06
469.804	335.06
470.023	346.06
470.243	338.06
470.462	356.06
470.681	355.06
470.901	343.06
471.12	357.06
471.339	348.06
471.558	350.06
471.777	373.06
471.997	347.06
472.216	347.06
472.435	366.06
472.654	361.06
472.873	350.06
473.092	367.06
473.311	361.06
473.53	353.06
473.749	355.06
473.968	384.06
474.187	434.06
474.406	425.06
474.625	374.06
474.844	363.06
475.063	355.06
475.282	363.06
475.501	352.06
475.72	370.06
475.939	371.06
476.158	359.06
476.377	374.06
476.596	378.06
476.814	379.06
477.033	381.06
477.252	376.06
477.471	375.06
477.69	367.06
477.908	400.06
478.127	387.06
478.346	380.06
478.564	395.06
478.783	389.06
479.002	392.06
479.22	396.06
479.439	413.06
479.658	407.06
479.876	435.06
480.095	427.06
480.313	425.06
480.532	436.06
480.751	431.06
480.969	417.06
481.188	435.06
481.406	459.06
481.624	419.06
481.843	422.06
482.061	425.06
482.28	400.06
482.498	409.06
482.717	433.06
482.935	409.06
483.153	410.06
483.372	419.06
483.59	420.06
483.808	424.06
484.027	439.06
484.245	401.06
484.463	410.06
484.681	442.06
484.9	428.06
485.118	419.06
485.336	415.06
485.554	436.06
485.772	430.06
485.99	445.06
486.209	435.06
486.427	426.06
486.645	430.06
486.863	468.06
487.081	418.06
487.299	429.06
487.517	442.06
487.735	431.06
487.953	453.06
488.171	424.06
488.389	455.06
488.607	444.06
488.825	453.06
489.043	435.06
489.261	439.06
489.479	449.06
489.696	444.06
489.914	449.06
490.132	451.06
490.35	424.06
490.568	452.06
490.786	468.06
491.003	484.06
491.221	472.06
491.439	455.06
491.657	457.06
491.874	466.06
492.092	495.06
492.31	470.06
492.527	472.06
492.745	454.06
492.963	472.06
493.18	470.06
493.398	473.06
493.615	495.06
493.833	483.06
494.05	470.06
494.268	469.06
494.485	458.06
494.703	477.06
494.92	472.06
495.138	488.06
495.355	531.06
495.573	502.06
495.79	479.06
496.008	490.06
496.225	504.06
496.442	508.06
496.66	513.06
496.877	504.06
497.094	511.06
497.312	519.06
497.529	529.06
497.746	517.06
497.963	553.06
498.181	563.06
498.398	559.06
498.615	553.06
498.832	577.06
499.049	578.06
499.267	584.06
499.484	597.06
499.701	660.06
499.918	655.06
500.135	706.06
500.352	748.06
500.569	743.06
500.786	732.06
501.003	735.06
501.22	703.06
501.437	689.06
501.654	665.06
501.871	647.06
502.088	621.06
