Data from 1960PennyLincolnUp.LampE5.5.200Scan.07172019.P1.ChangedAngle_HRD10591_13-14-31-821.txt Node
Date: Thu Jul 18 13:14:31 EDT 2019
User: cochatt
Spectrometer: HR+D1059
Trigger mode: 1
Integration Time (sec): 1.000000E-1
Scans to average: 1
Electric dark correction enabled: true
Nonlinearity correction enabled: false
Boxcar width: 0
XAxis mode: Wavelengths
Number of Pixels in Spectrum: 2048
>>>>>Begin Spectral Data<<<<<
223.165	-9.88
223.4	-9.88
223.635	-9.88
223.869	-17.88
224.104	-16.88
224.338	-21.88
224.573	-25.88
224.808	-16.88
225.042	-4.88
225.277	-12.88
225.511	6.12
225.746	-3.88
225.98	5.12
226.215	21.12
226.449	17.12
226.683	29.12
226.918	20.12
227.152	32.12
227.387	28.12
227.621	43.12
227.856	57.12
228.09	47.12
228.324	53.12
228.559	48.12
228.793	59.12
229.027	81.12
229.262	87.12
229.496	89.12
229.73	105.12
229.964	132.12
230.199	119.12
230.433	99.12
230.667	105.12
230.901	124.12
231.136	93.12
231.37	101.12
231.604	100.12
231.838	101.12
232.072	107.12
232.306	116.12
232.541	116.12
232.775	103.12
233.009	102.12
233.243	113.12
233.477	112.12
233.711	111.12
233.945	105.12
234.179	105.12
234.413	108.12
234.647	126.12
234.881	110.12
235.115	111.12
235.349	118.12
235.583	118.12
235.817	111.12
236.051	112.12
236.285	119.12
236.519	113.12
236.753	129.12
236.987	128.12
237.221	132.12
237.455	177.12
237.689	143.12
237.922	120.12
238.156	114.12
238.39	109.12
238.624	108.12
238.858	127.12
239.091	115.12
239.325	92.12
239.559	107.12
239.793	113.12
240.027	112.12
240.26	121.12
240.494	121.12
240.728	133.12
240.961	116.12
241.195	113.12
241.429	134.12
241.662	114.12
241.896	124.12
242.13	130.12
242.363	130.12
242.597	126.12
242.83	138.12
243.064	156.12
243.298	129.12
243.531	128.12
243.765	120.12
243.998	136.12
244.232	120.12
244.465	132.12
244.699	123.12
244.932	139.12
245.166	145.12
245.399	144.12
245.633	156.12
245.866	127.12
246.099	132.12
246.333	146.12
246.566	137.12
246.8	157.12
247.033	163.12
247.266	146.12
247.5	156.12
247.733	153.12
247.966	153.12
248.2	148.12
248.433	163.12
248.666	145.12
248.899	181.12
249.133	171.12
249.366	184.12
249.599	165.12
249.832	156.12
250.066	154.12
250.299	179.12
250.532	171.12
250.765	185.12
250.998	186.12
251.231	180.12
251.465	198.12
251.698	174.12
251.931	189.12
252.164	180.12
252.397	172.12
252.63	176.12
252.863	172.12
253.096	178.12
253.329	207.12
253.562	181.12
253.795	203.12
254.028	186.12
254.261	189.12
254.494	205.12
254.727	204.12
254.96	222.12
255.193	217.12
255.426	203.12
255.659	193.12
255.892	192.12
256.124	199.12
256.357	200.12
256.59	191.12
256.823	191.12
257.056	181.12
257.289	207.12
257.521	191.12
257.754	191.12
257.987	189.12
258.22	189.12
258.452	207.12
258.685	195.12
258.918	201.12
259.151	196.12
259.383	193.12
259.616	174.12
259.849	183.12
260.081	202.12
260.314	224.12
260.547	232.12
260.779	221.12
261.012	204.12
261.244	202.12
261.477	209.12
261.71	195.12
261.942	199.12
262.175	203.12
262.407	199.12
262.64	189.12
262.872	203.12
263.105	190.12
263.337	204.12
263.57	190.12
263.802	194.12
264.035	203.12
264.267	204.12
264.499	204.12
264.732	222.12
264.964	210.12
265.197	198.12
265.429	202.12
265.661	197.12
265.894	214.12
266.126	212.12
266.358	203.12
266.591	197.12
266.823	207.12
267.055	211.12
267.287	215.12
267.52	203.12
267.752	217.12
267.984	205.12
268.216	215.12
268.448	212.12
268.681	209.12
268.913	217.12
269.145	244.12
269.377	235.12
269.609	232.12
269.841	237.12
270.073	221.12
270.306	265.12
270.538	259.12
270.77	270.12
271.002	260.12
271.234	261.12
271.466	255.12
271.698	251.12
271.93	275.12
272.162	254.12
272.394	264.12
272.626	260.12
272.858	256.12
273.09	257.12
273.322	255.12
273.553	239.12
273.785	246.12
274.017	236.12
274.249	259.12
274.481	222.12
274.713	232.12
274.945	224.12
275.176	242.12
275.408	249.12
275.64	234.12
275.872	239.12
276.104	234.12
276.335	244.12
276.567	254.12
276.799	263.12
277.031	254.12
277.262	281.12
277.494	268.12
277.726	260.12
277.957	269.12
278.189	277.12
278.421	266.12
278.652	251.12
278.884	259.12
279.115	258.12
279.347	263.12
279.579	248.12
279.81	234.12
280.042	246.12
280.273	254.12
280.505	250.12
280.736	263.12
280.968	252.12
281.199	248.12
281.431	237.12
281.662	257.12
281.894	266.12
282.125	271.12
282.356	252.12
282.588	279.12
282.819	258.12
283.051	268.12
283.282	269.12
283.513	284.12
283.745	256.12
283.976	263.12
284.207	273.12
284.439	272.12
284.67	275.12
284.901	269.12
285.132	253.12
285.364	277.12
285.595	269.12
285.826	261.12
286.057	267.12
286.288	274.12
286.52	252.12
286.751	272.12
286.982	280.12
287.213	263.12
287.444	259.12
287.675	265.12
287.906	275.12
288.138	284.12
288.369	299.12
288.6	285.12
288.831	292.12
289.062	296.12
289.293	287.12
289.524	282.12
289.755	272.12
289.986	271.12
290.217	275.12
290.448	283.12
290.679	285.12
290.91	289.12
291.141	296.12
291.371	270.12
291.602	282.12
291.833	305.12
292.064	305.12
292.295	286.12
292.526	283.12
292.757	270.12
292.987	279.12
293.218	273.12
293.449	268.12
293.68	280.12
293.91	272.12
294.141	290.12
294.372	299.12
294.603	283.12
294.833	293.12
295.064	285.12
295.295	275.12
295.525	288.12
295.756	288.12
295.987	283.12
296.217	279.12
296.448	312.12
296.679	297.12
296.909	291.12
297.14	263.12
297.37	304.12
297.601	308.12
297.831	287.12
298.062	313.12
298.292	295.12
298.523	315.12
298.753	279.12
298.984	297.12
299.214	308.12
299.445	317.12
299.675	294.12
299.905	332.12
300.136	301.12
300.366	295.12
300.597	309.12
300.827	307.12
301.057	308.12
301.288	324.12
301.518	293.12
301.748	310.12
301.979	311.12
302.209	296.12
302.439	307.12
302.669	319.12
302.9	323.12
303.13	315.12
303.36	316.12
303.59	323.12
303.82	335.12
304.051	307.12
304.281	320.12
304.511	309.12
304.741	320.12
304.971	312.12
305.201	302.12
305.431	307.12
305.661	307.12
305.891	312.12
306.121	307.12
306.352	321.12
306.582	306.12
306.812	329.12
307.042	315.12
307.272	301.12
307.502	300.12
307.731	317.12
307.961	320.12
308.191	322.12
308.421	319.12
308.651	324.12
308.881	317.12
309.111	338.12
309.341	317.12
309.571	340.12
309.8	319.12
310.03	336.12
310.26	343.12
310.49	331.12
310.72	315.12
310.949	341.12
311.179	341.12
311.409	349.12
311.639	347.12
311.868	365.12
312.098	335.12
312.328	348.12
312.557	345.12
312.787	361.12
313.017	361.12
313.246	381.12
313.476	362.12
313.706	366.12
313.935	348.12
314.165	363.12
314.394	365.12
314.624	346.12
314.853	363.12
315.083	358.12
315.312	332.12
315.542	342.12
315.771	350.12
316.001	354.12
316.23	338.12
316.46	370.12
316.689	355.12
316.919	358.12
317.148	361.12
317.377	353.12
317.607	352.12
317.836	359.12
318.065	343.12
318.295	371.12
318.524	360.12
318.753	355.12
318.983	347.12
319.212	343.12
319.441	376.12
319.67	358.12
319.9	337.12
320.129	340.12
320.358	369.12
320.587	356.12
320.816	356.12
321.046	349.12
321.275	365.12
321.504	379.12
321.733	364.12
321.962	389.12
322.191	388.12
322.42	376.12
322.649	391.12
322.878	389.12
323.108	395.12
323.337	398.12
323.566	417.12
323.795	435.12
324.024	463.12
324.253	519.12
324.482	703.12
324.71	948.12
324.939	1257.12
325.168	1102.12
325.397	627.12
325.626	487.12
325.855	437.12
326.084	428.12
326.313	414.12
326.542	442.12
326.77	445.12
326.999	499.12
327.228	651.12
327.457	859.12
327.686	967.12
327.914	702.12
328.143	536.12
328.372	490.12
328.6	448.12
328.829	425.12
329.058	437.12
329.287	452.12
329.515	423.12
329.744	427.12
329.972	426.12
330.201	440.12
330.43	435.12
330.658	461.12
330.887	460.12
331.115	462.12
331.344	425.12
331.572	401.12
331.801	435.12
332.03	433.12
332.258	404.12
332.486	410.12
332.715	406.12
332.943	405.12
333.172	421.12
333.4	435.12
333.629	418.12
333.857	438.12
334.085	428.12
334.314	430.12
334.542	453.12
334.771	463.12
334.999	445.12
335.227	429.12
335.455	417.12
335.684	405.12
335.912	400.12
336.14	411.12
336.369	423.12
336.597	414.12
336.825	429.12
337.053	413.12
337.281	405.12
337.51	417.12
337.738	411.12
337.966	406.12
338.194	405.12
338.422	412.12
338.65	410.12
338.878	392.12
339.106	389.12
339.334	397.12
339.562	400.12
339.79	386.12
340.018	388.12
340.246	397.12
340.474	393.12
340.702	394.12
340.93	405.12
341.158	397.12
341.386	400.12
341.614	388.12
341.842	391.12
342.07	391.12
342.298	389.12
342.526	373.12
342.754	382.12
342.981	380.12
343.209	396.12
343.437	382.12
343.665	370.12
343.893	391.12
344.12	406.12
344.348	399.12
344.576	374.12
344.804	380.12
345.031	401.12
345.259	387.12
345.487	392.12
345.714	403.12
345.942	371.12
346.17	376.12
346.397	377.12
346.625	368.12
346.853	363.12
347.08	373.12
347.308	382.12
347.535	360.12
347.763	381.12
347.99	389.12
348.218	369.12
348.445	389.12
348.673	375.12
348.9	368.12
349.128	368.12
349.355	349.12
349.583	353.12
349.81	375.12
350.037	383.12
350.265	367.12
350.492	364.12
350.72	365.12
350.947	371.12
351.174	400.12
351.402	371.12
351.629	378.12
351.856	369.12
352.083	361.12
352.311	360.12
352.538	363.12
352.765	364.12
352.992	384.12
353.22	395.12
353.447	360.12
353.674	356.12
353.901	360.12
354.128	360.12
354.355	356.12
354.583	365.12
354.81	367.12
355.037	361.12
355.264	345.12
355.491	347.12
355.718	340.12
355.945	343.12
356.172	333.12
356.399	348.12
356.626	344.12
356.853	358.12
357.08	348.12
357.307	352.12
357.534	357.12
357.761	342.12
357.988	357.12
358.215	356.12
358.441	347.12
358.668	377.12
358.895	341.12
359.122	338.12
359.349	342.12
359.576	352.12
359.802	369.12
360.029	390.12
360.256	400.12
360.483	383.12
360.709	382.12
360.936	381.12
361.163	347.12
361.39	361.12
361.616	349.12
361.843	363.12
362.07	359.12
362.296	355.12
362.523	347.12
362.749	358.12
362.976	363.12
363.203	332.12
363.429	342.12
363.656	357.12
363.882	334.12
364.109	339.12
364.335	349.12
364.562	326.12
364.788	361.12
365.015	369.12
365.241	364.12
365.468	351.12
365.694	359.12
365.92	343.12
366.147	359.12
366.373	361.12
366.599	347.12
366.826	342.12
367.052	344.12
367.278	371.12
367.505	369.12
367.731	350.12
367.957	355.12
368.184	345.12
368.41	361.12
368.636	347.12
368.862	371.12
369.089	367.12
369.315	348.12
369.541	365.12
369.767	350.12
369.993	352.12
370.219	356.12
370.445	331.12
370.672	362.12
370.898	343.12
371.124	350.12
371.35	368.12
371.576	347.12
371.802	364.12
372.028	357.12
372.254	356.12
372.48	346.12
372.706	353.12
372.932	364.12
373.158	342.12
373.384	353.12
373.61	320.12
373.835	367.12
374.061	338.12
374.287	350.12
374.513	344.12
374.739	363.12
374.965	349.12
375.191	361.12
375.416	375.12
375.642	356.12
375.868	367.12
376.094	364.12
376.319	332.12
376.545	353.12
376.771	331.12
376.997	348.12
377.222	352.12
377.448	347.12
377.674	317.12
377.899	338.12
378.125	337.12
378.35	327.12
378.576	348.12
378.802	348.12
379.027	348.12
379.253	348.12
379.478	347.12
379.704	340.12
379.929	341.12
380.155	322.12
380.38	336.12
380.606	339.12
380.831	327.12
381.057	338.12
381.282	351.12
381.507	331.12
381.733	362.12
381.958	371.12
382.184	336.12
382.409	363.12
382.634	369.12
382.86	349.12
383.085	359.12
383.31	359.12
383.535	363.12
383.761	363.12
383.986	352.12
384.211	368.12
384.436	359.12
384.662	376.12
384.887	377.12
385.112	365.12
385.337	367.12
385.562	379.12
385.787	371.12
386.013	380.12
386.238	405.12
386.463	387.12
386.688	357.12
386.913	364.12
387.138	362.12
387.363	359.12
387.588	365.12
387.813	375.12
388.038	365.12
388.263	369.12
388.488	378.12
388.713	375.12
388.938	386.12
389.163	391.12
389.387	361.12
389.612	364.12
389.837	358.12
390.062	384.12
390.287	380.12
390.512	383.12
390.736	365.12
390.961	367.12
391.186	371.12
391.411	375.12
391.636	366.12
391.86	382.12
392.085	403.12
392.31	379.12
392.534	381.12
392.759	362.12
392.984	365.12
393.208	366.12
393.433	373.12
393.658	391.12
393.882	359.12
394.107	364.12
394.331	378.12
394.556	361.12
394.78	383.12
395.005	368.12
395.229	373.12
395.454	373.12
395.678	378.12
395.903	380.12
396.127	389.12
396.352	419.12
396.576	390.12
396.801	400.12
397.025	390.12
397.249	366.12
397.474	369.12
397.698	393.12
397.922	402.12
398.147	407.12
398.371	423.12
398.595	404.12
398.82	437.12
399.044	421.12
399.268	443.12
399.492	451.12
399.717	474.12
399.941	474.12
400.165	480.12
400.389	488.12
400.613	467.12
400.837	450.12
401.062	431.12
401.286	424.12
401.51	428.12
401.734	415.12
401.958	423.12
402.182	391.12
402.406	404.12
402.63	430.12
402.854	420.12
403.078	401.12
403.302	431.12
403.526	412.12
403.75	437.12
403.974	415.12
404.198	417.12
404.422	422.12
404.645	435.12
404.869	425.12
405.093	438.12
405.317	481.12
405.541	499.12
405.765	453.12
405.988	458.12
406.212	445.12
406.436	442.12
406.66	450.12
406.883	453.12
407.107	459.12
407.331	498.12
407.555	521.12
407.778	519.12
408.002	511.12
408.226	489.12
408.449	462.12
408.673	477.12
408.896	471.12
409.12	499.12
409.344	481.12
409.567	447.12
409.791	436.12
410.014	425.12
410.238	424.12
410.461	429.12
410.685	434.12
410.908	435.12
411.132	462.12
411.355	472.12
411.578	457.12
411.802	423.12
412.025	427.12
412.249	407.12
412.472	452.12
412.695	439.12
412.919	449.12
413.142	437.12
413.365	414.12
413.589	417.12
413.812	396.12
414.035	411.12
414.258	411.12
414.482	404.12
414.705	405.12
414.928	401.12
415.151	386.12
415.374	383.12
415.597	378.12
415.821	379.12
416.044	391.12
416.267	409.12
416.49	394.12
416.713	384.12
416.936	387.12
417.159	412.12
417.382	398.12
417.605	394.12
417.828	412.12
418.051	401.12
418.274	417.12
418.497	401.12
418.72	413.12
418.943	385.12
419.166	397.12
419.389	423.12
419.611	423.12
419.834	423.12
420.057	418.12
420.28	402.12
420.503	409.12
420.726	378.12
420.948	407.12
421.171	446.12
421.394	455.12
421.617	391.12
421.839	387.12
422.062	404.12
422.285	436.12
422.507	456.12
422.73	499.12
422.953	499.12
423.175	427.12
423.398	428.12
423.621	388.12
423.843	430.12
424.066	435.12
424.288	420.12
424.511	471.12
424.733	450.12
424.956	508.12
425.178	498.12
425.401	490.12
425.623	509.12
425.846	436.12
426.068	419.12
426.291	435.12
426.513	407.12
426.735	420.12
426.958	456.12
427.18	509.12
427.402	584.12
427.625	622.12
427.847	542.12
428.069	476.12
428.292	439.12
428.514	427.12
428.736	411.12
428.958	407.12
429.181	392.12
429.403	386.12
429.625	396.12
429.847	416.12
430.069	448.12
430.292	463.12
430.514	397.12
430.736	376.12
430.958	375.12
431.18	366.12
431.402	382.12
431.624	372.12
431.846	357.12
432.068	372.12
432.29	378.12
432.512	369.12
432.734	371.12
432.956	372.12
433.178	376.12
433.4	381.12
433.622	385.12
433.844	377.12
434.066	385.12
434.287	390.12
434.509	389.12
434.731	398.12
434.953	374.12
435.175	410.12
435.397	406.12
435.618	441.12
435.84	430.12
436.062	497.12
436.284	542.12
436.505	452.12
436.727	423.12
436.949	391.12
437.17	399.12
437.392	375.12
437.614	385.12
437.835	424.12
438.057	465.12
438.278	516.12
438.5	523.12
438.721	571.12
438.943	567.12
439.165	444.12
439.386	402.12
439.608	433.12
439.829	429.12
440.05	420.12
440.272	433.12
440.493	413.12
440.715	390.12
440.936	409.12
441.158	397.12
441.379	380.12
441.6	397.12
441.822	426.12
442.043	419.12
442.264	479.12
442.486	520.12
442.707	439.12
442.928	446.12
443.149	430.12
443.371	440.12
443.592	468.12
443.813	533.12
444.034	542.12
444.255	478.12
444.476	438.12
444.698	434.12
444.919	428.12
445.14	522.12
445.361	483.12
445.582	452.12
445.803	478.12
446.024	524.12
446.245	514.12
446.466	492.12
446.687	443.12
446.908	408.12
447.129	405.12
447.35	376.12
447.571	388.12
447.792	392.12
448.013	367.12
448.234	393.12
448.455	425.12
448.675	496.12
448.896	576.12
449.117	491.12
449.338	478.12
449.559	525.12
449.779	567.12
450	502.12
450.221	420.12
450.442	393.12
450.662	389.12
450.883	393.12
451.104	398.12
451.324	381.12
451.545	352.12
451.766	349.12
451.986	349.12
452.207	327.12
452.428	358.12
452.648	343.12
452.869	355.12
453.089	345.12
453.31	367.12
453.53	361.12
453.751	368.12
453.971	365.12
454.192	364.12
454.412	380.12
454.633	350.12
454.853	352.12
455.073	349.12
455.294	356.12
455.514	394.12
455.734	373.12
455.955	320.12
456.175	343.12
456.395	324.12
456.616	325.12
456.836	353.12
457.056	329.12
457.276	332.12
457.497	327.12
457.717	339.12
457.937	335.12
458.157	347.12
458.377	338.12
458.598	374.12
458.818	389.12
459.038	422.12
459.258	432.12
459.478	383.12
459.698	365.12
459.918	375.12
460.138	391.12
460.358	384.12
460.578	383.12
460.798	372.12
461.018	406.12
461.238	383.12
461.458	394.12
461.678	399.12
461.898	409.12
462.118	390.12
462.338	388.12
462.558	383.12
462.777	400.12
462.997	407.12
463.217	433.12
463.437	413.12
463.657	408.12
463.876	417.12
464.096	426.12
464.316	390.12
464.536	408.12
464.755	414.12
464.975	419.12
465.195	419.12
465.414	448.12
465.634	420.12
465.854	385.12
466.073	380.12
466.293	374.12
466.512	377.12
466.732	368.12
466.951	361.12
467.171	367.12
467.391	362.12
467.61	361.12
467.829	360.12
468.049	370.12
468.268	357.12
468.488	367.12
468.707	356.12
468.927	352.12
469.146	353.12
469.365	364.12
469.585	352.12
469.804	359.12
470.023	377.12
470.243	379.12
470.462	369.12
470.681	361.12
470.901	389.12
471.12	376.12
471.339	380.12
471.558	376.12
471.777	370.12
471.997	368.12
472.216	367.12
472.435	365.12
472.654	381.12
472.873	384.12
473.092	362.12
473.311	351.12
473.53	363.12
473.749	379.12
473.968	402.12
474.187	439.12
474.406	461.12
474.625	403.12
474.844	386.12
475.063	374.12
475.282	365.12
475.501	351.12
475.72	392.12
475.939	390.12
476.158	356.12
476.377	375.12
476.596	370.12
476.814	396.12
477.033	391.12
477.252	374.12
477.471	388.12
477.69	403.12
477.908	396.12
478.127	403.12
478.346	423.12
478.564	413.12
478.783	405.12
479.002	430.12
479.22	423.12
479.439	440.12
479.658	442.12
479.876	431.12
480.095	430.12
480.313	431.12
480.532	413.12
480.751	446.12
480.969	428.12
481.188	467.12
481.406	468.12
481.624	434.12
481.843	447.12
482.061	428.12
482.28	425.12
482.498	428.12
482.717	416.12
482.935	428.12
483.153	437.12
483.372	432.12
483.59	410.12
483.808	413.12
484.027	424.12
484.245	429.12
484.463	417.12
484.681	438.12
484.9	428.12
485.118	440.12
485.336	423.12
485.554	438.12
485.772	436.12
485.99	430.12
486.209	440.12
486.427	443.12
486.645	419.12
486.863	437.12
487.081	428.12
487.299	444.12
487.517	455.12
487.735	448.12
487.953	447.12
488.171	442.12
488.389	426.12
488.607	454.12
488.825	436.12
489.043	441.12
489.261	458.12
489.479	447.12
489.696	459.12
489.914	463.12
490.132	454.12
490.35	464.12
490.568	451.12
490.786	465.12
491.003	456.12
491.221	469.12
491.439	476.12
491.657	492.12
491.874	508.12
492.092	502.12
492.31	495.12
492.527	498.12
492.745	473.12
492.963	499.12
493.18	495.12
493.398	508.12
493.615	503.12
493.833	526.12
494.05	514.12
494.268	500.12
494.485	489.12
494.703	507.12
494.92	511.12
495.138	516.12
495.355	531.12
495.573	538.12
495.79	521.12
496.008	515.12
496.225	512.12
496.442	531.12
496.66	522.12
496.877	501.12
497.094	522.12
497.312	538.12
497.529	535.12
497.746	551.12
497.963	551.12
498.181	566.12
498.398	587.12
498.615	558.12
498.832	602.12
499.049	586.12
499.267	638.12
499.484	632.12
499.701	666.12
499.918	713.12
500.135	737.12
500.352	742.12
500.569	759.12
500.786	770.12
501.003	753.12
501.22	714.12
501.437	709.12
501.654	678.12
501.871	667.12
