Data from 1960PennyLincolnUp.LampE5.5.200Scan.07172019.P1.ChangedAngle_HRD10591_13-14-58-821.txt Node
Date: Thu Jul 18 13:14:58 EDT 2019
User: cochatt
Spectrometer: HR+D1059
Trigger mode: 1
Integration Time (sec): 1.000000E-1
Scans to average: 1
Electric dark correction enabled: true
Nonlinearity correction enabled: false
Boxcar width: 0
XAxis mode: Wavelengths
Number of Pixels in Spectrum: 2048
>>>>>Begin Spectral Data<<<<<
223.165	-22.56
223.4	-22.56
223.635	-22.56
223.869	-5.56
224.104	-10.56
224.338	-14.56
224.573	-18.56
224.808	-21.56
225.042	-5.56
225.277	-20.56
225.511	-0.56
225.746	-2.56
225.98	2.44
226.215	4.44
226.449	16.44
226.683	34.44
226.918	38.44
227.152	26.44
227.387	41.44
227.621	40.44
227.856	38.44
228.09	52.44
228.324	54.44
228.559	56.44
228.793	57.44
229.027	93.44
229.262	93.44
229.496	111.44
229.73	120.44
229.964	128.44
230.199	112.44
230.433	93.44
230.667	104.44
230.901	102.44
231.136	107.44
231.37	91.44
231.604	113.44
231.838	111.44
232.072	102.44
232.306	113.44
232.541	100.44
232.775	97.44
233.009	105.44
233.243	90.44
233.477	103.44
233.711	111.44
233.945	87.44
234.179	112.44
234.413	116.44
234.647	112.44
234.881	106.44
235.115	121.44
235.349	112.44
235.583	112.44
235.817	109.44
236.051	117.44
236.285	113.44
236.519	112.44
236.753	102.44
236.987	135.44
237.221	145.44
237.455	175.44
237.689	164.44
237.922	134.44
238.156	108.44
238.39	129.44
238.624	106.44
238.858	120.44
239.091	133.44
239.325	112.44
239.559	102.44
239.793	109.44
240.027	122.44
240.26	136.44
240.494	132.44
240.728	142.44
240.961	138.44
241.195	129.44
241.429	132.44
241.662	130.44
241.896	124.44
242.13	113.44
242.363	110.44
242.597	122.44
242.83	132.44
243.064	116.44
243.298	140.44
243.531	128.44
243.765	121.44
243.998	139.44
244.232	142.44
244.465	127.44
244.699	135.44
244.932	136.44
245.166	147.44
245.399	140.44
245.633	127.44
245.866	132.44
246.099	125.44
246.333	149.44
246.566	136.44
246.8	138.44
247.033	134.44
247.266	160.44
247.5	136.44
247.733	162.44
247.966	157.44
248.2	154.44
248.433	162.44
248.666	157.44
248.899	162.44
249.133	177.44
249.366	190.44
249.599	195.44
249.832	151.44
250.066	168.44
250.299	166.44
250.532	178.44
250.765	164.44
250.998	175.44
251.231	186.44
251.465	183.44
251.698	173.44
251.931	183.44
252.164	180.44
252.397	183.44
252.63	189.44
252.863	179.44
253.096	180.44
253.329	205.44
253.562	200.44
253.795	192.44
254.028	200.44
254.261	194.44
254.494	201.44
254.727	218.44
254.96	230.44
255.193	223.44
255.426	226.44
255.659	213.44
255.892	220.44
256.124	203.44
256.357	198.44
256.59	189.44
256.823	182.44
257.056	205.44
257.289	184.44
257.521	179.44
257.754	170.44
257.987	203.44
258.22	201.44
258.452	183.44
258.685	181.44
258.918	204.44
259.151	191.44
259.383	182.44
259.616	174.44
259.849	190.44
260.081	224.44
260.314	221.44
260.547	220.44
260.779	211.44
261.012	212.44
261.244	214.44
261.477	200.44
261.71	213.44
261.942	206.44
262.175	218.44
262.407	207.44
262.64	205.44
262.872	204.44
263.105	187.44
263.337	195.44
263.57	184.44
263.802	206.44
264.035	195.44
264.267	214.44
264.499	187.44
264.732	215.44
264.964	187.44
265.197	192.44
265.429	205.44
265.661	213.44
265.894	193.44
266.126	203.44
266.358	203.44
266.591	215.44
266.823	218.44
267.055	230.44
267.287	216.44
267.52	214.44
267.752	197.44
267.984	213.44
268.216	221.44
268.448	230.44
268.681	225.44
268.913	216.44
269.145	242.44
269.377	249.44
269.609	241.44
269.841	250.44
270.073	245.44
270.306	256.44
270.538	266.44
270.77	299.44
271.002	270.44
271.234	260.44
271.466	270.44
271.698	259.44
271.93	268.44
272.162	267.44
272.394	286.44
272.626	284.44
272.858	269.44
273.09	256.44
273.322	243.44
273.553	256.44
273.785	258.44
274.017	241.44
274.249	251.44
274.481	240.44
274.713	248.44
274.945	257.44
275.176	264.44
275.408	250.44
275.64	249.44
275.872	246.44
276.104	250.44
276.335	255.44
276.567	235.44
276.799	270.44
277.031	269.44
277.262	303.44
277.494	281.44
277.726	279.44
277.957	267.44
278.189	274.44
278.421	250.44
278.652	263.44
278.884	264.44
279.115	243.44
279.347	255.44
279.579	240.44
279.81	253.44
280.042	264.44
280.273	258.44
280.505	264.44
280.736	259.44
280.968	261.44
281.199	234.44
281.431	256.44
281.662	264.44
281.894	271.44
282.125	274.44
282.356	280.44
282.588	273.44
282.819	287.44
283.051	262.44
283.282	249.44
283.513	267.44
283.745	255.44
283.976	282.44
284.207	274.44
284.439	259.44
284.67	290.44
284.901	263.44
285.132	264.44
285.364	252.44
285.595	267.44
285.826	270.44
286.057	266.44
286.288	269.44
286.52	286.44
286.751	291.44
286.982	272.44
287.213	257.44
287.444	270.44
287.675	271.44
287.906	268.44
288.138	271.44
288.369	272.44
288.6	272.44
288.831	286.44
289.062	267.44
289.293	276.44
289.524	265.44
289.755	285.44
289.986	277.44
290.217	287.44
290.448	293.44
290.679	279.44
290.91	275.44
291.141	272.44
291.371	283.44
291.602	275.44
291.833	297.44
292.064	308.44
292.295	288.44
292.526	285.44
292.757	274.44
292.987	284.44
293.218	273.44
293.449	274.44
293.68	279.44
293.91	293.44
294.141	292.44
294.372	264.44
294.603	289.44
294.833	294.44
295.064	299.44
295.295	304.44
295.525	282.44
295.756	299.44
295.987	281.44
296.217	316.44
296.448	306.44
296.679	302.44
296.909	282.44
297.14	297.44
297.37	290.44
297.601	304.44
297.831	295.44
298.062	296.44
298.292	281.44
298.523	302.44
298.753	300.44
298.984	288.44
299.214	294.44
299.445	299.44
299.675	305.44
299.905	299.44
300.136	293.44
300.366	300.44
300.597	280.44
300.827	333.44
301.057	304.44
301.288	314.44
301.518	311.44
301.748	313.44
301.979	305.44
302.209	295.44
302.439	309.44
302.669	316.44
302.9	327.44
303.13	305.44
303.36	328.44
303.59	313.44
303.82	312.44
304.051	329.44
304.281	328.44
304.511	312.44
304.741	294.44
304.971	327.44
305.201	311.44
305.431	325.44
305.661	316.44
305.891	326.44
306.121	321.44
306.352	314.44
306.582	328.44
306.812	312.44
307.042	328.44
307.272	314.44
307.502	301.44
307.731	313.44
307.961	320.44
308.191	320.44
308.421	317.44
308.651	335.44
308.881	334.44
309.111	313.44
309.341	328.44
309.571	320.44
309.8	337.44
310.03	346.44
310.26	360.44
310.49	341.44
310.72	355.44
310.949	350.44
311.179	370.44
311.409	345.44
311.639	356.44
311.868	348.44
312.098	364.44
312.328	334.44
312.557	365.44
312.787	391.44
313.017	347.44
313.246	362.44
313.476	351.44
313.706	351.44
313.935	338.44
314.165	350.44
314.394	345.44
314.624	359.44
314.853	364.44
315.083	374.44
315.312	360.44
315.542	365.44
315.771	351.44
316.001	351.44
316.23	350.44
316.46	346.44
316.689	351.44
316.919	367.44
317.148	349.44
317.377	356.44
317.607	348.44
317.836	358.44
318.065	360.44
318.295	364.44
318.524	359.44
318.753	335.44
318.983	360.44
319.212	356.44
319.441	360.44
319.67	371.44
319.9	356.44
320.129	380.44
320.358	365.44
320.587	378.44
320.816	376.44
321.046	361.44
321.275	378.44
321.504	392.44
321.733	386.44
321.962	356.44
322.191	372.44
322.42	397.44
322.649	377.44
322.878	395.44
323.108	401.44
323.337	420.44
323.566	415.44
323.795	437.44
324.024	489.44
324.253	530.44
324.482	743.44
324.71	1010.44
324.939	1362.44
325.168	1175.44
325.397	679.44
325.626	490.44
325.855	458.44
326.084	446.44
326.313	416.44
326.542	432.44
326.77	462.44
326.999	512.44
327.228	680.44
327.457	926.44
327.686	1056.44
327.914	727.44
328.143	554.44
328.372	508.44
328.6	473.44
328.829	456.44
329.058	467.44
329.287	463.44
329.515	457.44
329.744	438.44
329.972	456.44
330.201	466.44
330.43	465.44
330.658	455.44
330.887	474.44
331.115	469.44
331.344	443.44
331.572	415.44
331.801	438.44
332.03	431.44
332.258	414.44
332.486	414.44
332.715	432.44
332.943	434.44
333.172	422.44
333.4	420.44
333.629	420.44
333.857	440.44
334.085	426.44
334.314	470.44
334.542	471.44
334.771	484.44
334.999	440.44
335.227	442.44
335.455	411.44
335.684	422.44
335.912	417.44
336.14	416.44
336.369	406.44
336.597	419.44
336.825	412.44
337.053	420.44
337.281	382.44
337.51	406.44
337.738	390.44
337.966	405.44
338.194	425.44
338.422	408.44
338.65	376.44
338.878	415.44
339.106	407.44
339.334	400.44
339.562	394.44
339.79	386.44
340.018	377.44
340.246	403.44
340.474	386.44
340.702	416.44
340.93	377.44
341.158	394.44
341.386	380.44
341.614	392.44
341.842	382.44
342.07	395.44
342.298	380.44
342.526	388.44
342.754	374.44
342.981	382.44
343.209	377.44
343.437	383.44
343.665	390.44
343.893	386.44
344.12	408.44
344.348	406.44
344.576	399.44
344.804	392.44
345.031	389.44
345.259	410.44
345.487	382.44
345.714	385.44
345.942	385.44
346.17	378.44
346.397	395.44
346.625	382.44
346.853	366.44
347.08	394.44
347.308	385.44
347.535	388.44
347.763	394.44
347.99	389.44
348.218	380.44
348.445	399.44
348.673	376.44
348.9	392.44
349.128	360.44
349.355	381.44
349.583	356.44
349.81	360.44
350.037	359.44
350.265	364.44
350.492	366.44
350.72	367.44
350.947	363.44
351.174	369.44
351.402	394.44
351.629	381.44
351.856	370.44
352.083	368.44
352.311	378.44
352.538	367.44
352.765	353.44
352.992	369.44
353.22	384.44
353.447	375.44
353.674	362.44
353.901	365.44
354.128	352.44
354.355	345.44
354.583	351.44
354.81	357.44
355.037	353.44
355.264	348.44
355.491	366.44
355.718	358.44
355.945	345.44
356.172	367.44
356.399	368.44
356.626	356.44
356.853	359.44
357.08	343.44
357.307	360.44
357.534	368.44
357.761	350.44
357.988	350.44
358.215	364.44
358.441	352.44
358.668	341.44
358.895	380.44
359.122	349.44
359.349	368.44
359.576	365.44
359.802	382.44
360.029	395.44
360.256	374.44
360.483	374.44
360.709	349.44
360.936	358.44
361.163	372.44
361.39	381.44
361.616	370.44
361.843	357.44
362.07	360.44
362.296	359.44
362.523	365.44
362.749	359.44
362.976	378.44
363.203	343.44
363.429	378.44
363.656	343.44
363.882	353.44
364.109	390.44
364.335	362.44
364.562	365.44
364.788	370.44
365.015	340.44
365.241	354.44
365.468	368.44
365.694	356.44
365.92	376.44
366.147	372.44
366.373	343.44
366.599	327.44
366.826	349.44
367.052	357.44
367.278	347.44
367.505	338.44
367.731	353.44
367.957	366.44
368.184	349.44
368.41	353.44
368.636	363.44
368.862	361.44
369.089	351.44
369.315	354.44
369.541	345.44
369.767	357.44
369.993	351.44
370.219	334.44
370.445	361.44
370.672	345.44
370.898	356.44
371.124	350.44
371.35	336.44
371.576	352.44
371.802	365.44
372.028	353.44
372.254	362.44
372.48	343.44
372.706	344.44
372.932	351.44
373.158	351.44
373.384	349.44
373.61	376.44
373.835	368.44
374.061	335.44
374.287	357.44
374.513	362.44
374.739	366.44
374.965	364.44
375.191	352.44
375.416	366.44
375.642	360.44
375.868	358.44
376.094	346.44
376.319	358.44
376.545	368.44
376.771	345.44
376.997	349.44
377.222	358.44
377.448	340.44
377.674	344.44
377.899	364.44
378.125	362.44
378.35	358.44
378.576	338.44
378.802	348.44
379.027	332.44
379.253	335.44
379.478	341.44
379.704	349.44
379.929	341.44
380.155	340.44
380.38	353.44
380.606	351.44
380.831	345.44
381.057	341.44
381.282	338.44
381.507	351.44
381.733	358.44
381.958	338.44
382.184	360.44
382.409	366.44
382.634	365.44
382.86	348.44
383.085	364.44
383.31	341.44
383.535	370.44
383.761	382.44
383.986	349.44
384.211	350.44
384.436	350.44
384.662	359.44
384.887	365.44
385.112	349.44
385.337	379.44
385.562	365.44
385.787	373.44
386.013	372.44
386.238	379.44
386.463	372.44
386.688	376.44
386.913	356.44
387.138	362.44
387.363	387.44
387.588	375.44
387.813	384.44
388.038	362.44
388.263	344.44
388.488	376.44
388.713	381.44
388.938	369.44
389.163	374.44
389.387	382.44
389.612	385.44
389.837	386.44
390.062	349.44
390.287	356.44
390.512	362.44
390.736	372.44
390.961	382.44
391.186	370.44
391.411	391.44
391.636	398.44
391.86	391.44
392.085	387.44
392.31	371.44
392.534	389.44
392.759	372.44
392.984	389.44
393.208	364.44
393.433	382.44
393.658	368.44
393.882	383.44
394.107	378.44
394.331	375.44
394.556	380.44
394.78	371.44
395.005	378.44
395.229	374.44
395.454	376.44
395.678	391.44
395.903	384.44
396.127	405.44
396.352	395.44
396.576	382.44
396.801	397.44
397.025	392.44
397.249	398.44
397.474	381.44
397.698	396.44
397.922	404.44
398.147	400.44
398.371	394.44
398.595	412.44
398.82	392.44
399.044	422.44
399.268	439.44
399.492	480.44
399.717	480.44
399.941	503.44
400.165	499.44
400.389	478.44
400.613	470.44
400.837	446.44
401.062	426.44
401.286	450.44
401.51	447.44
401.734	410.44
401.958	424.44
402.182	416.44
402.406	417.44
402.63	438.44
402.854	423.44
403.078	428.44
403.302	423.44
403.526	407.44
403.75	412.44
403.974	417.44
404.198	429.44
404.422	425.44
404.645	432.44
404.869	441.44
405.093	444.44
405.317	454.44
405.541	495.44
405.765	464.44
405.988	448.44
406.212	432.44
406.436	466.44
406.66	479.44
406.883	448.44
407.107	466.44
407.331	478.44
407.555	523.44
407.778	546.44
408.002	504.44
408.226	444.44
408.449	459.44
408.673	458.44
408.896	471.44
409.12	491.44
409.344	480.44
409.567	450.44
409.791	449.44
410.014	401.44
410.238	404.44
410.461	424.44
410.685	431.44
410.908	438.44
411.132	470.44
411.355	457.44
411.578	476.44
411.802	434.44
412.025	437.44
412.249	414.44
412.472	445.44
412.695	444.44
412.919	449.44
413.142	445.44
413.365	425.44
413.589	422.44
413.812	427.44
414.035	404.44
414.258	394.44
414.482	406.44
414.705	398.44
414.928	420.44
415.151	401.44
415.374	422.44
415.597	422.44
415.821	405.44
416.044	390.44
416.267	400.44
416.49	383.44
416.713	402.44
416.936	409.44
417.159	400.44
417.382	389.44
417.605	398.44
417.828	407.44
418.051	412.44
418.274	390.44
418.497	385.44
418.72	395.44
418.943	375.44
419.166	399.44
419.389	427.44
419.611	413.44
419.834	420.44
420.057	396.44
420.28	403.44
420.503	398.44
420.726	404.44
420.948	414.44
421.171	433.44
421.394	444.44
421.617	424.44
421.839	413.44
422.062	418.44
422.285	415.44
422.507	457.44
422.73	491.44
422.953	472.44
423.175	446.44
423.398	431.44
423.621	432.44
423.843	434.44
424.066	440.44
424.288	427.44
424.511	447.44
424.733	453.44
424.956	532.44
425.178	481.44
425.401	509.44
425.623	503.44
425.846	444.44
426.068	429.44
426.291	422.44
426.513	434.44
426.735	437.44
426.958	477.44
427.18	518.44
427.402	581.44
427.625	647.44
427.847	559.44
428.069	477.44
428.292	446.44
428.514	413.44
428.736	406.44
428.958	399.44
429.181	396.44
429.403	386.44
429.625	410.44
429.847	425.44
430.069	461.44
430.292	461.44
430.514	399.44
430.736	409.44
430.958	384.44
431.18	378.44
431.402	384.44
431.624	387.44
431.846	356.44
432.068	373.44
432.29	371.44
432.512	384.44
432.734	373.44
432.956	374.44
433.178	393.44
433.4	378.44
433.622	397.44
433.844	372.44
434.066	382.44
434.287	394.44
434.509	386.44
434.731	402.44
434.953	387.44
435.175	415.44
435.397	433.44
435.618	428.44
435.84	474.44
436.062	507.44
436.284	542.44
436.505	459.44
436.727	411.44
436.949	398.44
437.17	405.44
437.392	404.44
437.614	402.44
437.835	428.44
438.057	474.44
438.278	550.44
438.5	543.44
438.721	589.44
438.943	560.44
439.165	477.44
439.386	442.44
439.608	428.44
439.829	432.44
440.05	426.44
440.272	447.44
440.493	450.44
440.715	400.44
440.936	394.44
441.158	402.44
441.379	416.44
441.6	418.44
441.822	399.44
442.043	441.44
442.264	489.44
442.486	529.44
442.707	434.44
442.928	424.44
443.149	433.44
443.371	446.44
443.592	458.44
443.813	528.44
444.034	562.44
444.255	499.44
444.476	450.44
444.698	433.44
444.919	432.44
445.14	521.44
445.361	481.44
445.582	429.44
445.803	484.44
446.024	526.44
446.245	532.44
446.466	505.44
446.687	439.44
446.908	434.44
447.129	431.44
447.35	382.44
447.571	410.44
447.792	388.44
448.013	400.44
448.234	426.44
448.455	431.44
448.675	517.44
448.896	572.44
449.117	477.44
449.338	458.44
449.559	536.44
449.779	625.44
450	504.44
450.221	418.44
450.442	409.44
450.662	385.44
450.883	382.44
451.104	384.44
451.324	375.44
451.545	387.44
451.766	379.44
451.986	369.44
452.207	368.44
452.428	344.44
452.648	354.44
452.869	352.44
453.089	358.44
453.31	366.44
453.53	361.44
453.751	343.44
453.971	364.44
454.192	358.44
454.412	367.44
454.633	350.44
454.853	344.44
455.073	340.44
455.294	367.44
455.514	409.44
455.734	379.44
455.955	358.44
456.175	351.44
456.395	345.44
456.616	351.44
456.836	345.44
457.056	346.44
457.276	336.44
457.497	336.44
457.717	341.44
457.937	348.44
458.157	338.44
458.377	346.44
458.598	360.44
458.818	390.44
459.038	426.44
459.258	447.44
459.478	398.44
459.698	380.44
459.918	366.44
460.138	374.44
460.358	376.44
460.578	362.44
460.798	384.44
461.018	370.44
461.238	378.44
461.458	392.44
461.678	413.44
461.898	385.44
462.118	389.44
462.338	393.44
462.558	398.44
462.777	396.44
462.997	411.44
463.217	417.44
463.437	430.44
463.657	386.44
463.876	408.44
464.096	412.44
464.316	430.44
464.536	408.44
464.755	387.44
464.975	437.44
465.195	426.44
465.414	451.44
465.634	428.44
465.854	400.44
466.073	397.44
466.293	384.44
466.512	368.44
466.732	381.44
466.951	376.44
467.171	368.44
467.391	380.44
467.61	385.44
467.829	368.44
468.049	379.44
468.268	365.44
468.488	378.44
468.707	369.44
468.927	353.44
469.146	372.44
469.365	352.44
469.585	354.44
469.804	365.44
470.023	368.44
470.243	374.44
470.462	376.44
470.681	385.44
470.901	381.44
471.12	353.44
471.339	365.44
471.558	362.44
471.777	358.44
471.997	367.44
472.216	386.44
472.435	396.44
472.654	381.44
472.873	362.44
473.092	366.44
473.311	370.44
473.53	360.44
473.749	380.44
473.968	385.44
474.187	449.44
474.406	484.44
474.625	412.44
474.844	379.44
475.063	371.44
475.282	365.44
475.501	378.44
475.72	372.44
475.939	367.44
476.158	385.44
476.377	404.44
476.596	373.44
476.814	390.44
477.033	377.44
477.252	394.44
477.471	412.44
477.69	402.44
477.908	410.44
478.127	399.44
478.346	415.44
478.564	387.44
478.783	423.44
479.002	424.44
479.22	400.44
479.439	416.44
479.658	431.44
479.876	446.44
480.095	446.44
480.313	455.44
480.532	447.44
480.751	439.44
480.969	455.44
481.188	477.44
481.406	487.44
481.624	452.44
481.843	436.44
482.061	432.44
482.28	434.44
482.498	457.44
482.717	431.44
482.935	436.44
483.153	440.44
483.372	415.44
483.59	449.44
483.808	432.44
484.027	424.44
484.245	420.44
484.463	433.44
484.681	447.44
484.9	428.44
485.118	425.44
485.336	445.44
485.554	454.44
485.772	424.44
485.99	433.44
486.209	437.44
486.427	427.44
486.645	449.44
486.863	458.44
487.081	455.44
487.299	442.44
487.517	452.44
487.735	440.44
487.953	446.44
488.171	445.44
488.389	456.44
488.607	432.44
488.825	453.44
489.043	426.44
489.261	428.44
489.479	453.44
489.696	437.44
489.914	438.44
490.132	470.44
490.35	468.44
490.568	486.44
490.786	456.44
491.003	488.44
491.221	497.44
491.439	502.44
491.657	498.44
491.874	514.44
492.092	515.44
492.31	522.44
492.527	498.44
492.745	516.44
492.963	508.44
493.18	488.44
493.398	513.44
493.615	505.44
493.833	505.44
494.05	506.44
494.268	511.44
494.485	505.44
494.703	517.44
494.92	529.44
495.138	516.44
495.355	511.44
495.573	525.44
495.79	515.44
496.008	518.44
496.225	528.44
496.442	553.44
496.66	540.44
496.877	534.44
497.094	528.44
497.312	521.44
497.529	544.44
497.746	562.44
497.963	551.44
498.181	572.44
498.398	573.44
498.615	585.44
498.832	598.44
499.049	635.44
499.267	637.44
499.484	642.44
499.701	668.44
499.918	715.44
500.135	718.44
500.352	732.44
500.569	749.44
500.786	758.44
501.003	761.44
501.22	732.44
501.437	711.44
501.654	653.44
501.871	655.44
