Data from 1960PennyLincolnUp.LampE6.200Scan.07172019.P1_HRD10591_13-05-11-002.txt Node
Date: Thu Jul 18 13:05:11 EDT 2019
User: cochatt
Spectrometer: HR+D1059
Trigger mode: 1
Integration Time (sec): 1.000000E-1
Scans to average: 1
Electric dark correction enabled: true
Nonlinearity correction enabled: false
Boxcar width: 0
XAxis mode: Wavelengths
Number of Pixels in Spectrum: 2048
>>>>>Begin Spectral Data<<<<<
223.165	-16.69
223.4	-16.69
223.635	-16.69
223.869	-18.69
224.104	-13.69
224.338	-4.69
224.573	-9.69
224.808	-10.69
225.042	-8.69
225.277	-3.69
225.511	-6.69
225.746	-8.69
225.98	19.31
226.215	13.31
226.449	20.31
226.683	6.31
226.918	13.31
227.152	29.31
227.387	35.31
227.621	32.31
227.856	37.31
228.09	44.31
228.324	36.31
228.559	46.31
228.793	62.31
229.027	83.31
229.262	78.31
229.496	100.31
229.73	96.31
229.964	114.31
230.199	117.31
230.433	102.31
230.667	101.31
230.901	105.31
231.136	101.31
231.37	88.31
231.604	102.31
231.838	103.31
232.072	120.31
232.306	105.31
232.541	118.31
232.775	114.31
233.009	103.31
233.243	105.31
233.477	109.31
233.711	117.31
233.945	109.31
234.179	92.31
234.413	94.31
234.647	113.31
234.881	121.31
235.115	107.31
235.349	104.31
235.583	98.31
235.817	127.31
236.051	112.31
236.285	116.31
236.519	103.31
236.753	110.31
236.987	122.31
237.221	133.31
237.455	164.31
237.689	138.31
237.922	123.31
238.156	109.31
238.39	111.31
238.624	118.31
238.858	106.31
239.091	122.31
239.325	101.31
239.559	103.31
239.793	112.31
240.027	120.31
240.26	132.31
240.494	126.31
240.728	111.31
240.961	141.31
241.195	129.31
241.429	129.31
241.662	136.31
241.896	118.31
242.13	122.31
242.363	101.31
242.597	117.31
242.83	127.31
243.064	138.31
243.298	120.31
243.531	124.31
243.765	125.31
243.998	129.31
244.232	132.31
244.465	126.31
244.699	123.31
244.932	133.31
245.166	127.31
245.399	135.31
245.633	128.31
245.866	127.31
246.099	124.31
246.333	138.31
246.566	133.31
246.8	132.31
247.033	136.31
247.266	131.31
247.5	150.31
247.733	148.31
247.966	149.31
248.2	155.31
248.433	140.31
248.666	138.31
248.899	166.31
249.133	150.31
249.366	168.31
249.599	182.31
249.832	169.31
250.066	153.31
250.299	161.31
250.532	164.31
250.765	183.31
250.998	199.31
251.231	171.31
251.465	189.31
251.698	172.31
251.931	167.31
252.164	176.31
252.397	177.31
252.63	175.31
252.863	190.31
253.096	184.31
253.329	183.31
253.562	182.31
253.795	161.31
254.028	177.31
254.261	176.31
254.494	166.31
254.727	194.31
254.96	209.31
255.193	204.31
255.426	193.31
255.659	189.31
255.892	193.31
256.124	190.31
256.357	204.31
256.59	174.31
256.823	190.31
257.056	190.31
257.289	181.31
257.521	199.31
257.754	169.31
257.987	165.31
258.22	176.31
258.452	175.31
258.685	182.31
258.918	177.31
259.151	172.31
259.383	192.31
259.616	184.31
259.849	203.31
260.081	211.31
260.314	210.31
260.547	210.31
260.779	195.31
261.012	204.31
261.244	201.31
261.477	198.31
261.71	182.31
261.942	190.31
262.175	192.31
262.407	200.31
262.64	177.31
262.872	173.31
263.105	188.31
263.337	201.31
263.57	204.31
263.802	192.31
264.035	186.31
264.267	194.31
264.499	199.31
264.732	205.31
264.964	201.31
265.197	212.31
265.429	188.31
265.661	189.31
265.894	190.31
266.126	204.31
266.358	198.31
266.591	200.31
266.823	192.31
267.055	216.31
267.287	197.31
267.52	205.31
267.752	197.31
267.984	192.31
268.216	222.31
268.448	216.31
268.681	201.31
268.913	228.31
269.145	236.31
269.377	226.31
269.609	221.31
269.841	230.31
270.073	229.31
270.306	247.31
270.538	247.31
270.77	260.31
271.002	239.31
271.234	224.31
271.466	226.31
271.698	260.31
271.93	252.31
272.162	250.31
272.394	271.31
272.626	254.31
272.858	226.31
273.09	230.31
273.322	236.31
273.553	215.31
273.785	234.31
274.017	234.31
274.249	236.31
274.481	241.31
274.713	245.31
274.945	239.31
275.176	238.31
275.408	239.31
275.64	244.31
275.872	254.31
276.104	237.31
276.335	231.31
276.567	249.31
276.799	243.31
277.031	259.31
277.262	266.31
277.494	266.31
277.726	268.31
277.957	248.31
278.189	251.31
278.421	247.31
278.652	235.31
278.884	256.31
279.115	258.31
279.347	250.31
279.579	254.31
279.81	265.31
280.042	265.31
280.273	258.31
280.505	266.31
280.736	262.31
280.968	259.31
281.199	257.31
281.431	248.31
281.662	244.31
281.894	262.31
282.125	263.31
282.356	265.31
282.588	255.31
282.819	257.31
283.051	257.31
283.282	268.31
283.513	280.31
283.745	265.31
283.976	271.31
284.207	266.31
284.439	259.31
284.67	285.31
284.901	271.31
285.132	276.31
285.364	277.31
285.595	277.31
285.826	299.31
286.057	279.31
286.288	279.31
286.52	283.31
286.751	281.31
286.982	286.31
287.213	264.31
287.444	276.31
287.675	287.31
287.906	260.31
288.138	284.31
288.369	284.31
288.6	284.31
288.831	297.31
289.062	287.31
289.293	280.31
289.524	286.31
289.755	286.31
289.986	288.31
290.217	294.31
290.448	280.31
290.679	282.31
290.91	304.31
291.141	298.31
291.371	298.31
291.602	291.31
291.833	286.31
292.064	290.31
292.295	289.31
292.526	296.31
292.757	287.31
292.987	292.31
293.218	285.31
293.449	293.31
293.68	278.31
293.91	294.31
294.141	300.31
294.372	305.31
294.603	288.31
294.833	295.31
295.064	299.31
295.295	302.31
295.525	285.31
295.756	280.31
295.987	292.31
296.217	322.31
296.448	307.31
296.679	296.31
296.909	313.31
297.14	303.31
297.37	317.31
297.601	296.31
297.831	293.31
298.062	302.31
298.292	327.31
298.523	310.31
298.753	334.31
298.984	296.31
299.214	297.31
299.445	309.31
299.675	322.31
299.905	328.31
300.136	324.31
300.366	312.31
300.597	307.31
300.827	328.31
301.057	332.31
301.288	329.31
301.518	329.31
301.748	325.31
301.979	313.31
302.209	323.31
302.439	335.31
302.669	328.31
302.9	327.31
303.13	318.31
303.36	318.31
303.59	333.31
303.82	330.31
304.051	327.31
304.281	329.31
304.511	333.31
304.741	331.31
304.971	320.31
305.201	333.31
305.431	336.31
305.661	349.31
305.891	333.31
306.121	338.31
306.352	328.31
306.582	349.31
306.812	324.31
307.042	327.31
307.272	344.31
307.502	333.31
307.731	320.31
307.961	329.31
308.191	335.31
308.421	312.31
308.651	332.31
308.881	334.31
309.111	317.31
309.341	365.31
309.571	343.31
309.8	345.31
310.03	342.31
310.26	338.31
310.49	340.31
310.72	348.31
310.949	345.31
311.179	362.31
311.409	347.31
311.639	342.31
311.868	350.31
312.098	340.31
312.328	355.31
312.557	336.31
312.787	364.31
313.017	358.31
313.246	360.31
313.476	350.31
313.706	349.31
313.935	364.31
314.165	372.31
314.394	369.31
314.624	371.31
314.853	370.31
315.083	371.31
315.312	367.31
315.542	377.31
315.771	360.31
316.001	366.31
316.23	354.31
316.46	350.31
316.689	354.31
316.919	350.31
317.148	368.31
317.377	361.31
317.607	361.31
317.836	357.31
318.065	354.31
318.295	353.31
318.524	349.31
318.753	345.31
318.983	356.31
319.212	341.31
319.441	358.31
319.67	372.31
319.9	350.31
320.129	358.31
320.358	366.31
320.587	366.31
320.816	370.31
321.046	355.31
321.275	360.31
321.504	371.31
321.733	366.31
321.962	384.31
322.191	379.31
322.42	384.31
322.649	365.31
322.878	396.31
323.108	412.31
323.337	384.31
323.566	394.31
323.795	419.31
324.024	426.31
324.253	461.31
324.482	591.31
324.71	826.31
324.939	1049.31
325.168	904.31
325.397	544.31
325.626	443.31
325.855	396.31
326.084	424.31
326.313	395.31
326.542	414.31
326.77	457.31
326.999	463.31
327.228	584.31
327.457	766.31
327.686	844.31
327.914	619.31
328.143	489.31
328.372	458.31
328.6	452.31
328.829	414.31
329.058	430.31
329.287	434.31
329.515	421.31
329.744	423.31
329.972	431.31
330.201	438.31
330.43	459.31
330.658	470.31
330.887	446.31
331.115	460.31
331.344	434.31
331.572	412.31
331.801	432.31
332.03	452.31
332.258	448.31
332.486	448.31
332.715	450.31
332.943	468.31
333.172	466.31
333.4	471.31
333.629	486.31
333.857	494.31
334.085	498.31
334.314	495.31
334.542	506.31
334.771	519.31
334.999	480.31
335.227	493.31
335.455	468.31
335.684	453.31
335.912	455.31
336.14	465.31
336.369	458.31
336.597	441.31
336.825	469.31
337.053	438.31
337.281	438.31
337.51	441.31
337.738	445.31
337.966	426.31
338.194	438.31
338.422	430.31
338.65	415.31
338.878	431.31
339.106	416.31
339.334	421.31
339.562	419.31
339.79	421.31
340.018	413.31
340.246	403.31
340.474	406.31
340.702	418.31
340.93	421.31
341.158	415.31
341.386	404.31
341.614	426.31
341.842	422.31
342.07	408.31
342.298	398.31
342.526	405.31
342.754	418.31
342.981	399.31
343.209	428.31
343.437	445.31
343.665	429.31
343.893	470.31
344.12	457.31
344.348	460.31
344.576	454.31
344.804	426.31
345.031	432.31
345.259	449.31
345.487	420.31
345.714	409.31
345.942	402.31
346.17	392.31
346.397	412.31
346.625	388.31
346.853	380.31
347.08	389.31
347.308	396.31
347.535	406.31
347.763	405.31
347.99	418.31
348.218	400.31
348.445	404.31
348.673	400.31
348.9	406.31
349.128	377.31
349.355	389.31
349.583	374.31
349.81	363.31
350.037	402.31
350.265	393.31
350.492	389.31
350.72	383.31
350.947	394.31
351.174	372.31
351.402	399.31
351.629	382.31
351.856	400.31
352.083	406.31
352.311	404.31
352.538	401.31
352.765	382.31
352.992	403.31
353.22	402.31
353.447	404.31
353.674	377.31
353.901	364.31
354.128	376.31
354.355	379.31
354.583	394.31
354.81	393.31
355.037	388.31
355.264	388.31
355.491	389.31
355.718	377.31
355.945	386.31
356.172	397.31
356.399	401.31
356.626	396.31
356.853	358.31
357.08	388.31
357.307	382.31
357.534	377.31
357.761	389.31
357.988	391.31
358.215	377.31
358.441	364.31
358.668	382.31
358.895	394.31
359.122	386.31
359.349	394.31
359.576	369.31
359.802	406.31
360.029	399.31
360.256	412.31
360.483	398.31
360.709	398.31
360.936	390.31
361.163	386.31
361.39	367.31
361.616	398.31
361.843	388.31
362.07	407.31
362.296	390.31
362.523	412.31
362.749	385.31
362.976	398.31
363.203	387.31
363.429	376.31
363.656	396.31
363.882	374.31
364.109	384.31
364.335	396.31
364.562	388.31
364.788	409.31
365.015	391.31
365.241	373.31
365.468	393.31
365.694	404.31
365.92	379.31
366.147	400.31
366.373	386.31
366.599	378.31
366.826	377.31
367.052	392.31
367.278	388.31
367.505	389.31
367.731	392.31
367.957	381.31
368.184	373.31
368.41	397.31
368.636	399.31
368.862	385.31
369.089	400.31
369.315	401.31
369.541	391.31
369.767	400.31
369.993	390.31
370.219	397.31
370.445	388.31
370.672	395.31
370.898	397.31
371.124	404.31
371.35	412.31
371.576	403.31
371.802	397.31
372.028	405.31
372.254	405.31
372.48	402.31
372.706	403.31
372.932	419.31
373.158	400.31
373.384	401.31
373.61	424.31
373.835	396.31
374.061	404.31
374.287	416.31
374.513	415.31
374.739	426.31
374.965	408.31
375.191	446.31
375.416	457.31
375.642	432.31
375.868	427.31
376.094	414.31
376.319	412.31
376.545	431.31
376.771	431.31
376.997	410.31
377.222	408.31
377.448	406.31
377.674	428.31
377.899	414.31
378.125	403.31
378.35	407.31
378.576	392.31
378.802	398.31
379.027	380.31
379.253	417.31
379.478	418.31
379.704	412.31
379.929	403.31
380.155	392.31
380.38	383.31
380.606	409.31
380.831	432.31
381.057	402.31
381.282	403.31
381.507	404.31
381.733	407.31
381.958	420.31
382.184	437.31
382.409	422.31
382.634	412.31
382.86	424.31
383.085	425.31
383.31	441.31
383.535	427.31
383.761	449.31
383.986	438.31
384.211	467.31
384.436	452.31
384.662	454.31
384.887	479.31
385.112	469.31
385.337	473.31
385.562	477.31
385.787	477.31
386.013	473.31
386.238	476.31
386.463	466.31
386.688	485.31
386.913	460.31
387.138	467.31
387.363	471.31
387.588	449.31
387.813	444.31
388.038	465.31
388.263	485.31
388.488	500.31
388.713	457.31
388.938	452.31
389.163	454.31
389.387	472.31
389.612	453.31
389.837	447.31
390.062	465.31
390.287	469.31
390.512	461.31
390.736	459.31
390.961	456.31
391.186	465.31
391.411	480.31
391.636	504.31
391.86	514.31
392.085	501.31
392.31	527.31
392.534	501.31
392.759	477.31
392.984	480.31
393.208	492.31
393.433	518.31
393.658	486.31
393.882	501.31
394.107	485.31
394.331	493.31
394.556	478.31
394.78	474.31
395.005	470.31
395.229	492.31
395.454	464.31
395.678	511.31
395.903	521.31
396.127	510.31
396.352	519.31
396.576	479.31
396.801	495.31
397.025	490.31
397.249	511.31
397.474	504.31
397.698	504.31
397.922	488.31
398.147	507.31
398.371	516.31
398.595	522.31
398.82	549.31
399.044	585.31
399.268	600.31
399.492	689.31
399.717	732.31
399.941	728.31
400.165	682.31
400.389	678.31
400.613	617.31
400.837	585.31
401.062	575.31
401.286	558.31
401.51	558.31
401.734	530.31
401.958	549.31
402.182	559.31
402.406	574.31
402.63	570.31
402.854	586.31
403.078	597.31
403.302	591.31
403.526	604.31
403.75	608.31
403.974	590.31
404.198	606.31
404.422	612.31
404.645	620.31
404.869	610.31
405.093	627.31
405.317	632.31
405.541	631.31
405.765	598.31
405.988	596.31
406.212	612.31
406.436	615.31
406.66	642.31
406.883	615.31
407.107	644.31
407.331	687.31
407.555	723.31
407.778	723.31
408.002	672.31
408.226	653.31
408.449	643.31
408.673	625.31
408.896	631.31
409.12	632.31
409.344	613.31
409.567	586.31
409.791	594.31
410.014	618.31
410.238	570.31
410.461	578.31
410.685	595.31
410.908	574.31
411.132	618.31
411.355	607.31
411.578	582.31
411.802	571.31
412.025	567.31
412.249	561.31
412.472	611.31
412.695	625.31
412.919	599.31
413.142	552.31
413.365	550.31
413.589	548.31
413.812	544.31
414.035	533.31
414.258	550.31
414.482	531.31
414.705	539.31
414.928	545.31
415.151	563.31
415.374	547.31
415.597	554.31
415.821	516.31
416.044	553.31
416.267	559.31
416.49	532.31
416.713	512.31
416.936	550.31
417.159	530.31
417.382	551.31
417.605	559.31
417.828	538.31
418.051	571.31
418.274	567.31
418.497	553.31
418.72	557.31
418.943	549.31
419.166	580.31
419.389	580.31
419.611	589.31
419.834	568.31
420.057	567.31
420.28	571.31
420.503	556.31
420.726	566.31
420.948	542.31
421.171	585.31
421.394	586.31
421.617	548.31
421.839	538.31
422.062	546.31
422.285	542.31
422.507	592.31
422.73	629.31
422.953	626.31
423.175	601.31
423.398	592.31
423.621	581.31
423.843	575.31
424.066	604.31
424.288	590.31
424.511	569.31
424.733	618.31
424.956	646.31
425.178	634.31
425.401	602.31
425.623	627.31
425.846	582.31
426.068	542.31
426.291	545.31
426.513	528.31
426.735	533.31
426.958	562.31
427.18	603.31
427.402	670.31
427.625	694.31
427.847	615.31
428.069	562.31
428.292	520.31
428.514	506.31
428.736	518.31
428.958	515.31
429.181	503.31
429.403	504.31
429.625	509.31
429.847	522.31
430.069	551.31
430.292	560.31
430.514	497.31
430.736	504.31
430.958	501.31
431.18	487.31
431.402	496.31
431.624	488.31
431.846	481.31
432.068	481.31
432.29	510.31
432.512	482.31
432.734	506.31
432.956	498.31
433.178	488.31
433.4	510.31
433.622	518.31
433.844	484.31
434.066	501.31
434.287	512.31
434.509	506.31
434.731	532.31
434.953	560.31
435.175	544.31
435.397	540.31
435.618	551.31
435.84	552.31
436.062	598.31
436.284	636.31
436.505	549.31
436.727	540.31
436.949	500.31
437.17	498.31
437.392	492.31
437.614	510.31
437.835	504.31
438.057	544.31
438.278	594.31
438.5	622.31
438.721	640.31
438.943	624.31
439.165	548.31
439.386	523.31
439.608	513.31
439.829	512.31
440.05	519.31
440.272	557.31
440.493	521.31
440.715	500.31
440.936	512.31
441.158	533.31
441.379	536.31
441.6	544.31
441.822	558.31
442.043	562.31
442.264	606.31
442.486	633.31
442.707	594.31
442.928	568.31
443.149	564.31
443.371	567.31
443.592	568.31
443.813	632.31
444.034	657.31
444.255	601.31
444.476	582.31
444.698	585.31
444.919	598.31
445.14	677.31
445.361	614.31
445.582	574.31
445.803	569.31
446.024	616.31
446.245	638.31
446.466	612.31
446.687	527.31
446.908	508.31
447.129	501.31
447.35	498.31
447.571	485.31
447.792	460.31
448.013	480.31
448.234	495.31
448.455	524.31
448.675	564.31
448.896	620.31
449.117	555.31
449.338	528.31
449.559	575.31
449.779	656.31
450	542.31
450.221	494.31
450.442	472.31
450.662	482.31
450.883	465.31
451.104	460.31
451.324	453.31
451.545	462.31
451.766	457.31
451.986	437.31
452.207	428.31
452.428	439.31
452.648	432.31
452.869	446.31
453.089	441.31
453.31	452.31
453.53	460.31
453.751	437.31
453.971	418.31
454.192	436.31
454.412	412.31
454.633	432.31
454.853	439.31
455.073	423.31
455.294	455.31
455.514	458.31
455.734	465.31
455.955	425.31
456.175	432.31
456.395	408.31
456.616	430.31
456.836	409.31
457.056	416.31
457.276	400.31
457.497	424.31
457.717	416.31
457.937	448.31
458.157	426.31
458.377	437.31
458.598	456.31
458.818	460.31
459.038	514.31
459.258	531.31
459.478	508.31
459.698	519.31
459.918	491.31
460.138	514.31
460.358	531.31
460.578	534.31
460.798	542.31
461.018	554.31
461.238	530.31
461.458	529.31
461.678	542.31
461.898	534.31
462.118	538.31
462.338	527.31
462.558	580.31
462.777	584.31
462.997	618.31
463.217	634.31
463.437	646.31
463.657	597.31
463.876	588.31
464.096	582.31
464.316	583.31
464.536	585.31
464.755	586.31
464.975	588.31
465.195	540.31
465.414	554.31
465.634	522.31
465.854	515.31
466.073	494.31
466.293	496.31
466.512	474.31
466.732	466.31
466.951	473.31
467.171	469.31
467.391	457.31
467.61	465.31
467.829	469.31
468.049	478.31
468.268	463.31
468.488	470.31
468.707	459.31
468.927	454.31
469.146	448.31
469.365	477.31
469.585	470.31
469.804	454.31
470.023	449.31
470.243	480.31
470.462	483.31
470.681	485.31
470.901	497.31
471.12	489.31
471.339	476.31
471.558	463.31
471.777	479.31
471.997	446.31
472.216	452.31
472.435	473.31
472.654	461.31
472.873	442.31
473.092	451.31
473.311	453.31
473.53	468.31
473.749	421.31
473.968	447.31
474.187	526.31
474.406	517.31
474.625	458.31
474.844	456.31
475.063	472.31
475.282	444.31
475.501	462.31
475.72	460.31
475.939	463.31
476.158	463.31
476.377	441.31
476.596	452.31
476.814	471.31
477.033	484.31
477.252	468.31
477.471	478.31
477.69	482.31
477.908	517.31
478.127	524.31
478.346	494.31
478.564	500.31
478.783	529.31
479.002	556.31
479.22	546.31
479.439	533.31
479.658	546.31
479.876	563.31
480.095	556.31
480.313	578.31
480.532	608.31
480.751	574.31
480.969	615.31
481.188	590.31
481.406	586.31
481.624	560.31
481.843	540.31
482.061	530.31
482.28	536.31
482.498	542.31
482.717	512.31
482.935	542.31
483.153	502.31
483.372	532.31
483.59	539.31
483.808	522.31
484.027	526.31
484.245	548.31
484.463	530.31
484.681	536.31
484.9	552.31
485.118	528.31
485.336	546.31
485.554	574.31
485.772	568.31
485.99	566.31
486.209	549.31
486.427	558.31
486.645	552.31
486.863	572.31
487.081	557.31
487.299	528.31
487.517	543.31
487.735	573.31
487.953	559.31
488.171	582.31
488.389	569.31
488.607	559.31
488.825	571.31
489.043	535.31
489.261	546.31
489.479	553.31
489.696	569.31
489.914	569.31
490.132	567.31
490.35	561.31
490.568	549.31
490.786	607.31
491.003	588.31
491.221	601.31
491.439	583.31
491.657	609.31
491.874	613.31
492.092	596.31
492.31	633.31
492.527	608.31
492.745	635.31
492.963	622.31
493.18	644.31
493.398	629.31
493.615	633.31
493.833	644.31
494.05	637.31
494.268	614.31
494.485	595.31
494.703	638.31
494.92	640.31
495.138	612.31
495.355	617.31
495.573	635.31
495.79	608.31
496.008	645.31
496.225	638.31
496.442	634.31
496.66	635.31
496.877	670.31
497.094	648.31
497.312	630.31
497.529	673.31
497.746	657.31
497.963	697.31
498.181	686.31
498.398	720.31
498.615	750.31
498.832	793.31
499.049	808.31
499.267	883.31
499.484	932.31
499.701	993.31
499.918	1041.31
500.135	1149.31
500.352	1270.31
500.569	1312.31
500.786	1240.31
501.003	1207.31
501.22	1142.31
501.437	1054.31
501.654	964.31
501.871	916.31
502.088	851.31
