Data from 1960PennyLincolnUp.LampE6.200Scan.07172019.P1_HRD10591_13-05-22-001.txt Node
Date: Thu Jul 18 13:05:22 EDT 2019
User: cochatt
Spectrometer: HR+D1059
Trigger mode: 1
Integration Time (sec): 1.000000E-1
Scans to average: 1
Electric dark correction enabled: true
Nonlinearity correction enabled: false
Boxcar width: 0
XAxis mode: Wavelengths
Number of Pixels in Spectrum: 2048
>>>>>Begin Spectral Data<<<<<
223.165	6.38
223.4	6.38
223.635	6.38
223.869	-11.62
224.104	-16.62
224.338	-2.62
224.573	-17.62
224.808	-10.62
225.042	-23.62
225.277	-7.62
225.511	-4.62
225.746	0.38
225.98	19.38
226.215	4.38
226.449	0.38
226.683	7.38
226.918	23.38
227.152	33.38
227.387	20.38
227.621	33.38
227.856	30.38
228.09	40.38
228.324	46.38
228.559	51.38
228.793	59.38
229.027	96.38
229.262	86.38
229.496	102.38
229.73	91.38
229.964	118.38
230.199	116.38
230.433	102.38
230.667	107.38
230.901	104.38
231.136	101.38
231.37	106.38
231.604	103.38
231.838	112.38
232.072	116.38
232.306	112.38
232.541	105.38
232.775	113.38
233.009	106.38
233.243	110.38
233.477	105.38
233.711	117.38
233.945	106.38
234.179	102.38
234.413	121.38
234.647	112.38
234.881	110.38
235.115	112.38
235.349	112.38
235.583	115.38
235.817	103.38
236.051	118.38
236.285	115.38
236.519	102.38
236.753	118.38
236.987	118.38
237.221	130.38
237.455	179.38
237.689	137.38
237.922	124.38
238.156	118.38
238.39	122.38
238.624	128.38
238.858	106.38
239.091	126.38
239.325	123.38
239.559	117.38
239.793	115.38
240.027	118.38
240.26	117.38
240.494	132.38
240.728	112.38
240.961	127.38
241.195	123.38
241.429	124.38
241.662	123.38
241.896	121.38
242.13	109.38
242.363	131.38
242.597	129.38
242.83	127.38
243.064	160.38
243.298	126.38
243.531	135.38
243.765	134.38
243.998	133.38
244.232	120.38
244.465	147.38
244.699	144.38
244.932	135.38
245.166	135.38
245.399	139.38
245.633	157.38
245.866	130.38
246.099	143.38
246.333	161.38
246.566	143.38
246.8	133.38
247.033	149.38
247.266	137.38
247.5	146.38
247.733	150.38
247.966	171.38
248.2	156.38
248.433	146.38
248.666	154.38
248.899	161.38
249.133	173.38
249.366	151.38
249.599	183.38
249.832	165.38
250.066	171.38
250.299	154.38
250.532	172.38
250.765	173.38
250.998	191.38
251.231	183.38
251.465	182.38
251.698	179.38
251.931	168.38
252.164	160.38
252.397	152.38
252.63	178.38
252.863	160.38
253.096	181.38
253.329	178.38
253.562	173.38
253.795	180.38
254.028	168.38
254.261	191.38
254.494	194.38
254.727	214.38
254.96	214.38
255.193	226.38
255.426	218.38
255.659	182.38
255.892	180.38
256.124	194.38
256.357	200.38
256.59	194.38
256.823	187.38
257.056	183.38
257.289	189.38
257.521	190.38
257.754	178.38
257.987	179.38
258.22	175.38
258.452	182.38
258.685	200.38
258.918	178.38
259.151	181.38
259.383	197.38
259.616	199.38
259.849	212.38
260.081	207.38
260.314	203.38
260.547	225.38
260.779	211.38
261.012	185.38
261.244	203.38
261.477	192.38
261.71	186.38
261.942	205.38
262.175	207.38
262.407	208.38
262.64	205.38
262.872	181.38
263.105	190.38
263.337	206.38
263.57	204.38
263.802	197.38
264.035	197.38
264.267	210.38
264.499	208.38
264.732	203.38
264.964	201.38
265.197	197.38
265.429	208.38
265.661	190.38
265.894	200.38
266.126	220.38
266.358	197.38
266.591	211.38
266.823	219.38
267.055	202.38
267.287	206.38
267.52	202.38
267.752	211.38
267.984	220.38
268.216	218.38
268.448	219.38
268.681	212.38
268.913	231.38
269.145	236.38
269.377	231.38
269.609	244.38
269.841	247.38
270.073	236.38
270.306	248.38
270.538	264.38
270.77	265.38
271.002	232.38
271.234	240.38
271.466	255.38
271.698	270.38
271.93	282.38
272.162	287.38
272.394	255.38
272.626	246.38
272.858	254.38
273.09	250.38
273.322	254.38
273.553	238.38
273.785	227.38
274.017	238.38
274.249	242.38
274.481	230.38
274.713	239.38
274.945	255.38
275.176	240.38
275.408	257.38
275.64	258.38
275.872	248.38
276.104	243.38
276.335	251.38
276.567	254.38
276.799	261.38
277.031	268.38
277.262	266.38
277.494	298.38
277.726	247.38
277.957	258.38
278.189	261.38
278.421	232.38
278.652	256.38
278.884	259.38
279.115	257.38
279.347	266.38
279.579	252.38
279.81	257.38
280.042	266.38
280.273	238.38
280.505	254.38
280.736	272.38
280.968	260.38
281.199	265.38
281.431	244.38
281.662	255.38
281.894	263.38
282.125	264.38
282.356	284.38
282.588	279.38
282.819	269.38
283.051	280.38
283.282	267.38
283.513	283.38
283.745	278.38
283.976	294.38
284.207	281.38
284.439	264.38
284.67	278.38
284.901	265.38
285.132	278.38
285.364	270.38
285.595	294.38
285.826	265.38
286.057	284.38
286.288	269.38
286.52	277.38
286.751	299.38
286.982	273.38
287.213	283.38
287.444	271.38
287.675	290.38
287.906	298.38
288.138	290.38
288.369	302.38
288.6	290.38
288.831	286.38
289.062	289.38
289.293	289.38
289.524	291.38
289.755	295.38
289.986	296.38
290.217	270.38
290.448	269.38
290.679	291.38
290.91	309.38
291.141	288.38
291.371	286.38
291.602	288.38
291.833	299.38
292.064	286.38
292.295	296.38
292.526	295.38
292.757	305.38
292.987	302.38
293.218	298.38
293.449	309.38
293.68	311.38
293.91	289.38
294.141	303.38
294.372	296.38
294.603	295.38
294.833	296.38
295.064	308.38
295.295	275.38
295.525	296.38
295.756	302.38
295.987	308.38
296.217	308.38
296.448	315.38
296.679	329.38
296.909	312.38
297.14	317.38
297.37	301.38
297.601	306.38
297.831	303.38
298.062	307.38
298.292	308.38
298.523	310.38
298.753	325.38
298.984	323.38
299.214	323.38
299.445	334.38
299.675	331.38
299.905	312.38
300.136	326.38
300.366	322.38
300.597	321.38
300.827	333.38
301.057	341.38
301.288	331.38
301.518	333.38
301.748	326.38
301.979	322.38
302.209	327.38
302.439	338.38
302.669	348.38
302.9	335.38
303.13	316.38
303.36	339.38
303.59	334.38
303.82	333.38
304.051	337.38
304.281	323.38
304.511	336.38
304.741	324.38
304.971	341.38
305.201	348.38
305.431	318.38
305.661	335.38
305.891	328.38
306.121	346.38
306.352	347.38
306.582	334.38
306.812	320.38
307.042	335.38
307.272	309.38
307.502	328.38
307.731	347.38
307.961	342.38
308.191	331.38
308.421	341.38
308.651	333.38
308.881	342.38
309.111	341.38
309.341	343.38
309.571	343.38
309.8	356.38
310.03	340.38
310.26	335.38
310.49	377.38
310.72	349.38
310.949	364.38
311.179	362.38
311.409	340.38
311.639	362.38
311.868	356.38
312.098	359.38
312.328	382.38
312.557	396.38
312.787	386.38
313.017	362.38
313.246	393.38
313.476	370.38
313.706	365.38
313.935	343.38
314.165	376.38
314.394	391.38
314.624	376.38
314.853	366.38
315.083	371.38
315.312	368.38
315.542	372.38
315.771	366.38
316.001	355.38
316.23	379.38
316.46	374.38
316.689	386.38
316.919	374.38
317.148	378.38
317.377	373.38
317.607	383.38
317.836	367.38
318.065	371.38
318.295	353.38
318.524	362.38
318.753	368.38
318.983	377.38
319.212	364.38
319.441	374.38
319.67	376.38
319.9	361.38
320.129	371.38
320.358	385.38
320.587	377.38
320.816	375.38
321.046	372.38
321.275	379.38
321.504	384.38
321.733	370.38
321.962	386.38
322.191	385.38
322.42	387.38
322.649	383.38
322.878	400.38
323.108	390.38
323.337	416.38
323.566	420.38
323.795	439.38
324.024	455.38
324.253	494.38
324.482	638.38
324.71	920.38
324.939	1218.38
325.168	1008.38
325.397	583.38
325.626	473.38
325.855	432.38
326.084	427.38
326.313	438.38
326.542	425.38
326.77	462.38
326.999	497.38
327.228	643.38
327.457	821.38
327.686	926.38
327.914	674.38
328.143	524.38
328.372	497.38
328.6	476.38
328.829	438.38
329.058	476.38
329.287	457.38
329.515	448.38
329.744	442.38
329.972	454.38
330.201	441.38
330.43	481.38
330.658	474.38
330.887	479.38
331.115	484.38
331.344	432.38
331.572	460.38
331.801	461.38
332.03	459.38
332.258	457.38
332.486	463.38
332.715	482.38
332.943	497.38
333.172	481.38
333.4	480.38
333.629	483.38
333.857	510.38
334.085	521.38
334.314	526.38
334.542	525.38
334.771	553.38
334.999	503.38
335.227	469.38
335.455	484.38
335.684	484.38
335.912	470.38
336.14	477.38
336.369	463.38
336.597	450.38
336.825	474.38
337.053	470.38
337.281	447.38
337.51	450.38
337.738	461.38
337.966	437.38
338.194	456.38
338.422	419.38
338.65	431.38
338.878	448.38
339.106	440.38
339.334	420.38
339.562	427.38
339.79	446.38
340.018	419.38
340.246	430.38
340.474	403.38
340.702	416.38
340.93	430.38
341.158	448.38
341.386	428.38
341.614	439.38
341.842	428.38
342.07	434.38
342.298	413.38
342.526	392.38
342.754	412.38
342.981	422.38
343.209	419.38
343.437	415.38
343.665	448.38
343.893	475.38
344.12	479.38
344.348	477.38
344.576	454.38
344.804	469.38
345.031	426.38
345.259	446.38
345.487	429.38
345.714	403.38
345.942	419.38
346.17	428.38
346.397	410.38
346.625	398.38
346.853	390.38
347.08	399.38
347.308	416.38
347.535	386.38
347.763	430.38
347.99	410.38
348.218	416.38
348.445	399.38
348.673	411.38
348.9	429.38
349.128	400.38
349.355	389.38
349.583	393.38
349.81	389.38
350.037	400.38
350.265	389.38
350.492	403.38
350.72	407.38
350.947	401.38
351.174	374.38
351.402	399.38
351.629	411.38
351.856	395.38
352.083	401.38
352.311	396.38
352.538	419.38
352.765	408.38
352.992	388.38
353.22	411.38
353.447	390.38
353.674	394.38
353.901	403.38
354.128	388.38
354.355	404.38
354.583	394.38
354.81	384.38
355.037	394.38
355.264	400.38
355.491	375.38
355.718	404.38
355.945	365.38
356.172	387.38
356.399	388.38
356.626	401.38
356.853	398.38
357.08	390.38
357.307	405.38
357.534	387.38
357.761	384.38
357.988	399.38
358.215	398.38
358.441	402.38
358.668	399.38
358.895	387.38
359.122	387.38
359.349	408.38
359.576	396.38
359.802	411.38
360.029	435.38
360.256	432.38
360.483	431.38
360.709	421.38
360.936	398.38
361.163	408.38
361.39	396.38
361.616	416.38
361.843	410.38
362.07	385.38
362.296	402.38
362.523	411.38
362.749	408.38
362.976	404.38
363.203	409.38
363.429	403.38
363.656	394.38
363.882	387.38
364.109	408.38
364.335	386.38
364.562	390.38
364.788	391.38
365.015	382.38
365.241	395.38
365.468	390.38
365.694	406.38
365.92	388.38
366.147	385.38
366.373	392.38
366.599	394.38
366.826	386.38
367.052	409.38
367.278	381.38
367.505	397.38
367.731	395.38
367.957	405.38
368.184	409.38
368.41	390.38
368.636	408.38
368.862	429.38
369.089	392.38
369.315	409.38
369.541	394.38
369.767	418.38
369.993	398.38
370.219	407.38
370.445	396.38
370.672	400.38
370.898	407.38
371.124	410.38
371.35	416.38
371.576	419.38
371.802	418.38
372.028	407.38
372.254	410.38
372.48	422.38
372.706	425.38
372.932	425.38
373.158	416.38
373.384	407.38
373.61	438.38
373.835	402.38
374.061	421.38
374.287	415.38
374.513	431.38
374.739	433.38
374.965	461.38
375.191	455.38
375.416	451.38
375.642	417.38
375.868	427.38
376.094	411.38
376.319	429.38
376.545	420.38
376.771	430.38
376.997	422.38
377.222	419.38
377.448	431.38
377.674	401.38
377.899	411.38
378.125	406.38
378.35	440.38
378.576	433.38
378.802	431.38
379.027	425.38
379.253	420.38
379.478	407.38
379.704	410.38
379.929	396.38
380.155	411.38
380.38	404.38
380.606	430.38
380.831	412.38
381.057	415.38
381.282	423.38
381.507	414.38
381.733	408.38
381.958	418.38
382.184	415.38
382.409	413.38
382.634	434.38
382.86	427.38
383.085	433.38
383.31	445.38
383.535	458.38
383.761	432.38
383.986	443.38
384.211	436.38
384.436	468.38
384.662	463.38
384.887	473.38
385.112	447.38
385.337	490.38
385.562	491.38
385.787	490.38
386.013	478.38
386.238	482.38
386.463	477.38
386.688	487.38
386.913	459.38
387.138	466.38
387.363	469.38
387.588	478.38
387.813	471.38
388.038	472.38
388.263	475.38
388.488	477.38
388.713	477.38
388.938	482.38
389.163	442.38
389.387	460.38
389.612	466.38
389.837	464.38
390.062	480.38
390.287	470.38
390.512	470.38
390.736	457.38
390.961	492.38
391.186	484.38
391.411	469.38
391.636	483.38
391.86	515.38
392.085	519.38
392.31	513.38
392.534	490.38
392.759	493.38
392.984	487.38
393.208	499.38
393.433	494.38
393.658	514.38
393.882	507.38
394.107	478.38
394.331	463.38
394.556	494.38
394.78	494.38
395.005	510.38
395.229	489.38
395.454	514.38
395.678	509.38
395.903	558.38
396.127	523.38
396.352	527.38
396.576	480.38
396.801	503.38
397.025	498.38
397.249	533.38
397.474	515.38
397.698	508.38
397.922	504.38
398.147	528.38
398.371	515.38
398.595	565.38
398.82	576.38
399.044	586.38
399.268	628.38
399.492	697.38
399.717	761.38
399.941	757.38
400.165	724.38
400.389	690.38
400.613	627.38
400.837	580.38
401.062	565.38
401.286	550.38
401.51	553.38
401.734	548.38
401.958	604.38
402.182	587.38
402.406	588.38
402.63	608.38
402.854	594.38
403.078	591.38
403.302	590.38
403.526	604.38
403.75	618.38
403.974	598.38
404.198	598.38
404.422	628.38
404.645	598.38
404.869	614.38
405.093	613.38
405.317	623.38
405.541	669.38
405.765	644.38
405.988	614.38
406.212	618.38
406.436	628.38
406.66	633.38
406.883	620.38
407.107	652.38
407.331	688.38
407.555	734.38
407.778	729.38
408.002	672.38
408.226	679.38
408.449	661.38
408.673	628.38
408.896	640.38
409.12	661.38
409.344	656.38
409.567	615.38
409.791	608.38
410.014	609.38
410.238	616.38
410.461	604.38
410.685	593.38
410.908	595.38
411.132	622.38
411.355	612.38
411.578	615.38
411.802	581.38
412.025	567.38
412.249	589.38
412.472	581.38
412.695	588.38
412.919	600.38
413.142	571.38
413.365	587.38
413.589	555.38
413.812	556.38
414.035	547.38
414.258	544.38
414.482	547.38
414.705	564.38
414.928	559.38
415.151	542.38
415.374	550.38
415.597	555.38
415.821	542.38
416.044	558.38
416.267	546.38
416.49	532.38
416.713	552.38
416.936	532.38
417.159	544.38
417.382	562.38
417.605	572.38
417.828	558.38
418.051	589.38
418.274	557.38
418.497	560.38
418.72	542.38
418.943	544.38
419.166	595.38
419.389	610.38
419.611	586.38
419.834	574.38
420.057	580.38
420.28	564.38
420.503	538.38
420.726	548.38
420.948	555.38
421.171	593.38
421.394	576.38
421.617	549.38
421.839	555.38
422.062	570.38
422.285	549.38
422.507	609.38
422.73	618.38
422.953	617.38
423.175	580.38
423.398	587.38
423.621	591.38
423.843	575.38
424.066	593.38
424.288	586.38
424.511	599.38
424.733	644.38
424.956	668.38
425.178	637.38
425.401	626.38
425.623	652.38
425.846	597.38
426.068	566.38
426.291	571.38
426.513	564.38
426.735	546.38
426.958	564.38
427.18	620.38
427.402	684.38
427.625	737.38
427.847	667.38
428.069	611.38
428.292	566.38
428.514	539.38
428.736	517.38
428.958	535.38
429.181	499.38
429.403	495.38
429.625	525.38
429.847	537.38
430.069	581.38
430.292	577.38
430.514	514.38
430.736	516.38
430.958	514.38
431.18	494.38
431.402	480.38
431.624	504.38
431.846	493.38
432.068	501.38
432.29	499.38
432.512	496.38
432.734	527.38
432.956	509.38
433.178	498.38
433.4	514.38
433.622	512.38
433.844	504.38
434.066	530.38
434.287	517.38
434.509	525.38
434.731	535.38
434.953	553.38
435.175	550.38
435.397	572.38
435.618	549.38
435.84	552.38
436.062	602.38
436.284	637.38
436.505	580.38
436.727	532.38
436.949	508.38
437.17	514.38
437.392	494.38
437.614	527.38
437.835	554.38
438.057	559.38
438.278	634.38
438.5	642.38
438.721	658.38
438.943	634.38
439.165	572.38
439.386	552.38
439.608	519.38
439.829	516.38
440.05	556.38
440.272	584.38
440.493	563.38
440.715	539.38
440.936	512.38
441.158	540.38
441.379	546.38
441.6	544.38
441.822	560.38
442.043	578.38
442.264	640.38
442.486	645.38
442.707	608.38
442.928	563.38
443.149	574.38
443.371	590.38
443.592	605.38
443.813	651.38
444.034	708.38
444.255	623.38
444.476	592.38
444.698	602.38
444.919	624.38
445.14	708.38
445.361	643.38
445.582	564.38
445.803	614.38
446.024	644.38
446.245	659.38
446.466	602.38
446.687	552.38
446.908	511.38
447.129	503.38
447.35	515.38
447.571	500.38
447.792	496.38
448.013	489.38
448.234	530.38
448.455	521.38
448.675	604.38
448.896	624.38
449.117	579.38
449.338	546.38
449.559	631.38
449.779	658.38
450	558.38
450.221	511.38
450.442	488.38
450.662	470.38
450.883	476.38
451.104	478.38
451.324	502.38
451.545	461.38
451.766	456.38
451.986	439.38
452.207	444.38
452.428	444.38
452.648	460.38
452.869	448.38
453.089	462.38
453.31	466.38
453.53	426.38
453.751	451.38
453.971	430.38
454.192	451.38
454.412	441.38
454.633	447.38
454.853	431.38
455.073	421.38
455.294	452.38
455.514	477.38
455.734	459.38
455.955	437.38
456.175	421.38
456.395	429.38
456.616	436.38
456.836	424.38
457.056	410.38
457.276	413.38
457.497	429.38
457.717	423.38
457.937	428.38
458.157	437.38
458.377	436.38
458.598	453.38
458.818	488.38
459.038	533.38
459.258	555.38
459.478	501.38
459.698	520.38
459.918	521.38
460.138	548.38
460.358	526.38
460.578	552.38
460.798	538.38
461.018	549.38
461.238	522.38
461.458	543.38
461.678	543.38
461.898	529.38
462.118	536.38
462.338	554.38
462.558	566.38
462.777	581.38
462.997	642.38
463.217	678.38
463.437	671.38
463.657	631.38
463.876	599.38
464.096	600.38
464.316	605.38
464.536	607.38
464.755	583.38
464.975	596.38
465.195	574.38
465.414	604.38
465.634	562.38
465.854	503.38
466.073	518.38
466.293	500.38
466.512	484.38
466.732	466.38
466.951	459.38
467.171	460.38
467.391	494.38
467.61	461.38
467.829	471.38
468.049	492.38
468.268	460.38
468.488	463.38
468.707	460.38
468.927	448.38
469.146	442.38
469.365	464.38
469.585	451.38
469.804	476.38
470.023	490.38
470.243	465.38
470.462	482.38
470.681	518.38
470.901	497.38
471.12	512.38
471.339	474.38
471.558	486.38
471.777	482.38
471.997	462.38
472.216	483.38
472.435	486.38
472.654	474.38
472.873	482.38
473.092	464.38
473.311	451.38
473.53	456.38
473.749	450.38
473.968	495.38
474.187	535.38
474.406	522.38
474.625	471.38
474.844	455.38
475.063	468.38
475.282	455.38
475.501	446.38
475.72	482.38
475.939	465.38
476.158	482.38
476.377	474.38
476.596	470.38
476.814	494.38
477.033	506.38
477.252	507.38
477.471	492.38
477.69	508.38
477.908	510.38
478.127	540.38
478.346	543.38
478.564	532.38
478.783	534.38
479.002	573.38
479.22	562.38
479.439	531.38
479.658	554.38
479.876	570.38
480.095	569.38
480.313	603.38
480.532	596.38
480.751	603.38
480.969	589.38
481.188	633.38
481.406	636.38
481.624	578.38
481.843	573.38
482.061	538.38
482.28	532.38
482.498	514.38
482.717	508.38
482.935	529.38
483.153	526.38
483.372	544.38
483.59	533.38
483.808	523.38
484.027	554.38
484.245	562.38
484.463	542.38
484.681	565.38
484.9	562.38
485.118	553.38
485.336	555.38
485.554	566.38
485.772	548.38
485.99	550.38
486.209	570.38
486.427	568.38
486.645	589.38
486.863	558.38
487.081	571.38
487.299	566.38
487.517	572.38
487.735	573.38
487.953	582.38
488.171	580.38
488.389	559.38
488.607	560.38
488.825	596.38
489.043	570.38
489.261	556.38
489.479	562.38
489.696	566.38
489.914	574.38
490.132	588.38
490.35	560.38
490.568	578.38
490.786	605.38
491.003	578.38
491.221	598.38
491.439	615.38
491.657	619.38
491.874	625.38
492.092	636.38
492.31	631.38
492.527	640.38
492.745	630.38
492.963	633.38
493.18	631.38
493.398	636.38
493.615	662.38
493.833	662.38
494.05	643.38
494.268	644.38
494.485	640.38
494.703	640.38
494.92	656.38
495.138	653.38
495.355	659.38
495.573	625.38
495.79	642.38
496.008	641.38
496.225	657.38
496.442	637.38
496.66	675.38
496.877	676.38
497.094	659.38
497.312	676.38
497.529	704.38
497.746	706.38
497.963	704.38
498.181	723.38
498.398	744.38
498.615	766.38
498.832	798.38
499.049	823.38
499.267	879.38
499.484	942.38
499.701	1011.38
499.918	1058.38
500.135	1174.38
500.352	1298.38
500.569	1284.38
500.786	1268.38
501.003	1253.38
501.22	1163.38
501.437	1072.38
501.654	997.38
501.871	951.38
502.088	897.38
