Data from 1960PennyLincolnUp.LampE6.200Scan.07172019.P1_HRD10591_13-05-50-001.txt Node
Date: Thu Jul 18 13:05:50 EDT 2019
User: cochatt
Spectrometer: HR+D1059
Trigger mode: 1
Integration Time (sec): 1.000000E-1
Scans to average: 1
Electric dark correction enabled: true
Nonlinearity correction enabled: false
Boxcar width: 0
XAxis mode: Wavelengths
Number of Pixels in Spectrum: 2048
>>>>>Begin Spectral Data<<<<<
223.165	-8.81
223.4	-8.81
223.635	-8.81
223.869	-10.81
224.104	-9.81
224.338	-10.81
224.573	-32.81
224.808	-12.81
225.042	-11.81
225.277	-14.81
225.511	-0.81
225.746	5.19
225.98	12.19
226.215	10.19
226.449	18.19
226.683	18.19
226.918	20.19
227.152	29.19
227.387	32.19
227.621	31.19
227.856	36.19
228.09	39.19
228.324	48.19
228.559	46.19
228.793	68.19
229.027	90.19
229.262	98.19
229.496	88.19
229.73	100.19
229.964	108.19
230.199	103.19
230.433	104.19
230.667	99.19
230.901	93.19
231.136	95.19
231.37	121.19
231.604	98.19
231.838	111.19
232.072	111.19
232.306	94.19
232.541	120.19
232.775	107.19
233.009	119.19
233.243	113.19
233.477	118.19
233.711	109.19
233.945	117.19
234.179	125.19
234.413	112.19
234.647	105.19
234.881	112.19
235.115	103.19
235.349	109.19
235.583	92.19
235.817	112.19
236.051	117.19
236.285	113.19
236.519	112.19
236.753	116.19
236.987	128.19
237.221	136.19
237.455	166.19
237.689	140.19
237.922	122.19
238.156	118.19
238.39	105.19
238.624	113.19
238.858	111.19
239.091	120.19
239.325	125.19
239.559	128.19
239.793	126.19
240.027	123.19
240.26	129.19
240.494	128.19
240.728	125.19
240.961	119.19
241.195	142.19
241.429	120.19
241.662	135.19
241.896	125.19
242.13	126.19
242.363	137.19
242.597	132.19
242.83	134.19
243.064	133.19
243.298	138.19
243.531	140.19
243.765	132.19
243.998	131.19
244.232	140.19
244.465	142.19
244.699	140.19
244.932	143.19
245.166	124.19
245.399	143.19
245.633	133.19
245.866	158.19
246.099	138.19
246.333	158.19
246.566	137.19
246.8	141.19
247.033	146.19
247.266	150.19
247.5	164.19
247.733	160.19
247.966	168.19
248.2	161.19
248.433	158.19
248.666	162.19
248.899	163.19
249.133	168.19
249.366	185.19
249.599	169.19
249.832	156.19
250.066	173.19
250.299	157.19
250.532	165.19
250.765	175.19
250.998	186.19
251.231	198.19
251.465	199.19
251.698	176.19
251.931	186.19
252.164	174.19
252.397	166.19
252.63	180.19
252.863	180.19
253.096	186.19
253.329	196.19
253.562	193.19
253.795	167.19
254.028	191.19
254.261	195.19
254.494	180.19
254.727	209.19
254.96	216.19
255.193	212.19
255.426	181.19
255.659	177.19
255.892	189.19
256.124	204.19
256.357	197.19
256.59	185.19
256.823	193.19
257.056	188.19
257.289	176.19
257.521	188.19
257.754	192.19
257.987	187.19
258.22	200.19
258.452	169.19
258.685	179.19
258.918	186.19
259.151	188.19
259.383	184.19
259.616	188.19
259.849	196.19
260.081	215.19
260.314	224.19
260.547	208.19
260.779	184.19
261.012	207.19
261.244	203.19
261.477	218.19
261.71	206.19
261.942	188.19
262.175	200.19
262.407	221.19
262.64	207.19
262.872	177.19
263.105	193.19
263.337	198.19
263.57	186.19
263.802	191.19
264.035	209.19
264.267	186.19
264.499	206.19
264.732	205.19
264.964	228.19
265.197	204.19
265.429	205.19
265.661	187.19
265.894	215.19
266.126	192.19
266.358	217.19
266.591	218.19
266.823	204.19
267.055	217.19
267.287	217.19
267.52	207.19
267.752	217.19
267.984	217.19
268.216	205.19
268.448	218.19
268.681	228.19
268.913	241.19
269.145	249.19
269.377	240.19
269.609	249.19
269.841	247.19
270.073	238.19
270.306	259.19
270.538	263.19
270.77	261.19
271.002	268.19
271.234	243.19
271.466	262.19
271.698	258.19
271.93	263.19
272.162	261.19
272.394	293.19
272.626	266.19
272.858	274.19
273.09	246.19
273.322	240.19
273.553	247.19
273.785	245.19
274.017	248.19
274.249	248.19
274.481	236.19
274.713	251.19
274.945	254.19
275.176	257.19
275.408	255.19
275.64	255.19
275.872	258.19
276.104	257.19
276.335	263.19
276.567	250.19
276.799	245.19
277.031	271.19
277.262	277.19
277.494	276.19
277.726	266.19
277.957	259.19
278.189	246.19
278.421	261.19
278.652	273.19
278.884	256.19
279.115	265.19
279.347	264.19
279.579	255.19
279.81	250.19
280.042	260.19
280.273	262.19
280.505	264.19
280.736	257.19
280.968	256.19
281.199	269.19
281.431	251.19
281.662	273.19
281.894	274.19
282.125	277.19
282.356	294.19
282.588	278.19
282.819	278.19
283.051	269.19
283.282	269.19
283.513	276.19
283.745	270.19
283.976	281.19
284.207	284.19
284.439	284.19
284.67	279.19
284.901	290.19
285.132	276.19
285.364	286.19
285.595	270.19
285.826	310.19
286.057	284.19
286.288	279.19
286.52	286.19
286.751	284.19
286.982	297.19
287.213	288.19
287.444	279.19
287.675	288.19
287.906	272.19
288.138	298.19
288.369	290.19
288.6	308.19
288.831	297.19
289.062	306.19
289.293	308.19
289.524	315.19
289.755	301.19
289.986	298.19
290.217	313.19
290.448	318.19
290.679	292.19
290.91	294.19
291.141	308.19
291.371	299.19
291.602	310.19
291.833	303.19
292.064	296.19
292.295	288.19
292.526	287.19
292.757	305.19
292.987	290.19
293.218	283.19
293.449	307.19
293.68	294.19
293.91	304.19
294.141	303.19
294.372	295.19
294.603	300.19
294.833	313.19
295.064	304.19
295.295	295.19
295.525	295.19
295.756	311.19
295.987	307.19
296.217	321.19
296.448	326.19
296.679	305.19
296.909	297.19
297.14	322.19
297.37	321.19
297.601	315.19
297.831	303.19
298.062	325.19
298.292	315.19
298.523	311.19
298.753	324.19
298.984	308.19
299.214	316.19
299.445	325.19
299.675	321.19
299.905	335.19
300.136	331.19
300.366	333.19
300.597	319.19
300.827	332.19
301.057	330.19
301.288	330.19
301.518	329.19
301.748	324.19
301.979	335.19
302.209	344.19
302.439	355.19
302.669	354.19
302.9	337.19
303.13	330.19
303.36	345.19
303.59	345.19
303.82	360.19
304.051	345.19
304.281	322.19
304.511	332.19
304.741	346.19
304.971	330.19
305.201	329.19
305.431	352.19
305.661	332.19
305.891	329.19
306.121	349.19
306.352	341.19
306.582	350.19
306.812	357.19
307.042	330.19
307.272	341.19
307.502	330.19
307.731	339.19
307.961	350.19
308.191	336.19
308.421	338.19
308.651	346.19
308.881	337.19
309.111	331.19
309.341	310.19
309.571	337.19
309.8	356.19
310.03	365.19
310.26	328.19
310.49	350.19
310.72	362.19
310.949	355.19
311.179	362.19
311.409	358.19
311.639	374.19
311.868	346.19
312.098	374.19
312.328	350.19
312.557	393.19
312.787	377.19
313.017	353.19
313.246	382.19
313.476	387.19
313.706	379.19
313.935	368.19
314.165	366.19
314.394	376.19
314.624	377.19
314.853	376.19
315.083	362.19
315.312	390.19
315.542	384.19
315.771	376.19
316.001	334.19
316.23	349.19
316.46	378.19
316.689	358.19
316.919	369.19
317.148	392.19
317.377	366.19
317.607	365.19
317.836	369.19
318.065	396.19
318.295	370.19
318.524	378.19
318.753	362.19
318.983	368.19
319.212	384.19
319.441	366.19
319.67	379.19
319.9	372.19
320.129	383.19
320.358	374.19
320.587	386.19
320.816	373.19
321.046	382.19
321.275	402.19
321.504	393.19
321.733	367.19
321.962	383.19
322.191	391.19
322.42	379.19
322.649	399.19
322.878	426.19
323.108	402.19
323.337	438.19
323.566	412.19
323.795	447.19
324.024	471.19
324.253	514.19
324.482	659.19
324.71	958.19
324.939	1227.19
325.168	1045.19
325.397	589.19
325.626	443.19
325.855	457.19
326.084	432.19
326.313	454.19
326.542	439.19
326.77	454.19
326.999	512.19
327.228	655.19
327.457	845.19
327.686	961.19
327.914	691.19
328.143	517.19
328.372	492.19
328.6	480.19
328.829	471.19
329.058	447.19
329.287	464.19
329.515	454.19
329.744	452.19
329.972	451.19
330.201	443.19
330.43	486.19
330.658	504.19
330.887	504.19
331.115	489.19
331.344	470.19
331.572	460.19
331.801	462.19
332.03	456.19
332.258	455.19
332.486	456.19
332.715	484.19
332.943	484.19
333.172	493.19
333.4	505.19
333.629	499.19
333.857	526.19
334.085	503.19
334.314	523.19
334.542	550.19
334.771	539.19
334.999	528.19
335.227	512.19
335.455	500.19
335.684	468.19
335.912	468.19
336.14	457.19
336.369	457.19
336.597	469.19
336.825	478.19
337.053	470.19
337.281	448.19
337.51	455.19
337.738	442.19
337.966	456.19
338.194	449.19
338.422	448.19
338.65	439.19
338.878	434.19
339.106	440.19
339.334	433.19
339.562	434.19
339.79	432.19
340.018	444.19
340.246	430.19
340.474	421.19
340.702	432.19
340.93	432.19
341.158	433.19
341.386	423.19
341.614	430.19
341.842	437.19
342.07	429.19
342.298	425.19
342.526	421.19
342.754	417.19
342.981	416.19
343.209	417.19
343.437	436.19
343.665	439.19
343.893	474.19
344.12	494.19
344.348	480.19
344.576	480.19
344.804	445.19
345.031	437.19
345.259	423.19
345.487	407.19
345.714	439.19
345.942	422.19
346.17	419.19
346.397	422.19
346.625	421.19
346.853	402.19
347.08	408.19
347.308	401.19
347.535	408.19
347.763	414.19
347.99	414.19
348.218	431.19
348.445	422.19
348.673	417.19
348.9	400.19
349.128	416.19
349.355	399.19
349.583	418.19
349.81	405.19
350.037	407.19
350.265	400.19
350.492	396.19
350.72	399.19
350.947	394.19
351.174	390.19
351.402	428.19
351.629	402.19
351.856	423.19
352.083	400.19
352.311	397.19
352.538	421.19
352.765	411.19
352.992	374.19
353.22	408.19
353.447	408.19
353.674	401.19
353.901	397.19
354.128	374.19
354.355	384.19
354.583	419.19
354.81	383.19
355.037	411.19
355.264	403.19
355.491	401.19
355.718	382.19
355.945	394.19
356.172	388.19
356.399	408.19
356.626	394.19
356.853	417.19
357.08	395.19
357.307	382.19
357.534	396.19
357.761	398.19
357.988	403.19
358.215	389.19
358.441	390.19
358.668	401.19
358.895	410.19
359.122	379.19
359.349	403.19
359.576	392.19
359.802	409.19
360.029	438.19
360.256	449.19
360.483	428.19
360.709	404.19
360.936	398.19
361.163	422.19
361.39	404.19
361.616	419.19
361.843	404.19
362.07	420.19
362.296	412.19
362.523	393.19
362.749	424.19
362.976	410.19
363.203	394.19
363.429	388.19
363.656	409.19
363.882	365.19
364.109	387.19
364.335	393.19
364.562	385.19
364.788	386.19
365.015	390.19
365.241	395.19
365.468	400.19
365.694	405.19
365.92	395.19
366.147	401.19
366.373	415.19
366.599	398.19
366.826	390.19
367.052	408.19
367.278	402.19
367.505	399.19
367.731	413.19
367.957	436.19
368.184	398.19
368.41	397.19
368.636	393.19
368.862	432.19
369.089	406.19
369.315	426.19
369.541	402.19
369.767	396.19
369.993	400.19
370.219	417.19
370.445	408.19
370.672	405.19
370.898	409.19
371.124	409.19
371.35	416.19
371.576	412.19
371.802	407.19
372.028	414.19
372.254	417.19
372.48	438.19
372.706	439.19
372.932	410.19
373.158	445.19
373.384	412.19
373.61	438.19
373.835	416.19
374.061	423.19
374.287	429.19
374.513	414.19
374.739	442.19
374.965	434.19
375.191	453.19
375.416	451.19
375.642	442.19
375.868	433.19
376.094	437.19
376.319	425.19
376.545	426.19
376.771	433.19
376.997	407.19
377.222	419.19
377.448	406.19
377.674	408.19
377.899	394.19
378.125	452.19
378.35	426.19
378.576	404.19
378.802	407.19
379.027	420.19
379.253	416.19
379.478	409.19
379.704	413.19
379.929	399.19
380.155	409.19
380.38	410.19
380.606	421.19
380.831	424.19
381.057	418.19
381.282	409.19
381.507	412.19
381.733	412.19
381.958	437.19
382.184	433.19
382.409	441.19
382.634	447.19
382.86	426.19
383.085	446.19
383.31	427.19
383.535	449.19
383.761	443.19
383.986	454.19
384.211	459.19
384.436	462.19
384.662	472.19
384.887	465.19
385.112	474.19
385.337	474.19
385.562	477.19
385.787	459.19
386.013	500.19
386.238	460.19
386.463	492.19
386.688	466.19
386.913	478.19
387.138	460.19
387.363	488.19
387.588	467.19
387.813	482.19
388.038	504.19
388.263	475.19
388.488	452.19
388.713	483.19
388.938	489.19
389.163	488.19
389.387	486.19
389.612	460.19
389.837	481.19
390.062	493.19
390.287	454.19
390.512	463.19
390.736	479.19
390.961	478.19
391.186	486.19
391.411	476.19
391.636	500.19
391.86	496.19
392.085	509.19
392.31	505.19
392.534	500.19
392.759	508.19
392.984	497.19
393.208	499.19
393.433	513.19
393.658	499.19
393.882	481.19
394.107	503.19
394.331	511.19
394.556	490.19
394.78	510.19
395.005	497.19
395.229	510.19
395.454	516.19
395.678	517.19
395.903	529.19
396.127	540.19
396.352	526.19
396.576	490.19
396.801	519.19
397.025	500.19
397.249	474.19
397.474	530.19
397.698	526.19
397.922	522.19
398.147	525.19
398.371	534.19
398.595	549.19
398.82	554.19
399.044	604.19
399.268	646.19
399.492	694.19
399.717	763.19
399.941	742.19
400.165	714.19
400.389	674.19
400.613	646.19
400.837	610.19
401.062	578.19
401.286	558.19
401.51	557.19
401.734	567.19
401.958	601.19
402.182	571.19
402.406	559.19
402.63	621.19
402.854	591.19
403.078	595.19
403.302	608.19
403.526	604.19
403.75	620.19
403.974	626.19
404.198	616.19
404.422	630.19
404.645	611.19
404.869	634.19
405.093	654.19
405.317	661.19
405.541	684.19
405.765	636.19
405.988	617.19
406.212	620.19
406.436	605.19
406.66	644.19
406.883	630.19
407.107	665.19
407.331	711.19
407.555	738.19
407.778	737.19
408.002	691.19
408.226	694.19
408.449	662.19
408.673	632.19
408.896	628.19
409.12	674.19
409.344	645.19
409.567	620.19
409.791	619.19
410.014	574.19
410.238	593.19
410.461	601.19
410.685	607.19
410.908	588.19
411.132	593.19
411.355	620.19
411.578	619.19
411.802	579.19
412.025	595.19
412.249	609.19
412.472	592.19
412.695	607.19
412.919	600.19
413.142	575.19
413.365	575.19
413.589	561.19
413.812	578.19
414.035	559.19
414.258	575.19
414.482	532.19
414.705	575.19
414.928	548.19
415.151	572.19
415.374	540.19
415.597	558.19
415.821	544.19
416.044	559.19
416.267	552.19
416.49	541.19
416.713	552.19
416.936	540.19
417.159	568.19
417.382	542.19
417.605	546.19
417.828	551.19
418.051	563.19
418.274	578.19
418.497	560.19
418.72	548.19
418.943	594.19
419.166	577.19
419.389	601.19
419.611	620.19
419.834	586.19
420.057	581.19
420.28	561.19
420.503	565.19
420.726	581.19
420.948	569.19
421.171	591.19
421.394	603.19
421.617	571.19
421.839	542.19
422.062	564.19
422.285	569.19
422.507	603.19
422.73	642.19
422.953	631.19
423.175	583.19
423.398	575.19
423.621	592.19
423.843	585.19
424.066	584.19
424.288	588.19
424.511	605.19
424.733	642.19
424.956	662.19
425.178	628.19
425.401	625.19
425.623	652.19
425.846	585.19
426.068	578.19
426.291	561.19
426.513	559.19
426.735	573.19
426.958	585.19
427.18	629.19
427.402	698.19
427.625	739.19
427.847	638.19
428.069	612.19
428.292	556.19
428.514	533.19
428.736	522.19
428.958	534.19
429.181	500.19
429.403	492.19
429.625	511.19
429.847	529.19
430.069	576.19
430.292	593.19
430.514	525.19
430.736	535.19
430.958	492.19
431.18	500.19
431.402	533.19
431.624	507.19
431.846	503.19
432.068	506.19
432.29	520.19
432.512	503.19
432.734	540.19
432.956	527.19
433.178	514.19
433.4	509.19
433.622	494.19
433.844	513.19
434.066	526.19
434.287	498.19
434.509	521.19
434.731	539.19
434.953	542.19
435.175	552.19
435.397	572.19
435.618	580.19
435.84	583.19
436.062	634.19
436.284	656.19
436.505	565.19
436.727	566.19
436.949	535.19
437.17	509.19
437.392	498.19
437.614	521.19
437.835	530.19
438.057	567.19
438.278	644.19
438.5	640.19
438.721	681.19
438.943	636.19
439.165	564.19
439.386	541.19
439.608	535.19
439.829	533.19
440.05	554.19
440.272	575.19
440.493	543.19
440.715	525.19
440.936	525.19
441.158	538.19
441.379	545.19
441.6	568.19
441.822	562.19
442.043	565.19
442.264	629.19
442.486	665.19
442.707	593.19
442.928	579.19
443.149	583.19
443.371	580.19
443.592	616.19
443.813	652.19
444.034	695.19
444.255	638.19
444.476	585.19
444.698	610.19
444.919	624.19
445.14	741.19
445.361	670.19
445.582	615.19
445.803	616.19
446.024	682.19
446.245	641.19
446.466	600.19
446.687	542.19
446.908	528.19
447.129	505.19
447.35	509.19
447.571	496.19
447.792	505.19
448.013	496.19
448.234	521.19
448.455	534.19
448.675	577.19
448.896	640.19
449.117	582.19
449.338	552.19
449.559	601.19
449.779	683.19
450	587.19
450.221	494.19
450.442	473.19
450.662	465.19
450.883	463.19
451.104	497.19
451.324	494.19
451.545	464.19
451.766	473.19
451.986	450.19
452.207	456.19
452.428	439.19
452.648	464.19
452.869	452.19
453.089	448.19
453.31	456.19
453.53	465.19
453.751	446.19
453.971	454.19
454.192	473.19
454.412	437.19
454.633	429.19
454.853	448.19
455.073	440.19
455.294	452.19
455.514	499.19
455.734	469.19
455.955	433.19
456.175	437.19
456.395	426.19
456.616	430.19
456.836	417.19
457.056	426.19
457.276	434.19
457.497	447.19
457.717	447.19
457.937	442.19
458.157	453.19
458.377	442.19
458.598	474.19
458.818	484.19
459.038	544.19
459.258	550.19
459.478	522.19
459.698	519.19
459.918	490.19
460.138	512.19
460.358	544.19
460.578	549.19
460.798	551.19
461.018	548.19
461.238	565.19
461.458	531.19
461.678	527.19
461.898	520.19
462.118	531.19
462.338	585.19
462.558	579.19
462.777	580.19
462.997	622.19
463.217	666.19
463.437	673.19
463.657	624.19
463.876	584.19
464.096	585.19
464.316	590.19
464.536	597.19
464.755	604.19
464.975	593.19
465.195	574.19
465.414	589.19
465.634	553.19
465.854	521.19
466.073	500.19
466.293	486.19
466.512	489.19
466.732	482.19
466.951	467.19
467.171	478.19
467.391	473.19
467.61	479.19
467.829	493.19
468.049	479.19
468.268	479.19
468.488	469.19
468.707	457.19
468.927	472.19
469.146	464.19
469.365	480.19
469.585	454.19
469.804	489.19
470.023	493.19
470.243	512.19
470.462	494.19
470.681	492.19
470.901	505.19
471.12	493.19
471.339	490.19
471.558	467.19
471.777	469.19
471.997	479.19
472.216	480.19
472.435	489.19
472.654	467.19
472.873	471.19
473.092	425.19
473.311	467.19
473.53	430.19
473.749	474.19
473.968	472.19
474.187	537.19
474.406	551.19
474.625	500.19
474.844	483.19
475.063	483.19
475.282	449.19
475.501	463.19
475.72	467.19
475.939	448.19
476.158	471.19
476.377	471.19
476.596	496.19
476.814	499.19
477.033	501.19
477.252	500.19
477.471	499.19
477.69	522.19
477.908	524.19
478.127	531.19
478.346	528.19
478.564	535.19
478.783	531.19
479.002	544.19
479.22	570.19
479.439	562.19
479.658	565.19
479.876	586.19
480.095	568.19
480.313	599.19
480.532	599.19
480.751	586.19
480.969	585.19
481.188	645.19
481.406	624.19
481.624	565.19
481.843	544.19
482.061	537.19
482.28	540.19
482.498	544.19
482.717	543.19
482.935	526.19
483.153	534.19
483.372	524.19
483.59	549.19
483.808	535.19
484.027	524.19
484.245	519.19
484.463	526.19
484.681	547.19
484.9	552.19
485.118	552.19
485.336	521.19
485.554	537.19
485.772	580.19
485.99	562.19
486.209	549.19
486.427	550.19
486.645	588.19
486.863	565.19
487.081	572.19
487.299	570.19
487.517	542.19
487.735	569.19
487.953	571.19
488.171	582.19
488.389	593.19
488.607	570.19
488.825	553.19
489.043	555.19
489.261	576.19
489.479	552.19
489.696	575.19
489.914	573.19
490.132	574.19
490.35	567.19
490.568	586.19
490.786	603.19
491.003	618.19
491.221	595.19
491.439	641.19
491.657	613.19
491.874	645.19
492.092	655.19
492.31	658.19
492.527	633.19
492.745	621.19
492.963	644.19
493.18	631.19
493.398	657.19
493.615	650.19
493.833	655.19
494.05	652.19
494.268	640.19
494.485	665.19
494.703	644.19
494.92	632.19
495.138	635.19
495.355	673.19
495.573	643.19
495.79	628.19
496.008	627.19
496.225	647.19
496.442	657.19
496.66	648.19
496.877	664.19
497.094	656.19
497.312	659.19
497.529	674.19
497.746	704.19
497.963	680.19
498.181	752.19
498.398	732.19
498.615	766.19
498.832	796.19
499.049	841.19
499.267	860.19
499.484	916.19
499.701	981.19
499.918	1069.19
500.135	1171.19
500.352	1248.19
500.569	1348.19
500.786	1269.19
501.003	1232.19
501.22	1150.19
501.437	1120.19
501.654	1024.19
501.871	929.19
502.088	889.19
