Data from 1960PennyLincolnUp.LampE6.200Scan.07172019.P1_HRD10591_13-05-25-002.txt Node
Date: Thu Jul 18 13:05:25 EDT 2019
User: cochatt
Spectrometer: HR+D1059
Trigger mode: 1
Integration Time (sec): 1.000000E-1
Scans to average: 1
Electric dark correction enabled: true
Nonlinearity correction enabled: false
Boxcar width: 0
XAxis mode: Wavelengths
Number of Pixels in Spectrum: 2048
>>>>>Begin Spectral Data<<<<<
223.165	-19.94
223.4	-19.94
223.635	-19.94
223.869	-8.94
224.104	-15.94
224.338	-16.94
224.573	-15.94
224.808	-24.94
225.042	-9.94
225.277	-11.94
225.511	15.06
225.746	-5.94
225.98	4.06
226.215	13.06
226.449	10.06
226.683	29.06
226.918	23.06
227.152	36.06
227.387	30.06
227.621	33.06
227.856	49.06
228.09	42.06
228.324	39.06
228.559	46.06
228.793	56.06
229.027	79.06
229.262	98.06
229.496	100.06
229.73	104.06
229.964	121.06
230.199	98.06
230.433	97.06
230.667	99.06
230.901	111.06
231.136	110.06
231.37	96.06
231.604	114.06
231.838	114.06
232.072	95.06
232.306	128.06
232.541	111.06
232.775	106.06
233.009	102.06
233.243	95.06
233.477	114.06
233.711	87.06
233.945	119.06
234.179	100.06
234.413	110.06
234.647	113.06
234.881	113.06
235.115	110.06
235.349	103.06
235.583	108.06
235.817	109.06
236.051	121.06
236.285	99.06
236.519	122.06
236.753	114.06
236.987	126.06
237.221	152.06
237.455	159.06
237.689	146.06
237.922	109.06
238.156	132.06
238.39	115.06
238.624	102.06
238.858	113.06
239.091	119.06
239.325	108.06
239.559	119.06
239.793	129.06
240.027	118.06
240.26	138.06
240.494	119.06
240.728	130.06
240.961	138.06
241.195	128.06
241.429	118.06
241.662	123.06
241.896	127.06
242.13	124.06
242.363	126.06
242.597	123.06
242.83	143.06
243.064	126.06
243.298	126.06
243.531	128.06
243.765	128.06
243.998	137.06
244.232	127.06
244.465	135.06
244.699	131.06
244.932	136.06
245.166	132.06
245.399	144.06
245.633	140.06
245.866	155.06
246.099	140.06
246.333	133.06
246.566	132.06
246.8	143.06
247.033	145.06
247.266	144.06
247.5	157.06
247.733	145.06
247.966	152.06
248.2	143.06
248.433	162.06
248.666	151.06
248.899	164.06
249.133	178.06
249.366	166.06
249.599	144.06
249.832	158.06
250.066	171.06
250.299	167.06
250.532	171.06
250.765	171.06
250.998	181.06
251.231	178.06
251.465	166.06
251.698	190.06
251.931	161.06
252.164	181.06
252.397	179.06
252.63	181.06
252.863	168.06
253.096	182.06
253.329	179.06
253.562	190.06
253.795	185.06
254.028	182.06
254.261	193.06
254.494	200.06
254.727	198.06
254.96	207.06
255.193	214.06
255.426	203.06
255.659	204.06
255.892	199.06
256.124	197.06
256.357	203.06
256.59	191.06
256.823	190.06
257.056	189.06
257.289	188.06
257.521	194.06
257.754	180.06
257.987	181.06
258.22	182.06
258.452	167.06
258.685	188.06
258.918	184.06
259.151	196.06
259.383	194.06
259.616	190.06
259.849	200.06
260.081	202.06
260.314	220.06
260.547	223.06
260.779	199.06
261.012	206.06
261.244	202.06
261.477	210.06
261.71	204.06
261.942	199.06
262.175	187.06
262.407	213.06
262.64	189.06
262.872	174.06
263.105	194.06
263.337	190.06
263.57	183.06
263.802	205.06
264.035	177.06
264.267	203.06
264.499	188.06
264.732	208.06
264.964	216.06
265.197	185.06
265.429	198.06
265.661	206.06
265.894	206.06
266.126	198.06
266.358	207.06
266.591	207.06
266.823	202.06
267.055	210.06
267.287	223.06
267.52	191.06
267.752	206.06
267.984	202.06
268.216	206.06
268.448	213.06
268.681	218.06
268.913	238.06
269.145	242.06
269.377	253.06
269.609	236.06
269.841	235.06
270.073	245.06
270.306	256.06
270.538	270.06
270.77	275.06
271.002	251.06
271.234	245.06
271.466	258.06
271.698	263.06
271.93	273.06
272.162	245.06
272.394	255.06
272.626	274.06
272.858	252.06
273.09	242.06
273.322	252.06
273.553	246.06
273.785	227.06
274.017	247.06
274.249	254.06
274.481	244.06
274.713	252.06
274.945	242.06
275.176	256.06
275.408	248.06
275.64	238.06
275.872	260.06
276.104	261.06
276.335	246.06
276.567	245.06
276.799	250.06
277.031	278.06
277.262	275.06
277.494	278.06
277.726	271.06
277.957	270.06
278.189	260.06
278.421	266.06
278.652	265.06
278.884	255.06
279.115	268.06
279.347	254.06
279.579	262.06
279.81	256.06
280.042	259.06
280.273	268.06
280.505	254.06
280.736	263.06
280.968	264.06
281.199	272.06
281.431	264.06
281.662	258.06
281.894	262.06
282.125	268.06
282.356	263.06
282.588	301.06
282.819	274.06
283.051	254.06
283.282	278.06
283.513	266.06
283.745	272.06
283.976	273.06
284.207	268.06
284.439	279.06
284.67	301.06
284.901	266.06
285.132	277.06
285.364	294.06
285.595	292.06
285.826	275.06
286.057	284.06
286.288	307.06
286.52	277.06
286.751	276.06
286.982	292.06
287.213	258.06
287.444	302.06
287.675	288.06
287.906	310.06
288.138	294.06
288.369	309.06
288.6	303.06
288.831	295.06
289.062	291.06
289.293	306.06
289.524	298.06
289.755	297.06
289.986	292.06
290.217	286.06
290.448	311.06
290.679	286.06
290.91	294.06
291.141	300.06
291.371	304.06
291.602	293.06
291.833	290.06
292.064	295.06
292.295	301.06
292.526	310.06
292.757	283.06
292.987	298.06
293.218	295.06
293.449	301.06
293.68	318.06
293.91	291.06
294.141	295.06
294.372	282.06
294.603	317.06
294.833	301.06
295.064	308.06
295.295	305.06
295.525	297.06
295.756	305.06
295.987	298.06
296.217	323.06
296.448	309.06
296.679	307.06
296.909	319.06
297.14	305.06
297.37	315.06
297.601	326.06
297.831	304.06
298.062	304.06
298.292	298.06
298.523	326.06
298.753	320.06
298.984	306.06
299.214	329.06
299.445	315.06
299.675	322.06
299.905	311.06
300.136	310.06
300.366	327.06
300.597	339.06
300.827	337.06
301.057	322.06
301.288	329.06
301.518	331.06
301.748	308.06
301.979	336.06
302.209	328.06
302.439	326.06
302.669	322.06
302.9	330.06
303.13	337.06
303.36	340.06
303.59	352.06
303.82	332.06
304.051	348.06
304.281	335.06
304.511	334.06
304.741	356.06
304.971	335.06
305.201	337.06
305.431	334.06
305.661	330.06
305.891	342.06
306.121	340.06
306.352	339.06
306.582	331.06
306.812	322.06
307.042	330.06
307.272	329.06
307.502	346.06
307.731	352.06
307.961	340.06
308.191	330.06
308.421	334.06
308.651	352.06
308.881	324.06
309.111	321.06
309.341	338.06
309.571	354.06
309.8	339.06
310.03	350.06
310.26	358.06
310.49	355.06
310.72	372.06
310.949	347.06
311.179	348.06
311.409	369.06
311.639	372.06
311.868	374.06
312.098	356.06
312.328	350.06
312.557	368.06
312.787	379.06
313.017	375.06
313.246	376.06
313.476	373.06
313.706	374.06
313.935	389.06
314.165	368.06
314.394	394.06
314.624	394.06
314.853	356.06
315.083	353.06
315.312	383.06
315.542	377.06
315.771	356.06
316.001	367.06
316.23	357.06
316.46	364.06
316.689	375.06
316.919	362.06
317.148	372.06
317.377	385.06
317.607	372.06
317.836	363.06
318.065	371.06
318.295	356.06
318.524	380.06
318.753	373.06
318.983	364.06
319.212	364.06
319.441	385.06
319.67	375.06
319.9	374.06
320.129	369.06
320.358	383.06
320.587	362.06
320.816	382.06
321.046	372.06
321.275	396.06
321.504	378.06
321.733	370.06
321.962	372.06
322.191	395.06
322.42	386.06
322.649	402.06
322.878	413.06
323.108	415.06
323.337	407.06
323.566	405.06
323.795	429.06
324.024	456.06
324.253	518.06
324.482	667.06
324.71	897.06
324.939	1269.06
325.168	1026.06
325.397	592.06
325.626	482.06
325.855	435.06
326.084	434.06
326.313	417.06
326.542	433.06
326.77	474.06
326.999	519.06
327.228	623.06
327.457	863.06
327.686	980.06
327.914	668.06
328.143	508.06
328.372	491.06
328.6	459.06
328.829	455.06
329.058	455.06
329.287	465.06
329.515	464.06
329.744	443.06
329.972	456.06
330.201	475.06
330.43	476.06
330.658	502.06
330.887	502.06
331.115	470.06
331.344	453.06
331.572	458.06
331.801	455.06
332.03	464.06
332.258	458.06
332.486	463.06
332.715	445.06
332.943	449.06
333.172	467.06
333.4	487.06
333.629	520.06
333.857	498.06
334.085	535.06
334.314	525.06
334.542	549.06
334.771	525.06
334.999	521.06
335.227	500.06
335.455	492.06
335.684	488.06
335.912	492.06
336.14	463.06
336.369	453.06
336.597	467.06
336.825	463.06
337.053	476.06
337.281	427.06
337.51	453.06
337.738	443.06
337.966	451.06
338.194	449.06
338.422	451.06
338.65	446.06
338.878	452.06
339.106	445.06
339.334	424.06
339.562	443.06
339.79	438.06
340.018	426.06
340.246	427.06
340.474	436.06
340.702	437.06
340.93	417.06
341.158	430.06
341.386	449.06
341.614	423.06
341.842	452.06
342.07	437.06
342.298	410.06
342.526	414.06
342.754	427.06
342.981	423.06
343.209	415.06
343.437	437.06
343.665	438.06
343.893	488.06
344.12	482.06
344.348	471.06
344.576	447.06
344.804	439.06
345.031	438.06
345.259	425.06
345.487	448.06
345.714	411.06
345.942	418.06
346.17	423.06
346.397	428.06
346.625	406.06
346.853	400.06
347.08	382.06
347.308	421.06
347.535	430.06
347.763	416.06
347.99	405.06
348.218	405.06
348.445	423.06
348.673	410.06
348.9	398.06
349.128	400.06
349.355	422.06
349.583	427.06
349.81	400.06
350.037	398.06
350.265	381.06
350.492	382.06
350.72	379.06
350.947	404.06
351.174	390.06
351.402	394.06
351.629	395.06
351.856	396.06
352.083	400.06
352.311	419.06
352.538	416.06
352.765	423.06
352.992	400.06
353.22	386.06
353.447	406.06
353.674	408.06
353.901	400.06
354.128	397.06
354.355	388.06
354.583	420.06
354.81	391.06
355.037	395.06
355.264	397.06
355.491	385.06
355.718	400.06
355.945	393.06
356.172	388.06
356.399	372.06
356.626	394.06
356.853	393.06
357.08	395.06
357.307	403.06
357.534	417.06
357.761	420.06
357.988	397.06
358.215	384.06
358.441	391.06
358.668	392.06
358.895	399.06
359.122	419.06
359.349	403.06
359.576	416.06
359.802	411.06
360.029	408.06
360.256	402.06
360.483	429.06
360.709	422.06
360.936	419.06
361.163	408.06
361.39	400.06
361.616	410.06
361.843	410.06
362.07	383.06
362.296	410.06
362.523	416.06
362.749	398.06
362.976	376.06
363.203	392.06
363.429	402.06
363.656	410.06
363.882	403.06
364.109	396.06
364.335	395.06
364.562	396.06
364.788	408.06
365.015	387.06
365.241	397.06
365.468	391.06
365.694	385.06
365.92	398.06
366.147	392.06
366.373	393.06
366.599	393.06
366.826	396.06
367.052	404.06
367.278	395.06
367.505	396.06
367.731	405.06
367.957	394.06
368.184	378.06
368.41	409.06
368.636	413.06
368.862	408.06
369.089	399.06
369.315	385.06
369.541	393.06
369.767	405.06
369.993	399.06
370.219	399.06
370.445	408.06
370.672	383.06
370.898	397.06
371.124	389.06
371.35	427.06
371.576	415.06
371.802	414.06
372.028	414.06
372.254	423.06
372.48	418.06
372.706	434.06
372.932	415.06
373.158	458.06
373.384	449.06
373.61	437.06
373.835	424.06
374.061	432.06
374.287	420.06
374.513	415.06
374.739	438.06
374.965	462.06
375.191	434.06
375.416	450.06
375.642	422.06
375.868	444.06
376.094	420.06
376.319	430.06
376.545	419.06
376.771	404.06
376.997	418.06
377.222	422.06
377.448	432.06
377.674	405.06
377.899	420.06
378.125	393.06
378.35	415.06
378.576	413.06
378.802	418.06
379.027	403.06
379.253	417.06
379.478	425.06
379.704	432.06
379.929	418.06
380.155	414.06
380.38	419.06
380.606	416.06
380.831	439.06
381.057	422.06
381.282	435.06
381.507	405.06
381.733	410.06
381.958	428.06
382.184	432.06
382.409	415.06
382.634	445.06
382.86	430.06
383.085	423.06
383.31	444.06
383.535	447.06
383.761	437.06
383.986	446.06
384.211	441.06
384.436	460.06
384.662	469.06
384.887	454.06
385.112	469.06
385.337	471.06
385.562	485.06
385.787	494.06
386.013	516.06
386.238	467.06
386.463	463.06
386.688	496.06
386.913	484.06
387.138	484.06
387.363	463.06
387.588	470.06
387.813	470.06
388.038	468.06
388.263	463.06
388.488	467.06
388.713	474.06
388.938	451.06
389.163	479.06
389.387	465.06
389.612	471.06
389.837	482.06
390.062	465.06
390.287	474.06
390.512	459.06
390.736	466.06
390.961	501.06
391.186	479.06
391.411	493.06
391.636	503.06
391.86	507.06
392.085	534.06
392.31	525.06
392.534	514.06
392.759	504.06
392.984	497.06
393.208	466.06
393.433	487.06
393.658	513.06
393.882	508.06
394.107	487.06
394.331	482.06
394.556	495.06
394.78	490.06
395.005	489.06
395.229	492.06
395.454	503.06
395.678	514.06
395.903	515.06
396.127	518.06
396.352	537.06
396.576	507.06
396.801	483.06
397.025	501.06
397.249	512.06
397.474	518.06
397.698	541.06
397.922	500.06
398.147	526.06
398.371	519.06
398.595	545.06
398.82	576.06
399.044	602.06
399.268	614.06
399.492	699.06
399.717	774.06
399.941	768.06
400.165	709.06
400.389	702.06
400.613	618.06
400.837	593.06
401.062	577.06
401.286	574.06
401.51	574.06
401.734	568.06
401.958	568.06
402.182	579.06
402.406	564.06
402.63	573.06
402.854	586.06
403.078	592.06
403.302	596.06
403.526	633.06
403.75	608.06
403.974	621.06
404.198	608.06
404.422	604.06
404.645	614.06
404.869	632.06
405.093	632.06
405.317	635.06
405.541	682.06
405.765	624.06
405.988	638.06
406.212	630.06
406.436	617.06
406.66	639.06
406.883	630.06
407.107	663.06
407.331	687.06
407.555	754.06
407.778	739.06
408.002	699.06
408.226	644.06
408.449	642.06
408.673	632.06
408.896	624.06
409.12	666.06
409.344	643.06
409.567	613.06
409.791	616.06
410.014	611.06
410.238	601.06
410.461	607.06
410.685	584.06
410.908	601.06
411.132	615.06
411.355	640.06
411.578	614.06
411.802	593.06
412.025	595.06
412.249	575.06
412.472	599.06
412.695	607.06
412.919	626.06
413.142	583.06
413.365	561.06
413.589	586.06
413.812	540.06
414.035	546.06
414.258	556.06
414.482	546.06
414.705	548.06
414.928	564.06
415.151	560.06
415.374	572.06
415.597	554.06
415.821	545.06
416.044	535.06
416.267	557.06
416.49	546.06
416.713	560.06
416.936	539.06
417.159	539.06
417.382	545.06
417.605	550.06
417.828	547.06
418.051	556.06
418.274	576.06
418.497	540.06
418.72	572.06
418.943	549.06
419.166	580.06
419.389	610.06
419.611	571.06
419.834	588.06
420.057	577.06
420.28	563.06
420.503	563.06
420.726	576.06
420.948	567.06
421.171	591.06
421.394	625.06
421.617	581.06
421.839	554.06
422.062	572.06
422.285	578.06
422.507	607.06
422.73	654.06
422.953	644.06
423.175	598.06
423.398	579.06
423.621	587.06
423.843	599.06
424.066	601.06
424.288	590.06
424.511	618.06
424.733	618.06
424.956	675.06
425.178	656.06
425.401	643.06
425.623	646.06
425.846	581.06
426.068	569.06
426.291	548.06
426.513	563.06
426.735	574.06
426.958	590.06
427.18	642.06
427.402	676.06
427.625	749.06
427.847	653.06
428.069	606.06
428.292	571.06
428.514	560.06
428.736	534.06
428.958	527.06
429.181	528.06
429.403	503.06
429.625	515.06
429.847	535.06
430.069	563.06
430.292	553.06
430.514	518.06
430.736	513.06
430.958	500.06
431.18	499.06
431.402	501.06
431.624	471.06
431.846	486.06
432.068	499.06
432.29	489.06
432.512	479.06
432.734	535.06
432.956	500.06
433.178	511.06
433.4	528.06
433.622	510.06
433.844	508.06
434.066	517.06
434.287	500.06
434.509	509.06
434.731	544.06
434.953	572.06
435.175	557.06
435.397	563.06
435.618	552.06
435.84	583.06
436.062	620.06
436.284	633.06
436.505	587.06
436.727	561.06
436.949	544.06
437.17	541.06
437.392	500.06
437.614	513.06
437.835	532.06
438.057	564.06
438.278	644.06
438.5	614.06
438.721	683.06
438.943	667.06
439.165	582.06
439.386	531.06
439.608	540.06
439.829	542.06
440.05	559.06
440.272	573.06
440.493	567.06
440.715	546.06
440.936	538.06
441.158	541.06
441.379	545.06
441.6	586.06
441.822	573.06
442.043	587.06
442.264	625.06
442.486	636.06
442.707	587.06
442.928	564.06
443.149	582.06
443.371	562.06
443.592	611.06
443.813	654.06
444.034	703.06
444.255	633.06
444.476	607.06
444.698	597.06
444.919	615.06
445.14	693.06
445.361	647.06
445.582	596.06
445.803	608.06
446.024	689.06
446.245	660.06
446.466	618.06
446.687	563.06
446.908	533.06
447.129	512.06
447.35	494.06
447.571	496.06
447.792	484.06
448.013	499.06
448.234	480.06
448.455	530.06
448.675	576.06
448.896	651.06
449.117	571.06
449.338	547.06
449.559	595.06
449.779	677.06
450	578.06
450.221	514.06
450.442	483.06
450.662	479.06
450.883	492.06
451.104	506.06
451.324	488.06
451.545	480.06
451.766	465.06
451.986	450.06
452.207	450.06
452.428	447.06
452.648	475.06
452.869	451.06
453.089	439.06
453.31	454.06
453.53	459.06
453.751	452.06
453.971	451.06
454.192	463.06
454.412	453.06
454.633	445.06
454.853	425.06
455.073	448.06
455.294	463.06
455.514	481.06
455.734	458.06
455.955	441.06
456.175	425.06
456.395	423.06
456.616	403.06
456.836	423.06
457.056	435.06
457.276	427.06
457.497	428.06
457.717	449.06
457.937	438.06
458.157	411.06
458.377	430.06
458.598	464.06
458.818	483.06
459.038	522.06
459.258	550.06
459.478	515.06
459.698	524.06
459.918	519.06
460.138	504.06
460.358	510.06
460.578	541.06
460.798	546.06
461.018	547.06
461.238	549.06
461.458	536.06
461.678	531.06
461.898	526.06
462.118	559.06
462.338	567.06
462.558	556.06
462.777	575.06
462.997	605.06
463.217	658.06
463.437	639.06
463.657	618.06
463.876	584.06
464.096	591.06
464.316	590.06
464.536	620.06
464.755	575.06
464.975	584.06
465.195	584.06
465.414	594.06
465.634	544.06
465.854	519.06
466.073	502.06
466.293	495.06
466.512	478.06
466.732	464.06
466.951	456.06
467.171	479.06
467.391	494.06
467.61	478.06
467.829	476.06
468.049	454.06
468.268	456.06
468.488	463.06
468.707	461.06
468.927	444.06
469.146	463.06
469.365	459.06
469.585	461.06
469.804	466.06
470.023	485.06
470.243	498.06
470.462	492.06
470.681	485.06
470.901	490.06
471.12	482.06
471.339	470.06
471.558	486.06
471.777	474.06
471.997	476.06
472.216	464.06
472.435	498.06
472.654	482.06
472.873	450.06
473.092	457.06
473.311	428.06
473.53	468.06
473.749	458.06
473.968	483.06
474.187	516.06
474.406	520.06
474.625	460.06
474.844	454.06
475.063	463.06
475.282	474.06
475.501	452.06
475.72	478.06
475.939	463.06
476.158	469.06
476.377	480.06
476.596	468.06
476.814	476.06
477.033	486.06
477.252	499.06
477.471	495.06
477.69	508.06
477.908	514.06
478.127	510.06
478.346	523.06
478.564	540.06
478.783	534.06
479.002	541.06
479.22	547.06
479.439	595.06
479.658	575.06
479.876	576.06
480.095	565.06
480.313	607.06
480.532	622.06
480.751	607.06
480.969	587.06
481.188	609.06
481.406	627.06
481.624	560.06
481.843	552.06
482.061	519.06
482.28	545.06
482.498	554.06
482.717	528.06
482.935	534.06
483.153	538.06
483.372	540.06
483.59	530.06
483.808	534.06
484.027	561.06
484.245	545.06
484.463	557.06
484.681	557.06
484.9	543.06
485.118	564.06
485.336	549.06
485.554	557.06
485.772	555.06
485.99	553.06
486.209	541.06
486.427	556.06
486.645	575.06
486.863	588.06
487.081	587.06
487.299	568.06
487.517	560.06
487.735	564.06
487.953	552.06
488.171	584.06
488.389	571.06
488.607	561.06
488.825	549.06
489.043	566.06
489.261	547.06
489.479	554.06
489.696	590.06
489.914	573.06
490.132	591.06
490.35	581.06
490.568	576.06
490.786	606.06
491.003	606.06
491.221	614.06
491.439	612.06
491.657	640.06
491.874	640.06
492.092	630.06
492.31	641.06
492.527	654.06
492.745	642.06
492.963	655.06
493.18	654.06
493.398	655.06
493.615	651.06
493.833	641.06
494.05	631.06
494.268	661.06
494.485	639.06
494.703	644.06
494.92	657.06
495.138	648.06
495.355	652.06
495.573	647.06
495.79	651.06
496.008	623.06
496.225	651.06
496.442	657.06
496.66	653.06
496.877	669.06
497.094	686.06
497.312	679.06
497.529	702.06
497.746	687.06
497.963	691.06
498.181	704.06
498.398	709.06
498.615	767.06
498.832	824.06
499.049	824.06
499.267	894.06
499.484	938.06
499.701	999.06
499.918	1085.06
500.135	1132.06
500.352	1252.06
500.569	1328.06
500.786	1306.06
501.003	1259.06
501.22	1138.06
501.437	1077.06
501.654	979.06
501.871	963.06
502.088	884.06
