Data from 1960PennyLincolnUp.LampE5.5.200Scan.07172019.P1.ChangedAngle_HRD10591_13-14-16-821.txt Node
Date: Thu Jul 18 13:14:16 EDT 2019
User: cochatt
Spectrometer: HR+D1059
Trigger mode: 1
Integration Time (sec): 1.000000E-1
Scans to average: 1
Electric dark correction enabled: true
Nonlinearity correction enabled: false
Boxcar width: 0
XAxis mode: Wavelengths
Number of Pixels in Spectrum: 2048
>>>>>Begin Spectral Data<<<<<
223.165	-10.69
223.4	-10.69
223.635	-10.69
223.869	-6.69
224.104	-23.69
224.338	-14.69
224.573	-15.69
224.808	-13.69
225.042	-12.69
225.277	-10.69
225.511	4.31
225.746	6.31
225.98	9.31
226.215	16.31
226.449	-0.69
226.683	9.31
226.918	28.31
227.152	35.31
227.387	31.31
227.621	43.31
227.856	48.31
228.09	46.31
228.324	47.31
228.559	56.31
228.793	60.31
229.027	74.31
229.262	73.31
229.496	97.31
229.73	103.31
229.964	118.31
230.199	106.31
230.433	94.31
230.667	109.31
230.901	111.31
231.136	86.31
231.37	98.31
231.604	106.31
231.838	104.31
232.072	103.31
232.306	102.31
232.541	100.31
232.775	112.31
233.009	108.31
233.243	105.31
233.477	110.31
233.711	104.31
233.945	111.31
234.179	97.31
234.413	106.31
234.647	108.31
234.881	114.31
235.115	108.31
235.349	105.31
235.583	107.31
235.817	111.31
236.051	96.31
236.285	112.31
236.519	110.31
236.753	135.31
236.987	136.31
237.221	137.31
237.455	150.31
237.689	134.31
237.922	107.31
238.156	113.31
238.39	111.31
238.624	95.31
238.858	110.31
239.091	111.31
239.325	114.31
239.559	117.31
239.793	111.31
240.027	124.31
240.26	124.31
240.494	129.31
240.728	132.31
240.961	143.31
241.195	134.31
241.429	127.31
241.662	124.31
241.896	124.31
242.13	119.31
242.363	116.31
242.597	136.31
242.83	127.31
243.064	129.31
243.298	125.31
243.531	115.31
243.765	123.31
243.998	116.31
244.232	128.31
244.465	145.31
244.699	141.31
244.932	131.31
245.166	127.31
245.399	122.31
245.633	135.31
245.866	132.31
246.099	138.31
246.333	146.31
246.566	146.31
246.8	136.31
247.033	140.31
247.266	152.31
247.5	135.31
247.733	143.31
247.966	146.31
248.2	146.31
248.433	154.31
248.666	145.31
248.899	154.31
249.133	158.31
249.366	161.31
249.599	172.31
249.832	144.31
250.066	150.31
250.299	148.31
250.532	159.31
250.765	158.31
250.998	171.31
251.231	171.31
251.465	156.31
251.698	181.31
251.931	160.31
252.164	166.31
252.397	169.31
252.63	175.31
252.863	169.31
253.096	201.31
253.329	190.31
253.562	176.31
253.795	173.31
254.028	188.31
254.261	183.31
254.494	195.31
254.727	192.31
254.96	219.31
255.193	219.31
255.426	171.31
255.659	190.31
255.892	186.31
256.124	169.31
256.357	184.31
256.59	192.31
256.823	183.31
257.056	180.31
257.289	186.31
257.521	180.31
257.754	173.31
257.987	187.31
258.22	177.31
258.452	191.31
258.685	172.31
258.918	191.31
259.151	192.31
259.383	182.31
259.616	188.31
259.849	198.31
260.081	206.31
260.314	186.31
260.547	193.31
260.779	193.31
261.012	191.31
261.244	181.31
261.477	208.31
261.71	188.31
261.942	179.31
262.175	210.31
262.407	180.31
262.64	190.31
262.872	205.31
263.105	195.31
263.337	187.31
263.57	202.31
263.802	170.31
264.035	174.31
264.267	192.31
264.499	204.31
264.732	176.31
264.964	179.31
265.197	191.31
265.429	191.31
265.661	194.31
265.894	207.31
266.126	196.31
266.358	184.31
266.591	202.31
266.823	195.31
267.055	194.31
267.287	194.31
267.52	196.31
267.752	188.31
267.984	211.31
268.216	194.31
268.448	206.31
268.681	201.31
268.913	208.31
269.145	214.31
269.377	212.31
269.609	215.31
269.841	212.31
270.073	250.31
270.306	244.31
270.538	237.31
270.77	251.31
271.002	252.31
271.234	214.31
271.466	252.31
271.698	257.31
271.93	235.31
272.162	241.31
272.394	234.31
272.626	234.31
272.858	247.31
273.09	238.31
273.322	226.31
273.553	216.31
273.785	238.31
274.017	220.31
274.249	242.31
274.481	243.31
274.713	244.31
274.945	223.31
275.176	234.31
275.408	236.31
275.64	229.31
275.872	238.31
276.104	239.31
276.335	216.31
276.567	228.31
276.799	226.31
277.031	236.31
277.262	236.31
277.494	266.31
277.726	245.31
277.957	234.31
278.189	243.31
278.421	242.31
278.652	236.31
278.884	235.31
279.115	250.31
279.347	252.31
279.579	235.31
279.81	248.31
280.042	250.31
280.273	240.31
280.505	243.31
280.736	250.31
280.968	229.31
281.199	237.31
281.431	241.31
281.662	244.31
281.894	258.31
282.125	249.31
282.356	250.31
282.588	268.31
282.819	265.31
283.051	245.31
283.282	266.31
283.513	240.31
283.745	256.31
283.976	248.31
284.207	266.31
284.439	260.31
284.67	251.31
284.901	273.31
285.132	245.31
285.364	265.31
285.595	257.31
285.826	260.31
286.057	271.31
286.288	244.31
286.52	249.31
286.751	268.31
286.982	252.31
287.213	268.31
287.444	280.31
287.675	272.31
287.906	262.31
288.138	272.31
288.369	263.31
288.6	283.31
288.831	273.31
289.062	256.31
289.293	274.31
289.524	265.31
289.755	263.31
289.986	277.31
290.217	266.31
290.448	256.31
290.679	248.31
290.91	257.31
291.141	264.31
291.371	270.31
291.602	260.31
291.833	278.31
292.064	267.31
292.295	264.31
292.526	267.31
292.757	264.31
292.987	249.31
293.218	261.31
293.449	267.31
293.68	260.31
293.91	261.31
294.141	254.31
294.372	249.31
294.603	249.31
294.833	268.31
295.064	262.31
295.295	273.31
295.525	263.31
295.756	280.31
295.987	264.31
296.217	290.31
296.448	274.31
296.679	268.31
296.909	270.31
297.14	268.31
297.37	272.31
297.601	275.31
297.831	282.31
298.062	273.31
298.292	288.31
298.523	285.31
298.753	294.31
298.984	277.31
299.214	275.31
299.445	276.31
299.675	267.31
299.905	268.31
300.136	287.31
300.366	284.31
300.597	297.31
300.827	285.31
301.057	285.31
301.288	287.31
301.518	278.31
301.748	282.31
301.979	318.31
302.209	284.31
302.439	295.31
302.669	292.31
302.9	284.31
303.13	296.31
303.36	298.31
303.59	312.31
303.82	314.31
304.051	297.31
304.281	311.31
304.511	309.31
304.741	300.31
304.971	302.31
305.201	296.31
305.431	303.31
305.661	306.31
305.891	303.31
306.121	299.31
306.352	279.31
306.582	308.31
306.812	292.31
307.042	297.31
307.272	303.31
307.502	307.31
307.731	305.31
307.961	294.31
308.191	278.31
308.421	300.31
308.651	297.31
308.881	305.31
309.111	292.31
309.341	298.31
309.571	318.31
309.8	299.31
310.03	309.31
310.26	317.31
310.49	312.31
310.72	331.31
310.949	330.31
311.179	331.31
311.409	326.31
311.639	320.31
311.868	318.31
312.098	337.31
312.328	329.31
312.557	352.31
312.787	336.31
313.017	297.31
313.246	336.31
313.476	313.31
313.706	321.31
313.935	316.31
314.165	324.31
314.394	332.31
314.624	356.31
314.853	341.31
315.083	345.31
315.312	320.31
315.542	334.31
315.771	321.31
316.001	316.31
316.23	310.31
316.46	335.31
316.689	291.31
316.919	332.31
317.148	335.31
317.377	324.31
317.607	329.31
317.836	326.31
318.065	334.31
318.295	323.31
318.524	322.31
318.753	328.31
318.983	346.31
319.212	333.31
319.441	335.31
319.67	333.31
319.9	322.31
320.129	348.31
320.358	327.31
320.587	333.31
320.816	350.31
321.046	329.31
321.275	345.31
321.504	341.31
321.733	353.31
321.962	367.31
322.191	355.31
322.42	352.31
322.649	351.31
322.878	357.31
323.108	366.31
323.337	377.31
323.566	379.31
323.795	378.31
324.024	407.31
324.253	502.31
324.482	623.31
324.71	875.31
324.939	1111.31
325.168	989.31
325.397	585.31
325.626	458.31
325.855	395.31
326.084	380.31
326.313	384.31
326.542	397.31
326.77	414.31
326.999	472.31
327.228	585.31
327.457	786.31
327.686	875.31
327.914	632.31
328.143	481.31
328.372	453.31
328.6	417.31
328.829	401.31
329.058	423.31
329.287	408.31
329.515	385.31
329.744	404.31
329.972	401.31
330.201	409.31
330.43	407.31
330.658	420.31
330.887	436.31
331.115	410.31
331.344	404.31
331.572	411.31
331.801	408.31
332.03	397.31
332.258	386.31
332.486	400.31
332.715	398.31
332.943	376.31
333.172	396.31
333.4	397.31
333.629	390.31
333.857	412.31
334.085	397.31
334.314	403.31
334.542	410.31
334.771	412.31
334.999	410.31
335.227	394.31
335.455	384.31
335.684	408.31
335.912	412.31
336.14	371.31
336.369	385.31
336.597	400.31
336.825	370.31
337.053	362.31
337.281	376.31
337.51	373.31
337.738	368.31
337.966	364.31
338.194	376.31
338.422	373.31
338.65	354.31
338.878	373.31
339.106	358.31
339.334	384.31
339.562	365.31
339.79	362.31
340.018	366.31
340.246	376.31
340.474	393.31
340.702	370.31
340.93	351.31
341.158	356.31
341.386	380.31
341.614	365.31
341.842	341.31
342.07	360.31
342.298	349.31
342.526	352.31
342.754	358.31
342.981	364.31
343.209	354.31
343.437	378.31
343.665	385.31
343.893	386.31
344.12	368.31
344.348	377.31
344.576	390.31
344.804	375.31
345.031	368.31
345.259	379.31
345.487	378.31
345.714	372.31
345.942	356.31
346.17	349.31
346.397	358.31
346.625	352.31
346.853	356.31
347.08	349.31
347.308	350.31
347.535	364.31
347.763	366.31
347.99	351.31
348.218	349.31
348.445	342.31
348.673	356.31
348.9	361.31
349.128	346.31
349.355	338.31
349.583	322.31
349.81	341.31
350.037	339.31
350.265	325.31
350.492	339.31
350.72	335.31
350.947	319.31
351.174	330.31
351.402	355.31
351.629	352.31
351.856	362.31
352.083	351.31
352.311	363.31
352.538	347.31
352.765	352.31
352.992	346.31
353.22	340.31
353.447	329.31
353.674	324.31
353.901	324.31
354.128	329.31
354.355	337.31
354.583	340.31
354.81	325.31
355.037	318.31
355.264	331.31
355.491	343.31
355.718	338.31
355.945	335.31
356.172	334.31
356.399	336.31
356.626	328.31
356.853	324.31
357.08	331.31
357.307	338.31
357.534	315.31
357.761	335.31
357.988	318.31
358.215	326.31
358.441	333.31
358.668	338.31
358.895	331.31
359.122	335.31
359.349	329.31
359.576	325.31
359.802	324.31
360.029	341.31
360.256	353.31
360.483	347.31
360.709	359.31
360.936	326.31
361.163	341.31
361.39	347.31
361.616	326.31
361.843	334.31
362.07	334.31
362.296	320.31
362.523	341.31
362.749	347.31
362.976	302.31
363.203	336.31
363.429	327.31
363.656	315.31
363.882	325.31
364.109	350.31
364.335	329.31
364.562	332.31
364.788	333.31
365.015	344.31
365.241	309.31
365.468	336.31
365.694	320.31
365.92	318.31
366.147	320.31
366.373	348.31
366.599	336.31
366.826	330.31
367.052	330.31
367.278	325.31
367.505	329.31
367.731	321.31
367.957	337.31
368.184	325.31
368.41	343.31
368.636	327.31
368.862	333.31
369.089	346.31
369.315	321.31
369.541	338.31
369.767	325.31
369.993	321.31
370.219	316.31
370.445	350.31
370.672	328.31
370.898	336.31
371.124	343.31
371.35	326.31
371.576	317.31
371.802	336.31
372.028	330.31
372.254	333.31
372.48	336.31
372.706	350.31
372.932	332.31
373.158	334.31
373.384	337.31
373.61	334.31
373.835	341.31
374.061	330.31
374.287	335.31
374.513	322.31
374.739	365.31
374.965	346.31
375.191	324.31
375.416	338.31
375.642	332.31
375.868	321.31
376.094	318.31
376.319	333.31
376.545	322.31
376.771	333.31
376.997	321.31
377.222	326.31
377.448	336.31
377.674	345.31
377.899	323.31
378.125	311.31
378.35	316.31
378.576	326.31
378.802	344.31
379.027	328.31
379.253	326.31
379.478	324.31
379.704	333.31
379.929	328.31
380.155	324.31
380.38	329.31
380.606	321.31
380.831	326.31
381.057	347.31
381.282	319.31
381.507	316.31
381.733	314.31
381.958	317.31
382.184	329.31
382.409	336.31
382.634	361.31
382.86	336.31
383.085	334.31
383.31	341.31
383.535	334.31
383.761	326.31
383.986	346.31
384.211	319.31
384.436	336.31
384.662	345.31
384.887	358.31
385.112	351.31
385.337	345.31
385.562	347.31
385.787	338.31
386.013	360.31
386.238	347.31
386.463	362.31
386.688	376.31
386.913	363.31
387.138	367.31
387.363	362.31
387.588	366.31
387.813	352.31
388.038	358.31
388.263	366.31
388.488	340.31
388.713	370.31
388.938	358.31
389.163	361.31
389.387	365.31
389.612	350.31
389.837	361.31
390.062	353.31
390.287	344.31
390.512	349.31
390.736	343.31
390.961	343.31
391.186	354.31
391.411	352.31
391.636	365.31
391.86	376.31
392.085	379.31
392.31	364.31
392.534	349.31
392.759	366.31
392.984	370.31
393.208	383.31
393.433	374.31
393.658	366.31
393.882	352.31
394.107	349.31
394.331	368.31
394.556	356.31
394.78	346.31
395.005	342.31
395.229	371.31
395.454	368.31
395.678	372.31
395.903	367.31
396.127	393.31
396.352	376.31
396.576	366.31
396.801	368.31
397.025	380.31
397.249	368.31
397.474	370.31
397.698	368.31
397.922	389.31
398.147	392.31
398.371	401.31
398.595	384.31
398.82	398.31
399.044	410.31
399.268	412.31
399.492	437.31
399.717	461.31
399.941	490.31
400.165	467.31
400.389	462.31
400.613	431.31
400.837	413.31
401.062	396.31
401.286	400.31
401.51	388.31
401.734	396.31
401.958	397.31
402.182	395.31
402.406	387.31
402.63	381.31
402.854	376.31
403.078	422.31
403.302	391.31
403.526	406.31
403.75	409.31
403.974	395.31
404.198	397.31
404.422	406.31
404.645	393.31
404.869	422.31
405.093	422.31
405.317	440.31
405.541	476.31
405.765	428.31
405.988	426.31
406.212	412.31
406.436	424.31
406.66	441.31
406.883	439.31
407.107	436.31
407.331	458.31
407.555	509.31
407.778	482.31
408.002	485.31
408.226	453.31
408.449	462.31
408.673	445.31
408.896	453.31
409.12	464.31
409.344	445.31
409.567	408.31
409.791	409.31
410.014	412.31
410.238	414.31
410.461	399.31
410.685	416.31
410.908	387.31
411.132	433.31
411.355	446.31
411.578	426.31
411.802	413.31
412.025	393.31
412.249	389.31
412.472	420.31
412.695	426.31
412.919	412.31
413.142	387.31
413.365	403.31
413.589	392.31
413.812	385.31
414.035	418.31
414.258	381.31
414.482	380.31
414.705	374.31
414.928	404.31
415.151	382.31
415.374	391.31
415.597	365.31
415.821	365.31
416.044	373.31
416.267	384.31
416.49	370.31
416.713	363.31
416.936	390.31
417.159	386.31
417.382	382.31
417.605	370.31
417.828	369.31
418.051	376.31
418.274	380.31
418.497	368.31
418.72	376.31
418.943	360.31
419.166	380.31
419.389	412.31
419.611	393.31
419.834	388.31
420.057	382.31
420.28	394.31
420.503	372.31
420.726	396.31
420.948	378.31
421.171	429.31
421.394	426.31
421.617	410.31
421.839	397.31
422.062	378.31
422.285	372.31
422.507	440.31
422.73	467.31
422.953	449.31
423.175	415.31
423.398	404.31
423.621	403.31
423.843	428.31
424.066	390.31
424.288	396.31
424.511	428.31
424.733	454.31
424.956	474.31
425.178	455.31
425.401	468.31
425.623	475.31
425.846	416.31
426.068	397.31
426.291	399.31
426.513	402.31
426.735	403.31
426.958	418.31
427.18	479.31
427.402	540.31
427.625	571.31
427.847	505.31
428.069	427.31
428.292	400.31
428.514	383.31
428.736	393.31
428.958	389.31
429.181	378.31
429.403	372.31
429.625	385.31
429.847	401.31
430.069	447.31
430.292	415.31
430.514	391.31
430.736	373.31
430.958	345.31
431.18	362.31
431.402	349.31
431.624	356.31
431.846	360.31
432.068	347.31
432.29	320.31
432.512	369.31
432.734	360.31
432.956	368.31
433.178	349.31
433.4	371.31
433.622	349.31
433.844	343.31
434.066	358.31
434.287	356.31
434.509	367.31
434.731	365.31
434.953	364.31
435.175	376.31
435.397	392.31
435.618	392.31
435.84	428.31
436.062	477.31
436.284	478.31
436.505	429.31
436.727	417.31
436.949	374.31
437.17	375.31
437.392	368.31
437.614	360.31
437.835	400.31
438.057	448.31
438.278	479.31
438.5	490.31
438.721	538.31
438.943	518.31
439.165	425.31
439.386	393.31
439.608	378.31
439.829	396.31
440.05	390.31
440.272	414.31
440.493	390.31
440.715	380.31
440.936	386.31
441.158	360.31
441.379	369.31
441.6	374.31
441.822	390.31
442.043	395.31
442.264	437.31
442.486	480.31
442.707	424.31
442.928	385.31
443.149	404.31
443.371	412.31
443.592	430.31
443.813	470.31
444.034	540.31
444.255	442.31
444.476	394.31
444.698	397.31
444.919	382.31
445.14	503.31
445.361	432.31
445.582	410.31
445.803	454.31
446.024	504.31
446.245	507.31
446.466	460.31
446.687	413.31
446.908	387.31
447.129	361.31
447.35	370.31
447.571	362.31
447.792	357.31
448.013	390.31
448.234	382.31
448.455	401.31
448.675	456.31
448.896	511.31
449.117	472.31
449.338	420.31
449.559	512.31
449.779	571.31
450	468.31
450.221	376.31
450.442	365.31
450.662	347.31
450.883	372.31
451.104	368.31
451.324	350.31
451.545	356.31
451.766	336.31
451.986	324.31
452.207	338.31
452.428	327.31
452.648	311.31
452.869	327.31
453.089	344.31
453.31	325.31
453.53	336.31
453.751	330.31
453.971	321.31
454.192	322.31
454.412	331.31
454.633	338.31
454.853	314.31
455.073	331.31
455.294	348.31
455.514	376.31
455.734	370.31
455.955	339.31
456.175	310.31
456.395	325.31
456.616	320.31
456.836	321.31
457.056	315.31
457.276	307.31
457.497	346.31
457.717	316.31
457.937	318.31
458.157	318.31
458.377	320.31
458.598	343.31
458.818	367.31
459.038	386.31
459.258	392.31
459.478	372.31
459.698	358.31
459.918	355.31
460.138	366.31
460.358	354.31
460.578	350.31
460.798	366.31
461.018	381.31
461.238	374.31
461.458	382.31
461.678	364.31
461.898	376.31
462.118	374.31
462.338	399.31
462.558	389.31
462.777	385.31
462.997	382.31
463.217	388.31
463.437	388.31
463.657	382.31
463.876	407.31
464.096	393.31
464.316	381.31
464.536	391.31
464.755	405.31
464.975	412.31
465.195	394.31
465.414	414.31
465.634	392.31
465.854	371.31
466.073	358.31
466.293	362.31
466.512	357.31
466.732	346.31
466.951	345.31
467.171	336.31
467.391	328.31
467.61	350.31
467.829	365.31
468.049	351.31
468.268	330.31
468.488	340.31
468.707	327.31
468.927	325.31
469.146	343.31
469.365	346.31
469.585	343.31
469.804	339.31
470.023	328.31
470.243	321.31
470.462	335.31
470.681	350.31
470.901	359.31
471.12	342.31
471.339	350.31
471.558	342.31
471.777	340.31
471.997	349.31
472.216	358.31
472.435	354.31
472.654	348.31
472.873	334.31
473.092	334.31
473.311	319.31
473.53	345.31
473.749	356.31
473.968	376.31
474.187	439.31
474.406	418.31
474.625	358.31
474.844	370.31
475.063	364.31
475.282	349.31
475.501	368.31
475.72	364.31
475.939	357.31
476.158	345.31
476.377	363.31
476.596	348.31
476.814	388.31
477.033	357.31
477.252	351.31
477.471	356.31
477.69	358.31
477.908	381.31
478.127	364.31
478.346	390.31
478.564	393.31
478.783	372.31
479.002	416.31
479.22	394.31
479.439	396.31
479.658	410.31
479.876	410.31
480.095	407.31
480.313	425.31
480.532	416.31
480.751	404.31
480.969	401.31
481.188	428.31
481.406	450.31
481.624	429.31
481.843	413.31
482.061	421.31
482.28	422.31
482.498	389.31
482.717	390.31
482.935	385.31
483.153	391.31
483.372	398.31
483.59	404.31
483.808	408.31
484.027	396.31
484.245	402.31
484.463	409.31
484.681	418.31
484.9	398.31
485.118	415.31
485.336	411.31
485.554	409.31
485.772	413.31
485.99	394.31
486.209	410.31
486.427	404.31
486.645	424.31
486.863	416.31
487.081	392.31
487.299	425.31
487.517	402.31
487.735	426.31
487.953	416.31
488.171	408.31
488.389	414.31
488.607	433.31
488.825	426.31
489.043	422.31
489.261	432.31
489.479	446.31
489.696	457.31
489.914	426.31
490.132	440.31
490.35	444.31
490.568	443.31
490.786	456.31
491.003	453.31
491.221	467.31
491.439	460.31
491.657	478.31
491.874	446.31
492.092	461.31
492.31	467.31
492.527	463.31
492.745	472.31
492.963	451.31
493.18	482.31
493.398	480.31
493.615	465.31
493.833	462.31
494.05	464.31
494.268	463.31
494.485	465.31
494.703	468.31
494.92	470.31
495.138	475.31
495.355	481.31
495.573	479.31
495.79	483.31
496.008	500.31
496.225	475.31
496.442	505.31
496.66	508.31
496.877	510.31
497.094	501.31
497.312	519.31
497.529	520.31
497.746	503.31
497.963	525.31
498.181	524.31
498.398	542.31
498.615	561.31
498.832	546.31
499.049	570.31
499.267	585.31
499.484	596.31
499.701	621.31
499.918	648.31
500.135	686.31
500.352	717.31
500.569	706.31
500.786	702.31
501.003	694.31
501.22	700.31
501.437	657.31
501.654	623.31
501.871	623.31
