Data from 1960PennyLincolnUp.LampE6.200Scan.07172019.P1_HRD10591_13-06-14-001.txt Node
Date: Thu Jul 18 13:06:14 EDT 2019
User: cochatt
Spectrometer: HR+D1059
Trigger mode: 1
Integration Time (sec): 1.000000E-1
Scans to average: 1
Electric dark correction enabled: true
Nonlinearity correction enabled: false
Boxcar width: 0
XAxis mode: Wavelengths
Number of Pixels in Spectrum: 2048
>>>>>Begin Spectral Data<<<<<
223.165	-10.88
223.4	-10.88
223.635	-10.88
223.869	-16.88
224.104	-30.88
224.338	-17.88
224.573	-1.88
224.808	-3.88
225.042	-7.88
225.277	1.12
225.511	-7.88
225.746	-3.88
225.98	0.12
226.215	9.12
226.449	21.12
226.683	13.12
226.918	16.12
227.152	41.12
227.387	33.12
227.621	40.12
227.856	53.12
228.09	50.12
228.324	44.12
228.559	69.12
228.793	64.12
229.027	94.12
229.262	99.12
229.496	104.12
229.73	122.12
229.964	135.12
230.199	107.12
230.433	105.12
230.667	103.12
230.901	99.12
231.136	104.12
231.37	109.12
231.604	126.12
231.838	107.12
232.072	119.12
232.306	108.12
232.541	114.12
232.775	115.12
233.009	115.12
233.243	112.12
233.477	92.12
233.711	126.12
233.945	116.12
234.179	120.12
234.413	101.12
234.647	109.12
234.881	111.12
235.115	120.12
235.349	107.12
235.583	111.12
235.817	116.12
236.051	118.12
236.285	108.12
236.519	107.12
236.753	121.12
236.987	132.12
237.221	143.12
237.455	185.12
237.689	134.12
237.922	112.12
238.156	123.12
238.39	133.12
238.624	127.12
238.858	126.12
239.091	121.12
239.325	132.12
239.559	121.12
239.793	118.12
240.027	116.12
240.26	134.12
240.494	127.12
240.728	133.12
240.961	138.12
241.195	140.12
241.429	139.12
241.662	136.12
241.896	114.12
242.13	140.12
242.363	132.12
242.597	129.12
242.83	145.12
243.064	138.12
243.298	137.12
243.531	144.12
243.765	150.12
243.998	142.12
244.232	116.12
244.465	134.12
244.699	152.12
244.932	135.12
245.166	137.12
245.399	132.12
245.633	149.12
245.866	144.12
246.099	156.12
246.333	131.12
246.566	159.12
246.8	126.12
247.033	138.12
247.266	144.12
247.5	162.12
247.733	168.12
247.966	159.12
248.2	154.12
248.433	159.12
248.666	167.12
248.899	157.12
249.133	175.12
249.366	181.12
249.599	165.12
249.832	161.12
250.066	161.12
250.299	174.12
250.532	157.12
250.765	183.12
250.998	182.12
251.231	190.12
251.465	179.12
251.698	175.12
251.931	189.12
252.164	192.12
252.397	178.12
252.63	179.12
252.863	201.12
253.096	199.12
253.329	207.12
253.562	173.12
253.795	200.12
254.028	193.12
254.261	189.12
254.494	200.12
254.727	214.12
254.96	214.12
255.193	217.12
255.426	202.12
255.659	217.12
255.892	191.12
256.124	201.12
256.357	201.12
256.59	209.12
256.823	194.12
257.056	191.12
257.289	198.12
257.521	181.12
257.754	178.12
257.987	182.12
258.22	182.12
258.452	184.12
258.685	192.12
258.918	178.12
259.151	192.12
259.383	186.12
259.616	185.12
259.849	214.12
260.081	199.12
260.314	224.12
260.547	225.12
260.779	221.12
261.012	218.12
261.244	221.12
261.477	211.12
261.71	199.12
261.942	203.12
262.175	202.12
262.407	195.12
262.64	212.12
262.872	192.12
263.105	197.12
263.337	216.12
263.57	201.12
263.802	213.12
264.035	216.12
264.267	203.12
264.499	215.12
264.732	207.12
264.964	223.12
265.197	212.12
265.429	207.12
265.661	194.12
265.894	211.12
266.126	223.12
266.358	204.12
266.591	204.12
266.823	211.12
267.055	221.12
267.287	220.12
267.52	224.12
267.752	205.12
267.984	222.12
268.216	210.12
268.448	230.12
268.681	240.12
268.913	213.12
269.145	236.12
269.377	237.12
269.609	228.12
269.841	233.12
270.073	253.12
270.306	261.12
270.538	273.12
270.77	288.12
271.002	258.12
271.234	260.12
271.466	257.12
271.698	272.12
271.93	263.12
272.162	297.12
272.394	273.12
272.626	271.12
272.858	245.12
273.09	261.12
273.322	264.12
273.553	250.12
273.785	245.12
274.017	244.12
274.249	259.12
274.481	256.12
274.713	253.12
274.945	261.12
275.176	248.12
275.408	243.12
275.64	242.12
275.872	256.12
276.104	254.12
276.335	258.12
276.567	258.12
276.799	279.12
277.031	293.12
277.262	293.12
277.494	302.12
277.726	267.12
277.957	268.12
278.189	265.12
278.421	242.12
278.652	263.12
278.884	252.12
279.115	262.12
279.347	271.12
279.579	262.12
279.81	278.12
280.042	256.12
280.273	263.12
280.505	256.12
280.736	259.12
280.968	256.12
281.199	258.12
281.431	253.12
281.662	255.12
281.894	277.12
282.125	277.12
282.356	289.12
282.588	289.12
282.819	301.12
283.051	273.12
283.282	281.12
283.513	274.12
283.745	284.12
283.976	264.12
284.207	308.12
284.439	290.12
284.67	291.12
284.901	278.12
285.132	273.12
285.364	285.12
285.595	278.12
285.826	288.12
286.057	296.12
286.288	283.12
286.52	266.12
286.751	293.12
286.982	298.12
287.213	295.12
287.444	292.12
287.675	284.12
287.906	314.12
288.138	305.12
288.369	293.12
288.6	292.12
288.831	305.12
289.062	301.12
289.293	306.12
289.524	284.12
289.755	293.12
289.986	286.12
290.217	291.12
290.448	309.12
290.679	311.12
290.91	289.12
291.141	266.12
291.371	298.12
291.602	286.12
291.833	295.12
292.064	294.12
292.295	301.12
292.526	298.12
292.757	296.12
292.987	297.12
293.218	294.12
293.449	290.12
293.68	292.12
293.91	297.12
294.141	310.12
294.372	310.12
294.603	312.12
294.833	314.12
295.064	318.12
295.295	307.12
295.525	311.12
295.756	299.12
295.987	312.12
296.217	325.12
296.448	313.12
296.679	320.12
296.909	332.12
297.14	312.12
297.37	323.12
297.601	335.12
297.831	331.12
298.062	320.12
298.292	314.12
298.523	327.12
298.753	325.12
298.984	308.12
299.214	330.12
299.445	314.12
299.675	320.12
299.905	334.12
300.136	335.12
300.366	303.12
300.597	328.12
300.827	313.12
301.057	358.12
301.288	356.12
301.518	360.12
301.748	332.12
301.979	338.12
302.209	349.12
302.439	340.12
302.669	334.12
302.9	337.12
303.13	352.12
303.36	332.12
303.59	343.12
303.82	352.12
304.051	350.12
304.281	360.12
304.511	334.12
304.741	346.12
304.971	325.12
305.201	343.12
305.431	345.12
305.661	340.12
305.891	354.12
306.121	360.12
306.352	328.12
306.582	333.12
306.812	331.12
307.042	345.12
307.272	337.12
307.502	336.12
307.731	350.12
307.961	362.12
308.191	354.12
308.421	338.12
308.651	359.12
308.881	352.12
309.111	352.12
309.341	354.12
309.571	325.12
309.8	358.12
310.03	357.12
310.26	361.12
310.49	345.12
310.72	367.12
310.949	375.12
311.179	364.12
311.409	358.12
311.639	369.12
311.868	368.12
312.098	368.12
312.328	365.12
312.557	361.12
312.787	383.12
313.017	391.12
313.246	389.12
313.476	379.12
313.706	373.12
313.935	390.12
314.165	373.12
314.394	389.12
314.624	389.12
314.853	370.12
315.083	386.12
315.312	370.12
315.542	371.12
315.771	360.12
316.001	364.12
316.23	377.12
316.46	364.12
316.689	385.12
316.919	374.12
317.148	376.12
317.377	387.12
317.607	378.12
317.836	370.12
318.065	364.12
318.295	390.12
318.524	388.12
318.753	381.12
318.983	364.12
319.212	393.12
319.441	346.12
319.67	384.12
319.9	386.12
320.129	375.12
320.358	381.12
320.587	362.12
320.816	382.12
321.046	384.12
321.275	396.12
321.504	385.12
321.733	386.12
321.962	383.12
322.191	410.12
322.42	395.12
322.649	414.12
322.878	418.12
323.108	421.12
323.337	436.12
323.566	420.12
323.795	469.12
324.024	479.12
324.253	573.12
324.482	701.12
324.71	1038.12
324.939	1394.12
325.168	1146.12
325.397	634.12
325.626	507.12
325.855	438.12
326.084	426.12
326.313	452.12
326.542	451.12
326.77	485.12
326.999	513.12
327.228	658.12
327.457	927.12
327.686	1097.12
327.914	730.12
328.143	529.12
328.372	471.12
328.6	474.12
328.829	459.12
329.058	471.12
329.287	481.12
329.515	469.12
329.744	444.12
329.972	452.12
330.201	473.12
330.43	512.12
330.658	529.12
330.887	532.12
331.115	528.12
331.344	467.12
331.572	457.12
331.801	453.12
332.03	474.12
332.258	470.12
332.486	459.12
332.715	456.12
332.943	477.12
333.172	478.12
333.4	497.12
333.629	534.12
333.857	520.12
334.085	513.12
334.314	535.12
334.542	540.12
334.771	557.12
334.999	504.12
335.227	492.12
335.455	498.12
335.684	481.12
335.912	500.12
336.14	457.12
336.369	453.12
336.597	463.12
336.825	485.12
337.053	492.12
337.281	442.12
337.51	458.12
337.738	441.12
337.966	423.12
338.194	467.12
338.422	441.12
338.65	442.12
338.878	444.12
339.106	425.12
339.334	468.12
339.562	429.12
339.79	426.12
340.018	447.12
340.246	421.12
340.474	422.12
340.702	430.12
340.93	438.12
341.158	424.12
341.386	422.12
341.614	440.12
341.842	440.12
342.07	435.12
342.298	438.12
342.526	424.12
342.754	432.12
342.981	426.12
343.209	452.12
343.437	469.12
343.665	468.12
343.893	468.12
344.12	493.12
344.348	476.12
344.576	443.12
344.804	442.12
345.031	463.12
345.259	456.12
345.487	426.12
345.714	412.12
345.942	433.12
346.17	407.12
346.397	436.12
346.625	420.12
346.853	407.12
347.08	397.12
347.308	418.12
347.535	432.12
347.763	433.12
347.99	417.12
348.218	407.12
348.445	426.12
348.673	426.12
348.9	417.12
349.128	428.12
349.355	413.12
349.583	406.12
349.81	406.12
350.037	407.12
350.265	389.12
350.492	408.12
350.72	421.12
350.947	401.12
351.174	428.12
351.402	412.12
351.629	417.12
351.856	424.12
352.083	430.12
352.311	394.12
352.538	424.12
352.765	414.12
352.992	412.12
353.22	413.12
353.447	399.12
353.674	382.12
353.901	401.12
354.128	387.12
354.355	403.12
354.583	397.12
354.81	392.12
355.037	409.12
355.264	397.12
355.491	396.12
355.718	404.12
355.945	395.12
356.172	403.12
356.399	395.12
356.626	400.12
356.853	390.12
357.08	391.12
357.307	404.12
357.534	382.12
357.761	391.12
357.988	401.12
358.215	413.12
358.441	389.12
358.668	403.12
358.895	414.12
359.122	402.12
359.349	407.12
359.576	416.12
359.802	412.12
360.029	434.12
360.256	409.12
360.483	417.12
360.709	432.12
360.936	420.12
361.163	416.12
361.39	425.12
361.616	416.12
361.843	406.12
362.07	426.12
362.296	415.12
362.523	393.12
362.749	406.12
362.976	391.12
363.203	416.12
363.429	400.12
363.656	392.12
363.882	398.12
364.109	396.12
364.335	390.12
364.562	402.12
364.788	389.12
365.015	408.12
365.241	409.12
365.468	385.12
365.694	409.12
365.92	402.12
366.147	396.12
366.373	415.12
366.599	396.12
366.826	387.12
367.052	410.12
367.278	385.12
367.505	407.12
367.731	418.12
367.957	402.12
368.184	389.12
368.41	411.12
368.636	400.12
368.862	423.12
369.089	385.12
369.315	405.12
369.541	418.12
369.767	406.12
369.993	396.12
370.219	407.12
370.445	408.12
370.672	420.12
370.898	404.12
371.124	402.12
371.35	410.12
371.576	418.12
371.802	424.12
372.028	418.12
372.254	412.12
372.48	417.12
372.706	413.12
372.932	436.12
373.158	437.12
373.384	400.12
373.61	427.12
373.835	422.12
374.061	422.12
374.287	436.12
374.513	462.12
374.739	458.12
374.965	454.12
375.191	457.12
375.416	452.12
375.642	435.12
375.868	416.12
376.094	415.12
376.319	428.12
376.545	428.12
376.771	421.12
376.997	412.12
377.222	423.12
377.448	417.12
377.674	414.12
377.899	417.12
378.125	409.12
378.35	421.12
378.576	407.12
378.802	432.12
379.027	436.12
379.253	417.12
379.478	405.12
379.704	417.12
379.929	403.12
380.155	419.12
380.38	416.12
380.606	425.12
380.831	422.12
381.057	424.12
381.282	429.12
381.507	427.12
381.733	436.12
381.958	441.12
382.184	425.12
382.409	424.12
382.634	428.12
382.86	434.12
383.085	430.12
383.31	424.12
383.535	434.12
383.761	436.12
383.986	464.12
384.211	449.12
384.436	468.12
384.662	476.12
384.887	487.12
385.112	474.12
385.337	463.12
385.562	471.12
385.787	495.12
386.013	495.12
386.238	466.12
386.463	468.12
386.688	467.12
386.913	478.12
387.138	476.12
387.363	474.12
387.588	482.12
387.813	471.12
388.038	467.12
388.263	490.12
388.488	484.12
388.713	471.12
388.938	479.12
389.163	460.12
389.387	468.12
389.612	480.12
389.837	476.12
390.062	490.12
390.287	465.12
390.512	469.12
390.736	481.12
390.961	471.12
391.186	492.12
391.411	494.12
391.636	480.12
391.86	524.12
392.085	522.12
392.31	509.12
392.534	504.12
392.759	494.12
392.984	479.12
393.208	496.12
393.433	504.12
393.658	514.12
393.882	504.12
394.107	457.12
394.331	486.12
394.556	495.12
394.78	506.12
395.005	518.12
395.229	507.12
395.454	513.12
395.678	509.12
395.903	520.12
396.127	559.12
396.352	512.12
396.576	512.12
396.801	496.12
397.025	502.12
397.249	512.12
397.474	521.12
397.698	517.12
397.922	525.12
398.147	524.12
398.371	546.12
398.595	552.12
398.82	557.12
399.044	587.12
399.268	634.12
399.492	711.12
399.717	758.12
399.941	736.12
400.165	711.12
400.389	708.12
400.613	638.12
400.837	604.12
401.062	573.12
401.286	563.12
401.51	547.12
401.734	570.12
401.958	579.12
402.182	561.12
402.406	578.12
402.63	583.12
402.854	590.12
403.078	623.12
403.302	618.12
403.526	594.12
403.75	633.12
403.974	614.12
404.198	636.12
404.422	620.12
404.645	626.12
404.869	639.12
405.093	616.12
405.317	641.12
405.541	680.12
405.765	646.12
405.988	628.12
406.212	628.12
406.436	631.12
406.66	633.12
406.883	639.12
407.107	663.12
407.331	704.12
407.555	737.12
407.778	750.12
408.002	701.12
408.226	695.12
408.449	660.12
408.673	642.12
408.896	647.12
409.12	683.12
409.344	638.12
409.567	592.12
409.791	598.12
410.014	585.12
410.238	585.12
410.461	600.12
410.685	606.12
410.908	580.12
411.132	598.12
411.355	620.12
411.578	604.12
411.802	619.12
412.025	574.12
412.249	590.12
412.472	589.12
412.695	624.12
412.919	590.12
413.142	583.12
413.365	565.12
413.589	573.12
413.812	551.12
414.035	568.12
414.258	574.12
414.482	571.12
414.705	545.12
414.928	554.12
415.151	573.12
415.374	560.12
415.597	552.12
415.821	561.12
416.044	537.12
416.267	546.12
416.49	556.12
416.713	550.12
416.936	575.12
417.159	551.12
417.382	574.12
417.605	562.12
417.828	556.12
418.051	597.12
418.274	580.12
418.497	552.12
418.72	578.12
418.943	580.12
419.166	576.12
419.389	615.12
419.611	610.12
419.834	606.12
420.057	581.12
420.28	578.12
420.503	570.12
420.726	562.12
420.948	562.12
421.171	605.12
421.394	617.12
421.617	558.12
421.839	562.12
422.062	561.12
422.285	587.12
422.507	614.12
422.73	638.12
422.953	625.12
423.175	589.12
423.398	591.12
423.621	608.12
423.843	591.12
424.066	618.12
424.288	585.12
424.511	612.12
424.733	661.12
424.956	689.12
425.178	657.12
425.401	664.12
425.623	649.12
425.846	588.12
426.068	574.12
426.291	562.12
426.513	586.12
426.735	549.12
426.958	581.12
427.18	644.12
427.402	717.12
427.625	777.12
427.847	702.12
428.069	607.12
428.292	577.12
428.514	542.12
428.736	503.12
428.958	512.12
429.181	505.12
429.403	526.12
429.625	514.12
429.847	545.12
430.069	562.12
430.292	576.12
430.514	521.12
430.736	496.12
430.958	501.12
431.18	535.12
431.402	520.12
431.624	518.12
431.846	496.12
432.068	504.12
432.29	533.12
432.512	528.12
432.734	497.12
432.956	518.12
433.178	515.12
433.4	502.12
433.622	510.12
433.844	510.12
434.066	512.12
434.287	520.12
434.509	515.12
434.731	554.12
434.953	554.12
435.175	570.12
435.397	567.12
435.618	545.12
435.84	561.12
436.062	613.12
436.284	659.12
436.505	597.12
436.727	562.12
436.949	527.12
437.17	520.12
437.392	541.12
437.614	515.12
437.835	520.12
438.057	604.12
438.278	637.12
438.5	624.12
438.721	702.12
438.943	683.12
439.165	577.12
439.386	548.12
439.608	528.12
439.829	560.12
440.05	579.12
440.272	608.12
440.493	552.12
440.715	531.12
440.936	556.12
441.158	536.12
441.379	555.12
441.6	555.12
441.822	581.12
442.043	601.12
442.264	631.12
442.486	665.12
442.707	598.12
442.928	586.12
443.149	585.12
443.371	601.12
443.592	606.12
443.813	676.12
444.034	701.12
444.255	642.12
444.476	597.12
444.698	620.12
444.919	634.12
445.14	728.12
445.361	668.12
445.582	616.12
445.803	648.12
446.024	676.12
446.245	704.12
446.466	619.12
446.687	544.12
446.908	550.12
447.129	510.12
447.35	516.12
447.571	496.12
447.792	488.12
448.013	478.12
448.234	510.12
448.455	528.12
448.675	642.12
448.896	655.12
449.117	581.12
449.338	566.12
449.559	661.12
449.779	696.12
450	581.12
450.221	495.12
450.442	489.12
450.662	497.12
450.883	509.12
451.104	488.12
451.324	496.12
451.545	473.12
451.766	474.12
451.986	470.12
452.207	458.12
452.428	453.12
452.648	469.12
452.869	456.12
453.089	452.12
453.31	473.12
453.53	464.12
453.751	461.12
453.971	462.12
454.192	457.12
454.412	478.12
454.633	442.12
454.853	441.12
455.073	437.12
455.294	464.12
455.514	507.12
455.734	490.12
455.955	448.12
456.175	444.12
456.395	444.12
456.616	428.12
456.836	448.12
457.056	444.12
457.276	436.12
457.497	422.12
457.717	430.12
457.937	420.12
458.157	439.12
458.377	469.12
458.598	478.12
458.818	502.12
459.038	544.12
459.258	568.12
459.478	529.12
459.698	481.12
459.918	496.12
460.138	524.12
460.358	530.12
460.578	526.12
460.798	548.12
461.018	561.12
461.238	526.12
461.458	539.12
461.678	554.12
461.898	559.12
462.118	544.12
462.338	580.12
462.558	569.12
462.777	588.12
462.997	630.12
463.217	692.12
463.437	679.12
463.657	634.12
463.876	589.12
464.096	576.12
464.316	589.12
464.536	621.12
464.755	598.12
464.975	594.12
465.195	593.12
465.414	620.12
465.634	528.12
465.854	515.12
466.073	493.12
466.293	503.12
466.512	463.12
466.732	489.12
466.951	486.12
467.171	470.12
467.391	486.12
467.61	482.12
467.829	465.12
468.049	468.12
468.268	475.12
468.488	460.12
468.707	472.12
468.927	465.12
469.146	469.12
469.365	461.12
469.585	460.12
469.804	474.12
470.023	479.12
470.243	499.12
470.462	512.12
470.681	515.12
470.901	480.12
471.12	469.12
471.339	498.12
471.558	484.12
471.777	491.12
471.997	477.12
472.216	475.12
472.435	482.12
472.654	483.12
472.873	460.12
473.092	470.12
473.311	441.12
473.53	452.12
473.749	463.12
473.968	494.12
474.187	554.12
474.406	552.12
474.625	493.12
474.844	453.12
475.063	478.12
475.282	450.12
475.501	461.12
475.72	478.12
475.939	471.12
476.158	461.12
476.377	482.12
476.596	479.12
476.814	497.12
477.033	490.12
477.252	517.12
477.471	505.12
477.69	512.12
477.908	517.12
478.127	520.12
478.346	526.12
478.564	539.12
478.783	549.12
479.002	553.12
479.22	563.12
479.439	566.12
479.658	562.12
479.876	552.12
480.095	563.12
480.313	608.12
480.532	609.12
480.751	590.12
480.969	599.12
481.188	612.12
481.406	644.12
481.624	582.12
481.843	557.12
482.061	552.12
482.28	554.12
482.498	530.12
482.717	538.12
482.935	532.12
483.153	546.12
483.372	525.12
483.59	521.12
483.808	545.12
484.027	537.12
484.245	529.12
484.463	541.12
484.681	536.12
484.9	550.12
485.118	557.12
485.336	545.12
485.554	541.12
485.772	533.12
485.99	564.12
486.209	574.12
486.427	536.12
486.645	564.12
486.863	596.12
487.081	590.12
487.299	569.12
487.517	586.12
487.735	597.12
487.953	569.12
488.171	573.12
488.389	584.12
488.607	555.12
488.825	576.12
489.043	572.12
489.261	549.12
489.479	581.12
489.696	568.12
489.914	556.12
490.132	585.12
490.35	575.12
490.568	600.12
490.786	603.12
491.003	609.12
491.221	601.12
491.439	610.12
491.657	613.12
491.874	635.12
492.092	642.12
492.31	625.12
492.527	640.12
492.745	658.12
492.963	633.12
493.18	655.12
493.398	655.12
493.615	650.12
493.833	652.12
494.05	656.12
494.268	670.12
494.485	644.12
494.703	655.12
494.92	664.12
495.138	650.12
495.355	690.12
495.573	660.12
495.79	663.12
496.008	638.12
496.225	650.12
496.442	654.12
496.66	673.12
496.877	654.12
497.094	662.12
497.312	685.12
497.529	708.12
497.746	703.12
497.963	732.12
498.181	719.12
498.398	724.12
498.615	757.12
498.832	815.12
499.049	851.12
499.267	881.12
499.484	942.12
499.701	989.12
499.918	1077.12
500.135	1144.12
500.352	1264.12
500.569	1277.12
500.786	1296.12
501.003	1257.12
501.22	1177.12
501.437	1047.12
501.654	985.12
501.871	957.12
