Data from 1960PennyLincolnUp.LampE6.200Scan.07172019.P1_HRD10591_13-06-04-001.txt Node
Date: Thu Jul 18 13:06:04 EDT 2019
User: cochatt
Spectrometer: HR+D1059
Trigger mode: 1
Integration Time (sec): 1.000000E-1
Scans to average: 1
Electric dark correction enabled: true
Nonlinearity correction enabled: false
Boxcar width: 0
XAxis mode: Wavelengths
Number of Pixels in Spectrum: 2048
>>>>>Begin Spectral Data<<<<<
223.165	-7.19
223.4	-7.19
223.635	-7.19
223.869	-7.19
224.104	-19.19
224.338	-8.19
224.573	-22.19
224.808	-9.19
225.042	-3.19
225.277	0.81
225.511	-12.19
225.746	8.81
225.98	0.81
226.215	-0.19
226.449	3.81
226.683	11.81
226.918	20.81
227.152	41.81
227.387	31.81
227.621	31.81
227.856	52.81
228.09	38.81
228.324	60.81
228.559	53.81
228.793	71.81
229.027	72.81
229.262	92.81
229.496	101.81
229.73	101.81
229.964	127.81
230.199	113.81
230.433	91.81
230.667	93.81
230.901	104.81
231.136	100.81
231.37	99.81
231.604	100.81
231.838	108.81
232.072	117.81
232.306	125.81
232.541	120.81
232.775	119.81
233.009	120.81
233.243	96.81
233.477	102.81
233.711	95.81
233.945	107.81
234.179	121.81
234.413	122.81
234.647	111.81
234.881	99.81
235.115	106.81
235.349	115.81
235.583	118.81
235.817	115.81
236.051	132.81
236.285	117.81
236.519	124.81
236.753	120.81
236.987	134.81
237.221	145.81
237.455	176.81
237.689	155.81
237.922	117.81
238.156	130.81
238.39	112.81
238.624	125.81
238.858	104.81
239.091	104.81
239.325	121.81
239.559	117.81
239.793	116.81
240.027	131.81
240.26	111.81
240.494	127.81
240.728	127.81
240.961	131.81
241.195	139.81
241.429	110.81
241.662	129.81
241.896	126.81
242.13	117.81
242.363	146.81
242.597	135.81
242.83	122.81
243.064	127.81
243.298	134.81
243.531	127.81
243.765	134.81
243.998	130.81
244.232	134.81
244.465	133.81
244.699	152.81
244.932	145.81
245.166	148.81
245.399	133.81
245.633	144.81
245.866	129.81
246.099	131.81
246.333	150.81
246.566	133.81
246.8	127.81
247.033	134.81
247.266	146.81
247.5	142.81
247.733	157.81
247.966	151.81
248.2	144.81
248.433	144.81
248.666	158.81
248.899	165.81
249.133	176.81
249.366	173.81
249.599	172.81
249.832	162.81
250.066	176.81
250.299	183.81
250.532	178.81
250.765	176.81
250.998	201.81
251.231	195.81
251.465	185.81
251.698	175.81
251.931	176.81
252.164	185.81
252.397	161.81
252.63	192.81
252.863	189.81
253.096	195.81
253.329	179.81
253.562	197.81
253.795	196.81
254.028	215.81
254.261	178.81
254.494	199.81
254.727	200.81
254.96	223.81
255.193	225.81
255.426	220.81
255.659	185.81
255.892	223.81
256.124	198.81
256.357	211.81
256.59	195.81
256.823	175.81
257.056	185.81
257.289	191.81
257.521	169.81
257.754	191.81
257.987	183.81
258.22	205.81
258.452	182.81
258.685	193.81
258.918	187.81
259.151	193.81
259.383	190.81
259.616	189.81
259.849	198.81
260.081	227.81
260.314	216.81
260.547	213.81
260.779	201.81
261.012	219.81
261.244	214.81
261.477	211.81
261.71	221.81
261.942	202.81
262.175	216.81
262.407	203.81
262.64	191.81
262.872	196.81
263.105	193.81
263.337	204.81
263.57	201.81
263.802	208.81
264.035	214.81
264.267	200.81
264.499	185.81
264.732	202.81
264.964	200.81
265.197	195.81
265.429	203.81
265.661	207.81
265.894	206.81
266.126	222.81
266.358	214.81
266.591	196.81
266.823	209.81
267.055	216.81
267.287	207.81
267.52	212.81
267.752	217.81
267.984	228.81
268.216	216.81
268.448	219.81
268.681	237.81
268.913	229.81
269.145	227.81
269.377	263.81
269.609	238.81
269.841	256.81
270.073	240.81
270.306	268.81
270.538	292.81
270.77	284.81
271.002	270.81
271.234	250.81
271.466	273.81
271.698	280.81
271.93	279.81
272.162	264.81
272.394	277.81
272.626	286.81
272.858	259.81
273.09	264.81
273.322	261.81
273.553	261.81
273.785	246.81
274.017	240.81
274.249	241.81
274.481	261.81
274.713	259.81
274.945	241.81
275.176	255.81
275.408	247.81
275.64	254.81
275.872	247.81
276.104	248.81
276.335	259.81
276.567	255.81
276.799	256.81
277.031	286.81
277.262	275.81
277.494	277.81
277.726	268.81
277.957	255.81
278.189	260.81
278.421	262.81
278.652	258.81
278.884	257.81
279.115	270.81
279.347	267.81
279.579	276.81
279.81	269.81
280.042	256.81
280.273	267.81
280.505	258.81
280.736	264.81
280.968	267.81
281.199	271.81
281.431	261.81
281.662	286.81
281.894	287.81
282.125	279.81
282.356	289.81
282.588	305.81
282.819	294.81
283.051	287.81
283.282	281.81
283.513	289.81
283.745	279.81
283.976	263.81
284.207	278.81
284.439	275.81
284.67	288.81
284.901	264.81
285.132	265.81
285.364	273.81
285.595	294.81
285.826	277.81
286.057	289.81
286.288	285.81
286.52	295.81
286.751	292.81
286.982	299.81
287.213	285.81
287.444	292.81
287.675	287.81
287.906	308.81
288.138	307.81
288.369	311.81
288.6	293.81
288.831	313.81
289.062	317.81
289.293	310.81
289.524	293.81
289.755	290.81
289.986	307.81
290.217	297.81
290.448	301.81
290.679	297.81
290.91	279.81
291.141	294.81
291.371	302.81
291.602	302.81
291.833	296.81
292.064	312.81
292.295	312.81
292.526	289.81
292.757	299.81
292.987	310.81
293.218	295.81
293.449	292.81
293.68	288.81
293.91	310.81
294.141	312.81
294.372	299.81
294.603	308.81
294.833	307.81
295.064	318.81
295.295	312.81
295.525	295.81
295.756	305.81
295.987	304.81
296.217	318.81
296.448	323.81
296.679	313.81
296.909	308.81
297.14	316.81
297.37	321.81
297.601	330.81
297.831	301.81
298.062	306.81
298.292	327.81
298.523	333.81
298.753	323.81
298.984	332.81
299.214	329.81
299.445	320.81
299.675	329.81
299.905	319.81
300.136	318.81
300.366	326.81
300.597	316.81
300.827	312.81
301.057	334.81
301.288	342.81
301.518	334.81
301.748	360.81
301.979	347.81
302.209	340.81
302.439	349.81
302.669	361.81
302.9	349.81
303.13	360.81
303.36	342.81
303.59	345.81
303.82	348.81
304.051	355.81
304.281	330.81
304.511	339.81
304.741	332.81
304.971	345.81
305.201	351.81
305.431	312.81
305.661	348.81
305.891	343.81
306.121	335.81
306.352	341.81
306.582	366.81
306.812	340.81
307.042	345.81
307.272	334.81
307.502	341.81
307.731	345.81
307.961	340.81
308.191	354.81
308.421	349.81
308.651	348.81
308.881	354.81
309.111	353.81
309.341	336.81
309.571	363.81
309.8	348.81
310.03	361.81
310.26	366.81
310.49	360.81
310.72	384.81
310.949	373.81
311.179	374.81
311.409	367.81
311.639	369.81
311.868	375.81
312.098	372.81
312.328	378.81
312.557	399.81
312.787	378.81
313.017	389.81
313.246	360.81
313.476	381.81
313.706	378.81
313.935	375.81
314.165	390.81
314.394	376.81
314.624	403.81
314.853	376.81
315.083	393.81
315.312	385.81
315.542	386.81
315.771	358.81
316.001	381.81
316.23	370.81
316.46	383.81
316.689	369.81
316.919	359.81
317.148	376.81
317.377	383.81
317.607	375.81
317.836	361.81
318.065	376.81
318.295	406.81
318.524	391.81
318.753	372.81
318.983	401.81
319.212	385.81
319.441	380.81
319.67	367.81
319.9	390.81
320.129	357.81
320.358	375.81
320.587	387.81
320.816	384.81
321.046	371.81
321.275	383.81
321.504	413.81
321.733	389.81
321.962	390.81
322.191	395.81
322.42	398.81
322.649	405.81
322.878	435.81
323.108	418.81
323.337	428.81
323.566	413.81
323.795	458.81
324.024	467.81
324.253	547.81
324.482	689.81
324.71	1026.81
324.939	1400.81
325.168	1153.81
325.397	657.81
325.626	472.81
325.855	462.81
326.084	462.81
326.313	450.81
326.542	437.81
326.77	451.81
326.999	533.81
327.228	662.81
327.457	959.81
327.686	1072.81
327.914	737.81
328.143	523.81
328.372	505.81
328.6	513.81
328.829	491.81
329.058	452.81
329.287	496.81
329.515	480.81
329.744	459.81
329.972	451.81
330.201	485.81
330.43	488.81
330.658	504.81
330.887	531.81
331.115	501.81
331.344	475.81
331.572	483.81
331.801	472.81
332.03	457.81
332.258	478.81
332.486	474.81
332.715	492.81
332.943	475.81
333.172	457.81
333.4	510.81
333.629	517.81
333.857	523.81
334.085	536.81
334.314	550.81
334.542	524.81
334.771	567.81
334.999	512.81
335.227	508.81
335.455	501.81
335.684	495.81
335.912	492.81
336.14	495.81
336.369	487.81
336.597	476.81
336.825	464.81
337.053	468.81
337.281	446.81
337.51	451.81
337.738	440.81
337.966	451.81
338.194	463.81
338.422	466.81
338.65	450.81
338.878	451.81
339.106	446.81
339.334	445.81
339.562	443.81
339.79	431.81
340.018	436.81
340.246	440.81
340.474	434.81
340.702	432.81
340.93	411.81
341.158	422.81
341.386	452.81
341.614	442.81
341.842	431.81
342.07	431.81
342.298	434.81
342.526	434.81
342.754	416.81
342.981	409.81
343.209	433.81
343.437	431.81
343.665	440.81
343.893	471.81
344.12	497.81
344.348	468.81
344.576	440.81
344.804	441.81
345.031	451.81
345.259	454.81
345.487	431.81
345.714	422.81
345.942	403.81
346.17	435.81
346.397	428.81
346.625	421.81
346.853	428.81
347.08	424.81
347.308	421.81
347.535	417.81
347.763	436.81
347.99	438.81
348.218	423.81
348.445	426.81
348.673	427.81
348.9	408.81
349.128	409.81
349.355	398.81
349.583	403.81
349.81	385.81
350.037	412.81
350.265	411.81
350.492	405.81
350.72	394.81
350.947	375.81
351.174	435.81
351.402	412.81
351.629	428.81
351.856	439.81
352.083	422.81
352.311	408.81
352.538	419.81
352.765	429.81
352.992	417.81
353.22	405.81
353.447	421.81
353.674	398.81
353.901	403.81
354.128	399.81
354.355	399.81
354.583	396.81
354.81	398.81
355.037	395.81
355.264	415.81
355.491	405.81
355.718	401.81
355.945	403.81
356.172	391.81
356.399	397.81
356.626	400.81
356.853	376.81
357.08	400.81
357.307	376.81
357.534	372.81
357.761	383.81
357.988	399.81
358.215	404.81
358.441	404.81
358.668	395.81
358.895	401.81
359.122	397.81
359.349	423.81
359.576	413.81
359.802	436.81
360.029	448.81
360.256	438.81
360.483	436.81
360.709	416.81
360.936	427.81
361.163	416.81
361.39	399.81
361.616	392.81
361.843	393.81
362.07	413.81
362.296	420.81
362.523	397.81
362.749	413.81
362.976	399.81
363.203	398.81
363.429	393.81
363.656	406.81
363.882	414.81
364.109	396.81
364.335	407.81
364.562	383.81
364.788	407.81
365.015	397.81
365.241	403.81
365.468	388.81
365.694	402.81
365.92	408.81
366.147	406.81
366.373	391.81
366.599	407.81
366.826	400.81
367.052	399.81
367.278	399.81
367.505	415.81
367.731	413.81
367.957	413.81
368.184	408.81
368.41	403.81
368.636	416.81
368.862	417.81
369.089	429.81
369.315	405.81
369.541	404.81
369.767	423.81
369.993	405.81
370.219	409.81
370.445	416.81
370.672	409.81
370.898	417.81
371.124	433.81
371.35	415.81
371.576	435.81
371.802	415.81
372.028	402.81
372.254	449.81
372.48	420.81
372.706	442.81
372.932	428.81
373.158	453.81
373.384	436.81
373.61	419.81
373.835	449.81
374.061	432.81
374.287	445.81
374.513	441.81
374.739	447.81
374.965	469.81
375.191	460.81
375.416	433.81
375.642	445.81
375.868	435.81
376.094	427.81
376.319	423.81
376.545	437.81
376.771	418.81
376.997	425.81
377.222	411.81
377.448	413.81
377.674	418.81
377.899	445.81
378.125	419.81
378.35	426.81
378.576	401.81
378.802	423.81
379.027	406.81
379.253	405.81
379.478	413.81
379.704	401.81
379.929	402.81
380.155	427.81
380.38	403.81
380.606	429.81
380.831	425.81
381.057	422.81
381.282	412.81
381.507	441.81
381.733	432.81
381.958	424.81
382.184	417.81
382.409	426.81
382.634	455.81
382.86	439.81
383.085	439.81
383.31	434.81
383.535	454.81
383.761	438.81
383.986	464.81
384.211	436.81
384.436	484.81
384.662	476.81
384.887	469.81
385.112	465.81
385.337	473.81
385.562	488.81
385.787	488.81
386.013	480.81
386.238	486.81
386.463	464.81
386.688	464.81
386.913	478.81
387.138	467.81
387.363	476.81
387.588	455.81
387.813	481.81
388.038	470.81
388.263	470.81
388.488	489.81
388.713	495.81
388.938	475.81
389.163	492.81
389.387	489.81
389.612	461.81
389.837	460.81
390.062	453.81
390.287	496.81
390.512	477.81
390.736	457.81
390.961	491.81
391.186	487.81
391.411	495.81
391.636	520.81
391.86	514.81
392.085	509.81
392.31	524.81
392.534	510.81
392.759	511.81
392.984	493.81
393.208	473.81
393.433	505.81
393.658	497.81
393.882	485.81
394.107	507.81
394.331	509.81
394.556	508.81
394.78	513.81
395.005	485.81
395.229	500.81
395.454	519.81
395.678	515.81
395.903	518.81
396.127	526.81
396.352	511.81
396.576	518.81
396.801	506.81
397.025	500.81
397.249	526.81
397.474	534.81
397.698	544.81
397.922	523.81
398.147	511.81
398.371	543.81
398.595	559.81
398.82	555.81
399.044	591.81
399.268	645.81
399.492	696.81
399.717	755.81
399.941	771.81
400.165	745.81
400.389	715.81
400.613	646.81
400.837	598.81
401.062	575.81
401.286	569.81
401.51	569.81
401.734	558.81
401.958	568.81
402.182	579.81
402.406	591.81
402.63	604.81
402.854	605.81
403.078	597.81
403.302	597.81
403.526	636.81
403.75	630.81
403.974	630.81
404.198	611.81
404.422	639.81
404.645	643.81
404.869	627.81
405.093	653.81
405.317	662.81
405.541	693.81
405.765	653.81
405.988	639.81
406.212	629.81
406.436	654.81
406.66	672.81
406.883	656.81
407.107	664.81
407.331	704.81
407.555	777.81
407.778	765.81
408.002	703.81
408.226	690.81
408.449	655.81
408.673	653.81
408.896	647.81
409.12	653.81
409.344	652.81
409.567	619.81
409.791	591.81
410.014	621.81
410.238	588.81
410.461	608.81
410.685	573.81
410.908	597.81
411.132	605.81
411.355	612.81
411.578	621.81
411.802	581.81
412.025	573.81
412.249	601.81
412.472	590.81
412.695	659.81
412.919	623.81
413.142	594.81
413.365	573.81
413.589	573.81
413.812	558.81
414.035	545.81
414.258	540.81
414.482	549.81
414.705	555.81
414.928	572.81
415.151	561.81
415.374	559.81
415.597	567.81
415.821	556.81
416.044	568.81
416.267	535.81
416.49	565.81
416.713	569.81
416.936	572.81
417.159	545.81
417.382	551.81
417.605	574.81
417.828	562.81
418.051	580.81
418.274	574.81
418.497	560.81
418.72	564.81
418.943	547.81
419.166	588.81
419.389	611.81
419.611	631.81
419.834	596.81
420.057	603.81
420.28	573.81
420.503	593.81
420.726	573.81
420.948	586.81
421.171	589.81
421.394	613.81
421.617	568.81
421.839	600.81
422.062	571.81
422.285	564.81
422.507	617.81
422.73	660.81
422.953	628.81
423.175	600.81
423.398	611.81
423.621	608.81
423.843	637.81
424.066	612.81
424.288	628.81
424.511	621.81
424.733	665.81
424.956	687.81
425.178	650.81
425.401	641.81
425.623	663.81
425.846	608.81
426.068	561.81
426.291	573.81
426.513	532.81
426.735	570.81
426.958	598.81
427.18	651.81
427.402	713.81
427.625	767.81
427.847	684.81
428.069	617.81
428.292	589.81
428.514	554.81
428.736	559.81
428.958	549.81
429.181	538.81
429.403	526.81
429.625	508.81
429.847	550.81
430.069	589.81
430.292	592.81
430.514	516.81
430.736	528.81
430.958	509.81
431.18	483.81
431.402	512.81
431.624	509.81
431.846	486.81
432.068	517.81
432.29	509.81
432.512	505.81
432.734	528.81
432.956	485.81
433.178	520.81
433.4	535.81
433.622	532.81
433.844	520.81
434.066	532.81
434.287	521.81
434.509	551.81
434.731	558.81
434.953	545.81
435.175	574.81
435.397	578.81
435.618	583.81
435.84	599.81
436.062	649.81
436.284	661.81
436.505	589.81
436.727	561.81
436.949	537.81
437.17	523.81
437.392	524.81
437.614	540.81
437.835	546.81
438.057	599.81
438.278	661.81
438.5	627.81
438.721	700.81
438.943	681.81
439.165	579.81
439.386	534.81
439.608	552.81
439.829	553.81
440.05	553.81
440.272	599.81
440.493	562.81
440.715	543.81
440.936	536.81
441.158	527.81
441.379	574.81
441.6	586.81
441.822	599.81
442.043	616.81
442.264	644.81
442.486	662.81
442.707	614.81
442.928	588.81
443.149	596.81
443.371	607.81
443.592	637.81
443.813	716.81
444.034	722.81
444.255	637.81
444.476	614.81
444.698	632.81
444.919	651.81
445.14	731.81
445.361	646.81
445.582	614.81
445.803	642.81
446.024	674.81
446.245	701.81
446.466	649.81
446.687	563.81
446.908	553.81
447.129	526.81
447.35	485.81
447.571	515.81
447.792	496.81
448.013	506.81
448.234	520.81
448.455	543.81
448.675	615.81
448.896	680.81
449.117	616.81
449.338	579.81
449.559	633.81
449.779	677.81
450	565.81
450.221	539.81
450.442	504.81
450.662	499.81
450.883	487.81
451.104	513.81
451.324	511.81
451.545	491.81
451.766	476.81
451.986	468.81
452.207	443.81
452.428	465.81
452.648	470.81
452.869	481.81
453.089	479.81
453.31	476.81
453.53	467.81
453.751	474.81
453.971	466.81
454.192	443.81
454.412	441.81
454.633	434.81
454.853	445.81
455.073	465.81
455.294	471.81
455.514	502.81
455.734	494.81
455.955	439.81
456.175	451.81
456.395	426.81
456.616	423.81
456.836	450.81
457.056	445.81
457.276	433.81
457.497	430.81
457.717	434.81
457.937	429.81
458.157	459.81
458.377	471.81
458.598	464.81
458.818	512.81
459.038	551.81
459.258	560.81
459.478	504.81
459.698	528.81
459.918	516.81
460.138	520.81
460.358	532.81
460.578	543.81
460.798	563.81
461.018	572.81
461.238	528.81
461.458	543.81
461.678	537.81
461.898	559.81
462.118	552.81
462.338	564.81
462.558	557.81
462.777	593.81
462.997	629.81
463.217	659.81
463.437	657.81
463.657	631.81
463.876	601.81
464.096	605.81
464.316	620.81
464.536	603.81
464.755	594.81
464.975	580.81
465.195	586.81
465.414	617.81
465.634	567.81
465.854	513.81
466.073	512.81
466.293	488.81
466.512	493.81
466.732	467.81
466.951	487.81
467.171	492.81
467.391	490.81
467.61	493.81
467.829	475.81
468.049	472.81
468.268	478.81
468.488	468.81
468.707	456.81
468.927	454.81
469.146	462.81
469.365	465.81
469.585	471.81
469.804	465.81
470.023	509.81
470.243	495.81
470.462	499.81
470.681	531.81
470.901	500.81
471.12	494.81
471.339	481.81
471.558	473.81
471.777	478.81
471.997	479.81
472.216	474.81
472.435	510.81
472.654	480.81
472.873	476.81
473.092	460.81
473.311	469.81
473.53	472.81
473.749	463.81
473.968	476.81
474.187	539.81
474.406	560.81
474.625	497.81
474.844	466.81
475.063	477.81
475.282	480.81
475.501	493.81
475.72	478.81
475.939	479.81
476.158	465.81
476.377	491.81
476.596	489.81
476.814	503.81
477.033	493.81
477.252	478.81
477.471	518.81
477.69	547.81
477.908	518.81
478.127	523.81
478.346	553.81
478.564	557.81
478.783	561.81
479.002	553.81
479.22	576.81
479.439	560.81
479.658	580.81
479.876	580.81
480.095	586.81
480.313	593.81
480.532	600.81
480.751	601.81
480.969	585.81
481.188	603.81
481.406	655.81
481.624	585.81
481.843	548.81
482.061	546.81
482.28	536.81
482.498	554.81
482.717	531.81
482.935	532.81
483.153	530.81
483.372	530.81
483.59	539.81
483.808	531.81
484.027	540.81
484.245	527.81
484.463	541.81
484.681	561.81
484.9	549.81
485.118	552.81
485.336	560.81
485.554	540.81
485.772	562.81
485.99	550.81
486.209	557.81
486.427	568.81
486.645	555.81
486.863	588.81
487.081	573.81
487.299	585.81
487.517	549.81
487.735	574.81
487.953	567.81
488.171	581.81
488.389	561.81
488.607	550.81
488.825	579.81
489.043	577.81
489.261	578.81
489.479	581.81
489.696	587.81
489.914	585.81
490.132	576.81
490.35	596.81
490.568	609.81
490.786	623.81
491.003	624.81
491.221	643.81
491.439	660.81
491.657	630.81
491.874	621.81
492.092	657.81
492.31	646.81
492.527	656.81
492.745	662.81
492.963	645.81
493.18	655.81
493.398	673.81
493.615	655.81
493.833	660.81
494.05	659.81
494.268	660.81
494.485	659.81
494.703	667.81
494.92	670.81
495.138	661.81
495.355	658.81
495.573	629.81
495.79	655.81
496.008	667.81
496.225	668.81
496.442	680.81
496.66	675.81
496.877	683.81
497.094	690.81
497.312	673.81
497.529	691.81
497.746	713.81
497.963	719.81
498.181	724.81
498.398	772.81
498.615	775.81
498.832	805.81
499.049	839.81
499.267	916.81
499.484	947.81
499.701	1015.81
499.918	1093.81
500.135	1176.81
500.352	1288.81
500.569	1301.81
500.786	1328.81
501.003	1245.81
501.22	1151.81
501.437	1074.81
501.654	999.81
501.871	956.81
502.088	879.81
