Data from 1960PennyLincolnUp.LampE6.200Scan.07172019.P1_HRD10591_13-05-31-001.txt Node
Date: Thu Jul 18 13:05:31 EDT 2019
User: cochatt
Spectrometer: HR+D1059
Trigger mode: 1
Integration Time (sec): 1.000000E-1
Scans to average: 1
Electric dark correction enabled: true
Nonlinearity correction enabled: false
Boxcar width: 0
XAxis mode: Wavelengths
Number of Pixels in Spectrum: 2048
>>>>>Begin Spectral Data<<<<<
223.165	-19.88
223.4	-19.88
223.635	-19.88
223.869	-7.88
224.104	-15.88
224.338	-5.88
224.573	-10.88
224.808	-10.88
225.042	-18.88
225.277	5.12
225.511	-14.88
225.746	1.12
225.98	16.12
226.215	20.12
226.449	3.12
226.683	15.12
226.918	19.12
227.152	25.12
227.387	38.12
227.621	25.12
227.856	49.12
228.09	39.12
228.324	60.12
228.559	51.12
228.793	66.12
229.027	88.12
229.262	93.12
229.496	91.12
229.73	111.12
229.964	119.12
230.199	114.12
230.433	107.12
230.667	105.12
230.901	100.12
231.136	113.12
231.37	102.12
231.604	86.12
231.838	108.12
232.072	110.12
232.306	104.12
232.541	115.12
232.775	98.12
233.009	103.12
233.243	109.12
233.477	93.12
233.711	112.12
233.945	105.12
234.179	108.12
234.413	105.12
234.647	103.12
234.881	105.12
235.115	116.12
235.349	118.12
235.583	102.12
235.817	115.12
236.051	115.12
236.285	107.12
236.519	99.12
236.753	118.12
236.987	126.12
237.221	143.12
237.455	158.12
237.689	126.12
237.922	103.12
238.156	130.12
238.39	112.12
238.624	112.12
238.858	108.12
239.091	113.12
239.325	122.12
239.559	118.12
239.793	119.12
240.027	107.12
240.26	132.12
240.494	121.12
240.728	127.12
240.961	117.12
241.195	123.12
241.429	130.12
241.662	120.12
241.896	127.12
242.13	126.12
242.363	135.12
242.597	122.12
242.83	131.12
243.064	120.12
243.298	119.12
243.531	125.12
243.765	126.12
243.998	125.12
244.232	133.12
244.465	127.12
244.699	132.12
244.932	132.12
245.166	131.12
245.399	140.12
245.633	142.12
245.866	130.12
246.099	130.12
246.333	145.12
246.566	131.12
246.8	148.12
247.033	155.12
247.266	140.12
247.5	142.12
247.733	155.12
247.966	146.12
248.2	145.12
248.433	153.12
248.666	154.12
248.899	143.12
249.133	166.12
249.366	171.12
249.599	158.12
249.832	146.12
250.066	151.12
250.299	166.12
250.532	176.12
250.765	179.12
250.998	166.12
251.231	198.12
251.465	179.12
251.698	157.12
251.931	158.12
252.164	177.12
252.397	186.12
252.63	162.12
252.863	161.12
253.096	178.12
253.329	197.12
253.562	190.12
253.795	183.12
254.028	165.12
254.261	180.12
254.494	204.12
254.727	194.12
254.96	211.12
255.193	196.12
255.426	190.12
255.659	196.12
255.892	188.12
256.124	192.12
256.357	208.12
256.59	185.12
256.823	201.12
257.056	175.12
257.289	176.12
257.521	182.12
257.754	183.12
257.987	177.12
258.22	194.12
258.452	172.12
258.685	176.12
258.918	170.12
259.151	189.12
259.383	180.12
259.616	188.12
259.849	204.12
260.081	210.12
260.314	213.12
260.547	199.12
260.779	204.12
261.012	199.12
261.244	190.12
261.477	190.12
261.71	179.12
261.942	178.12
262.175	216.12
262.407	215.12
262.64	201.12
262.872	191.12
263.105	207.12
263.337	194.12
263.57	193.12
263.802	204.12
264.035	212.12
264.267	194.12
264.499	190.12
264.732	205.12
264.964	206.12
265.197	198.12
265.429	185.12
265.661	179.12
265.894	192.12
266.126	196.12
266.358	198.12
266.591	203.12
266.823	204.12
267.055	196.12
267.287	211.12
267.52	197.12
267.752	208.12
267.984	215.12
268.216	207.12
268.448	230.12
268.681	208.12
268.913	222.12
269.145	239.12
269.377	239.12
269.609	231.12
269.841	214.12
270.073	213.12
270.306	248.12
270.538	257.12
270.77	259.12
271.002	254.12
271.234	238.12
271.466	256.12
271.698	255.12
271.93	271.12
272.162	248.12
272.394	246.12
272.626	230.12
272.858	246.12
273.09	244.12
273.322	236.12
273.553	225.12
273.785	231.12
274.017	244.12
274.249	247.12
274.481	235.12
274.713	227.12
274.945	231.12
275.176	234.12
275.408	241.12
275.64	241.12
275.872	229.12
276.104	222.12
276.335	236.12
276.567	250.12
276.799	239.12
277.031	239.12
277.262	278.12
277.494	296.12
277.726	264.12
277.957	255.12
278.189	255.12
278.421	260.12
278.652	248.12
278.884	253.12
279.115	257.12
279.347	252.12
279.579	252.12
279.81	268.12
280.042	258.12
280.273	252.12
280.505	253.12
280.736	245.12
280.968	245.12
281.199	265.12
281.431	274.12
281.662	268.12
281.894	272.12
282.125	264.12
282.356	277.12
282.588	268.12
282.819	268.12
283.051	259.12
283.282	261.12
283.513	254.12
283.745	275.12
283.976	266.12
284.207	260.12
284.439	270.12
284.67	270.12
284.901	274.12
285.132	269.12
285.364	279.12
285.595	266.12
285.826	280.12
286.057	266.12
286.288	276.12
286.52	274.12
286.751	270.12
286.982	274.12
287.213	278.12
287.444	302.12
287.675	272.12
287.906	306.12
288.138	302.12
288.369	287.12
288.6	295.12
288.831	278.12
289.062	279.12
289.293	288.12
289.524	285.12
289.755	290.12
289.986	288.12
290.217	285.12
290.448	285.12
290.679	289.12
290.91	286.12
291.141	311.12
291.371	290.12
291.602	286.12
291.833	278.12
292.064	294.12
292.295	271.12
292.526	292.12
292.757	303.12
292.987	295.12
293.218	294.12
293.449	302.12
293.68	299.12
293.91	285.12
294.141	284.12
294.372	291.12
294.603	293.12
294.833	284.12
295.064	299.12
295.295	294.12
295.525	282.12
295.756	300.12
295.987	314.12
296.217	317.12
296.448	326.12
296.679	303.12
296.909	294.12
297.14	308.12
297.37	303.12
297.601	320.12
297.831	312.12
298.062	311.12
298.292	304.12
298.523	319.12
298.753	299.12
298.984	305.12
299.214	316.12
299.445	310.12
299.675	318.12
299.905	322.12
300.136	322.12
300.366	323.12
300.597	306.12
300.827	325.12
301.057	338.12
301.288	316.12
301.518	317.12
301.748	300.12
301.979	321.12
302.209	328.12
302.439	342.12
302.669	332.12
302.9	320.12
303.13	329.12
303.36	333.12
303.59	320.12
303.82	346.12
304.051	333.12
304.281	331.12
304.511	338.12
304.741	302.12
304.971	323.12
305.201	308.12
305.431	310.12
305.661	318.12
305.891	335.12
306.121	322.12
306.352	337.12
306.582	327.12
306.812	330.12
307.042	339.12
307.272	334.12
307.502	331.12
307.731	328.12
307.961	334.12
308.191	332.12
308.421	337.12
308.651	339.12
308.881	317.12
309.111	338.12
309.341	335.12
309.571	335.12
309.8	326.12
310.03	343.12
310.26	351.12
310.49	350.12
310.72	341.12
310.949	348.12
311.179	354.12
311.409	348.12
311.639	347.12
311.868	347.12
312.098	336.12
312.328	356.12
312.557	358.12
312.787	368.12
313.017	358.12
313.246	358.12
313.476	363.12
313.706	346.12
313.935	392.12
314.165	382.12
314.394	368.12
314.624	381.12
314.853	376.12
315.083	380.12
315.312	366.12
315.542	356.12
315.771	354.12
316.001	359.12
316.23	364.12
316.46	360.12
316.689	356.12
316.919	358.12
317.148	352.12
317.377	374.12
317.607	372.12
317.836	391.12
318.065	355.12
318.295	364.12
318.524	347.12
318.753	354.12
318.983	374.12
319.212	367.12
319.441	371.12
319.67	377.12
319.9	367.12
320.129	362.12
320.358	357.12
320.587	363.12
320.816	373.12
321.046	363.12
321.275	368.12
321.504	370.12
321.733	352.12
321.962	354.12
322.191	380.12
322.42	370.12
322.649	370.12
322.878	382.12
323.108	382.12
323.337	402.12
323.566	419.12
323.795	421.12
324.024	432.12
324.253	486.12
324.482	638.12
324.71	863.12
324.939	1112.12
325.168	951.12
325.397	572.12
325.626	454.12
325.855	426.12
326.084	422.12
326.313	398.12
326.542	410.12
326.77	422.12
326.999	490.12
327.228	606.12
327.457	831.12
327.686	904.12
327.914	632.12
328.143	479.12
328.372	475.12
328.6	443.12
328.829	435.12
329.058	436.12
329.287	454.12
329.515	439.12
329.744	425.12
329.972	436.12
330.201	452.12
330.43	454.12
330.658	465.12
330.887	473.12
331.115	458.12
331.344	450.12
331.572	427.12
331.801	462.12
332.03	445.12
332.258	454.12
332.486	457.12
332.715	452.12
332.943	460.12
333.172	469.12
333.4	485.12
333.629	505.12
333.857	523.12
334.085	510.12
334.314	512.12
334.542	509.12
334.771	514.12
334.999	495.12
335.227	477.12
335.455	475.12
335.684	491.12
335.912	452.12
336.14	438.12
336.369	469.12
336.597	449.12
336.825	432.12
337.053	453.12
337.281	437.12
337.51	441.12
337.738	447.12
337.966	449.12
338.194	431.12
338.422	445.12
338.65	439.12
338.878	436.12
339.106	433.12
339.334	435.12
339.562	427.12
339.79	435.12
340.018	415.12
340.246	391.12
340.474	407.12
340.702	410.12
340.93	421.12
341.158	395.12
341.386	388.12
341.614	404.12
341.842	425.12
342.07	417.12
342.298	423.12
342.526	406.12
342.754	429.12
342.981	430.12
343.209	406.12
343.437	415.12
343.665	442.12
343.893	470.12
344.12	483.12
344.348	458.12
344.576	464.12
344.804	426.12
345.031	410.12
345.259	425.12
345.487	403.12
345.714	417.12
345.942	415.12
346.17	413.12
346.397	396.12
346.625	388.12
346.853	402.12
347.08	418.12
347.308	384.12
347.535	415.12
347.763	431.12
347.99	398.12
348.218	392.12
348.445	407.12
348.673	404.12
348.9	414.12
349.128	372.12
349.355	385.12
349.583	405.12
349.81	376.12
350.037	414.12
350.265	400.12
350.492	395.12
350.72	384.12
350.947	386.12
351.174	382.12
351.402	412.12
351.629	391.12
351.856	396.12
352.083	391.12
352.311	391.12
352.538	397.12
352.765	399.12
352.992	369.12
353.22	365.12
353.447	386.12
353.674	391.12
353.901	380.12
354.128	389.12
354.355	376.12
354.583	355.12
354.81	364.12
355.037	394.12
355.264	402.12
355.491	396.12
355.718	382.12
355.945	370.12
356.172	372.12
356.399	370.12
356.626	383.12
356.853	376.12
357.08	365.12
357.307	408.12
357.534	376.12
357.761	379.12
357.988	377.12
358.215	376.12
358.441	385.12
358.668	391.12
358.895	383.12
359.122	399.12
359.349	400.12
359.576	395.12
359.802	425.12
360.029	408.12
360.256	445.12
360.483	402.12
360.709	410.12
360.936	390.12
361.163	381.12
361.39	416.12
361.616	391.12
361.843	394.12
362.07	395.12
362.296	383.12
362.523	390.12
362.749	403.12
362.976	375.12
363.203	390.12
363.429	400.12
363.656	402.12
363.882	386.12
364.109	392.12
364.335	382.12
364.562	393.12
364.788	390.12
365.015	388.12
365.241	377.12
365.468	383.12
365.694	386.12
365.92	389.12
366.147	392.12
366.373	393.12
366.599	386.12
366.826	370.12
367.052	374.12
367.278	396.12
367.505	384.12
367.731	385.12
367.957	389.12
368.184	408.12
368.41	385.12
368.636	402.12
368.862	387.12
369.089	384.12
369.315	394.12
369.541	410.12
369.767	400.12
369.993	420.12
370.219	399.12
370.445	410.12
370.672	384.12
370.898	400.12
371.124	376.12
371.35	397.12
371.576	403.12
371.802	384.12
372.028	402.12
372.254	418.12
372.48	410.12
372.706	419.12
372.932	436.12
373.158	420.12
373.384	428.12
373.61	412.12
373.835	403.12
374.061	422.12
374.287	418.12
374.513	423.12
374.739	417.12
374.965	447.12
375.191	418.12
375.416	427.12
375.642	445.12
375.868	429.12
376.094	434.12
376.319	419.12
376.545	395.12
376.771	392.12
376.997	404.12
377.222	411.12
377.448	417.12
377.674	415.12
377.899	382.12
378.125	404.12
378.35	407.12
378.576	401.12
378.802	405.12
379.027	406.12
379.253	398.12
379.478	406.12
379.704	403.12
379.929	421.12
380.155	401.12
380.38	385.12
380.606	396.12
380.831	400.12
381.057	384.12
381.282	422.12
381.507	403.12
381.733	423.12
381.958	404.12
382.184	428.12
382.409	405.12
382.634	429.12
382.86	410.12
383.085	418.12
383.31	439.12
383.535	442.12
383.761	436.12
383.986	454.12
384.211	448.12
384.436	461.12
384.662	446.12
384.887	471.12
385.112	472.12
385.337	455.12
385.562	469.12
385.787	463.12
386.013	468.12
386.238	470.12
386.463	464.12
386.688	484.12
386.913	447.12
387.138	438.12
387.363	460.12
387.588	454.12
387.813	448.12
388.038	474.12
388.263	488.12
388.488	449.12
388.713	465.12
388.938	457.12
389.163	459.12
389.387	454.12
389.612	454.12
389.837	463.12
390.062	449.12
390.287	439.12
390.512	462.12
390.736	469.12
390.961	449.12
391.186	473.12
391.411	483.12
391.636	490.12
391.86	512.12
392.085	504.12
392.31	504.12
392.534	498.12
392.759	468.12
392.984	469.12
393.208	474.12
393.433	483.12
393.658	480.12
393.882	484.12
394.107	483.12
394.331	504.12
394.556	511.12
394.78	477.12
395.005	462.12
395.229	479.12
395.454	503.12
395.678	523.12
395.903	515.12
396.127	519.12
396.352	500.12
396.576	494.12
396.801	498.12
397.025	501.12
397.249	478.12
397.474	504.12
397.698	495.12
397.922	530.12
398.147	522.12
398.371	525.12
398.595	543.12
398.82	541.12
399.044	602.12
399.268	604.12
399.492	675.12
399.717	745.12
399.941	756.12
400.165	725.12
400.389	657.12
400.613	624.12
400.837	582.12
401.062	564.12
401.286	549.12
401.51	548.12
401.734	541.12
401.958	560.12
402.182	560.12
402.406	569.12
402.63	554.12
402.854	566.12
403.078	591.12
403.302	613.12
403.526	619.12
403.75	596.12
403.974	588.12
404.198	573.12
404.422	611.12
404.645	592.12
404.869	594.12
405.093	622.12
405.317	642.12
405.541	667.12
405.765	627.12
405.988	598.12
406.212	611.12
406.436	609.12
406.66	646.12
406.883	615.12
407.107	652.12
407.331	684.12
407.555	725.12
407.778	730.12
408.002	690.12
408.226	654.12
408.449	636.12
408.673	604.12
408.896	612.12
409.12	632.12
409.344	640.12
409.567	579.12
409.791	574.12
410.014	577.12
410.238	580.12
410.461	570.12
410.685	581.12
410.908	583.12
411.132	580.12
411.355	629.12
411.578	587.12
411.802	549.12
412.025	576.12
412.249	567.12
412.472	594.12
412.695	599.12
412.919	565.12
413.142	558.12
413.365	555.12
413.589	558.12
413.812	548.12
414.035	549.12
414.258	551.12
414.482	568.12
414.705	557.12
414.928	539.12
415.151	538.12
415.374	535.12
415.597	544.12
415.821	510.12
416.044	529.12
416.267	540.12
416.49	555.12
416.713	536.12
416.936	540.12
417.159	514.12
417.382	534.12
417.605	529.12
417.828	555.12
418.051	556.12
418.274	552.12
418.497	550.12
418.72	544.12
418.943	542.12
419.166	552.12
419.389	576.12
419.611	588.12
419.834	597.12
420.057	564.12
420.28	564.12
420.503	542.12
420.726	535.12
420.948	566.12
421.171	584.12
421.394	596.12
421.617	542.12
421.839	552.12
422.062	548.12
422.285	519.12
422.507	599.12
422.73	611.12
422.953	611.12
423.175	595.12
423.398	570.12
423.621	568.12
423.843	577.12
424.066	595.12
424.288	586.12
424.511	592.12
424.733	610.12
424.956	646.12
425.178	647.12
425.401	640.12
425.623	624.12
425.846	552.12
426.068	563.12
426.291	538.12
426.513	535.12
426.735	558.12
426.958	599.12
427.18	596.12
427.402	654.12
427.625	714.12
427.847	606.12
428.069	561.12
428.292	559.12
428.514	511.12
428.736	503.12
428.958	509.12
429.181	492.12
429.403	502.12
429.625	495.12
429.847	522.12
430.069	555.12
430.292	562.12
430.514	494.12
430.736	508.12
430.958	500.12
431.18	470.12
431.402	500.12
431.624	508.12
431.846	496.12
432.068	485.12
432.29	489.12
432.512	470.12
432.734	518.12
432.956	512.12
433.178	523.12
433.4	492.12
433.622	488.12
433.844	509.12
434.066	490.12
434.287	480.12
434.509	523.12
434.731	545.12
434.953	530.12
435.175	556.12
435.397	572.12
435.618	552.12
435.84	568.12
436.062	597.12
436.284	632.12
436.505	567.12
436.727	522.12
436.949	520.12
437.17	512.12
437.392	493.12
437.614	522.12
437.835	508.12
438.057	575.12
438.278	620.12
438.5	618.12
438.721	632.12
438.943	653.12
439.165	533.12
439.386	516.12
439.608	502.12
439.829	498.12
440.05	504.12
440.272	558.12
440.493	553.12
440.715	526.12
440.936	523.12
441.158	526.12
441.379	516.12
441.6	547.12
441.822	554.12
442.043	564.12
442.264	607.12
442.486	615.12
442.707	570.12
442.928	570.12
443.149	563.12
443.371	599.12
443.592	609.12
443.813	650.12
444.034	653.12
444.255	621.12
444.476	585.12
444.698	614.12
444.919	609.12
445.14	700.12
445.361	639.12
445.582	581.12
445.803	574.12
446.024	626.12
446.245	640.12
446.466	599.12
446.687	540.12
446.908	527.12
447.129	502.12
447.35	496.12
447.571	464.12
447.792	481.12
448.013	474.12
448.234	479.12
448.455	516.12
448.675	551.12
448.896	626.12
449.117	554.12
449.338	539.12
449.559	584.12
449.779	634.12
450	556.12
450.221	500.12
450.442	477.12
450.662	470.12
450.883	461.12
451.104	472.12
451.324	454.12
451.545	470.12
451.766	435.12
451.986	445.12
452.207	447.12
452.428	453.12
452.648	441.12
452.869	427.12
453.089	439.12
453.31	458.12
453.53	423.12
453.751	426.12
453.971	425.12
454.192	446.12
454.412	420.12
454.633	442.12
454.853	422.12
455.073	428.12
455.294	435.12
455.514	470.12
455.734	466.12
455.955	444.12
456.175	405.12
456.395	407.12
456.616	448.12
456.836	410.12
457.056	411.12
457.276	397.12
457.497	414.12
457.717	431.12
457.937	432.12
458.157	434.12
458.377	423.12
458.598	446.12
458.818	475.12
459.038	476.12
459.258	549.12
459.478	503.12
459.698	476.12
459.918	488.12
460.138	532.12
460.358	529.12
460.578	536.12
460.798	528.12
461.018	525.12
461.238	533.12
461.458	547.12
461.678	521.12
461.898	525.12
462.118	523.12
462.338	566.12
462.558	555.12
462.777	582.12
462.997	604.12
463.217	616.12
463.437	632.12
463.657	617.12
463.876	574.12
464.096	590.12
464.316	580.12
464.536	571.12
464.755	585.12
464.975	566.12
465.195	580.12
465.414	563.12
465.634	528.12
465.854	515.12
466.073	490.12
466.293	463.12
466.512	472.12
466.732	460.12
466.951	456.12
467.171	459.12
467.391	471.12
467.61	458.12
467.829	475.12
468.049	464.12
468.268	452.12
468.488	448.12
468.707	459.12
468.927	467.12
469.146	440.12
469.365	462.12
469.585	468.12
469.804	452.12
470.023	475.12
470.243	487.12
470.462	474.12
470.681	467.12
470.901	474.12
471.12	490.12
471.339	465.12
471.558	467.12
471.777	465.12
471.997	462.12
472.216	460.12
472.435	477.12
472.654	472.12
472.873	434.12
473.092	444.12
473.311	443.12
473.53	454.12
473.749	457.12
473.968	468.12
474.187	530.12
474.406	520.12
474.625	490.12
474.844	478.12
475.063	453.12
475.282	463.12
475.501	449.12
475.72	467.12
475.939	452.12
476.158	472.12
476.377	461.12
476.596	470.12
476.814	475.12
477.033	452.12
477.252	482.12
477.471	494.12
477.69	497.12
477.908	508.12
478.127	504.12
478.346	511.12
478.564	547.12
478.783	522.12
479.002	539.12
479.22	533.12
479.439	534.12
479.658	549.12
479.876	558.12
480.095	558.12
480.313	572.12
480.532	595.12
480.751	593.12
480.969	565.12
481.188	595.12
481.406	615.12
481.624	533.12
481.843	526.12
482.061	525.12
482.28	516.12
482.498	532.12
482.717	503.12
482.935	506.12
483.153	532.12
483.372	506.12
483.59	520.12
483.808	524.12
484.027	528.12
484.245	534.12
484.463	522.12
484.681	522.12
484.9	520.12
485.118	527.12
485.336	534.12
485.554	535.12
485.772	533.12
485.99	555.12
486.209	565.12
486.427	554.12
486.645	579.12
486.863	575.12
487.081	564.12
487.299	562.12
487.517	569.12
487.735	554.12
487.953	576.12
488.171	562.12
488.389	558.12
488.607	557.12
488.825	532.12
489.043	548.12
489.261	576.12
489.479	589.12
489.696	541.12
489.914	536.12
490.132	561.12
490.35	587.12
490.568	560.12
490.786	579.12
491.003	587.12
491.221	572.12
491.439	585.12
491.657	589.12
491.874	618.12
492.092	602.12
492.31	620.12
492.527	602.12
492.745	627.12
492.963	623.12
493.18	627.12
493.398	642.12
493.615	628.12
493.833	627.12
494.05	614.12
494.268	605.12
494.485	604.12
494.703	636.12
494.92	622.12
495.138	628.12
495.355	658.12
495.573	595.12
495.79	623.12
496.008	632.12
496.225	640.12
496.442	638.12
496.66	650.12
496.877	625.12
497.094	650.12
497.312	639.12
497.529	666.12
497.746	666.12
497.963	700.12
498.181	692.12
498.398	722.12
498.615	744.12
498.832	768.12
499.049	845.12
499.267	849.12
499.484	919.12
499.701	968.12
499.918	1047.12
500.135	1153.12
500.352	1234.12
500.569	1265.12
500.786	1251.12
501.003	1207.12
501.22	1125.12
501.437	1072.12
501.654	991.12
501.871	930.12
502.088	866.12
