Data from 1960PennyLincolnUp.LampE6.200Scan.07172019.P1_HRD10591_13-06-29-002.txt Node
Date: Thu Jul 18 13:06:29 EDT 2019
User: cochatt
Spectrometer: HR+D1059
Trigger mode: 1
Integration Time (sec): 1.000000E-1
Scans to average: 1
Electric dark correction enabled: true
Nonlinearity correction enabled: false
Boxcar width: 0
XAxis mode: Wavelengths
Number of Pixels in Spectrum: 2048
>>>>>Begin Spectral Data<<<<<
223.165	-13.81
223.4	-13.81
223.635	-13.81
223.869	-18.81
224.104	-9.81
224.338	-6.81
224.573	-6.81
224.808	-6.81
225.042	-6.81
225.277	6.19
225.511	1.19
225.746	-6.81
225.98	-9.81
226.215	7.19
226.449	13.19
226.683	16.19
226.918	17.19
227.152	25.19
227.387	33.19
227.621	40.19
227.856	33.19
228.09	50.19
228.324	50.19
228.559	65.19
228.793	65.19
229.027	85.19
229.262	95.19
229.496	100.19
229.73	109.19
229.964	121.19
230.199	120.19
230.433	111.19
230.667	110.19
230.901	105.19
231.136	105.19
231.37	114.19
231.604	109.19
231.838	99.19
232.072	96.19
232.306	109.19
232.541	108.19
232.775	112.19
233.009	105.19
233.243	112.19
233.477	101.19
233.711	105.19
233.945	119.19
234.179	103.19
234.413	116.19
234.647	97.19
234.881	117.19
235.115	109.19
235.349	119.19
235.583	126.19
235.817	114.19
236.051	118.19
236.285	117.19
236.519	123.19
236.753	117.19
236.987	142.19
237.221	163.19
237.455	160.19
237.689	154.19
237.922	125.19
238.156	117.19
238.39	109.19
238.624	115.19
238.858	128.19
239.091	118.19
239.325	130.19
239.559	115.19
239.793	122.19
240.027	130.19
240.26	137.19
240.494	134.19
240.728	146.19
240.961	145.19
241.195	136.19
241.429	129.19
241.662	127.19
241.896	131.19
242.13	129.19
242.363	117.19
242.597	119.19
242.83	142.19
243.064	138.19
243.298	138.19
243.531	145.19
243.765	121.19
243.998	149.19
244.232	137.19
244.465	136.19
244.699	142.19
244.932	137.19
245.166	151.19
245.399	137.19
245.633	145.19
245.866	147.19
246.099	148.19
246.333	141.19
246.566	142.19
246.8	154.19
247.033	162.19
247.266	147.19
247.5	150.19
247.733	150.19
247.966	161.19
248.2	172.19
248.433	161.19
248.666	169.19
248.899	158.19
249.133	165.19
249.366	163.19
249.599	186.19
249.832	177.19
250.066	181.19
250.299	174.19
250.532	181.19
250.765	183.19
250.998	186.19
251.231	199.19
251.465	171.19
251.698	181.19
251.931	182.19
252.164	175.19
252.397	175.19
252.63	179.19
252.863	197.19
253.096	193.19
253.329	185.19
253.562	178.19
253.795	196.19
254.028	179.19
254.261	183.19
254.494	178.19
254.727	206.19
254.96	226.19
255.193	221.19
255.426	201.19
255.659	212.19
255.892	196.19
256.124	202.19
256.357	211.19
256.59	207.19
256.823	186.19
257.056	181.19
257.289	187.19
257.521	195.19
257.754	200.19
257.987	189.19
258.22	205.19
258.452	190.19
258.685	194.19
258.918	184.19
259.151	194.19
259.383	193.19
259.616	217.19
259.849	192.19
260.081	225.19
260.314	208.19
260.547	226.19
260.779	214.19
261.012	202.19
261.244	209.19
261.477	211.19
261.71	210.19
261.942	213.19
262.175	220.19
262.407	207.19
262.64	215.19
262.872	200.19
263.105	201.19
263.337	207.19
263.57	213.19
263.802	212.19
264.035	216.19
264.267	201.19
264.499	206.19
264.732	193.19
264.964	214.19
265.197	194.19
265.429	201.19
265.661	205.19
265.894	219.19
266.126	216.19
266.358	203.19
266.591	198.19
266.823	214.19
267.055	225.19
267.287	224.19
267.52	216.19
267.752	215.19
267.984	210.19
268.216	221.19
268.448	217.19
268.681	219.19
268.913	233.19
269.145	235.19
269.377	245.19
269.609	250.19
269.841	223.19
270.073	258.19
270.306	268.19
270.538	277.19
270.77	258.19
271.002	251.19
271.234	257.19
271.466	270.19
271.698	287.19
271.93	267.19
272.162	281.19
272.394	251.19
272.626	266.19
272.858	253.19
273.09	249.19
273.322	241.19
273.553	244.19
273.785	255.19
274.017	245.19
274.249	248.19
274.481	255.19
274.713	237.19
274.945	259.19
275.176	262.19
275.408	255.19
275.64	255.19
275.872	253.19
276.104	251.19
276.335	273.19
276.567	261.19
276.799	259.19
277.031	305.19
277.262	270.19
277.494	303.19
277.726	284.19
277.957	273.19
278.189	265.19
278.421	270.19
278.652	267.19
278.884	278.19
279.115	271.19
279.347	271.19
279.579	261.19
279.81	258.19
280.042	239.19
280.273	264.19
280.505	249.19
280.736	257.19
280.968	254.19
281.199	259.19
281.431	248.19
281.662	280.19
281.894	277.19
282.125	275.19
282.356	287.19
282.588	293.19
282.819	287.19
283.051	283.19
283.282	275.19
283.513	284.19
283.745	270.19
283.976	265.19
284.207	269.19
284.439	259.19
284.67	270.19
284.901	282.19
285.132	278.19
285.364	290.19
285.595	276.19
285.826	281.19
286.057	291.19
286.288	287.19
286.52	279.19
286.751	285.19
286.982	291.19
287.213	282.19
287.444	310.19
287.675	302.19
287.906	290.19
288.138	311.19
288.369	310.19
288.6	307.19
288.831	301.19
289.062	303.19
289.293	295.19
289.524	295.19
289.755	302.19
289.986	298.19
290.217	293.19
290.448	297.19
290.679	286.19
290.91	284.19
291.141	305.19
291.371	299.19
291.602	309.19
291.833	289.19
292.064	302.19
292.295	304.19
292.526	302.19
292.757	301.19
292.987	312.19
293.218	287.19
293.449	308.19
293.68	299.19
293.91	306.19
294.141	281.19
294.372	301.19
294.603	315.19
294.833	295.19
295.064	288.19
295.295	293.19
295.525	308.19
295.756	298.19
295.987	299.19
296.217	320.19
296.448	320.19
296.679	310.19
296.909	307.19
297.14	298.19
297.37	307.19
297.601	314.19
297.831	318.19
298.062	291.19
298.292	328.19
298.523	325.19
298.753	324.19
298.984	315.19
299.214	318.19
299.445	317.19
299.675	322.19
299.905	307.19
300.136	317.19
300.366	317.19
300.597	320.19
300.827	334.19
301.057	339.19
301.288	347.19
301.518	334.19
301.748	354.19
301.979	351.19
302.209	337.19
302.439	350.19
302.669	327.19
302.9	328.19
303.13	351.19
303.36	330.19
303.59	335.19
303.82	352.19
304.051	355.19
304.281	345.19
304.511	337.19
304.741	356.19
304.971	357.19
305.201	342.19
305.431	348.19
305.661	321.19
305.891	349.19
306.121	336.19
306.352	341.19
306.582	334.19
306.812	326.19
307.042	356.19
307.272	343.19
307.502	344.19
307.731	333.19
307.961	340.19
308.191	348.19
308.421	343.19
308.651	357.19
308.881	342.19
309.111	327.19
309.341	352.19
309.571	350.19
309.8	357.19
310.03	342.19
310.26	353.19
310.49	341.19
310.72	356.19
310.949	361.19
311.179	364.19
311.409	361.19
311.639	376.19
311.868	378.19
312.098	358.19
312.328	356.19
312.557	359.19
312.787	398.19
313.017	376.19
313.246	388.19
313.476	362.19
313.706	371.19
313.935	382.19
314.165	397.19
314.394	384.19
314.624	363.19
314.853	384.19
315.083	379.19
315.312	373.19
315.542	363.19
315.771	385.19
316.001	375.19
316.23	367.19
316.46	378.19
316.689	376.19
316.919	382.19
317.148	390.19
317.377	392.19
317.607	369.19
317.836	384.19
318.065	374.19
318.295	367.19
318.524	367.19
318.753	374.19
318.983	373.19
319.212	379.19
319.441	378.19
319.67	395.19
319.9	367.19
320.129	357.19
320.358	378.19
320.587	380.19
320.816	380.19
321.046	385.19
321.275	397.19
321.504	372.19
321.733	379.19
321.962	386.19
322.191	398.19
322.42	406.19
322.649	401.19
322.878	404.19
323.108	421.19
323.337	416.19
323.566	424.19
323.795	455.19
324.024	460.19
324.253	533.19
324.482	705.19
324.71	986.19
324.939	1333.19
325.168	1070.19
325.397	630.19
325.626	480.19
325.855	477.19
326.084	424.19
326.313	438.19
326.542	431.19
326.77	469.19
326.999	522.19
327.228	671.19
327.457	907.19
327.686	1027.19
327.914	711.19
328.143	549.19
328.372	473.19
328.6	469.19
328.829	448.19
329.058	470.19
329.287	486.19
329.515	463.19
329.744	439.19
329.972	459.19
330.201	451.19
330.43	503.19
330.658	490.19
330.887	492.19
331.115	494.19
331.344	503.19
331.572	449.19
331.801	473.19
332.03	454.19
332.258	458.19
332.486	442.19
332.715	465.19
332.943	476.19
333.172	485.19
333.4	514.19
333.629	504.19
333.857	520.19
334.085	515.19
334.314	546.19
334.542	547.19
334.771	558.19
334.999	538.19
335.227	498.19
335.455	496.19
335.684	483.19
335.912	489.19
336.14	467.19
336.369	461.19
336.597	454.19
336.825	460.19
337.053	469.19
337.281	441.19
337.51	451.19
337.738	456.19
337.966	454.19
338.194	448.19
338.422	443.19
338.65	426.19
338.878	435.19
339.106	437.19
339.334	438.19
339.562	443.19
339.79	444.19
340.018	423.19
340.246	426.19
340.474	409.19
340.702	447.19
340.93	449.19
341.158	438.19
341.386	434.19
341.614	406.19
341.842	419.19
342.07	427.19
342.298	434.19
342.526	424.19
342.754	419.19
342.981	430.19
343.209	443.19
343.437	446.19
343.665	454.19
343.893	475.19
344.12	483.19
344.348	469.19
344.576	447.19
344.804	443.19
345.031	445.19
345.259	476.19
345.487	447.19
345.714	408.19
345.942	401.19
346.17	423.19
346.397	396.19
346.625	397.19
346.853	400.19
347.08	417.19
347.308	380.19
347.535	418.19
347.763	431.19
347.99	406.19
348.218	408.19
348.445	406.19
348.673	406.19
348.9	415.19
349.128	404.19
349.355	400.19
349.583	422.19
349.81	402.19
350.037	413.19
350.265	392.19
350.492	393.19
350.72	389.19
350.947	413.19
351.174	407.19
351.402	418.19
351.629	427.19
351.856	405.19
352.083	413.19
352.311	402.19
352.538	423.19
352.765	409.19
352.992	400.19
353.22	410.19
353.447	406.19
353.674	407.19
353.901	398.19
354.128	377.19
354.355	395.19
354.583	404.19
354.81	420.19
355.037	390.19
355.264	372.19
355.491	357.19
355.718	377.19
355.945	404.19
356.172	407.19
356.399	400.19
356.626	398.19
356.853	400.19
357.08	382.19
357.307	398.19
357.534	385.19
357.761	391.19
357.988	392.19
358.215	402.19
358.441	402.19
358.668	390.19
358.895	408.19
359.122	393.19
359.349	407.19
359.576	413.19
359.802	403.19
360.029	450.19
360.256	445.19
360.483	424.19
360.709	431.19
360.936	406.19
361.163	407.19
361.39	415.19
361.616	425.19
361.843	399.19
362.07	395.19
362.296	415.19
362.523	402.19
362.749	395.19
362.976	411.19
363.203	383.19
363.429	383.19
363.656	383.19
363.882	397.19
364.109	411.19
364.335	385.19
364.562	421.19
364.788	399.19
365.015	391.19
365.241	399.19
365.468	399.19
365.694	410.19
365.92	397.19
366.147	402.19
366.373	415.19
366.599	395.19
366.826	405.19
367.052	406.19
367.278	416.19
367.505	404.19
367.731	408.19
367.957	411.19
368.184	400.19
368.41	403.19
368.636	423.19
368.862	411.19
369.089	410.19
369.315	407.19
369.541	430.19
369.767	443.19
369.993	400.19
370.219	425.19
370.445	380.19
370.672	417.19
370.898	419.19
371.124	428.19
371.35	435.19
371.576	399.19
371.802	418.19
372.028	417.19
372.254	424.19
372.48	416.19
372.706	416.19
372.932	408.19
373.158	428.19
373.384	410.19
373.61	434.19
373.835	422.19
374.061	417.19
374.287	435.19
374.513	427.19
374.739	446.19
374.965	456.19
375.191	443.19
375.416	469.19
375.642	446.19
375.868	447.19
376.094	435.19
376.319	440.19
376.545	413.19
376.771	441.19
376.997	422.19
377.222	434.19
377.448	416.19
377.674	416.19
377.899	430.19
378.125	415.19
378.35	417.19
378.576	423.19
378.802	387.19
379.027	433.19
379.253	397.19
379.478	411.19
379.704	408.19
379.929	400.19
380.155	439.19
380.38	403.19
380.606	405.19
380.831	392.19
381.057	421.19
381.282	421.19
381.507	418.19
381.733	421.19
381.958	436.19
382.184	434.19
382.409	435.19
382.634	424.19
382.86	431.19
383.085	428.19
383.31	436.19
383.535	466.19
383.761	441.19
383.986	442.19
384.211	442.19
384.436	456.19
384.662	466.19
384.887	495.19
385.112	474.19
385.337	472.19
385.562	453.19
385.787	472.19
386.013	481.19
386.238	474.19
386.463	465.19
386.688	490.19
386.913	469.19
387.138	469.19
387.363	456.19
387.588	499.19
387.813	486.19
388.038	464.19
388.263	477.19
388.488	488.19
388.713	501.19
388.938	477.19
389.163	462.19
389.387	480.19
389.612	486.19
389.837	479.19
390.062	475.19
390.287	471.19
390.512	478.19
390.736	477.19
390.961	487.19
391.186	460.19
391.411	478.19
391.636	509.19
391.86	517.19
392.085	512.19
392.31	525.19
392.534	478.19
392.759	507.19
392.984	474.19
393.208	517.19
393.433	506.19
393.658	504.19
393.882	510.19
394.107	498.19
394.331	471.19
394.556	477.19
394.78	485.19
395.005	507.19
395.229	506.19
395.454	513.19
395.678	531.19
395.903	527.19
396.127	512.19
396.352	529.19
396.576	512.19
396.801	515.19
397.025	493.19
397.249	512.19
397.474	534.19
397.698	504.19
397.922	513.19
398.147	541.19
398.371	543.19
398.595	545.19
398.82	566.19
399.044	600.19
399.268	631.19
399.492	689.19
399.717	767.19
399.941	772.19
400.165	730.19
400.389	685.19
400.613	637.19
400.837	601.19
401.062	593.19
401.286	570.19
401.51	549.19
401.734	557.19
401.958	586.19
402.182	577.19
402.406	588.19
402.63	598.19
402.854	597.19
403.078	589.19
403.302	591.19
403.526	603.19
403.75	614.19
403.974	602.19
404.198	628.19
404.422	631.19
404.645	627.19
404.869	634.19
405.093	618.19
405.317	673.19
405.541	675.19
405.765	661.19
405.988	617.19
406.212	601.19
406.436	640.19
406.66	660.19
406.883	669.19
407.107	685.19
407.331	710.19
407.555	743.19
407.778	758.19
408.002	706.19
408.226	669.19
408.449	665.19
408.673	641.19
408.896	643.19
409.12	671.19
409.344	636.19
409.567	614.19
409.791	593.19
410.014	602.19
410.238	597.19
410.461	592.19
410.685	590.19
410.908	604.19
411.132	614.19
411.355	648.19
411.578	630.19
411.802	581.19
412.025	589.19
412.249	594.19
412.472	605.19
412.695	635.19
412.919	607.19
413.142	570.19
413.365	577.19
413.589	562.19
413.812	553.19
414.035	551.19
414.258	545.19
414.482	571.19
414.705	568.19
414.928	558.19
415.151	549.19
415.374	545.19
415.597	567.19
415.821	561.19
416.044	563.19
416.267	555.19
416.49	545.19
416.713	533.19
416.936	543.19
417.159	525.19
417.382	559.19
417.605	579.19
417.828	544.19
418.051	603.19
418.274	585.19
418.497	570.19
418.72	553.19
418.943	591.19
419.166	601.19
419.389	599.19
419.611	613.19
419.834	573.19
420.057	600.19
420.28	584.19
420.503	567.19
420.726	567.19
420.948	599.19
421.171	604.19
421.394	629.19
421.617	581.19
421.839	565.19
422.062	605.19
422.285	589.19
422.507	608.19
422.73	648.19
422.953	656.19
423.175	592.19
423.398	569.19
423.621	566.19
423.843	613.19
424.066	626.19
424.288	619.19
424.511	615.19
424.733	631.19
424.956	673.19
425.178	654.19
425.401	665.19
425.623	661.19
425.846	600.19
426.068	585.19
426.291	562.19
426.513	580.19
426.735	557.19
426.958	602.19
427.18	648.19
427.402	728.19
427.625	755.19
427.847	682.19
428.069	613.19
428.292	569.19
428.514	535.19
428.736	532.19
428.958	502.19
429.181	492.19
429.403	520.19
429.625	527.19
429.847	527.19
430.069	576.19
430.292	563.19
430.514	506.19
430.736	527.19
430.958	504.19
431.18	511.19
431.402	527.19
431.624	526.19
431.846	521.19
432.068	528.19
432.29	521.19
432.512	497.19
432.734	513.19
432.956	486.19
433.178	520.19
433.4	519.19
433.622	545.19
433.844	500.19
434.066	515.19
434.287	502.19
434.509	547.19
434.731	540.19
434.953	566.19
435.175	549.19
435.397	555.19
435.618	561.19
435.84	576.19
436.062	621.19
436.284	658.19
436.505	582.19
436.727	545.19
436.949	528.19
437.17	520.19
437.392	537.19
437.614	518.19
437.835	508.19
438.057	577.19
438.278	627.19
438.5	654.19
438.721	703.19
438.943	661.19
439.165	578.19
439.386	541.19
439.608	543.19
439.829	563.19
440.05	578.19
440.272	579.19
440.493	554.19
440.715	556.19
440.936	544.19
441.158	518.19
441.379	537.19
441.6	548.19
441.822	563.19
442.043	600.19
442.264	656.19
442.486	680.19
442.707	601.19
442.928	578.19
443.149	574.19
443.371	592.19
443.592	630.19
443.813	694.19
444.034	696.19
444.255	648.19
444.476	594.19
444.698	594.19
444.919	643.19
445.14	743.19
445.361	648.19
445.582	616.19
445.803	640.19
446.024	685.19
446.245	673.19
446.466	634.19
446.687	550.19
446.908	547.19
447.129	517.19
447.35	515.19
447.571	505.19
447.792	506.19
448.013	509.19
448.234	510.19
448.455	539.19
448.675	599.19
448.896	669.19
449.117	600.19
449.338	557.19
449.559	636.19
449.779	672.19
450	605.19
450.221	506.19
450.442	500.19
450.662	480.19
450.883	491.19
451.104	493.19
451.324	505.19
451.545	504.19
451.766	476.19
451.986	461.19
452.207	473.19
452.428	462.19
452.648	464.19
452.869	450.19
453.089	442.19
453.31	489.19
453.53	446.19
453.751	456.19
453.971	438.19
454.192	482.19
454.412	447.19
454.633	450.19
454.853	440.19
455.073	446.19
455.294	456.19
455.514	501.19
455.734	495.19
455.955	435.19
456.175	430.19
456.395	447.19
456.616	435.19
456.836	427.19
457.056	440.19
457.276	423.19
457.497	446.19
457.717	427.19
457.937	424.19
458.157	428.19
458.377	454.19
458.598	474.19
458.818	481.19
459.038	536.19
459.258	571.19
459.478	529.19
459.698	496.19
459.918	511.19
460.138	521.19
460.358	545.19
460.578	562.19
460.798	560.19
461.018	551.19
461.238	552.19
461.458	553.19
461.678	546.19
461.898	534.19
462.118	545.19
462.338	561.19
462.558	576.19
462.777	599.19
462.997	626.19
463.217	656.19
463.437	705.19
463.657	611.19
463.876	584.19
464.096	595.19
464.316	605.19
464.536	602.19
464.755	607.19
464.975	618.19
465.195	615.19
465.414	618.19
465.634	559.19
465.854	519.19
466.073	498.19
466.293	513.19
466.512	479.19
466.732	478.19
466.951	479.19
467.171	472.19
467.391	480.19
467.61	484.19
467.829	491.19
468.049	481.19
468.268	466.19
468.488	459.19
468.707	450.19
468.927	453.19
469.146	443.19
469.365	475.19
469.585	467.19
469.804	470.19
470.023	511.19
470.243	484.19
470.462	499.19
470.681	493.19
470.901	500.19
471.12	509.19
471.339	493.19
471.558	472.19
471.777	472.19
471.997	466.19
472.216	482.19
472.435	474.19
472.654	501.19
472.873	455.19
473.092	473.19
473.311	444.19
473.53	443.19
473.749	459.19
473.968	488.19
474.187	549.19
474.406	538.19
474.625	493.19
474.844	453.19
475.063	471.19
475.282	463.19
475.501	457.19
475.72	485.19
475.939	465.19
476.158	489.19
476.377	495.19
476.596	501.19
476.814	459.19
477.033	485.19
477.252	497.19
477.471	521.19
477.69	515.19
477.908	520.19
478.127	520.19
478.346	534.19
478.564	550.19
478.783	544.19
479.002	542.19
479.22	550.19
479.439	561.19
479.658	558.19
479.876	562.19
480.095	574.19
480.313	614.19
480.532	589.19
480.751	596.19
480.969	600.19
481.188	637.19
481.406	634.19
481.624	589.19
481.843	551.19
482.061	538.19
482.28	543.19
482.498	511.19
482.717	521.19
482.935	522.19
483.153	527.19
483.372	539.19
483.59	529.19
483.808	530.19
484.027	537.19
484.245	528.19
484.463	554.19
484.681	541.19
484.9	553.19
485.118	557.19
485.336	554.19
485.554	531.19
485.772	546.19
485.99	570.19
486.209	557.19
486.427	559.19
486.645	555.19
486.863	575.19
487.081	581.19
487.299	583.19
487.517	571.19
487.735	560.19
487.953	562.19
488.171	584.19
488.389	572.19
488.607	559.19
488.825	527.19
489.043	576.19
489.261	574.19
489.479	571.19
489.696	581.19
489.914	567.19
490.132	590.19
490.35	600.19
490.568	587.19
490.786	592.19
491.003	597.19
491.221	598.19
491.439	607.19
491.657	625.19
491.874	639.19
492.092	637.19
492.31	650.19
492.527	654.19
492.745	645.19
492.963	659.19
493.18	644.19
493.398	656.19
493.615	657.19
493.833	643.19
494.05	664.19
494.268	678.19
494.485	653.19
494.703	640.19
494.92	629.19
495.138	658.19
495.355	652.19
495.573	664.19
495.79	659.19
496.008	675.19
496.225	662.19
496.442	648.19
496.66	655.19
496.877	654.19
497.094	669.19
497.312	675.19
497.529	673.19
497.746	680.19
497.963	709.19
498.181	725.19
498.398	743.19
498.615	776.19
498.832	791.19
499.049	868.19
499.267	901.19
499.484	917.19
499.701	999.19
499.918	1067.19
500.135	1160.19
500.352	1255.19
500.569	1299.19
500.786	1302.19
501.003	1269.19
501.22	1155.19
501.437	1051.19
501.654	1017.19
501.871	922.19
502.088	891.19
