Data from 1960PennyLincolnUp.LampE5.5.200Scan.07172019.P1.ChangedAngle_HRD10591_13-15-08-821.txt Node
Date: Thu Jul 18 13:15:08 EDT 2019
User: cochatt
Spectrometer: HR+D1059
Trigger mode: 1
Integration Time (sec): 1.000000E-1
Scans to average: 1
Electric dark correction enabled: true
Nonlinearity correction enabled: false
Boxcar width: 0
XAxis mode: Wavelengths
Number of Pixels in Spectrum: 2048
>>>>>Begin Spectral Data<<<<<
223.165	-21.31
223.4	-21.31
223.635	-21.31
223.869	-14.31
224.104	-21.31
224.338	-11.31
224.573	-7.31
224.808	-10.31
225.042	-2.31
225.277	-24.31
225.511	-5.31
225.746	8.69
225.98	5.69
226.215	9.69
226.449	11.69
226.683	14.69
226.918	36.69
227.152	30.69
227.387	23.69
227.621	31.69
227.856	34.69
228.09	52.69
228.324	52.69
228.559	55.69
228.793	72.69
229.027	100.69
229.262	78.69
229.496	84.69
229.73	121.69
229.964	122.69
230.199	126.69
230.433	102.69
230.667	104.69
230.901	115.69
231.136	108.69
231.37	105.69
231.604	110.69
231.838	109.69
232.072	97.69
232.306	106.69
232.541	108.69
232.775	105.69
233.009	108.69
233.243	106.69
233.477	118.69
233.711	114.69
233.945	108.69
234.179	102.69
234.413	122.69
234.647	115.69
234.881	97.69
235.115	114.69
235.349	102.69
235.583	130.69
235.817	123.69
236.051	114.69
236.285	112.69
236.519	101.69
236.753	124.69
236.987	155.69
237.221	143.69
237.455	184.69
237.689	152.69
237.922	131.69
238.156	117.69
238.39	128.69
238.624	129.69
238.858	106.69
239.091	136.69
239.325	129.69
239.559	120.69
239.793	120.69
240.027	123.69
240.26	129.69
240.494	139.69
240.728	140.69
240.961	131.69
241.195	154.69
241.429	127.69
241.662	128.69
241.896	136.69
242.13	141.69
242.363	139.69
242.597	127.69
242.83	127.69
243.064	129.69
243.298	141.69
243.531	139.69
243.765	125.69
243.998	129.69
244.232	128.69
244.465	144.69
244.699	141.69
244.932	136.69
245.166	148.69
245.399	144.69
245.633	121.69
245.866	150.69
246.099	145.69
246.333	134.69
246.566	151.69
246.8	139.69
247.033	150.69
247.266	142.69
247.5	166.69
247.733	162.69
247.966	177.69
248.2	173.69
248.433	151.69
248.666	163.69
248.899	176.69
249.133	173.69
249.366	185.69
249.599	177.69
249.832	183.69
250.066	158.69
250.299	170.69
250.532	191.69
250.765	199.69
250.998	179.69
251.231	182.69
251.465	182.69
251.698	174.69
251.931	176.69
252.164	193.69
252.397	207.69
252.63	191.69
252.863	193.69
253.096	185.69
253.329	199.69
253.562	192.69
253.795	171.69
254.028	204.69
254.261	192.69
254.494	205.69
254.727	224.69
254.96	223.69
255.193	225.69
255.426	235.69
255.659	213.69
255.892	218.69
256.124	209.69
256.357	214.69
256.59	210.69
256.823	186.69
257.056	212.69
257.289	211.69
257.521	204.69
257.754	197.69
257.987	200.69
258.22	182.69
258.452	205.69
258.685	205.69
258.918	195.69
259.151	196.69
259.383	207.69
259.616	201.69
259.849	197.69
260.081	219.69
260.314	220.69
260.547	215.69
260.779	223.69
261.012	216.69
261.244	200.69
261.477	217.69
261.71	208.69
261.942	217.69
262.175	202.69
262.407	217.69
262.64	219.69
262.872	208.69
263.105	202.69
263.337	216.69
263.57	221.69
263.802	204.69
264.035	200.69
264.267	222.69
264.499	209.69
264.732	192.69
264.964	198.69
265.197	212.69
265.429	231.69
265.661	206.69
265.894	204.69
266.126	208.69
266.358	207.69
266.591	232.69
266.823	205.69
267.055	220.69
267.287	202.69
267.52	232.69
267.752	205.69
267.984	221.69
268.216	216.69
268.448	202.69
268.681	241.69
268.913	216.69
269.145	250.69
269.377	250.69
269.609	250.69
269.841	254.69
270.073	261.69
270.306	269.69
270.538	273.69
270.77	270.69
271.002	281.69
271.234	278.69
271.466	280.69
271.698	284.69
271.93	274.69
272.162	283.69
272.394	276.69
272.626	269.69
272.858	276.69
273.09	257.69
273.322	267.69
273.553	249.69
273.785	257.69
274.017	259.69
274.249	260.69
274.481	254.69
274.713	256.69
274.945	251.69
275.176	248.69
275.408	234.69
275.64	224.69
275.872	262.69
276.104	241.69
276.335	258.69
276.567	258.69
276.799	265.69
277.031	281.69
277.262	272.69
277.494	289.69
277.726	278.69
277.957	282.69
278.189	270.69
278.421	255.69
278.652	264.69
278.884	256.69
279.115	254.69
279.347	270.69
279.579	272.69
279.81	266.69
280.042	269.69
280.273	260.69
280.505	256.69
280.736	266.69
280.968	278.69
281.199	263.69
281.431	280.69
281.662	255.69
281.894	270.69
282.125	274.69
282.356	268.69
282.588	291.69
282.819	282.69
283.051	265.69
283.282	275.69
283.513	288.69
283.745	262.69
283.976	282.69
284.207	288.69
284.439	272.69
284.67	270.69
284.901	282.69
285.132	280.69
285.364	265.69
285.595	280.69
285.826	266.69
286.057	278.69
286.288	285.69
286.52	273.69
286.751	284.69
286.982	279.69
287.213	263.69
287.444	296.69
287.675	282.69
287.906	301.69
288.138	295.69
288.369	300.69
288.6	294.69
288.831	298.69
289.062	302.69
289.293	292.69
289.524	305.69
289.755	286.69
289.986	289.69
290.217	290.69
290.448	295.69
290.679	284.69
290.91	289.69
291.141	298.69
291.371	300.69
291.602	278.69
291.833	299.69
292.064	281.69
292.295	292.69
292.526	284.69
292.757	276.69
292.987	287.69
293.218	303.69
293.449	314.69
293.68	301.69
293.91	280.69
294.141	292.69
294.372	266.69
294.603	280.69
294.833	296.69
295.064	308.69
295.295	286.69
295.525	279.69
295.756	289.69
295.987	314.69
296.217	313.69
296.448	302.69
296.679	302.69
296.909	298.69
297.14	311.69
297.37	294.69
297.601	298.69
297.831	280.69
298.062	289.69
298.292	289.69
298.523	298.69
298.753	293.69
298.984	304.69
299.214	306.69
299.445	331.69
299.675	331.69
299.905	297.69
300.136	303.69
300.366	313.69
300.597	314.69
300.827	317.69
301.057	315.69
301.288	322.69
301.518	315.69
301.748	318.69
301.979	292.69
302.209	310.69
302.439	321.69
302.669	318.69
302.9	335.69
303.13	325.69
303.36	333.69
303.59	330.69
303.82	338.69
304.051	315.69
304.281	314.69
304.511	305.69
304.741	326.69
304.971	314.69
305.201	325.69
305.431	336.69
305.661	340.69
305.891	318.69
306.121	325.69
306.352	345.69
306.582	316.69
306.812	335.69
307.042	338.69
307.272	335.69
307.502	326.69
307.731	340.69
307.961	352.69
308.191	330.69
308.421	329.69
308.651	319.69
308.881	316.69
309.111	319.69
309.341	341.69
309.571	356.69
309.8	342.69
310.03	386.69
310.26	360.69
310.49	355.69
310.72	357.69
310.949	366.69
311.179	367.69
311.409	360.69
311.639	365.69
311.868	358.69
312.098	362.69
312.328	361.69
312.557	381.69
312.787	368.69
313.017	366.69
313.246	376.69
313.476	361.69
313.706	360.69
313.935	374.69
314.165	372.69
314.394	385.69
314.624	376.69
314.853	377.69
315.083	369.69
315.312	351.69
315.542	380.69
315.771	374.69
316.001	359.69
316.23	364.69
316.46	372.69
316.689	349.69
316.919	368.69
317.148	384.69
317.377	372.69
317.607	359.69
317.836	345.69
318.065	378.69
318.295	346.69
318.524	372.69
318.753	371.69
318.983	353.69
319.212	382.69
319.441	356.69
319.67	374.69
319.9	381.69
320.129	372.69
320.358	377.69
320.587	374.69
320.816	380.69
321.046	377.69
321.275	397.69
321.504	371.69
321.733	380.69
321.962	391.69
322.191	399.69
322.42	398.69
322.649	404.69
322.878	422.69
323.108	427.69
323.337	435.69
323.566	447.69
323.795	460.69
324.024	489.69
324.253	587.69
324.482	777.69
324.71	1093.69
324.939	1470.69
325.168	1248.69
325.397	707.69
325.626	527.69
325.855	486.69
326.084	436.69
326.313	436.69
326.542	444.69
326.77	499.69
326.999	526.69
327.228	701.69
327.457	968.69
327.686	1119.69
327.914	800.69
328.143	557.69
328.372	511.69
328.6	515.69
328.829	471.69
329.058	488.69
329.287	471.69
329.515	481.69
329.744	462.69
329.972	442.69
330.201	482.69
330.43	486.69
330.658	507.69
330.887	521.69
331.115	491.69
331.344	444.69
331.572	459.69
331.801	447.69
332.03	458.69
332.258	449.69
332.486	398.69
332.715	422.69
332.943	433.69
333.172	433.69
333.4	426.69
333.629	437.69
333.857	446.69
334.085	460.69
334.314	473.69
334.542	500.69
334.771	480.69
334.999	462.69
335.227	432.69
335.455	440.69
335.684	441.69
335.912	412.69
336.14	430.69
336.369	426.69
336.597	430.69
336.825	438.69
337.053	439.69
337.281	418.69
337.51	433.69
337.738	425.69
337.966	431.69
338.194	434.69
338.422	435.69
338.65	424.69
338.878	407.69
339.106	421.69
339.334	425.69
339.562	409.69
339.79	405.69
340.018	377.69
340.246	379.69
340.474	410.69
340.702	410.69
340.93	403.69
341.158	416.69
341.386	397.69
341.614	384.69
341.842	397.69
342.07	396.69
342.298	394.69
342.526	393.69
342.754	386.69
342.981	430.69
343.209	405.69
343.437	380.69
343.665	416.69
343.893	402.69
344.12	401.69
344.348	417.69
344.576	409.69
344.804	385.69
345.031	413.69
345.259	423.69
345.487	400.69
345.714	407.69
345.942	401.69
346.17	375.69
346.397	381.69
346.625	395.69
346.853	388.69
347.08	390.69
347.308	393.69
347.535	396.69
347.763	370.69
347.99	379.69
348.218	383.69
348.445	393.69
348.673	389.69
348.9	387.69
349.128	378.69
349.355	389.69
349.583	376.69
349.81	388.69
350.037	383.69
350.265	366.69
350.492	365.69
350.72	359.69
350.947	389.69
351.174	369.69
351.402	391.69
351.629	394.69
351.856	396.69
352.083	361.69
352.311	403.69
352.538	387.69
352.765	385.69
352.992	355.69
353.22	387.69
353.447	369.69
353.674	380.69
353.901	378.69
354.128	372.69
354.355	366.69
354.583	358.69
354.81	365.69
355.037	356.69
355.264	381.69
355.491	358.69
355.718	378.69
355.945	356.69
356.172	370.69
356.399	367.69
356.626	360.69
356.853	368.69
357.08	360.69
357.307	358.69
357.534	365.69
357.761	368.69
357.988	360.69
358.215	368.69
358.441	356.69
358.668	380.69
358.895	380.69
359.122	374.69
359.349	373.69
359.576	386.69
359.802	389.69
360.029	384.69
360.256	386.69
360.483	396.69
360.709	381.69
360.936	381.69
361.163	379.69
361.39	383.69
361.616	381.69
361.843	381.69
362.07	383.69
362.296	399.69
362.523	372.69
362.749	381.69
362.976	371.69
363.203	370.69
363.429	372.69
363.656	360.69
363.882	350.69
364.109	382.69
364.335	353.69
364.562	374.69
364.788	374.69
365.015	365.69
365.241	377.69
365.468	364.69
365.694	358.69
365.92	366.69
366.147	356.69
366.373	363.69
366.599	356.69
366.826	366.69
367.052	357.69
367.278	340.69
367.505	355.69
367.731	362.69
367.957	367.69
368.184	351.69
368.41	388.69
368.636	352.69
368.862	372.69
369.089	358.69
369.315	350.69
369.541	356.69
369.767	368.69
369.993	366.69
370.219	373.69
370.445	359.69
370.672	347.69
370.898	359.69
371.124	362.69
371.35	349.69
371.576	343.69
371.802	345.69
372.028	377.69
372.254	348.69
372.48	343.69
372.706	375.69
372.932	370.69
373.158	358.69
373.384	350.69
373.61	345.69
373.835	356.69
374.061	362.69
374.287	369.69
374.513	367.69
374.739	363.69
374.965	360.69
375.191	350.69
375.416	376.69
375.642	351.69
375.868	358.69
376.094	364.69
376.319	364.69
376.545	375.69
376.771	346.69
376.997	345.69
377.222	374.69
377.448	383.69
377.674	345.69
377.899	342.69
378.125	340.69
378.35	360.69
378.576	345.69
378.802	359.69
379.027	353.69
379.253	360.69
379.478	346.69
379.704	346.69
379.929	358.69
380.155	350.69
380.38	344.69
380.606	358.69
380.831	368.69
381.057	345.69
381.282	343.69
381.507	333.69
381.733	359.69
381.958	345.69
382.184	362.69
382.409	336.69
382.634	346.69
382.86	369.69
383.085	366.69
383.31	351.69
383.535	360.69
383.761	358.69
383.986	377.69
384.211	376.69
384.436	373.69
384.662	376.69
384.887	369.69
385.112	372.69
385.337	380.69
385.562	380.69
385.787	381.69
386.013	409.69
386.238	391.69
386.463	404.69
386.688	402.69
386.913	407.69
387.138	391.69
387.363	367.69
387.588	378.69
387.813	377.69
388.038	369.69
388.263	410.69
388.488	387.69
388.713	392.69
388.938	385.69
389.163	386.69
389.387	386.69
389.612	385.69
389.837	392.69
390.062	375.69
390.287	382.69
390.512	391.69
390.736	380.69
390.961	374.69
391.186	401.69
391.411	378.69
391.636	390.69
391.86	404.69
392.085	399.69
392.31	401.69
392.534	381.69
392.759	378.69
392.984	395.69
393.208	386.69
393.433	399.69
393.658	401.69
393.882	391.69
394.107	400.69
394.331	400.69
394.556	381.69
394.78	382.69
395.005	383.69
395.229	390.69
395.454	384.69
395.678	396.69
395.903	404.69
396.127	401.69
396.352	400.69
396.576	407.69
396.801	408.69
397.025	404.69
397.249	416.69
397.474	425.69
397.698	405.69
397.922	405.69
398.147	394.69
398.371	417.69
398.595	418.69
398.82	422.69
399.044	460.69
399.268	431.69
399.492	481.69
399.717	470.69
399.941	507.69
400.165	503.69
400.389	544.69
400.613	481.69
400.837	460.69
401.062	444.69
401.286	430.69
401.51	414.69
401.734	420.69
401.958	420.69
402.182	414.69
402.406	420.69
402.63	439.69
402.854	439.69
403.078	449.69
403.302	433.69
403.526	434.69
403.75	443.69
403.974	429.69
404.198	431.69
404.422	433.69
404.645	434.69
404.869	448.69
405.093	474.69
405.317	495.69
405.541	498.69
405.765	466.69
405.988	442.69
406.212	453.69
406.436	458.69
406.66	494.69
406.883	457.69
407.107	476.69
407.331	524.69
407.555	553.69
407.778	564.69
408.002	514.69
408.226	480.69
408.449	481.69
408.673	473.69
408.896	492.69
409.12	519.69
409.344	481.69
409.567	442.69
409.791	446.69
410.014	439.69
410.238	470.69
410.461	438.69
410.685	431.69
410.908	428.69
411.132	472.69
411.355	465.69
411.578	474.69
411.802	425.69
412.025	438.69
412.249	451.69
412.472	471.69
412.695	486.69
412.919	479.69
413.142	446.69
413.365	433.69
413.589	433.69
413.812	431.69
414.035	414.69
414.258	425.69
414.482	417.69
414.705	400.69
414.928	421.69
415.151	406.69
415.374	406.69
415.597	408.69
415.821	392.69
416.044	389.69
416.267	403.69
416.49	414.69
416.713	392.69
416.936	392.69
417.159	389.69
417.382	398.69
417.605	418.69
417.828	423.69
418.051	428.69
418.274	408.69
418.497	388.69
418.72	398.69
418.943	390.69
419.166	401.69
419.389	443.69
419.611	442.69
419.834	430.69
420.057	420.69
420.28	421.69
420.503	416.69
420.726	427.69
420.948	429.69
421.171	466.69
421.394	485.69
421.617	440.69
421.839	417.69
422.062	422.69
422.285	446.69
422.507	464.69
422.73	508.69
422.953	493.69
423.175	454.69
423.398	441.69
423.621	431.69
423.843	447.69
424.066	448.69
424.288	433.69
424.511	452.69
424.733	481.69
424.956	547.69
425.178	523.69
425.401	494.69
425.623	520.69
425.846	467.69
426.068	441.69
426.291	441.69
426.513	446.69
426.735	449.69
426.958	490.69
427.18	524.69
427.402	586.69
427.625	659.69
427.847	560.69
428.069	524.69
428.292	456.69
428.514	438.69
428.736	417.69
428.958	415.69
429.181	414.69
429.403	399.69
429.625	427.69
429.847	427.69
430.069	476.69
430.292	458.69
430.514	404.69
430.736	414.69
430.958	397.69
431.18	383.69
431.402	399.69
431.624	399.69
431.846	399.69
432.068	384.69
432.29	373.69
432.512	381.69
432.734	395.69
432.956	399.69
433.178	400.69
433.4	397.69
433.622	397.69
433.844	401.69
434.066	401.69
434.287	386.69
434.509	391.69
434.731	388.69
434.953	408.69
435.175	413.69
435.397	448.69
435.618	430.69
435.84	478.69
436.062	524.69
436.284	558.69
436.505	493.69
436.727	438.69
436.949	420.69
437.17	419.69
437.392	433.69
437.614	396.69
437.835	446.69
438.057	496.69
438.278	558.69
438.5	576.69
438.721	613.69
438.943	590.69
439.165	479.69
439.386	446.69
439.608	453.69
439.829	428.69
440.05	447.69
440.272	472.69
440.493	456.69
440.715	426.69
440.936	431.69
441.158	397.69
441.379	414.69
441.6	420.69
441.822	416.69
442.043	455.69
442.264	498.69
442.486	516.69
442.707	460.69
442.928	442.69
443.149	437.69
443.371	431.69
443.592	508.69
443.813	559.69
444.034	571.69
444.255	486.69
444.476	451.69
444.698	432.69
444.919	460.69
445.14	523.69
445.361	467.69
445.582	466.69
445.803	489.69
446.024	557.69
446.245	568.69
446.466	495.69
446.687	476.69
446.908	436.69
447.129	417.69
447.35	414.69
447.571	403.69
447.792	400.69
448.013	418.69
448.234	406.69
448.455	454.69
448.675	532.69
448.896	593.69
449.117	502.69
449.338	496.69
449.559	563.69
449.779	616.69
450	534.69
450.221	415.69
450.442	397.69
450.662	400.69
450.883	411.69
451.104	424.69
451.324	384.69
451.545	377.69
451.766	359.69
451.986	359.69
452.207	342.69
452.428	360.69
452.648	350.69
452.869	361.69
453.089	362.69
453.31	365.69
453.53	370.69
453.751	337.69
453.971	358.69
454.192	376.69
454.412	350.69
454.633	374.69
454.853	366.69
455.073	380.69
455.294	383.69
455.514	414.69
455.734	414.69
455.955	352.69
456.175	348.69
456.395	333.69
456.616	334.69
456.836	347.69
457.056	348.69
457.276	362.69
457.497	348.69
457.717	351.69
457.937	357.69
458.157	339.69
458.377	364.69
458.598	378.69
458.818	398.69
459.038	444.69
459.258	460.69
459.478	417.69
459.698	399.69
459.918	376.69
460.138	408.69
460.358	393.69
460.578	386.69
460.798	409.69
461.018	412.69
461.238	400.69
461.458	399.69
461.678	393.69
461.898	376.69
462.118	391.69
462.338	396.69
462.558	420.69
462.777	418.69
462.997	426.69
463.217	436.69
463.437	426.69
463.657	406.69
463.876	436.69
464.096	444.69
464.316	428.69
464.536	421.69
464.755	408.69
464.975	412.69
465.195	431.69
465.414	465.69
465.634	425.69
465.854	389.69
466.073	397.69
466.293	394.69
466.512	376.69
466.732	376.69
466.951	349.69
467.171	364.69
467.391	378.69
467.61	388.69
467.829	383.69
468.049	369.69
468.268	357.69
468.488	360.69
468.707	364.69
468.927	367.69
469.146	363.69
469.365	356.69
469.585	368.69
469.804	371.69
470.023	374.69
470.243	380.69
470.462	375.69
470.681	386.69
470.901	381.69
471.12	378.69
471.339	365.69
471.558	383.69
471.777	369.69
471.997	366.69
472.216	369.69
472.435	409.69
472.654	369.69
472.873	352.69
473.092	393.69
473.311	364.69
473.53	386.69
473.749	385.69
473.968	418.69
474.187	466.69
474.406	468.69
474.625	399.69
474.844	398.69
475.063	369.69
475.282	397.69
475.501	399.69
475.72	377.69
475.939	386.69
476.158	378.69
476.377	407.69
476.596	363.69
476.814	416.69
477.033	393.69
477.252	406.69
477.471	413.69
477.69	422.69
477.908	423.69
478.127	412.69
478.346	398.69
478.564	417.69
478.783	411.69
479.002	428.69
479.22	434.69
479.439	446.69
479.658	429.69
479.876	443.69
480.095	437.69
480.313	445.69
480.532	473.69
480.751	468.69
480.969	469.69
481.188	482.69
481.406	507.69
481.624	472.69
481.843	440.69
482.061	433.69
482.28	434.69
482.498	435.69
482.717	435.69
482.935	434.69
483.153	446.69
483.372	430.69
483.59	433.69
483.808	440.69
484.027	444.69
484.245	450.69
484.463	443.69
484.681	448.69
484.9	441.69
485.118	472.69
485.336	465.69
485.554	433.69
485.772	416.69
485.99	442.69
486.209	445.69
486.427	455.69
486.645	448.69
486.863	451.69
487.081	446.69
487.299	445.69
487.517	458.69
487.735	476.69
487.953	465.69
488.171	485.69
488.389	448.69
488.607	468.69
488.825	461.69
489.043	471.69
489.261	466.69
489.479	473.69
489.696	462.69
489.914	459.69
490.132	469.69
490.35	484.69
490.568	473.69
490.786	477.69
491.003	488.69
491.221	514.69
491.439	502.69
491.657	486.69
491.874	507.69
492.092	502.69
492.31	513.69
492.527	524.69
492.745	533.69
492.963	504.69
493.18	526.69
493.398	534.69
493.615	527.69
493.833	545.69
494.05	520.69
494.268	531.69
494.485	526.69
494.703	518.69
494.92	520.69
495.138	526.69
495.355	518.69
495.573	529.69
495.79	552.69
496.008	556.69
496.225	538.69
496.442	513.69
496.66	542.69
496.877	549.69
497.094	513.69
497.312	541.69
497.529	577.69
497.746	574.69
497.963	577.69
498.181	573.69
498.398	599.69
498.615	612.69
498.832	610.69
499.049	617.69
499.267	644.69
499.484	655.69
499.701	692.69
499.918	693.69
500.135	737.69
500.352	774.69
500.569	806.69
500.786	806.69
501.003	774.69
501.22	742.69
501.437	696.69
501.654	683.69
501.871	684.69
