Data from 1960PennyLincolnUp.LampE6.200Scan.07172019.P1_HRD10591_13-05-48-002.txt Node
Date: Thu Jul 18 13:05:48 EDT 2019
User: cochatt
Spectrometer: HR+D1059
Trigger mode: 1
Integration Time (sec): 1.000000E-1
Scans to average: 1
Electric dark correction enabled: true
Nonlinearity correction enabled: false
Boxcar width: 0
XAxis mode: Wavelengths
Number of Pixels in Spectrum: 2048
>>>>>Begin Spectral Data<<<<<
223.165	-12.44
223.4	-12.44
223.635	-12.44
223.869	-17.44
224.104	-12.44
224.338	-15.44
224.573	-13.44
224.808	-15.44
225.042	-12.44
225.277	-16.44
225.511	-0.44
225.746	-8.44
225.98	20.56
226.215	17.56
226.449	23.56
226.683	17.56
226.918	12.56
227.152	32.56
227.387	25.56
227.621	15.56
227.856	45.56
228.09	51.56
228.324	47.56
228.559	56.56
228.793	66.56
229.027	90.56
229.262	94.56
229.496	95.56
229.73	106.56
229.964	135.56
230.199	99.56
230.433	106.56
230.667	106.56
230.901	90.56
231.136	96.56
231.37	94.56
231.604	111.56
231.838	106.56
232.072	108.56
232.306	108.56
232.541	116.56
232.775	106.56
233.009	112.56
233.243	106.56
233.477	108.56
233.711	107.56
233.945	105.56
234.179	109.56
234.413	112.56
234.647	113.56
234.881	107.56
235.115	100.56
235.349	115.56
235.583	105.56
235.817	111.56
236.051	105.56
236.285	116.56
236.519	124.56
236.753	119.56
236.987	129.56
237.221	148.56
237.455	160.56
237.689	148.56
237.922	141.56
238.156	117.56
238.39	122.56
238.624	128.56
238.858	120.56
239.091	118.56
239.325	119.56
239.559	109.56
239.793	132.56
240.027	124.56
240.26	125.56
240.494	134.56
240.728	114.56
240.961	127.56
241.195	134.56
241.429	119.56
241.662	133.56
241.896	120.56
242.13	132.56
242.363	118.56
242.597	117.56
242.83	125.56
243.064	114.56
243.298	126.56
243.531	136.56
243.765	134.56
243.998	133.56
244.232	128.56
244.465	139.56
244.699	138.56
244.932	140.56
245.166	131.56
245.399	137.56
245.633	135.56
245.866	143.56
246.099	130.56
246.333	142.56
246.566	136.56
246.8	149.56
247.033	148.56
247.266	138.56
247.5	139.56
247.733	140.56
247.966	160.56
248.2	158.56
248.433	141.56
248.666	167.56
248.899	174.56
249.133	168.56
249.366	170.56
249.599	174.56
249.832	156.56
250.066	161.56
250.299	164.56
250.532	177.56
250.765	192.56
250.998	219.56
251.231	186.56
251.465	176.56
251.698	165.56
251.931	170.56
252.164	177.56
252.397	178.56
252.63	175.56
252.863	187.56
253.096	183.56
253.329	196.56
253.562	192.56
253.795	188.56
254.028	204.56
254.261	183.56
254.494	214.56
254.727	201.56
254.96	249.56
255.193	230.56
255.426	206.56
255.659	188.56
255.892	184.56
256.124	213.56
256.357	213.56
256.59	199.56
256.823	189.56
257.056	183.56
257.289	179.56
257.521	180.56
257.754	178.56
257.987	183.56
258.22	193.56
258.452	191.56
258.685	162.56
258.918	186.56
259.151	187.56
259.383	203.56
259.616	197.56
259.849	197.56
260.081	211.56
260.314	215.56
260.547	240.56
260.779	226.56
261.012	206.56
261.244	209.56
261.477	203.56
261.71	190.56
261.942	198.56
262.175	180.56
262.407	218.56
262.64	204.56
262.872	190.56
263.105	207.56
263.337	208.56
263.57	223.56
263.802	203.56
264.035	200.56
264.267	191.56
264.499	206.56
264.732	208.56
264.964	204.56
265.197	211.56
265.429	195.56
265.661	201.56
265.894	207.56
266.126	182.56
266.358	204.56
266.591	218.56
266.823	227.56
267.055	219.56
267.287	236.56
267.52	220.56
267.752	222.56
267.984	227.56
268.216	206.56
268.448	228.56
268.681	227.56
268.913	231.56
269.145	238.56
269.377	247.56
269.609	246.56
269.841	219.56
270.073	232.56
270.306	262.56
270.538	287.56
270.77	276.56
271.002	251.56
271.234	247.56
271.466	244.56
271.698	268.56
271.93	274.56
272.162	292.56
272.394	279.56
272.626	281.56
272.858	258.56
273.09	264.56
273.322	249.56
273.553	225.56
273.785	244.56
274.017	255.56
274.249	254.56
274.481	244.56
274.713	265.56
274.945	249.56
275.176	251.56
275.408	261.56
275.64	262.56
275.872	259.56
276.104	249.56
276.335	263.56
276.567	247.56
276.799	251.56
277.031	292.56
277.262	289.56
277.494	290.56
277.726	282.56
277.957	272.56
278.189	258.56
278.421	269.56
278.652	261.56
278.884	253.56
279.115	251.56
279.347	263.56
279.579	246.56
279.81	266.56
280.042	263.56
280.273	264.56
280.505	265.56
280.736	267.56
280.968	256.56
281.199	272.56
281.431	271.56
281.662	270.56
281.894	265.56
282.125	261.56
282.356	303.56
282.588	293.56
282.819	268.56
283.051	294.56
283.282	274.56
283.513	276.56
283.745	279.56
283.976	284.56
284.207	292.56
284.439	281.56
284.67	273.56
284.901	288.56
285.132	301.56
285.364	290.56
285.595	294.56
285.826	283.56
286.057	292.56
286.288	288.56
286.52	296.56
286.751	273.56
286.982	283.56
287.213	290.56
287.444	299.56
287.675	278.56
287.906	294.56
288.138	318.56
288.369	316.56
288.6	293.56
288.831	332.56
289.062	298.56
289.293	301.56
289.524	302.56
289.755	304.56
289.986	288.56
290.217	285.56
290.448	289.56
290.679	304.56
290.91	299.56
291.141	294.56
291.371	284.56
291.602	298.56
291.833	290.56
292.064	309.56
292.295	299.56
292.526	317.56
292.757	303.56
292.987	307.56
293.218	314.56
293.449	309.56
293.68	300.56
293.91	300.56
294.141	294.56
294.372	302.56
294.603	309.56
294.833	302.56
295.064	293.56
295.295	291.56
295.525	310.56
295.756	313.56
295.987	313.56
296.217	341.56
296.448	335.56
296.679	307.56
296.909	313.56
297.14	320.56
297.37	302.56
297.601	312.56
297.831	311.56
298.062	324.56
298.292	318.56
298.523	321.56
298.753	301.56
298.984	323.56
299.214	321.56
299.445	303.56
299.675	305.56
299.905	341.56
300.136	329.56
300.366	333.56
300.597	326.56
300.827	349.56
301.057	338.56
301.288	346.56
301.518	333.56
301.748	328.56
301.979	362.56
302.209	354.56
302.439	347.56
302.669	346.56
302.9	348.56
303.13	330.56
303.36	326.56
303.59	339.56
303.82	342.56
304.051	351.56
304.281	324.56
304.511	332.56
304.741	332.56
304.971	356.56
305.201	358.56
305.431	336.56
305.661	314.56
305.891	326.56
306.121	347.56
306.352	322.56
306.582	329.56
306.812	325.56
307.042	338.56
307.272	350.56
307.502	333.56
307.731	333.56
307.961	337.56
308.191	322.56
308.421	353.56
308.651	348.56
308.881	340.56
309.111	340.56
309.341	354.56
309.571	352.56
309.8	333.56
310.03	370.56
310.26	366.56
310.49	359.56
310.72	352.56
310.949	344.56
311.179	366.56
311.409	340.56
311.639	349.56
311.868	354.56
312.098	362.56
312.328	372.56
312.557	379.56
312.787	383.56
313.017	392.56
313.246	358.56
313.476	359.56
313.706	371.56
313.935	376.56
314.165	379.56
314.394	385.56
314.624	385.56
314.853	392.56
315.083	367.56
315.312	366.56
315.542	376.56
315.771	379.56
316.001	389.56
316.23	383.56
316.46	364.56
316.689	379.56
316.919	383.56
317.148	384.56
317.377	380.56
317.607	378.56
317.836	369.56
318.065	387.56
318.295	370.56
318.524	395.56
318.753	352.56
318.983	361.56
319.212	361.56
319.441	369.56
319.67	393.56
319.9	389.56
320.129	386.56
320.358	402.56
320.587	387.56
320.816	389.56
321.046	379.56
321.275	380.56
321.504	381.56
321.733	398.56
321.962	387.56
322.191	395.56
322.42	403.56
322.649	381.56
322.878	412.56
323.108	415.56
323.337	424.56
323.566	419.56
323.795	453.56
324.024	470.56
324.253	540.56
324.482	694.56
324.71	990.56
324.939	1308.56
325.168	1107.56
325.397	612.56
325.626	480.56
325.855	466.56
326.084	442.56
326.313	438.56
326.542	450.56
326.77	466.56
326.999	515.56
327.228	680.56
327.457	900.56
327.686	1068.56
327.914	698.56
328.143	530.56
328.372	500.56
328.6	464.56
328.829	474.56
329.058	480.56
329.287	482.56
329.515	466.56
329.744	462.56
329.972	463.56
330.201	466.56
330.43	512.56
330.658	522.56
330.887	512.56
331.115	523.56
331.344	487.56
331.572	456.56
331.801	465.56
332.03	464.56
332.258	458.56
332.486	448.56
332.715	455.56
332.943	467.56
333.172	486.56
333.4	518.56
333.629	489.56
333.857	520.56
334.085	515.56
334.314	534.56
334.542	542.56
334.771	562.56
334.999	506.56
335.227	518.56
335.455	485.56
335.684	471.56
335.912	474.56
336.14	484.56
336.369	484.56
336.597	477.56
336.825	495.56
337.053	463.56
337.281	468.56
337.51	433.56
337.738	452.56
337.966	450.56
338.194	451.56
338.422	452.56
338.65	452.56
338.878	434.56
339.106	440.56
339.334	439.56
339.562	450.56
339.79	430.56
340.018	435.56
340.246	429.56
340.474	453.56
340.702	442.56
340.93	430.56
341.158	445.56
341.386	430.56
341.614	449.56
341.842	437.56
342.07	425.56
342.298	419.56
342.526	438.56
342.754	407.56
342.981	424.56
343.209	443.56
343.437	440.56
343.665	467.56
343.893	492.56
344.12	471.56
344.348	461.56
344.576	469.56
344.804	461.56
345.031	463.56
345.259	432.56
345.487	436.56
345.714	419.56
345.942	405.56
346.17	421.56
346.397	431.56
346.625	406.56
346.853	392.56
347.08	410.56
347.308	423.56
347.535	424.56
347.763	420.56
347.99	402.56
348.218	405.56
348.445	404.56
348.673	413.56
348.9	449.56
349.128	403.56
349.355	408.56
349.583	406.56
349.81	391.56
350.037	434.56
350.265	414.56
350.492	410.56
350.72	398.56
350.947	403.56
351.174	401.56
351.402	410.56
351.629	400.56
351.856	411.56
352.083	414.56
352.311	415.56
352.538	408.56
352.765	426.56
352.992	422.56
353.22	408.56
353.447	402.56
353.674	408.56
353.901	414.56
354.128	411.56
354.355	384.56
354.583	397.56
354.81	397.56
355.037	391.56
355.264	405.56
355.491	395.56
355.718	398.56
355.945	403.56
356.172	395.56
356.399	401.56
356.626	393.56
356.853	386.56
357.08	403.56
357.307	389.56
357.534	379.56
357.761	395.56
357.988	405.56
358.215	382.56
358.441	386.56
358.668	394.56
358.895	415.56
359.122	412.56
359.349	406.56
359.576	419.56
359.802	422.56
360.029	436.56
360.256	438.56
360.483	433.56
360.709	412.56
360.936	426.56
361.163	398.56
361.39	432.56
361.616	410.56
361.843	409.56
362.07	420.56
362.296	407.56
362.523	406.56
362.749	416.56
362.976	412.56
363.203	408.56
363.429	414.56
363.656	422.56
363.882	408.56
364.109	379.56
364.335	406.56
364.562	406.56
364.788	406.56
365.015	387.56
365.241	383.56
365.468	384.56
365.694	421.56
365.92	401.56
366.147	404.56
366.373	397.56
366.599	389.56
366.826	403.56
367.052	408.56
367.278	409.56
367.505	382.56
367.731	389.56
367.957	375.56
368.184	387.56
368.41	406.56
368.636	408.56
368.862	415.56
369.089	423.56
369.315	401.56
369.541	387.56
369.767	418.56
369.993	424.56
370.219	407.56
370.445	408.56
370.672	405.56
370.898	412.56
371.124	422.56
371.35	435.56
371.576	413.56
371.802	447.56
372.028	414.56
372.254	418.56
372.48	416.56
372.706	434.56
372.932	424.56
373.158	426.56
373.384	444.56
373.61	423.56
373.835	433.56
374.061	425.56
374.287	430.56
374.513	422.56
374.739	428.56
374.965	433.56
375.191	440.56
375.416	443.56
375.642	441.56
375.868	444.56
376.094	427.56
376.319	432.56
376.545	433.56
376.771	412.56
376.997	435.56
377.222	413.56
377.448	420.56
377.674	436.56
377.899	402.56
378.125	405.56
378.35	418.56
378.576	418.56
378.802	430.56
379.027	414.56
379.253	406.56
379.478	416.56
379.704	397.56
379.929	417.56
380.155	434.56
380.38	414.56
380.606	417.56
380.831	402.56
381.057	409.56
381.282	404.56
381.507	407.56
381.733	418.56
381.958	421.56
382.184	445.56
382.409	432.56
382.634	437.56
382.86	434.56
383.085	440.56
383.31	424.56
383.535	436.56
383.761	435.56
383.986	453.56
384.211	459.56
384.436	465.56
384.662	463.56
384.887	472.56
385.112	481.56
385.337	478.56
385.562	487.56
385.787	480.56
386.013	474.56
386.238	492.56
386.463	494.56
386.688	479.56
386.913	471.56
387.138	485.56
387.363	481.56
387.588	469.56
387.813	490.56
388.038	470.56
388.263	477.56
388.488	487.56
388.713	476.56
388.938	474.56
389.163	471.56
389.387	479.56
389.612	485.56
389.837	499.56
390.062	469.56
390.287	491.56
390.512	472.56
390.736	492.56
390.961	473.56
391.186	481.56
391.411	478.56
391.636	519.56
391.86	497.56
392.085	504.56
392.31	511.56
392.534	517.56
392.759	510.56
392.984	499.56
393.208	501.56
393.433	503.56
393.658	499.56
393.882	478.56
394.107	478.56
394.331	494.56
394.556	501.56
394.78	497.56
395.005	496.56
395.229	504.56
395.454	530.56
395.678	514.56
395.903	528.56
396.127	529.56
396.352	500.56
396.576	517.56
396.801	486.56
397.025	528.56
397.249	499.56
397.474	488.56
397.698	509.56
397.922	514.56
398.147	556.56
398.371	544.56
398.595	526.56
398.82	550.56
399.044	594.56
399.268	641.56
399.492	695.56
399.717	765.56
399.941	786.56
400.165	735.56
400.389	685.56
400.613	619.56
400.837	586.56
401.062	580.56
401.286	569.56
401.51	568.56
401.734	535.56
401.958	572.56
402.182	570.56
402.406	588.56
402.63	580.56
402.854	580.56
403.078	585.56
403.302	609.56
403.526	622.56
403.75	619.56
403.974	646.56
404.198	591.56
404.422	628.56
404.645	647.56
404.869	610.56
405.093	660.56
405.317	693.56
405.541	703.56
405.765	667.56
405.988	630.56
406.212	611.56
406.436	618.56
406.66	640.56
406.883	639.56
407.107	661.56
407.331	688.56
407.555	738.56
407.778	748.56
408.002	713.56
408.226	652.56
408.449	663.56
408.673	676.56
408.896	650.56
409.12	662.56
409.344	634.56
409.567	594.56
409.791	606.56
410.014	612.56
410.238	613.56
410.461	597.56
410.685	581.56
410.908	608.56
411.132	628.56
411.355	621.56
411.578	624.56
411.802	597.56
412.025	586.56
412.249	601.56
412.472	605.56
412.695	624.56
412.919	609.56
413.142	598.56
413.365	560.56
413.589	538.56
413.812	555.56
414.035	558.56
414.258	563.56
414.482	550.56
414.705	565.56
414.928	572.56
415.151	582.56
415.374	570.56
415.597	582.56
415.821	559.56
416.044	536.56
416.267	565.56
416.49	553.56
416.713	549.56
416.936	567.56
417.159	551.56
417.382	545.56
417.605	546.56
417.828	568.56
418.051	574.56
418.274	554.56
418.497	557.56
418.72	572.56
418.943	560.56
419.166	583.56
419.389	632.56
419.611	625.56
419.834	600.56
420.057	592.56
420.28	584.56
420.503	570.56
420.726	561.56
420.948	562.56
421.171	610.56
421.394	585.56
421.617	588.56
421.839	587.56
422.062	583.56
422.285	593.56
422.507	624.56
422.73	649.56
422.953	654.56
423.175	596.56
423.398	610.56
423.621	588.56
423.843	608.56
424.066	585.56
424.288	617.56
424.511	615.56
424.733	637.56
424.956	679.56
425.178	669.56
425.401	661.56
425.623	675.56
425.846	587.56
426.068	576.56
426.291	554.56
426.513	558.56
426.735	555.56
426.958	589.56
427.18	635.56
427.402	728.56
427.625	766.56
427.847	666.56
428.069	626.56
428.292	557.56
428.514	530.56
428.736	526.56
428.958	502.56
429.181	509.56
429.403	509.56
429.625	515.56
429.847	549.56
430.069	581.56
430.292	579.56
430.514	523.56
430.736	530.56
430.958	514.56
431.18	510.56
431.402	493.56
431.624	503.56
431.846	520.56
432.068	518.56
432.29	514.56
432.512	485.56
432.734	538.56
432.956	519.56
433.178	521.56
433.4	535.56
433.622	535.56
433.844	525.56
434.066	512.56
434.287	510.56
434.509	545.56
434.731	540.56
434.953	539.56
435.175	578.56
435.397	596.56
435.618	580.56
435.84	598.56
436.062	619.56
436.284	678.56
436.505	589.56
436.727	543.56
436.949	538.56
437.17	523.56
437.392	516.56
437.614	499.56
437.835	531.56
438.057	592.56
438.278	638.56
438.5	665.56
438.721	704.56
438.943	656.56
439.165	553.56
439.386	554.56
439.608	578.56
439.829	555.56
440.05	564.56
440.272	627.56
440.493	574.56
440.715	536.56
440.936	530.56
441.158	533.56
441.379	535.56
441.6	552.56
441.822	588.56
442.043	599.56
442.264	664.56
442.486	684.56
442.707	594.56
442.928	564.56
443.149	571.56
443.371	586.56
443.592	616.56
443.813	701.56
444.034	700.56
444.255	642.56
444.476	600.56
444.698	594.56
444.919	620.56
445.14	732.56
445.361	654.56
445.582	594.56
445.803	626.56
446.024	683.56
446.245	686.56
446.466	639.56
446.687	535.56
446.908	535.56
447.129	527.56
447.35	508.56
447.571	499.56
447.792	498.56
448.013	498.56
448.234	501.56
448.455	556.56
448.675	596.56
448.896	674.56
449.117	584.56
449.338	589.56
449.559	624.56
449.779	689.56
450	576.56
450.221	525.56
450.442	495.56
450.662	486.56
450.883	486.56
451.104	510.56
451.324	471.56
451.545	485.56
451.766	483.56
451.986	445.56
452.207	453.56
452.428	459.56
452.648	455.56
452.869	443.56
453.089	466.56
453.31	484.56
453.53	447.56
453.751	477.56
453.971	451.56
454.192	483.56
454.412	451.56
454.633	443.56
454.853	430.56
455.073	453.56
455.294	482.56
455.514	510.56
455.734	475.56
455.955	428.56
456.175	431.56
456.395	414.56
456.616	439.56
456.836	445.56
457.056	446.56
457.276	441.56
457.497	454.56
457.717	440.56
457.937	438.56
458.157	437.56
458.377	450.56
458.598	458.56
458.818	490.56
459.038	559.56
459.258	582.56
459.478	530.56
459.698	515.56
459.918	522.56
460.138	519.56
460.358	529.56
460.578	554.56
460.798	549.56
461.018	540.56
461.238	531.56
461.458	519.56
461.678	541.56
461.898	524.56
462.118	533.56
462.338	553.56
462.558	574.56
462.777	582.56
462.997	641.56
463.217	640.56
463.437	647.56
463.657	612.56
463.876	605.56
464.096	582.56
464.316	591.56
464.536	604.56
464.755	593.56
464.975	583.56
465.195	582.56
465.414	586.56
465.634	540.56
465.854	523.56
466.073	488.56
466.293	482.56
466.512	495.56
466.732	463.56
466.951	499.56
467.171	486.56
467.391	504.56
467.61	471.56
467.829	476.56
468.049	475.56
468.268	470.56
468.488	454.56
468.707	462.56
468.927	461.56
469.146	458.56
469.365	474.56
469.585	456.56
469.804	486.56
470.023	494.56
470.243	486.56
470.462	480.56
470.681	492.56
470.901	503.56
471.12	483.56
471.339	492.56
471.558	474.56
471.777	505.56
471.997	484.56
472.216	485.56
472.435	507.56
472.654	488.56
472.873	476.56
473.092	452.56
473.311	466.56
473.53	454.56
473.749	460.56
473.968	492.56
474.187	558.56
474.406	543.56
474.625	492.56
474.844	471.56
475.063	464.56
475.282	455.56
475.501	459.56
475.72	462.56
475.939	478.56
476.158	479.56
476.377	484.56
476.596	494.56
476.814	507.56
477.033	487.56
477.252	490.56
477.471	519.56
477.69	510.56
477.908	535.56
478.127	506.56
478.346	527.56
478.564	546.56
478.783	554.56
479.002	539.56
479.22	558.56
479.439	558.56
479.658	580.56
479.876	571.56
480.095	566.56
480.313	614.56
480.532	613.56
480.751	599.56
480.969	589.56
481.188	642.56
481.406	638.56
481.624	587.56
481.843	565.56
482.061	524.56
482.28	546.56
482.498	538.56
482.717	526.56
482.935	528.56
483.153	555.56
483.372	527.56
483.59	547.56
483.808	543.56
484.027	559.56
484.245	539.56
484.463	547.56
484.681	559.56
484.9	554.56
485.118	549.56
485.336	560.56
485.554	556.56
485.772	568.56
485.99	571.56
486.209	564.56
486.427	572.56
486.645	559.56
486.863	596.56
487.081	605.56
487.299	566.56
487.517	574.56
487.735	572.56
487.953	582.56
488.171	581.56
488.389	586.56
488.607	561.56
488.825	575.56
489.043	565.56
489.261	589.56
489.479	573.56
489.696	564.56
489.914	586.56
490.132	584.56
490.35	609.56
490.568	579.56
490.786	613.56
491.003	622.56
491.221	610.56
491.439	599.56
491.657	642.56
491.874	656.56
492.092	636.56
492.31	645.56
492.527	661.56
492.745	652.56
492.963	659.56
493.18	660.56
493.398	654.56
493.615	687.56
493.833	655.56
494.05	654.56
494.268	667.56
494.485	652.56
494.703	655.56
494.92	646.56
495.138	656.56
495.355	661.56
495.573	678.56
495.79	653.56
496.008	632.56
496.225	636.56
496.442	676.56
496.66	670.56
496.877	669.56
497.094	676.56
497.312	680.56
497.529	692.56
497.746	701.56
497.963	709.56
498.181	747.56
498.398	772.56
498.615	778.56
498.832	814.56
499.049	846.56
499.267	880.56
499.484	939.56
499.701	1027.56
499.918	1075.56
500.135	1141.56
500.352	1264.56
500.569	1278.56
500.786	1280.56
501.003	1215.56
501.22	1170.56
501.437	1087.56
501.654	1010.56
501.871	924.56
