Data from 1960PennyLincolnUp.LampE5.5.200Scan.07172019.P1.ChangedAngle_HRD10591_13-15-45-822.txt Node
Date: Thu Jul 18 13:15:45 EDT 2019
User: cochatt
Spectrometer: HR+D1059
Trigger mode: 1
Integration Time (sec): 1.000000E-1
Scans to average: 1
Electric dark correction enabled: true
Nonlinearity correction enabled: false
Boxcar width: 0
XAxis mode: Wavelengths
Number of Pixels in Spectrum: 2048
>>>>>Begin Spectral Data<<<<<
223.165	-23.75
223.4	-23.75
223.635	-23.75
223.869	-11.75
224.104	-14.75
224.338	-21.75
224.573	-4.75
224.808	4.25
225.042	3.25
225.277	-3.75
225.511	2.25
225.746	0.25
225.98	-2.75
226.215	12.25
226.449	8.25
226.683	12.25
226.918	12.25
227.152	28.25
227.387	26.25
227.621	37.25
227.856	45.25
228.09	48.25
228.324	39.25
228.559	53.25
228.793	74.25
229.027	87.25
229.262	87.25
229.496	99.25
229.73	104.25
229.964	112.25
230.199	114.25
230.433	97.25
230.667	94.25
230.901	105.25
231.136	106.25
231.37	91.25
231.604	118.25
231.838	105.25
232.072	131.25
232.306	104.25
232.541	102.25
232.775	103.25
233.009	113.25
233.243	112.25
233.477	104.25
233.711	108.25
233.945	102.25
234.179	113.25
234.413	125.25
234.647	97.25
234.881	115.25
235.115	102.25
235.349	111.25
235.583	99.25
235.817	116.25
236.051	109.25
236.285	110.25
236.519	125.25
236.753	113.25
236.987	108.25
237.221	172.25
237.455	170.25
237.689	162.25
237.922	119.25
238.156	126.25
238.39	124.25
238.624	122.25
238.858	126.25
239.091	101.25
239.325	99.25
239.559	112.25
239.793	122.25
240.027	136.25
240.26	120.25
240.494	126.25
240.728	138.25
240.961	151.25
241.195	127.25
241.429	128.25
241.662	130.25
241.896	115.25
242.13	112.25
242.363	122.25
242.597	130.25
242.83	123.25
243.064	122.25
243.298	112.25
243.531	118.25
243.765	114.25
243.998	124.25
244.232	111.25
244.465	115.25
244.699	146.25
244.932	137.25
245.166	128.25
245.399	124.25
245.633	136.25
245.866	142.25
246.099	131.25
246.333	151.25
246.566	135.25
246.8	146.25
247.033	151.25
247.266	145.25
247.5	138.25
247.733	152.25
247.966	150.25
248.2	151.25
248.433	162.25
248.666	168.25
248.899	168.25
249.133	169.25
249.366	168.25
249.599	177.25
249.832	164.25
250.066	160.25
250.299	165.25
250.532	191.25
250.765	189.25
250.998	180.25
251.231	194.25
251.465	190.25
251.698	180.25
251.931	186.25
252.164	187.25
252.397	182.25
252.63	180.25
252.863	184.25
253.096	185.25
253.329	196.25
253.562	204.25
253.795	208.25
254.028	196.25
254.261	191.25
254.494	203.25
254.727	222.25
254.96	251.25
255.193	230.25
255.426	197.25
255.659	205.25
255.892	210.25
256.124	228.25
256.357	226.25
256.59	189.25
256.823	195.25
257.056	219.25
257.289	201.25
257.521	191.25
257.754	206.25
257.987	196.25
258.22	194.25
258.452	195.25
258.685	195.25
258.918	188.25
259.151	202.25
259.383	210.25
259.616	207.25
259.849	188.25
260.081	208.25
260.314	229.25
260.547	248.25
260.779	229.25
261.012	221.25
261.244	210.25
261.477	235.25
261.71	219.25
261.942	214.25
262.175	205.25
262.407	218.25
262.64	206.25
262.872	193.25
263.105	185.25
263.337	213.25
263.57	196.25
263.802	208.25
264.035	212.25
264.267	198.25
264.499	198.25
264.732	209.25
264.964	199.25
265.197	215.25
265.429	180.25
265.661	209.25
265.894	210.25
266.126	219.25
266.358	214.25
266.591	196.25
266.823	204.25
267.055	221.25
267.287	218.25
267.52	230.25
267.752	217.25
267.984	212.25
268.216	230.25
268.448	217.25
268.681	237.25
268.913	218.25
269.145	260.25
269.377	260.25
269.609	260.25
269.841	253.25
270.073	240.25
270.306	270.25
270.538	297.25
270.77	298.25
271.002	274.25
271.234	269.25
271.466	262.25
271.698	282.25
271.93	283.25
272.162	293.25
272.394	272.25
272.626	270.25
272.858	273.25
273.09	274.25
273.322	261.25
273.553	268.25
273.785	249.25
274.017	249.25
274.249	262.25
274.481	254.25
274.713	249.25
274.945	262.25
275.176	262.25
275.408	261.25
275.64	258.25
275.872	263.25
276.104	256.25
276.335	252.25
276.567	258.25
276.799	279.25
277.031	285.25
277.262	294.25
277.494	284.25
277.726	286.25
277.957	284.25
278.189	260.25
278.421	265.25
278.652	266.25
278.884	257.25
279.115	270.25
279.347	270.25
279.579	274.25
279.81	265.25
280.042	280.25
280.273	286.25
280.505	254.25
280.736	276.25
280.968	262.25
281.199	268.25
281.431	273.25
281.662	262.25
281.894	281.25
282.125	264.25
282.356	273.25
282.588	272.25
282.819	290.25
283.051	265.25
283.282	278.25
283.513	275.25
283.745	265.25
283.976	282.25
284.207	279.25
284.439	277.25
284.67	282.25
284.901	278.25
285.132	276.25
285.364	281.25
285.595	282.25
285.826	271.25
286.057	275.25
286.288	272.25
286.52	276.25
286.751	296.25
286.982	288.25
287.213	275.25
287.444	280.25
287.675	272.25
287.906	288.25
288.138	291.25
288.369	280.25
288.6	284.25
288.831	284.25
289.062	284.25
289.293	285.25
289.524	283.25
289.755	302.25
289.986	285.25
290.217	276.25
290.448	294.25
290.679	276.25
290.91	274.25
291.141	276.25
291.371	291.25
291.602	281.25
291.833	274.25
292.064	288.25
292.295	275.25
292.526	277.25
292.757	299.25
292.987	293.25
293.218	294.25
293.449	309.25
293.68	288.25
293.91	285.25
294.141	288.25
294.372	297.25
294.603	290.25
294.833	281.25
295.064	292.25
295.295	285.25
295.525	296.25
295.756	289.25
295.987	304.25
296.217	330.25
296.448	307.25
296.679	316.25
296.909	276.25
297.14	309.25
297.37	292.25
297.601	303.25
297.831	300.25
298.062	293.25
298.292	282.25
298.523	304.25
298.753	293.25
298.984	314.25
299.214	318.25
299.445	300.25
299.675	313.25
299.905	300.25
300.136	299.25
300.366	301.25
300.597	304.25
300.827	317.25
301.057	314.25
301.288	334.25
301.518	321.25
301.748	317.25
301.979	341.25
302.209	333.25
302.439	349.25
302.669	327.25
302.9	323.25
303.13	316.25
303.36	328.25
303.59	321.25
303.82	327.25
304.051	325.25
304.281	326.25
304.511	306.25
304.741	337.25
304.971	318.25
305.201	320.25
305.431	345.25
305.661	344.25
305.891	317.25
306.121	334.25
306.352	336.25
306.582	325.25
306.812	315.25
307.042	329.25
307.272	317.25
307.502	328.25
307.731	314.25
307.961	328.25
308.191	348.25
308.421	302.25
308.651	342.25
308.881	333.25
309.111	333.25
309.341	325.25
309.571	340.25
309.8	344.25
310.03	332.25
310.26	341.25
310.49	350.25
310.72	362.25
310.949	383.25
311.179	374.25
311.409	363.25
311.639	366.25
311.868	354.25
312.098	354.25
312.328	360.25
312.557	365.25
312.787	378.25
313.017	370.25
313.246	374.25
313.476	367.25
313.706	358.25
313.935	365.25
314.165	363.25
314.394	373.25
314.624	405.25
314.853	362.25
315.083	364.25
315.312	377.25
315.542	342.25
315.771	349.25
316.001	357.25
316.23	358.25
316.46	362.25
316.689	353.25
316.919	377.25
317.148	374.25
317.377	379.25
317.607	357.25
317.836	371.25
318.065	390.25
318.295	381.25
318.524	376.25
318.753	365.25
318.983	364.25
319.212	362.25
319.441	358.25
319.67	379.25
319.9	378.25
320.129	366.25
320.358	380.25
320.587	377.25
320.816	383.25
321.046	382.25
321.275	386.25
321.504	378.25
321.733	393.25
321.962	382.25
322.191	399.25
322.42	419.25
322.649	402.25
322.878	433.25
323.108	418.25
323.337	438.25
323.566	445.25
323.795	465.25
324.024	499.25
324.253	580.25
324.482	826.25
324.71	1182.25
324.939	1540.25
325.168	1350.25
325.397	737.25
325.626	562.25
325.855	478.25
326.084	462.25
326.313	444.25
326.542	454.25
326.77	480.25
326.999	558.25
327.228	741.25
327.457	1009.25
327.686	1174.25
327.914	830.25
328.143	606.25
328.372	524.25
328.6	518.25
328.829	509.25
329.058	487.25
329.287	494.25
329.515	483.25
329.744	475.25
329.972	451.25
330.201	459.25
330.43	499.25
330.658	508.25
330.887	498.25
331.115	522.25
331.344	487.25
331.572	454.25
331.801	460.25
332.03	451.25
332.258	458.25
332.486	452.25
332.715	441.25
332.943	455.25
333.172	437.25
333.4	442.25
333.629	443.25
333.857	465.25
334.085	460.25
334.314	452.25
334.542	501.25
334.771	484.25
334.999	477.25
335.227	444.25
335.455	431.25
335.684	443.25
335.912	425.25
336.14	428.25
336.369	444.25
336.597	422.25
336.825	414.25
337.053	423.25
337.281	433.25
337.51	409.25
337.738	416.25
337.966	403.25
338.194	433.25
338.422	420.25
338.65	402.25
338.878	397.25
339.106	408.25
339.334	408.25
339.562	413.25
339.79	378.25
340.018	417.25
340.246	397.25
340.474	424.25
340.702	395.25
340.93	393.25
341.158	417.25
341.386	400.25
341.614	405.25
341.842	408.25
342.07	400.25
342.298	390.25
342.526	388.25
342.754	413.25
342.981	401.25
343.209	365.25
343.437	394.25
343.665	415.25
343.893	420.25
344.12	397.25
344.348	409.25
344.576	429.25
344.804	428.25
345.031	409.25
345.259	424.25
345.487	411.25
345.714	401.25
345.942	397.25
346.17	408.25
346.397	377.25
346.625	389.25
346.853	392.25
347.08	391.25
347.308	369.25
347.535	390.25
347.763	404.25
347.99	395.25
348.218	383.25
348.445	383.25
348.673	377.25
348.9	398.25
349.128	368.25
349.355	356.25
349.583	379.25
349.81	406.25
350.037	378.25
350.265	371.25
350.492	387.25
350.72	384.25
350.947	372.25
351.174	390.25
351.402	405.25
351.629	387.25
351.856	390.25
352.083	385.25
352.311	367.25
352.538	396.25
352.765	373.25
352.992	358.25
353.22	388.25
353.447	379.25
353.674	372.25
353.901	370.25
354.128	356.25
354.355	363.25
354.583	365.25
354.81	350.25
355.037	354.25
355.264	359.25
355.491	326.25
355.718	372.25
355.945	378.25
356.172	368.25
356.399	362.25
356.626	368.25
356.853	350.25
357.08	360.25
357.307	361.25
357.534	370.25
357.761	359.25
357.988	358.25
358.215	365.25
358.441	358.25
358.668	356.25
358.895	356.25
359.122	354.25
359.349	374.25
359.576	369.25
359.802	374.25
360.029	408.25
360.256	426.25
360.483	380.25
360.709	389.25
360.936	399.25
361.163	379.25
361.39	365.25
361.616	376.25
361.843	396.25
362.07	389.25
362.296	368.25
362.523	380.25
362.749	370.25
362.976	352.25
363.203	362.25
363.429	370.25
363.656	362.25
363.882	355.25
364.109	357.25
364.335	375.25
364.562	366.25
364.788	352.25
365.015	360.25
365.241	358.25
365.468	361.25
365.694	379.25
365.92	364.25
366.147	359.25
366.373	356.25
366.599	376.25
366.826	355.25
367.052	340.25
367.278	358.25
367.505	362.25
367.731	380.25
367.957	365.25
368.184	358.25
368.41	338.25
368.636	382.25
368.862	370.25
369.089	367.25
369.315	360.25
369.541	358.25
369.767	348.25
369.993	363.25
370.219	360.25
370.445	366.25
370.672	354.25
370.898	349.25
371.124	358.25
371.35	371.25
371.576	363.25
371.802	366.25
372.028	360.25
372.254	375.25
372.48	378.25
372.706	372.25
372.932	362.25
373.158	370.25
373.384	346.25
373.61	357.25
373.835	366.25
374.061	366.25
374.287	369.25
374.513	342.25
374.739	372.25
374.965	363.25
375.191	364.25
375.416	382.25
375.642	367.25
375.868	361.25
376.094	357.25
376.319	352.25
376.545	354.25
376.771	355.25
376.997	353.25
377.222	350.25
377.448	338.25
377.674	360.25
377.899	343.25
378.125	343.25
378.35	344.25
378.576	341.25
378.802	330.25
379.027	351.25
379.253	370.25
379.478	363.25
379.704	354.25
379.929	346.25
380.155	362.25
380.38	352.25
380.606	361.25
380.831	368.25
381.057	346.25
381.282	374.25
381.507	365.25
381.733	365.25
381.958	354.25
382.184	347.25
382.409	348.25
382.634	356.25
382.86	365.25
383.085	376.25
383.31	364.25
383.535	366.25
383.761	362.25
383.986	371.25
384.211	392.25
384.436	362.25
384.662	361.25
384.887	386.25
385.112	388.25
385.337	356.25
385.562	380.25
385.787	370.25
386.013	385.25
386.238	380.25
386.463	368.25
386.688	370.25
386.913	387.25
387.138	378.25
387.363	368.25
387.588	380.25
387.813	379.25
388.038	383.25
388.263	375.25
388.488	394.25
388.713	390.25
388.938	390.25
389.163	365.25
389.387	370.25
389.612	375.25
389.837	402.25
390.062	387.25
390.287	364.25
390.512	360.25
390.736	377.25
390.961	376.25
391.186	386.25
391.411	385.25
391.636	392.25
391.86	381.25
392.085	400.25
392.31	367.25
392.534	362.25
392.759	378.25
392.984	374.25
393.208	375.25
393.433	377.25
393.658	389.25
393.882	399.25
394.107	371.25
394.331	388.25
394.556	379.25
394.78	385.25
395.005	383.25
395.229	358.25
395.454	377.25
395.678	411.25
395.903	387.25
396.127	411.25
396.352	422.25
396.576	406.25
396.801	371.25
397.025	391.25
397.249	396.25
397.474	406.25
397.698	424.25
397.922	416.25
398.147	426.25
398.371	418.25
398.595	434.25
398.82	409.25
399.044	423.25
399.268	438.25
399.492	460.25
399.717	470.25
399.941	522.25
400.165	508.25
400.389	498.25
400.613	496.25
400.837	439.25
401.062	436.25
401.286	436.25
401.51	420.25
401.734	408.25
401.958	432.25
402.182	437.25
402.406	429.25
402.63	430.25
402.854	433.25
403.078	438.25
403.302	418.25
403.526	421.25
403.75	434.25
403.974	438.25
404.198	445.25
404.422	449.25
404.645	407.25
404.869	442.25
405.093	458.25
405.317	481.25
405.541	513.25
405.765	484.25
405.988	446.25
406.212	442.25
406.436	494.25
406.66	471.25
406.883	471.25
407.107	470.25
407.331	507.25
407.555	566.25
407.778	544.25
408.002	528.25
408.226	478.25
408.449	487.25
408.673	467.25
408.896	496.25
409.12	501.25
409.344	490.25
409.567	438.25
409.791	439.25
410.014	434.25
410.238	419.25
410.461	426.25
410.685	434.25
410.908	428.25
411.132	432.25
411.355	469.25
411.578	486.25
411.802	450.25
412.025	436.25
412.249	429.25
412.472	444.25
412.695	494.25
412.919	468.25
413.142	428.25
413.365	422.25
413.589	422.25
413.812	412.25
414.035	424.25
414.258	426.25
414.482	427.25
414.705	406.25
414.928	412.25
415.151	411.25
415.374	414.25
415.597	412.25
415.821	410.25
416.044	403.25
416.267	391.25
416.49	425.25
416.713	388.25
416.936	422.25
417.159	421.25
417.382	425.25
417.605	410.25
417.828	395.25
418.051	421.25
418.274	427.25
418.497	412.25
418.72	422.25
418.943	424.25
419.166	427.25
419.389	459.25
419.611	446.25
419.834	441.25
420.057	413.25
420.28	413.25
420.503	429.25
420.726	421.25
420.948	425.25
421.171	430.25
421.394	467.25
421.617	435.25
421.839	410.25
422.062	420.25
422.285	424.25
422.507	453.25
422.73	514.25
422.953	496.25
423.175	466.25
423.398	437.25
423.621	453.25
423.843	452.25
424.066	448.25
424.288	420.25
424.511	438.25
424.733	470.25
424.956	536.25
425.178	520.25
425.401	526.25
425.623	521.25
425.846	464.25
426.068	442.25
426.291	434.25
426.513	433.25
426.735	449.25
426.958	473.25
427.18	546.25
427.402	621.25
427.625	678.25
427.847	582.25
428.069	519.25
428.292	462.25
428.514	432.25
428.736	418.25
428.958	434.25
429.181	413.25
429.403	402.25
429.625	424.25
429.847	432.25
430.069	483.25
430.292	477.25
430.514	406.25
430.736	388.25
430.958	403.25
431.18	401.25
431.402	388.25
431.624	380.25
431.846	386.25
432.068	372.25
432.29	372.25
432.512	405.25
432.734	400.25
432.956	381.25
433.178	402.25
433.4	394.25
433.622	387.25
433.844	390.25
434.066	394.25
434.287	376.25
434.509	399.25
434.731	378.25
434.953	407.25
435.175	414.25
435.397	423.25
435.618	452.25
435.84	460.25
436.062	521.25
436.284	560.25
436.505	491.25
436.727	430.25
436.949	424.25
437.17	413.25
437.392	400.25
437.614	406.25
437.835	440.25
438.057	482.25
438.278	548.25
438.5	577.25
438.721	622.25
438.943	612.25
439.165	493.25
439.386	434.25
439.608	456.25
439.829	429.25
440.05	441.25
440.272	473.25
440.493	457.25
440.715	409.25
440.936	413.25
441.158	404.25
441.379	402.25
441.6	416.25
441.822	445.25
442.043	454.25
442.264	511.25
442.486	544.25
442.707	475.25
442.928	454.25
443.149	442.25
443.371	439.25
443.592	510.25
443.813	563.25
444.034	586.25
444.255	508.25
444.476	458.25
444.698	438.25
444.919	434.25
445.14	566.25
445.361	512.25
445.582	483.25
445.803	510.25
446.024	593.25
446.245	563.25
446.466	522.25
446.687	465.25
446.908	457.25
447.129	418.25
447.35	396.25
447.571	403.25
447.792	404.25
448.013	392.25
448.234	420.25
448.455	446.25
448.675	525.25
448.896	580.25
449.117	499.25
449.338	494.25
449.559	558.25
449.779	634.25
450	523.25
450.221	445.25
450.442	407.25
450.662	393.25
450.883	410.25
451.104	402.25
451.324	402.25
451.545	374.25
451.766	384.25
451.986	363.25
452.207	365.25
452.428	365.25
452.648	365.25
452.869	350.25
453.089	372.25
453.31	363.25
453.53	369.25
453.751	371.25
453.971	349.25
454.192	388.25
454.412	376.25
454.633	378.25
454.853	373.25
455.073	364.25
455.294	389.25
455.514	428.25
455.734	416.25
455.955	364.25
456.175	339.25
456.395	329.25
456.616	341.25
456.836	357.25
457.056	362.25
457.276	334.25
457.497	359.25
457.717	337.25
457.937	360.25
458.157	342.25
458.377	347.25
458.598	370.25
458.818	400.25
459.038	461.25
459.258	450.25
459.478	417.25
459.698	383.25
459.918	370.25
460.138	381.25
460.358	374.25
460.578	398.25
460.798	396.25
461.018	399.25
461.238	400.25
461.458	405.25
461.678	376.25
461.898	412.25
462.118	403.25
462.338	400.25
462.558	397.25
462.777	411.25
462.997	410.25
463.217	429.25
463.437	430.25
463.657	419.25
463.876	433.25
464.096	418.25
464.316	403.25
464.536	438.25
464.755	411.25
464.975	420.25
465.195	432.25
465.414	464.25
465.634	422.25
465.854	395.25
466.073	390.25
466.293	403.25
466.512	386.25
466.732	362.25
466.951	383.25
467.171	380.25
467.391	391.25
467.61	384.25
467.829	372.25
468.049	364.25
468.268	390.25
468.488	372.25
468.707	364.25
468.927	370.25
469.146	367.25
469.365	370.25
469.585	344.25
469.804	394.25
470.023	381.25
470.243	386.25
470.462	371.25
470.681	384.25
470.901	376.25
471.12	388.25
471.339	366.25
471.558	374.25
471.777	359.25
471.997	370.25
472.216	379.25
472.435	398.25
472.654	393.25
472.873	379.25
473.092	378.25
473.311	378.25
473.53	369.25
473.749	371.25
473.968	426.25
474.187	490.25
474.406	495.25
474.625	424.25
474.844	400.25
475.063	383.25
475.282	387.25
475.501	379.25
475.72	387.25
475.939	384.25
476.158	386.25
476.377	398.25
476.596	391.25
476.814	392.25
477.033	392.25
477.252	404.25
477.471	381.25
477.69	399.25
477.908	392.25
478.127	411.25
478.346	411.25
478.564	440.25
478.783	403.25
479.002	437.25
479.22	423.25
479.439	427.25
479.658	465.25
479.876	429.25
480.095	455.25
480.313	478.25
480.532	481.25
480.751	447.25
480.969	441.25
481.188	489.25
481.406	518.25
481.624	454.25
481.843	444.25
482.061	445.25
482.28	424.25
482.498	418.25
482.717	440.25
482.935	429.25
483.153	443.25
483.372	456.25
483.59	435.25
483.808	449.25
484.027	432.25
484.245	444.25
484.463	447.25
484.681	434.25
484.9	442.25
485.118	437.25
485.336	438.25
485.554	453.25
485.772	453.25
485.99	436.25
486.209	470.25
486.427	460.25
486.645	453.25
486.863	466.25
487.081	475.25
487.299	484.25
487.517	454.25
487.735	453.25
487.953	452.25
488.171	453.25
488.389	473.25
488.607	486.25
488.825	462.25
489.043	466.25
489.261	476.25
489.479	486.25
489.696	485.25
489.914	472.25
490.132	473.25
490.35	475.25
490.568	484.25
490.786	484.25
491.003	482.25
491.221	501.25
491.439	494.25
491.657	518.25
491.874	521.25
492.092	515.25
492.31	501.25
492.527	530.25
492.745	525.25
492.963	528.25
493.18	504.25
493.398	537.25
493.615	525.25
493.833	523.25
494.05	534.25
494.268	526.25
494.485	537.25
494.703	522.25
494.92	522.25
495.138	527.25
495.355	534.25
495.573	544.25
495.79	544.25
496.008	550.25
496.225	548.25
496.442	523.25
496.66	551.25
496.877	551.25
497.094	549.25
497.312	548.25
497.529	540.25
497.746	578.25
497.963	588.25
498.181	606.25
498.398	604.25
498.615	607.25
498.832	636.25
499.049	621.25
499.267	662.25
499.484	648.25
499.701	694.25
499.918	700.25
500.135	753.25
500.352	740.25
500.569	794.25
500.786	790.25
501.003	761.25
501.22	746.25
501.437	759.25
501.654	699.25
501.871	700.25
