Data from 1960PennyLincolnUp.LampE5.5.200Scan.07172019.P1.ChangedAngle_HRD10591_13-14-32-821.txt Node
Date: Thu Jul 18 13:14:32 EDT 2019
User: cochatt
Spectrometer: HR+D1059
Trigger mode: 1
Integration Time (sec): 1.000000E-1
Scans to average: 1
Electric dark correction enabled: true
Nonlinearity correction enabled: false
Boxcar width: 0
XAxis mode: Wavelengths
Number of Pixels in Spectrum: 2048
>>>>>Begin Spectral Data<<<<<
223.165	-19.44
223.4	-19.44
223.635	-19.44
223.869	-24.44
224.104	-16.44
224.338	-3.44
224.573	-3.44
224.808	-17.44
225.042	-20.44
225.277	-4.44
225.511	-0.44
225.746	12.56
225.98	0.56
226.215	12.56
226.449	2.56
226.683	17.56
226.918	37.56
227.152	26.56
227.387	23.56
227.621	30.56
227.856	34.56
228.09	61.56
228.324	54.56
228.559	52.56
228.793	61.56
229.027	78.56
229.262	94.56
229.496	111.56
229.73	98.56
229.964	124.56
230.199	112.56
230.433	104.56
230.667	97.56
230.901	92.56
231.136	103.56
231.37	97.56
231.604	103.56
231.838	114.56
232.072	106.56
232.306	84.56
232.541	94.56
232.775	100.56
233.009	99.56
233.243	109.56
233.477	111.56
233.711	125.56
233.945	111.56
234.179	102.56
234.413	108.56
234.647	102.56
234.881	104.56
235.115	117.56
235.349	106.56
235.583	120.56
235.817	106.56
236.051	101.56
236.285	95.56
236.519	107.56
236.753	116.56
236.987	120.56
237.221	128.56
237.455	179.56
237.689	145.56
237.922	130.56
238.156	97.56
238.39	110.56
238.624	116.56
238.858	117.56
239.091	121.56
239.325	116.56
239.559	131.56
239.793	112.56
240.027	116.56
240.26	115.56
240.494	123.56
240.728	130.56
240.961	128.56
241.195	118.56
241.429	128.56
241.662	111.56
241.896	124.56
242.13	122.56
242.363	116.56
242.597	120.56
242.83	121.56
243.064	133.56
243.298	120.56
243.531	122.56
243.765	145.56
243.998	138.56
244.232	129.56
244.465	117.56
244.699	137.56
244.932	121.56
245.166	131.56
245.399	125.56
245.633	133.56
245.866	135.56
246.099	148.56
246.333	146.56
246.566	139.56
246.8	146.56
247.033	142.56
247.266	130.56
247.5	140.56
247.733	139.56
247.966	144.56
248.2	158.56
248.433	141.56
248.666	156.56
248.899	157.56
249.133	178.56
249.366	161.56
249.599	173.56
249.832	164.56
250.066	147.56
250.299	159.56
250.532	174.56
250.765	185.56
250.998	186.56
251.231	200.56
251.465	178.56
251.698	176.56
251.931	178.56
252.164	177.56
252.397	167.56
252.63	160.56
252.863	174.56
253.096	177.56
253.329	184.56
253.562	192.56
253.795	189.56
254.028	199.56
254.261	178.56
254.494	196.56
254.727	205.56
254.96	221.56
255.193	217.56
255.426	210.56
255.659	187.56
255.892	199.56
256.124	204.56
256.357	198.56
256.59	198.56
256.823	197.56
257.056	192.56
257.289	182.56
257.521	181.56
257.754	179.56
257.987	186.56
258.22	197.56
258.452	191.56
258.685	201.56
258.918	195.56
259.151	199.56
259.383	195.56
259.616	193.56
259.849	194.56
260.081	202.56
260.314	208.56
260.547	207.56
260.779	207.56
261.012	208.56
261.244	211.56
261.477	189.56
261.71	202.56
261.942	193.56
262.175	186.56
262.407	194.56
262.64	191.56
262.872	193.56
263.105	186.56
263.337	202.56
263.57	196.56
263.802	199.56
264.035	212.56
264.267	212.56
264.499	183.56
264.732	192.56
264.964	205.56
265.197	200.56
265.429	186.56
265.661	198.56
265.894	187.56
266.126	193.56
266.358	197.56
266.591	205.56
266.823	213.56
267.055	219.56
267.287	221.56
267.52	214.56
267.752	214.56
267.984	204.56
268.216	212.56
268.448	225.56
268.681	199.56
268.913	229.56
269.145	209.56
269.377	229.56
269.609	240.56
269.841	240.56
270.073	243.56
270.306	256.56
270.538	262.56
270.77	264.56
271.002	263.56
271.234	246.56
271.466	262.56
271.698	257.56
271.93	263.56
272.162	259.56
272.394	254.56
272.626	265.56
272.858	232.56
273.09	249.56
273.322	237.56
273.553	229.56
273.785	236.56
274.017	222.56
274.249	234.56
274.481	260.56
274.713	232.56
274.945	263.56
275.176	247.56
275.408	240.56
275.64	248.56
275.872	230.56
276.104	249.56
276.335	241.56
276.567	240.56
276.799	249.56
277.031	262.56
277.262	282.56
277.494	274.56
277.726	264.56
277.957	265.56
278.189	266.56
278.421	258.56
278.652	252.56
278.884	255.56
279.115	258.56
279.347	262.56
279.579	236.56
279.81	261.56
280.042	249.56
280.273	246.56
280.505	264.56
280.736	275.56
280.968	254.56
281.199	252.56
281.431	256.56
281.662	239.56
281.894	268.56
282.125	264.56
282.356	278.56
282.588	265.56
282.819	280.56
283.051	270.56
283.282	259.56
283.513	264.56
283.745	261.56
283.976	263.56
284.207	272.56
284.439	245.56
284.67	266.56
284.901	264.56
285.132	280.56
285.364	293.56
285.595	262.56
285.826	267.56
286.057	278.56
286.288	268.56
286.52	277.56
286.751	279.56
286.982	258.56
287.213	259.56
287.444	265.56
287.675	272.56
287.906	271.56
288.138	281.56
288.369	265.56
288.6	280.56
288.831	279.56
289.062	285.56
289.293	283.56
289.524	277.56
289.755	271.56
289.986	264.56
290.217	275.56
290.448	275.56
290.679	268.56
290.91	252.56
291.141	268.56
291.371	286.56
291.602	289.56
291.833	279.56
292.064	297.56
292.295	276.56
292.526	280.56
292.757	289.56
292.987	282.56
293.218	281.56
293.449	287.56
293.68	278.56
293.91	276.56
294.141	289.56
294.372	280.56
294.603	288.56
294.833	273.56
295.064	281.56
295.295	280.56
295.525	286.56
295.756	284.56
295.987	286.56
296.217	297.56
296.448	297.56
296.679	294.56
296.909	274.56
297.14	298.56
297.37	283.56
297.601	276.56
297.831	282.56
298.062	289.56
298.292	284.56
298.523	295.56
298.753	296.56
298.984	283.56
299.214	301.56
299.445	294.56
299.675	296.56
299.905	320.56
300.136	297.56
300.366	309.56
300.597	308.56
300.827	299.56
301.057	311.56
301.288	321.56
301.518	299.56
301.748	301.56
301.979	321.56
302.209	309.56
302.439	316.56
302.669	317.56
302.9	310.56
303.13	305.56
303.36	316.56
303.59	315.56
303.82	320.56
304.051	326.56
304.281	304.56
304.511	312.56
304.741	308.56
304.971	323.56
305.201	325.56
305.431	316.56
305.661	312.56
305.891	319.56
306.121	304.56
306.352	306.56
306.582	317.56
306.812	317.56
307.042	336.56
307.272	324.56
307.502	318.56
307.731	321.56
307.961	329.56
308.191	324.56
308.421	325.56
308.651	304.56
308.881	306.56
309.111	307.56
309.341	324.56
309.571	328.56
309.8	327.56
310.03	322.56
310.26	344.56
310.49	333.56
310.72	334.56
310.949	343.56
311.179	356.56
311.409	332.56
311.639	347.56
311.868	361.56
312.098	358.56
312.328	366.56
312.557	349.56
312.787	346.56
313.017	354.56
313.246	351.56
313.476	347.56
313.706	343.56
313.935	366.56
314.165	332.56
314.394	347.56
314.624	349.56
314.853	331.56
315.083	364.56
315.312	354.56
315.542	350.56
315.771	337.56
316.001	338.56
316.23	343.56
316.46	358.56
316.689	349.56
316.919	358.56
317.148	352.56
317.377	350.56
317.607	360.56
317.836	366.56
318.065	340.56
318.295	350.56
318.524	347.56
318.753	350.56
318.983	347.56
319.212	349.56
319.441	356.56
319.67	341.56
319.9	356.56
320.129	338.56
320.358	370.56
320.587	349.56
320.816	358.56
321.046	353.56
321.275	344.56
321.504	364.56
321.733	373.56
321.962	370.56
322.191	375.56
322.42	387.56
322.649	408.56
322.878	377.56
323.108	406.56
323.337	404.56
323.566	404.56
323.795	416.56
324.024	456.56
324.253	507.56
324.482	690.56
324.71	940.56
324.939	1272.56
325.168	1072.56
325.397	633.56
325.626	495.56
325.855	429.56
326.084	432.56
326.313	403.56
326.542	428.56
326.77	439.56
326.999	508.56
327.228	628.56
327.457	880.56
327.686	941.56
327.914	681.56
328.143	508.56
328.372	467.56
328.6	461.56
328.829	465.56
329.058	433.56
329.287	458.56
329.515	428.56
329.744	442.56
329.972	401.56
330.201	437.56
330.43	450.56
330.658	448.56
330.887	441.56
331.115	445.56
331.344	431.56
331.572	418.56
331.801	407.56
332.03	405.56
332.258	420.56
332.486	390.56
332.715	393.56
332.943	400.56
333.172	408.56
333.4	424.56
333.629	416.56
333.857	428.56
334.085	441.56
334.314	443.56
334.542	444.56
334.771	454.56
334.999	417.56
335.227	420.56
335.455	413.56
335.684	415.56
335.912	409.56
336.14	413.56
336.369	418.56
336.597	409.56
336.825	395.56
337.053	434.56
337.281	385.56
337.51	384.56
337.738	384.56
337.966	392.56
338.194	407.56
338.422	387.56
338.65	394.56
338.878	401.56
339.106	411.56
339.334	391.56
339.562	396.56
339.79	385.56
340.018	386.56
340.246	379.56
340.474	387.56
340.702	387.56
340.93	378.56
341.158	397.56
341.386	391.56
341.614	408.56
341.842	388.56
342.07	411.56
342.298	398.56
342.526	377.56
342.754	397.56
342.981	376.56
343.209	385.56
343.437	390.56
343.665	388.56
343.893	405.56
344.12	392.56
344.348	393.56
344.576	408.56
344.804	408.56
345.031	414.56
345.259	408.56
345.487	394.56
345.714	385.56
345.942	372.56
346.17	381.56
346.397	388.56
346.625	366.56
346.853	368.56
347.08	381.56
347.308	367.56
347.535	378.56
347.763	392.56
347.99	374.56
348.218	368.56
348.445	362.56
348.673	361.56
348.9	362.56
349.128	360.56
349.355	372.56
349.583	369.56
349.81	348.56
350.037	357.56
350.265	366.56
350.492	359.56
350.72	366.56
350.947	346.56
351.174	364.56
351.402	380.56
351.629	357.56
351.856	374.56
352.083	352.56
352.311	368.56
352.538	358.56
352.765	366.56
352.992	375.56
353.22	370.56
353.447	353.56
353.674	362.56
353.901	346.56
354.128	361.56
354.355	353.56
354.583	327.56
354.81	342.56
355.037	356.56
355.264	349.56
355.491	356.56
355.718	356.56
355.945	343.56
356.172	359.56
356.399	350.56
356.626	330.56
356.853	352.56
357.08	345.56
357.307	339.56
357.534	326.56
357.761	365.56
357.988	362.56
358.215	358.56
358.441	372.56
358.668	341.56
358.895	352.56
359.122	356.56
359.349	352.56
359.576	358.56
359.802	351.56
360.029	386.56
360.256	382.56
360.483	364.56
360.709	372.56
360.936	387.56
361.163	342.56
361.39	364.56
361.616	359.56
361.843	349.56
362.07	349.56
362.296	347.56
362.523	361.56
362.749	360.56
362.976	351.56
363.203	376.56
363.429	352.56
363.656	362.56
363.882	367.56
364.109	335.56
364.335	323.56
364.562	347.56
364.788	343.56
365.015	336.56
365.241	342.56
365.468	341.56
365.694	354.56
365.92	353.56
366.147	340.56
366.373	338.56
366.599	358.56
366.826	338.56
367.052	324.56
367.278	347.56
367.505	334.56
367.731	326.56
367.957	356.56
368.184	367.56
368.41	357.56
368.636	362.56
368.862	380.56
369.089	377.56
369.315	357.56
369.541	351.56
369.767	334.56
369.993	351.56
370.219	352.56
370.445	352.56
370.672	365.56
370.898	340.56
371.124	331.56
371.35	338.56
371.576	350.56
371.802	356.56
372.028	346.56
372.254	385.56
372.48	348.56
372.706	348.56
372.932	357.56
373.158	362.56
373.384	362.56
373.61	346.56
373.835	362.56
374.061	325.56
374.287	344.56
374.513	363.56
374.739	369.56
374.965	358.56
375.191	353.56
375.416	354.56
375.642	361.56
375.868	348.56
376.094	356.56
376.319	364.56
376.545	361.56
376.771	342.56
376.997	332.56
377.222	354.56
377.448	337.56
377.674	356.56
377.899	352.56
378.125	343.56
378.35	333.56
378.576	328.56
378.802	347.56
379.027	345.56
379.253	346.56
379.478	337.56
379.704	348.56
379.929	354.56
380.155	346.56
380.38	327.56
380.606	346.56
380.831	348.56
381.057	327.56
381.282	340.56
381.507	336.56
381.733	344.56
381.958	337.56
382.184	350.56
382.409	363.56
382.634	352.56
382.86	337.56
383.085	364.56
383.31	366.56
383.535	368.56
383.761	354.56
383.986	366.56
384.211	354.56
384.436	354.56
384.662	350.56
384.887	356.56
385.112	376.56
385.337	389.56
385.562	383.56
385.787	369.56
386.013	381.56
386.238	386.56
386.463	361.56
386.688	374.56
386.913	392.56
387.138	372.56
387.363	374.56
387.588	377.56
387.813	388.56
388.038	370.56
388.263	366.56
388.488	357.56
388.713	376.56
388.938	364.56
389.163	369.56
389.387	364.56
389.612	366.56
389.837	376.56
390.062	378.56
390.287	370.56
390.512	372.56
390.736	370.56
390.961	372.56
391.186	384.56
391.411	361.56
391.636	374.56
391.86	363.56
392.085	371.56
392.31	391.56
392.534	366.56
392.759	386.56
392.984	381.56
393.208	360.56
393.433	380.56
393.658	384.56
393.882	360.56
394.107	371.56
394.331	376.56
394.556	388.56
394.78	385.56
395.005	388.56
395.229	372.56
395.454	374.56
395.678	374.56
395.903	405.56
396.127	402.56
396.352	383.56
396.576	380.56
396.801	392.56
397.025	394.56
397.249	381.56
397.474	387.56
397.698	413.56
397.922	398.56
398.147	407.56
398.371	410.56
398.595	417.56
398.82	404.56
399.044	428.56
399.268	434.56
399.492	442.56
399.717	458.56
399.941	502.56
400.165	534.56
400.389	492.56
400.613	484.56
400.837	445.56
401.062	408.56
401.286	410.56
401.51	430.56
401.734	418.56
401.958	417.56
402.182	416.56
402.406	418.56
402.63	428.56
402.854	401.56
403.078	427.56
403.302	416.56
403.526	417.56
403.75	412.56
403.974	434.56
404.198	439.56
404.422	423.56
404.645	425.56
404.869	436.56
405.093	459.56
405.317	470.56
405.541	496.56
405.765	452.56
405.988	456.56
406.212	431.56
406.436	449.56
406.66	478.56
406.883	455.56
407.107	470.56
407.331	504.56
407.555	524.56
407.778	530.56
408.002	489.56
408.226	452.56
408.449	452.56
408.673	431.56
408.896	473.56
409.12	475.56
409.344	465.56
409.567	438.56
409.791	428.56
410.014	417.56
410.238	415.56
410.461	434.56
410.685	432.56
410.908	432.56
411.132	440.56
411.355	455.56
411.578	436.56
411.802	417.56
412.025	416.56
412.249	410.56
412.472	445.56
412.695	456.56
412.919	450.56
413.142	420.56
413.365	406.56
413.589	396.56
413.812	400.56
414.035	377.56
414.258	388.56
414.482	400.56
414.705	379.56
414.928	387.56
415.151	380.56
415.374	372.56
415.597	392.56
415.821	369.56
416.044	392.56
416.267	407.56
416.49	392.56
416.713	381.56
416.936	384.56
417.159	398.56
417.382	397.56
417.605	405.56
417.828	404.56
418.051	410.56
418.274	393.56
418.497	394.56
418.72	405.56
418.943	389.56
419.166	424.56
419.389	404.56
419.611	416.56
419.834	422.56
420.057	407.56
420.28	397.56
420.503	400.56
420.726	405.56
420.948	426.56
421.171	455.56
421.394	432.56
421.617	393.56
421.839	397.56
422.062	384.56
422.285	416.56
422.507	459.56
422.73	477.56
422.953	476.56
423.175	422.56
423.398	398.56
423.621	408.56
423.843	416.56
424.066	445.56
424.288	436.56
424.511	439.56
424.733	453.56
424.956	484.56
425.178	488.56
425.401	496.56
425.623	508.56
425.846	437.56
426.068	425.56
426.291	404.56
426.513	416.56
426.735	435.56
426.958	459.56
427.18	490.56
427.402	578.56
427.625	586.56
427.847	528.56
428.069	478.56
428.292	449.56
428.514	416.56
428.736	408.56
428.958	401.56
429.181	373.56
429.403	374.56
429.625	401.56
429.847	409.56
430.069	448.56
430.292	454.56
430.514	398.56
430.736	400.56
430.958	384.56
431.18	390.56
431.402	388.56
431.624	376.56
431.846	381.56
432.068	374.56
432.29	376.56
432.512	366.56
432.734	378.56
432.956	378.56
433.178	395.56
433.4	380.56
433.622	374.56
433.844	370.56
434.066	381.56
434.287	374.56
434.509	392.56
434.731	390.56
434.953	382.56
435.175	377.56
435.397	406.56
435.618	398.56
435.84	448.56
436.062	497.56
436.284	533.56
436.505	461.56
436.727	423.56
436.949	388.56
437.17	390.56
437.392	402.56
437.614	376.56
437.835	422.56
438.057	474.56
438.278	515.56
438.5	520.56
438.721	571.56
438.943	543.56
439.165	458.56
439.386	418.56
439.608	416.56
439.829	424.56
440.05	444.56
440.272	459.56
440.493	447.56
440.715	394.56
440.936	392.56
441.158	389.56
441.379	395.56
441.6	389.56
441.822	396.56
442.043	449.56
442.264	496.56
442.486	506.56
442.707	429.56
442.928	426.56
443.149	438.56
443.371	417.56
443.592	458.56
443.813	527.56
444.034	512.56
444.255	472.56
444.476	439.56
444.698	436.56
444.919	421.56
445.14	550.56
445.361	485.56
445.582	423.56
445.803	445.56
446.024	510.56
446.245	534.56
446.466	481.56
446.687	437.56
446.908	417.56
447.129	372.56
447.35	377.56
447.571	366.56
447.792	378.56
448.013	385.56
448.234	392.56
448.455	434.56
448.675	466.56
448.896	553.56
449.117	498.56
449.338	466.56
449.559	552.56
449.779	570.56
450	470.56
450.221	412.56
450.442	414.56
450.662	365.56
450.883	363.56
451.104	362.56
451.324	373.56
451.545	356.56
451.766	366.56
451.986	347.56
452.207	347.56
452.428	342.56
452.648	349.56
452.869	333.56
453.089	366.56
453.31	346.56
453.53	338.56
453.751	373.56
453.971	342.56
454.192	344.56
454.412	335.56
454.633	348.56
454.853	349.56
455.073	334.56
455.294	358.56
455.514	378.56
455.734	385.56
455.955	357.56
456.175	337.56
456.395	348.56
456.616	351.56
456.836	326.56
457.056	329.56
457.276	335.56
457.497	343.56
457.717	320.56
457.937	349.56
458.157	330.56
458.377	363.56
458.598	364.56
458.818	378.56
459.038	411.56
459.258	411.56
459.478	387.56
459.698	383.56
459.918	376.56
460.138	373.56
460.358	392.56
460.578	374.56
460.798	383.56
461.018	401.56
461.238	384.56
461.458	400.56
461.678	373.56
461.898	383.56
462.118	389.56
462.338	389.56
462.558	384.56
462.777	386.56
462.997	407.56
463.217	456.56
463.437	431.56
463.657	412.56
463.876	420.56
464.096	410.56
464.316	394.56
464.536	404.56
464.755	407.56
464.975	384.56
465.195	392.56
465.414	436.56
465.634	393.56
465.854	408.56
466.073	393.56
466.293	368.56
466.512	358.56
466.732	351.56
466.951	364.56
467.171	353.56
467.391	362.56
467.61	360.56
467.829	340.56
468.049	364.56
468.268	385.56
468.488	352.56
468.707	360.56
468.927	340.56
469.146	365.56
469.365	337.56
469.585	352.56
469.804	354.56
470.023	367.56
470.243	364.56
470.462	374.56
470.681	374.56
470.901	382.56
471.12	352.56
471.339	344.56
471.558	350.56
471.777	350.56
471.997	338.56
472.216	369.56
472.435	392.56
472.654	350.56
472.873	370.56
473.092	357.56
473.311	353.56
473.53	374.56
473.749	376.56
473.968	404.56
474.187	413.56
474.406	444.56
474.625	376.56
474.844	372.56
475.063	351.56
475.282	376.56
475.501	383.56
475.72	373.56
475.939	383.56
476.158	374.56
476.377	365.56
476.596	380.56
476.814	395.56
477.033	400.56
477.252	401.56
477.471	386.56
477.69	386.56
477.908	401.56
478.127	416.56
478.346	424.56
478.564	402.56
478.783	418.56
479.002	408.56
479.22	423.56
479.439	430.56
479.658	439.56
479.876	436.56
480.095	442.56
480.313	450.56
480.532	427.56
480.751	437.56
480.969	455.56
481.188	452.56
481.406	459.56
481.624	450.56
481.843	428.56
482.061	413.56
482.28	431.56
482.498	392.56
482.717	416.56
482.935	416.56
483.153	424.56
483.372	421.56
483.59	424.56
483.808	432.56
484.027	412.56
484.245	424.56
484.463	409.56
484.681	430.56
484.9	428.56
485.118	421.56
485.336	424.56
485.554	423.56
485.772	436.56
485.99	418.56
486.209	442.56
486.427	429.56
486.645	453.56
486.863	454.56
487.081	436.56
487.299	427.56
487.517	453.56
487.735	451.56
487.953	462.56
488.171	474.56
488.389	457.56
488.607	449.56
488.825	449.56
489.043	440.56
489.261	462.56
489.479	458.56
489.696	427.56
489.914	458.56
490.132	461.56
490.35	443.56
490.568	455.56
490.786	468.56
491.003	453.56
491.221	479.56
491.439	485.56
491.657	465.56
491.874	485.56
492.092	481.56
492.31	503.56
492.527	488.56
492.745	500.56
492.963	507.56
493.18	484.56
493.398	487.56
493.615	504.56
493.833	491.56
494.05	497.56
494.268	506.56
494.485	513.56
494.703	495.56
494.92	526.56
495.138	516.56
495.355	506.56
495.573	512.56
495.79	505.56
496.008	490.56
496.225	502.56
496.442	503.56
496.66	525.56
496.877	507.56
497.094	510.56
497.312	520.56
497.529	537.56
497.746	534.56
497.963	541.56
498.181	562.56
498.398	562.56
498.615	542.56
498.832	572.56
499.049	615.56
499.267	615.56
499.484	634.56
499.701	647.56
499.918	680.56
500.135	682.56
500.352	748.56
500.569	763.56
500.786	756.56
501.003	722.56
501.22	727.56
501.437	696.56
501.654	697.56
501.871	650.56
