Data from 1960PennyLincolnUp.LampE5.5.200Scan.07172019.P1.ChangedAngle_HRD10591_13-14-06-821.txt Node
Date: Thu Jul 18 13:14:06 EDT 2019
User: cochatt
Spectrometer: HR+D1059
Trigger mode: 1
Integration Time (sec): 1.000000E-1
Scans to average: 1
Electric dark correction enabled: true
Nonlinearity correction enabled: false
Boxcar width: 0
XAxis mode: Wavelengths
Number of Pixels in Spectrum: 2048
>>>>>Begin Spectral Data<<<<<
223.165	-8.62
223.4	-8.62
223.635	-8.62
223.869	-26.62
224.104	-15.62
224.338	-12.62
224.573	-25.62
224.808	-11.62
225.042	-10.62
225.277	-6.62
225.511	-1.62
225.746	-0.62
225.98	11.38
226.215	10.38
226.449	4.38
226.683	22.38
226.918	31.38
227.152	40.38
227.387	37.38
227.621	36.38
227.856	44.38
228.09	42.38
228.324	48.38
228.559	55.38
228.793	59.38
229.027	101.38
229.262	101.38
229.496	83.38
229.73	106.38
229.964	119.38
230.199	106.38
230.433	84.38
230.667	103.38
230.901	92.38
231.136	91.38
231.37	92.38
231.604	94.38
231.838	118.38
232.072	105.38
232.306	111.38
232.541	112.38
232.775	110.38
233.009	114.38
233.243	106.38
233.477	121.38
233.711	100.38
233.945	107.38
234.179	116.38
234.413	99.38
234.647	100.38
234.881	109.38
235.115	114.38
235.349	107.38
235.583	100.38
235.817	105.38
236.051	103.38
236.285	109.38
236.519	122.38
236.753	118.38
236.987	130.38
237.221	141.38
237.455	182.38
237.689	132.38
237.922	134.38
238.156	123.38
238.39	127.38
238.624	121.38
238.858	121.38
239.091	121.38
239.325	98.38
239.559	130.38
239.793	117.38
240.027	108.38
240.26	119.38
240.494	129.38
240.728	129.38
240.961	122.38
241.195	121.38
241.429	109.38
241.662	116.38
241.896	124.38
242.13	124.38
242.363	117.38
242.597	129.38
242.83	130.38
243.064	124.38
243.298	137.38
243.531	110.38
243.765	134.38
243.998	142.38
244.232	136.38
244.465	138.38
244.699	134.38
244.932	130.38
245.166	145.38
245.399	127.38
245.633	134.38
245.866	137.38
246.099	135.38
246.333	124.38
246.566	158.38
246.8	140.38
247.033	148.38
247.266	126.38
247.5	139.38
247.733	166.38
247.966	147.38
248.2	154.38
248.433	163.38
248.666	143.38
248.899	146.38
249.133	159.38
249.366	168.38
249.599	171.38
249.832	175.38
250.066	160.38
250.299	171.38
250.532	159.38
250.765	152.38
250.998	182.38
251.231	177.38
251.465	191.38
251.698	169.38
251.931	177.38
252.164	157.38
252.397	170.38
252.63	177.38
252.863	184.38
253.096	169.38
253.329	194.38
253.562	192.38
253.795	171.38
254.028	183.38
254.261	170.38
254.494	189.38
254.727	201.38
254.96	212.38
255.193	214.38
255.426	205.38
255.659	195.38
255.892	193.38
256.124	186.38
256.357	194.38
256.59	196.38
256.823	203.38
257.056	182.38
257.289	183.38
257.521	194.38
257.754	171.38
257.987	189.38
258.22	183.38
258.452	179.38
258.685	189.38
258.918	193.38
259.151	204.38
259.383	195.38
259.616	180.38
259.849	194.38
260.081	203.38
260.314	211.38
260.547	200.38
260.779	205.38
261.012	197.38
261.244	195.38
261.477	216.38
261.71	220.38
261.942	202.38
262.175	207.38
262.407	203.38
262.64	188.38
262.872	187.38
263.105	196.38
263.337	200.38
263.57	189.38
263.802	204.38
264.035	198.38
264.267	192.38
264.499	186.38
264.732	224.38
264.964	187.38
265.197	196.38
265.429	201.38
265.661	186.38
265.894	189.38
266.126	195.38
266.358	208.38
266.591	189.38
266.823	203.38
267.055	215.38
267.287	217.38
267.52	205.38
267.752	206.38
267.984	191.38
268.216	211.38
268.448	234.38
268.681	219.38
268.913	238.38
269.145	227.38
269.377	237.38
269.609	245.38
269.841	229.38
270.073	251.38
270.306	241.38
270.538	252.38
270.77	265.38
271.002	253.38
271.234	249.38
271.466	258.38
271.698	263.38
271.93	263.38
272.162	271.38
272.394	271.38
272.626	266.38
272.858	260.38
273.09	271.38
273.322	258.38
273.553	248.38
273.785	239.38
274.017	259.38
274.249	260.38
274.481	260.38
274.713	244.38
274.945	248.38
275.176	243.38
275.408	253.38
275.64	250.38
275.872	233.38
276.104	250.38
276.335	238.38
276.567	245.38
276.799	274.38
277.031	265.38
277.262	267.38
277.494	289.38
277.726	280.38
277.957	268.38
278.189	275.38
278.421	263.38
278.652	263.38
278.884	273.38
279.115	260.38
279.347	274.38
279.579	284.38
279.81	318.38
280.042	326.38
280.273	286.38
280.505	305.38
280.736	284.38
280.968	279.38
281.199	233.38
281.431	265.38
281.662	266.38
281.894	264.38
282.125	268.38
282.356	257.38
282.588	274.38
282.819	297.38
283.051	281.38
283.282	258.38
283.513	290.38
283.745	265.38
283.976	267.38
284.207	272.38
284.439	271.38
284.67	273.38
284.901	278.38
285.132	271.38
285.364	278.38
285.595	279.38
285.826	276.38
286.057	283.38
286.288	279.38
286.52	263.38
286.751	268.38
286.982	276.38
287.213	266.38
287.444	280.38
287.675	282.38
287.906	294.38
288.138	300.38
288.369	307.38
288.6	298.38
288.831	286.38
289.062	279.38
289.293	292.38
289.524	282.38
289.755	293.38
289.986	273.38
290.217	263.38
290.448	278.38
290.679	274.38
290.91	275.38
291.141	269.38
291.371	282.38
291.602	284.38
291.833	285.38
292.064	294.38
292.295	278.38
292.526	301.38
292.757	291.38
292.987	271.38
293.218	286.38
293.449	303.38
293.68	265.38
293.91	287.38
294.141	282.38
294.372	283.38
294.603	286.38
294.833	281.38
295.064	295.38
295.295	283.38
295.525	284.38
295.756	295.38
295.987	320.38
296.217	314.38
296.448	323.38
296.679	298.38
296.909	296.38
297.14	278.38
297.37	301.38
297.601	289.38
297.831	300.38
298.062	302.38
298.292	299.38
298.523	313.38
298.753	293.38
298.984	305.38
299.214	303.38
299.445	307.38
299.675	310.38
299.905	308.38
300.136	340.38
300.366	295.38
300.597	305.38
300.827	302.38
301.057	322.38
301.288	313.38
301.518	315.38
301.748	318.38
301.979	332.38
302.209	325.38
302.439	313.38
302.669	343.38
302.9	327.38
303.13	324.38
303.36	324.38
303.59	330.38
303.82	327.38
304.051	319.38
304.281	332.38
304.511	324.38
304.741	316.38
304.971	313.38
305.201	297.38
305.431	323.38
305.661	325.38
305.891	322.38
306.121	323.38
306.352	341.38
306.582	330.38
306.812	307.38
307.042	319.38
307.272	325.38
307.502	321.38
307.731	319.38
307.961	321.38
308.191	327.38
308.421	332.38
308.651	335.38
308.881	313.38
309.111	332.38
309.341	335.38
309.571	342.38
309.8	361.38
310.03	349.38
310.26	337.38
310.49	348.38
310.72	343.38
310.949	362.38
311.179	346.38
311.409	351.38
311.639	356.38
311.868	359.38
312.098	344.38
312.328	353.38
312.557	373.38
312.787	386.38
313.017	380.38
313.246	354.38
313.476	362.38
313.706	359.38
313.935	363.38
314.165	359.38
314.394	360.38
314.624	368.38
314.853	369.38
315.083	372.38
315.312	358.38
315.542	353.38
315.771	364.38
316.001	348.38
316.23	355.38
316.46	361.38
316.689	383.38
316.919	373.38
317.148	366.38
317.377	388.38
317.607	361.38
317.836	371.38
318.065	352.38
318.295	379.38
318.524	360.38
318.753	363.38
318.983	371.38
319.212	357.38
319.441	371.38
319.67	377.38
319.9	363.38
320.129	372.38
320.358	389.38
320.587	379.38
320.816	389.38
321.046	373.38
321.275	381.38
321.504	381.38
321.733	389.38
321.962	377.38
322.191	407.38
322.42	398.38
322.649	401.38
322.878	409.38
323.108	397.38
323.337	438.38
323.566	434.38
323.795	474.38
324.024	509.38
324.253	599.38
324.482	852.38
324.71	1271.38
324.939	1739.38
325.168	1457.38
325.397	737.38
325.626	545.38
325.855	466.38
326.084	437.38
326.313	463.38
326.542	448.38
326.77	491.38
326.999	568.38
327.228	777.38
327.457	1138.38
327.686	1349.38
327.914	873.38
328.143	619.38
328.372	524.38
328.6	489.38
328.829	475.38
329.058	468.38
329.287	498.38
329.515	453.38
329.744	449.38
329.972	442.38
330.201	464.38
330.43	508.38
330.658	504.38
330.887	494.38
331.115	494.38
331.344	468.38
331.572	446.38
331.801	420.38
332.03	427.38
332.258	442.38
332.486	418.38
332.715	424.38
332.943	413.38
333.172	409.38
333.4	451.38
333.629	434.38
333.857	461.38
334.085	449.38
334.314	459.38
334.542	491.38
334.771	473.38
334.999	467.38
335.227	443.38
335.455	452.38
335.684	429.38
335.912	432.38
336.14	431.38
336.369	445.38
336.597	427.38
336.825	431.38
337.053	413.38
337.281	421.38
337.51	437.38
337.738	418.38
337.966	405.38
338.194	420.38
338.422	422.38
338.65	411.38
338.878	398.38
339.106	409.38
339.334	404.38
339.562	394.38
339.79	387.38
340.018	402.38
340.246	397.38
340.474	387.38
340.702	388.38
340.93	408.38
341.158	424.38
341.386	407.38
341.614	403.38
341.842	409.38
342.07	390.38
342.298	397.38
342.526	394.38
342.754	382.38
342.981	382.38
343.209	388.38
343.437	392.38
343.665	392.38
343.893	393.38
344.12	397.38
344.348	421.38
344.576	408.38
344.804	381.38
345.031	417.38
345.259	419.38
345.487	392.38
345.714	407.38
345.942	383.38
346.17	407.38
346.397	388.38
346.625	372.38
346.853	386.38
347.08	399.38
347.308	389.38
347.535	405.38
347.763	387.38
347.99	383.38
348.218	393.38
348.445	399.38
348.673	385.38
348.9	387.38
349.128	369.38
349.355	376.38
349.583	351.38
349.81	375.38
350.037	359.38
350.265	366.38
350.492	366.38
350.72	370.38
350.947	359.38
351.174	377.38
351.402	356.38
351.629	367.38
351.856	388.38
352.083	389.38
352.311	401.38
352.538	406.38
352.765	385.38
352.992	370.38
353.22	367.38
353.447	371.38
353.674	380.38
353.901	364.38
354.128	358.38
354.355	371.38
354.583	351.38
354.81	329.38
355.037	368.38
355.264	358.38
355.491	365.38
355.718	341.38
355.945	356.38
356.172	354.38
356.399	366.38
356.626	346.38
356.853	349.38
357.08	367.38
357.307	364.38
357.534	345.38
357.761	347.38
357.988	355.38
358.215	361.38
358.441	361.38
358.668	353.38
358.895	362.38
359.122	382.38
359.349	373.38
359.576	395.38
359.802	394.38
360.029	398.38
360.256	428.38
360.483	382.38
360.709	386.38
360.936	369.38
361.163	382.38
361.39	363.38
361.616	357.38
361.843	359.38
362.07	373.38
362.296	366.38
362.523	371.38
362.749	374.38
362.976	356.38
363.203	354.38
363.429	353.38
363.656	374.38
363.882	368.38
364.109	373.38
364.335	358.38
364.562	345.38
364.788	340.38
365.015	358.38
365.241	360.38
365.468	369.38
365.694	374.38
365.92	364.38
366.147	348.38
366.373	348.38
366.599	362.38
366.826	361.38
367.052	340.38
367.278	353.38
367.505	373.38
367.731	358.38
367.957	334.38
368.184	351.38
368.41	346.38
368.636	358.38
368.862	381.38
369.089	359.38
369.315	381.38
369.541	363.38
369.767	358.38
369.993	343.38
370.219	367.38
370.445	358.38
370.672	398.38
370.898	340.38
371.124	371.38
371.35	361.38
371.576	363.38
371.802	353.38
372.028	354.38
372.254	371.38
372.48	359.38
372.706	354.38
372.932	374.38
373.158	363.38
373.384	402.38
373.61	371.38
373.835	359.38
374.061	352.38
374.287	359.38
374.513	360.38
374.739	380.38
374.965	351.38
375.191	361.38
375.416	362.38
375.642	361.38
375.868	359.38
376.094	376.38
376.319	358.38
376.545	366.38
376.771	361.38
376.997	373.38
377.222	357.38
377.448	357.38
377.674	355.38
377.899	358.38
378.125	341.38
378.35	341.38
378.576	362.38
378.802	357.38
379.027	349.38
379.253	355.38
379.478	336.38
379.704	351.38
379.929	343.38
380.155	374.38
380.38	366.38
380.606	372.38
380.831	354.38
381.057	369.38
381.282	338.38
381.507	345.38
381.733	355.38
381.958	361.38
382.184	361.38
382.409	361.38
382.634	376.38
382.86	364.38
383.085	386.38
383.31	380.38
383.535	372.38
383.761	367.38
383.986	369.38
384.211	383.38
384.436	393.38
384.662	374.38
384.887	380.38
385.112	386.38
385.337	371.38
385.562	399.38
385.787	387.38
386.013	401.38
386.238	405.38
386.463	398.38
386.688	371.38
386.913	383.38
387.138	377.38
387.363	383.38
387.588	395.38
387.813	377.38
388.038	381.38
388.263	386.38
388.488	389.38
388.713	377.38
388.938	370.38
389.163	378.38
389.387	382.38
389.612	370.38
389.837	384.38
390.062	383.38
390.287	401.38
390.512	375.38
390.736	383.38
390.961	389.38
391.186	397.38
391.411	376.38
391.636	383.38
391.86	401.38
392.085	384.38
392.31	400.38
392.534	399.38
392.759	382.38
392.984	433.38
393.208	435.38
393.433	549.38
393.658	570.38
393.882	430.38
394.107	392.38
394.331	398.38
394.556	395.38
394.78	389.38
395.005	406.38
395.229	381.38
395.454	389.38
395.678	414.38
395.903	419.38
396.127	433.38
396.352	437.38
396.576	418.38
396.801	451.38
397.025	504.38
397.249	460.38
397.474	425.38
397.698	406.38
397.922	403.38
398.147	409.38
398.371	419.38
398.595	421.38
398.82	419.38
399.044	422.38
399.268	449.38
399.492	471.38
399.717	499.38
399.941	499.38
400.165	502.38
400.389	519.38
400.613	473.38
400.837	446.38
401.062	434.38
401.286	447.38
401.51	433.38
401.734	425.38
401.958	429.38
402.182	422.38
402.406	421.38
402.63	439.38
402.854	456.38
403.078	433.38
403.302	425.38
403.526	421.38
403.75	433.38
403.974	429.38
404.198	431.38
404.422	430.38
404.645	449.38
404.869	431.38
405.093	458.38
405.317	471.38
405.541	509.38
405.765	478.38
405.988	449.38
406.212	465.38
406.436	460.38
406.66	480.38
406.883	489.38
407.107	485.38
407.331	505.38
407.555	533.38
407.778	538.38
408.002	519.38
408.226	463.38
408.449	476.38
408.673	488.38
408.896	478.38
409.12	514.38
409.344	516.38
409.567	443.38
409.791	457.38
410.014	444.38
410.238	446.38
410.461	435.38
410.685	464.38
410.908	457.38
411.132	446.38
411.355	458.38
411.578	461.38
411.802	438.38
412.025	430.38
412.249	446.38
412.472	447.38
412.695	465.38
412.919	471.38
413.142	417.38
413.365	423.38
413.589	422.38
413.812	423.38
414.035	422.38
414.258	410.38
414.482	409.38
414.705	399.38
414.928	397.38
415.151	405.38
415.374	414.38
415.597	399.38
415.821	403.38
416.044	413.38
416.267	400.38
416.49	387.38
416.713	419.38
416.936	408.38
417.159	393.38
417.382	389.38
417.605	404.38
417.828	395.38
418.051	407.38
418.274	416.38
418.497	398.38
418.72	390.38
418.943	375.38
419.166	422.38
419.389	447.38
419.611	414.38
419.834	439.38
420.057	425.38
420.28	411.38
420.503	395.38
420.726	409.38
420.948	406.38
421.171	452.38
421.394	455.38
421.617	405.38
421.839	412.38
422.062	397.38
422.285	421.38
422.507	468.38
422.73	545.38
422.953	553.38
423.175	456.38
423.398	431.38
423.621	409.38
423.843	458.38
424.066	434.38
424.288	445.38
424.511	432.38
424.733	466.38
424.956	547.38
425.178	512.38
425.401	524.38
425.623	505.38
425.846	456.38
426.068	426.38
426.291	433.38
426.513	437.38
426.735	436.38
426.958	446.38
427.18	508.38
427.402	591.38
427.625	651.38
427.847	565.38
428.069	467.38
428.292	426.38
428.514	414.38
428.736	409.38
428.958	417.38
429.181	419.38
429.403	397.38
429.625	421.38
429.847	427.38
430.069	450.38
430.292	453.38
430.514	425.38
430.736	401.38
430.958	405.38
431.18	409.38
431.402	401.38
431.624	378.38
431.846	382.38
432.068	388.38
432.29	410.38
432.512	391.38
432.734	385.38
432.956	409.38
433.178	409.38
433.4	406.38
433.622	412.38
433.844	393.38
434.066	378.38
434.287	404.38
434.509	403.38
434.731	399.38
434.953	408.38
435.175	417.38
435.397	430.38
435.618	409.38
435.84	457.38
436.062	511.38
436.284	557.38
436.505	488.38
436.727	421.38
436.949	436.38
437.17	411.38
437.392	380.38
437.614	388.38
437.835	429.38
438.057	467.38
438.278	520.38
438.5	536.38
438.721	592.38
438.943	576.38
439.165	443.38
439.386	424.38
439.608	442.38
439.829	418.38
440.05	431.38
440.272	467.38
440.493	452.38
440.715	417.38
440.936	390.38
441.158	422.38
441.379	389.38
441.6	411.38
441.822	419.38
442.043	451.38
442.264	482.38
442.486	527.38
442.707	464.38
442.928	439.38
443.149	437.38
443.371	463.38
443.592	495.38
443.813	542.38
444.034	576.38
444.255	507.38
444.476	433.38
444.698	411.38
444.919	411.38
445.14	543.38
445.361	511.38
445.582	472.38
445.803	507.38
446.024	581.38
446.245	550.38
446.466	527.38
446.687	455.38
446.908	427.38
447.129	419.38
447.35	395.38
447.571	406.38
447.792	379.38
448.013	383.38
448.234	404.38
448.455	423.38
448.675	504.38
448.896	589.38
449.117	491.38
449.338	474.38
449.559	546.38
449.779	618.38
450	486.38
450.221	433.38
450.442	399.38
450.662	383.38
450.883	379.38
451.104	390.38
451.324	379.38
451.545	373.38
451.766	366.38
451.986	363.38
452.207	356.38
452.428	354.38
452.648	357.38
452.869	372.38
453.089	361.38
453.31	357.38
453.53	377.38
453.751	364.38
453.971	361.38
454.192	366.38
454.412	350.38
454.633	381.38
454.853	344.38
455.073	340.38
455.294	371.38
455.514	391.38
455.734	400.38
455.955	369.38
456.175	321.38
456.395	347.38
456.616	354.38
456.836	337.38
457.056	346.38
457.276	347.38
457.497	337.38
457.717	354.38
457.937	361.38
458.157	346.38
458.377	359.38
458.598	373.38
458.818	419.38
459.038	450.38
459.258	462.38
459.478	406.38
459.698	400.38
459.918	400.38
460.138	382.38
460.358	383.38
460.578	399.38
460.798	390.38
461.018	401.38
461.238	407.38
461.458	387.38
461.678	392.38
461.898	379.38
462.118	403.38
462.338	428.38
462.558	419.38
462.777	413.38
462.997	422.38
463.217	418.38
463.437	438.38
463.657	415.38
463.876	421.38
464.096	440.38
464.316	437.38
464.536	414.38
464.755	431.38
464.975	429.38
465.195	448.38
465.414	469.38
465.634	438.38
465.854	411.38
466.073	383.38
466.293	376.38
466.512	380.38
466.732	388.38
466.951	371.38
467.171	379.38
467.391	380.38
467.61	389.38
467.829	380.38
468.049	382.38
468.268	378.38
468.488	360.38
468.707	365.38
468.927	367.38
469.146	353.38
469.365	355.38
469.585	365.38
469.804	366.38
470.023	373.38
470.243	375.38
470.462	369.38
470.681	386.38
470.901	379.38
471.12	364.38
471.339	376.38
471.558	371.38
471.777	378.38
471.997	379.38
472.216	400.38
472.435	414.38
472.654	390.38
472.873	368.38
473.092	388.38
473.311	383.38
473.53	377.38
473.749	372.38
473.968	390.38
474.187	442.38
474.406	431.38
474.625	413.38
474.844	388.38
475.063	374.38
475.282	371.38
475.501	386.38
475.72	398.38
475.939	373.38
476.158	387.38
476.377	392.38
476.596	369.38
476.814	404.38
477.033	396.38
477.252	395.38
477.471	402.38
477.69	420.38
477.908	409.38
478.127	399.38
478.346	422.38
478.564	432.38
478.783	410.38
479.002	427.38
479.22	434.38
479.439	453.38
479.658	442.38
479.876	451.38
480.095	459.38
480.313	467.38
480.532	473.38
480.751	471.38
480.969	463.38
481.188	499.38
481.406	517.38
481.624	471.38
481.843	455.38
482.061	450.38
482.28	442.38
482.498	456.38
482.717	429.38
482.935	450.38
483.153	446.38
483.372	434.38
483.59	455.38
483.808	447.38
484.027	450.38
484.245	462.38
484.463	446.38
484.681	464.38
484.9	446.38
485.118	451.38
485.336	491.38
485.554	472.38
485.772	451.38
485.99	463.38
486.209	466.38
486.427	463.38
486.645	476.38
486.863	472.38
487.081	490.38
487.299	481.38
487.517	465.38
487.735	456.38
487.953	465.38
488.171	471.38
488.389	454.38
488.607	465.38
488.825	476.38
489.043	478.38
489.261	470.38
489.479	476.38
489.696	482.38
489.914	481.38
490.132	473.38
490.35	465.38
490.568	492.38
490.786	473.38
491.003	488.38
491.221	516.38
491.439	497.38
491.657	485.38
491.874	463.38
492.092	511.38
492.31	511.38
492.527	493.38
492.745	498.38
492.963	510.38
493.18	508.38
493.398	504.38
493.615	533.38
493.833	525.38
494.05	497.38
494.268	506.38
494.485	507.38
494.703	518.38
494.92	537.38
495.138	534.38
495.355	526.38
495.573	545.38
495.79	524.38
496.008	524.38
496.225	527.38
496.442	535.38
496.66	542.38
496.877	538.38
497.094	518.38
497.312	533.38
497.529	541.38
497.746	562.38
497.963	565.38
498.181	578.38
498.398	591.38
498.615	598.38
498.832	631.38
499.049	631.38
499.267	622.38
499.484	685.38
499.701	661.38
499.918	715.38
500.135	734.38
500.352	775.38
500.569	794.38
500.786	753.38
501.003	757.38
501.22	757.38
501.437	724.38
501.654	687.38
501.871	694.38
