Data from 1960PennyLincolnUp.LampE5.5.200Scan.07172019.P1.ChangedAngle_HRD10591_13-15-13-821.txt Node
Date: Thu Jul 18 13:15:13 EDT 2019
User: cochatt
Spectrometer: HR+D1059
Trigger mode: 1
Integration Time (sec): 1.000000E-1
Scans to average: 1
Electric dark correction enabled: true
Nonlinearity correction enabled: false
Boxcar width: 0
XAxis mode: Wavelengths
Number of Pixels in Spectrum: 2048
>>>>>Begin Spectral Data<<<<<
223.165	-12.38
223.4	-12.38
223.635	-12.38
223.869	-12.38
224.104	-6.38
224.338	-11.38
224.573	-21.38
224.808	-5.38
225.042	-6.38
225.277	2.62
225.511	-18.38
225.746	-7.38
225.98	0.62
226.215	8.62
226.449	7.62
226.683	27.62
226.918	21.62
227.152	32.62
227.387	32.62
227.621	31.62
227.856	44.62
228.09	40.62
228.324	45.62
228.559	53.62
228.793	49.62
229.027	92.62
229.262	89.62
229.496	110.62
229.73	104.62
229.964	109.62
230.199	111.62
230.433	104.62
230.667	105.62
230.901	98.62
231.136	108.62
231.37	106.62
231.604	100.62
231.838	95.62
232.072	92.62
232.306	96.62
232.541	100.62
232.775	112.62
233.009	113.62
233.243	106.62
233.477	103.62
233.711	124.62
233.945	117.62
234.179	106.62
234.413	110.62
234.647	123.62
234.881	128.62
235.115	110.62
235.349	119.62
235.583	117.62
235.817	108.62
236.051	108.62
236.285	113.62
236.519	113.62
236.753	121.62
236.987	114.62
237.221	159.62
237.455	193.62
237.689	154.62
237.922	123.62
238.156	117.62
238.39	134.62
238.624	116.62
238.858	100.62
239.091	123.62
239.325	119.62
239.559	115.62
239.793	121.62
240.027	128.62
240.26	140.62
240.494	143.62
240.728	124.62
240.961	146.62
241.195	133.62
241.429	124.62
241.662	128.62
241.896	133.62
242.13	134.62
242.363	114.62
242.597	128.62
242.83	119.62
243.064	143.62
243.298	121.62
243.531	139.62
243.765	140.62
243.998	145.62
244.232	126.62
244.465	128.62
244.699	137.62
244.932	146.62
245.166	156.62
245.399	134.62
245.633	130.62
245.866	150.62
246.099	154.62
246.333	158.62
246.566	149.62
246.8	144.62
247.033	136.62
247.266	138.62
247.5	150.62
247.733	154.62
247.966	159.62
248.2	160.62
248.433	151.62
248.666	160.62
248.899	166.62
249.133	172.62
249.366	180.62
249.599	195.62
249.832	186.62
250.066	162.62
250.299	174.62
250.532	179.62
250.765	192.62
250.998	197.62
251.231	201.62
251.465	197.62
251.698	186.62
251.931	167.62
252.164	184.62
252.397	194.62
252.63	195.62
252.863	186.62
253.096	190.62
253.329	198.62
253.562	200.62
253.795	195.62
254.028	217.62
254.261	191.62
254.494	190.62
254.727	209.62
254.96	217.62
255.193	236.62
255.426	213.62
255.659	218.62
255.892	221.62
256.124	212.62
256.357	197.62
256.59	215.62
256.823	205.62
257.056	206.62
257.289	194.62
257.521	192.62
257.754	197.62
257.987	186.62
258.22	199.62
258.452	167.62
258.685	217.62
258.918	193.62
259.151	207.62
259.383	183.62
259.616	211.62
259.849	223.62
260.081	213.62
260.314	232.62
260.547	224.62
260.779	226.62
261.012	223.62
261.244	212.62
261.477	222.62
261.71	228.62
261.942	223.62
262.175	198.62
262.407	220.62
262.64	218.62
262.872	204.62
263.105	220.62
263.337	201.62
263.57	214.62
263.802	204.62
264.035	212.62
264.267	196.62
264.499	207.62
264.732	213.62
264.964	194.62
265.197	204.62
265.429	209.62
265.661	229.62
265.894	202.62
266.126	214.62
266.358	222.62
266.591	224.62
266.823	209.62
267.055	206.62
267.287	216.62
267.52	234.62
267.752	238.62
267.984	221.62
268.216	221.62
268.448	217.62
268.681	238.62
268.913	225.62
269.145	251.62
269.377	260.62
269.609	258.62
269.841	261.62
270.073	255.62
270.306	276.62
270.538	273.62
270.77	282.62
271.002	277.62
271.234	268.62
271.466	292.62
271.698	270.62
271.93	304.62
272.162	291.62
272.394	288.62
272.626	285.62
272.858	275.62
273.09	267.62
273.322	280.62
273.553	254.62
273.785	246.62
274.017	251.62
274.249	276.62
274.481	248.62
274.713	275.62
274.945	262.62
275.176	236.62
275.408	258.62
275.64	262.62
275.872	255.62
276.104	268.62
276.335	276.62
276.567	259.62
276.799	271.62
277.031	287.62
277.262	305.62
277.494	290.62
277.726	285.62
277.957	273.62
278.189	270.62
278.421	252.62
278.652	279.62
278.884	276.62
279.115	285.62
279.347	268.62
279.579	254.62
279.81	271.62
280.042	264.62
280.273	265.62
280.505	267.62
280.736	250.62
280.968	274.62
281.199	265.62
281.431	267.62
281.662	257.62
281.894	252.62
282.125	256.62
282.356	289.62
282.588	284.62
282.819	293.62
283.051	276.62
283.282	262.62
283.513	260.62
283.745	274.62
283.976	296.62
284.207	293.62
284.439	300.62
284.67	300.62
284.901	274.62
285.132	288.62
285.364	272.62
285.595	294.62
285.826	267.62
286.057	290.62
286.288	282.62
286.52	299.62
286.751	280.62
286.982	275.62
287.213	273.62
287.444	288.62
287.675	301.62
287.906	290.62
288.138	296.62
288.369	302.62
288.6	295.62
288.831	297.62
289.062	301.62
289.293	302.62
289.524	310.62
289.755	281.62
289.986	277.62
290.217	293.62
290.448	273.62
290.679	300.62
290.91	286.62
291.141	292.62
291.371	296.62
291.602	300.62
291.833	296.62
292.064	281.62
292.295	289.62
292.526	288.62
292.757	300.62
292.987	309.62
293.218	302.62
293.449	292.62
293.68	294.62
293.91	297.62
294.141	295.62
294.372	319.62
294.603	316.62
294.833	285.62
295.064	312.62
295.295	281.62
295.525	282.62
295.756	304.62
295.987	300.62
296.217	302.62
296.448	310.62
296.679	302.62
296.909	292.62
297.14	303.62
297.37	309.62
297.601	304.62
297.831	294.62
298.062	321.62
298.292	309.62
298.523	315.62
298.753	306.62
298.984	300.62
299.214	322.62
299.445	302.62
299.675	321.62
299.905	318.62
300.136	314.62
300.366	321.62
300.597	313.62
300.827	327.62
301.057	319.62
301.288	344.62
301.518	341.62
301.748	321.62
301.979	324.62
302.209	332.62
302.439	312.62
302.669	326.62
302.9	320.62
303.13	341.62
303.36	335.62
303.59	326.62
303.82	324.62
304.051	337.62
304.281	337.62
304.511	330.62
304.741	320.62
304.971	326.62
305.201	325.62
305.431	323.62
305.661	330.62
305.891	320.62
306.121	329.62
306.352	340.62
306.582	347.62
306.812	319.62
307.042	320.62
307.272	325.62
307.502	344.62
307.731	330.62
307.961	340.62
308.191	342.62
308.421	332.62
308.651	331.62
308.881	342.62
309.111	330.62
309.341	339.62
309.571	334.62
309.8	352.62
310.03	350.62
310.26	370.62
310.49	364.62
310.72	374.62
310.949	364.62
311.179	358.62
311.409	374.62
311.639	358.62
311.868	360.62
312.098	376.62
312.328	380.62
312.557	378.62
312.787	368.62
313.017	380.62
313.246	379.62
313.476	365.62
313.706	372.62
313.935	362.62
314.165	380.62
314.394	362.62
314.624	378.62
314.853	369.62
315.083	377.62
315.312	372.62
315.542	369.62
315.771	367.62
316.001	349.62
316.23	376.62
316.46	374.62
316.689	373.62
316.919	366.62
317.148	384.62
317.377	374.62
317.607	385.62
317.836	386.62
318.065	358.62
318.295	394.62
318.524	372.62
318.753	370.62
318.983	363.62
319.212	361.62
319.441	374.62
319.67	372.62
319.9	396.62
320.129	377.62
320.358	377.62
320.587	383.62
320.816	382.62
321.046	386.62
321.275	387.62
321.504	385.62
321.733	385.62
321.962	389.62
322.191	395.62
322.42	428.62
322.649	415.62
322.878	431.62
323.108	439.62
323.337	438.62
323.566	454.62
323.795	479.62
324.024	482.62
324.253	581.62
324.482	800.62
324.71	1102.62
324.939	1486.62
325.168	1297.62
325.397	725.62
325.626	521.62
325.855	496.62
326.084	466.62
326.313	463.62
326.542	467.62
326.77	475.62
326.999	563.62
327.228	709.62
327.457	973.62
327.686	1137.62
327.914	797.62
328.143	568.62
328.372	524.62
328.6	510.62
328.829	502.62
329.058	496.62
329.287	490.62
329.515	456.62
329.744	462.62
329.972	453.62
330.201	477.62
330.43	489.62
330.658	498.62
330.887	507.62
331.115	496.62
331.344	456.62
331.572	451.62
331.801	448.62
332.03	447.62
332.258	424.62
332.486	441.62
332.715	439.62
332.943	425.62
333.172	460.62
333.4	445.62
333.629	441.62
333.857	461.62
334.085	473.62
334.314	488.62
334.542	479.62
334.771	510.62
334.999	468.62
335.227	460.62
335.455	451.62
335.684	425.62
335.912	438.62
336.14	434.62
336.369	449.62
336.597	440.62
336.825	414.62
337.053	455.62
337.281	434.62
337.51	398.62
337.738	410.62
337.966	428.62
338.194	440.62
338.422	422.62
338.65	426.62
338.878	418.62
339.106	406.62
339.334	416.62
339.562	407.62
339.79	417.62
340.018	410.62
340.246	418.62
340.474	398.62
340.702	418.62
340.93	425.62
341.158	407.62
341.386	414.62
341.614	411.62
341.842	412.62
342.07	396.62
342.298	395.62
342.526	391.62
342.754	400.62
342.981	395.62
343.209	429.62
343.437	415.62
343.665	408.62
343.893	437.62
344.12	417.62
344.348	415.62
344.576	424.62
344.804	440.62
345.031	427.62
345.259	421.62
345.487	416.62
345.714	402.62
345.942	403.62
346.17	390.62
346.397	394.62
346.625	390.62
346.853	393.62
347.08	367.62
347.308	404.62
347.535	387.62
347.763	409.62
347.99	397.62
348.218	385.62
348.445	420.62
348.673	391.62
348.9	392.62
349.128	381.62
349.355	387.62
349.583	386.62
349.81	400.62
350.037	383.62
350.265	375.62
350.492	376.62
350.72	392.62
350.947	375.62
351.174	374.62
351.402	376.62
351.629	374.62
351.856	375.62
352.083	401.62
352.311	382.62
352.538	377.62
352.765	398.62
352.992	395.62
353.22	386.62
353.447	378.62
353.674	372.62
353.901	386.62
354.128	373.62
354.355	351.62
354.583	384.62
354.81	372.62
355.037	370.62
355.264	344.62
355.491	361.62
355.718	364.62
355.945	369.62
356.172	387.62
356.399	353.62
356.626	370.62
356.853	378.62
357.08	371.62
357.307	365.62
357.534	373.62
357.761	347.62
357.988	369.62
358.215	382.62
358.441	370.62
358.668	362.62
358.895	383.62
359.122	382.62
359.349	362.62
359.576	378.62
359.802	391.62
360.029	392.62
360.256	397.62
360.483	391.62
360.709	376.62
360.936	361.62
361.163	356.62
361.39	383.62
361.616	374.62
361.843	399.62
362.07	381.62
362.296	385.62
362.523	392.62
362.749	372.62
362.976	360.62
363.203	378.62
363.429	368.62
363.656	389.62
363.882	372.62
364.109	384.62
364.335	380.62
364.562	361.62
364.788	367.62
365.015	361.62
365.241	393.62
365.468	377.62
365.694	391.62
365.92	373.62
366.147	368.62
366.373	364.62
366.599	347.62
366.826	360.62
367.052	366.62
367.278	363.62
367.505	369.62
367.731	373.62
367.957	365.62
368.184	364.62
368.41	373.62
368.636	357.62
368.862	391.62
369.089	376.62
369.315	362.62
369.541	366.62
369.767	358.62
369.993	367.62
370.219	372.62
370.445	350.62
370.672	371.62
370.898	364.62
371.124	363.62
371.35	377.62
371.576	361.62
371.802	345.62
372.028	371.62
372.254	358.62
372.48	344.62
372.706	349.62
372.932	366.62
373.158	343.62
373.384	372.62
373.61	362.62
373.835	369.62
374.061	358.62
374.287	365.62
374.513	354.62
374.739	378.62
374.965	363.62
375.191	367.62
375.416	364.62
375.642	373.62
375.868	369.62
376.094	372.62
376.319	373.62
376.545	361.62
376.771	354.62
376.997	352.62
377.222	372.62
377.448	356.62
377.674	373.62
377.899	353.62
378.125	372.62
378.35	345.62
378.576	342.62
378.802	360.62
379.027	359.62
379.253	359.62
379.478	356.62
379.704	349.62
379.929	366.62
380.155	374.62
380.38	351.62
380.606	362.62
380.831	353.62
381.057	392.62
381.282	365.62
381.507	368.62
381.733	347.62
381.958	387.62
382.184	372.62
382.409	355.62
382.634	368.62
382.86	350.62
383.085	370.62
383.31	373.62
383.535	370.62
383.761	370.62
383.986	369.62
384.211	375.62
384.436	383.62
384.662	371.62
384.887	376.62
385.112	356.62
385.337	374.62
385.562	387.62
385.787	396.62
386.013	380.62
386.238	392.62
386.463	405.62
386.688	384.62
386.913	377.62
387.138	392.62
387.363	396.62
387.588	377.62
387.813	388.62
388.038	399.62
388.263	371.62
388.488	386.62
388.713	394.62
388.938	390.62
389.163	380.62
389.387	393.62
389.612	377.62
389.837	391.62
390.062	392.62
390.287	408.62
390.512	398.62
390.736	376.62
390.961	382.62
391.186	391.62
391.411	404.62
391.636	384.62
391.86	401.62
392.085	402.62
392.31	386.62
392.534	389.62
392.759	382.62
392.984	404.62
393.208	386.62
393.433	396.62
393.658	404.62
393.882	359.62
394.107	401.62
394.331	401.62
394.556	380.62
394.78	381.62
395.005	375.62
395.229	384.62
395.454	389.62
395.678	425.62
395.903	414.62
396.127	427.62
396.352	420.62
396.576	400.62
396.801	393.62
397.025	406.62
397.249	397.62
397.474	418.62
397.698	432.62
397.922	416.62
398.147	415.62
398.371	412.62
398.595	422.62
398.82	425.62
399.044	431.62
399.268	455.62
399.492	478.62
399.717	490.62
399.941	506.62
400.165	514.62
400.389	506.62
400.613	477.62
400.837	484.62
401.062	463.62
401.286	451.62
401.51	440.62
401.734	423.62
401.958	428.62
402.182	428.62
402.406	437.62
402.63	449.62
402.854	445.62
403.078	433.62
403.302	438.62
403.526	457.62
403.75	433.62
403.974	431.62
404.198	438.62
404.422	441.62
404.645	470.62
404.869	448.62
405.093	472.62
405.317	492.62
405.541	496.62
405.765	483.62
405.988	460.62
406.212	459.62
406.436	458.62
406.66	469.62
406.883	466.62
407.107	508.62
407.331	508.62
407.555	544.62
407.778	575.62
408.002	540.62
408.226	487.62
408.449	470.62
408.673	491.62
408.896	502.62
409.12	532.62
409.344	511.62
409.567	468.62
409.791	436.62
410.014	463.62
410.238	448.62
410.461	443.62
410.685	451.62
410.908	451.62
411.132	485.62
411.355	509.62
411.578	487.62
411.802	425.62
412.025	429.62
412.249	461.62
412.472	454.62
412.695	472.62
412.919	488.62
413.142	438.62
413.365	429.62
413.589	418.62
413.812	429.62
414.035	429.62
414.258	439.62
414.482	418.62
414.705	420.62
414.928	405.62
415.151	420.62
415.374	407.62
415.597	421.62
415.821	405.62
416.044	404.62
416.267	424.62
416.49	422.62
416.713	416.62
416.936	415.62
417.159	413.62
417.382	412.62
417.605	432.62
417.828	443.62
418.051	439.62
418.274	413.62
418.497	411.62
418.72	396.62
418.943	414.62
419.166	424.62
419.389	448.62
419.611	452.62
419.834	437.62
420.057	420.62
420.28	429.62
420.503	423.62
420.726	447.62
420.948	439.62
421.171	458.62
421.394	460.62
421.617	442.62
421.839	420.62
422.062	409.62
422.285	436.62
422.507	490.62
422.73	530.62
422.953	507.62
423.175	458.62
423.398	427.62
423.621	425.62
423.843	437.62
424.066	466.62
424.288	440.62
424.511	460.62
424.733	511.62
424.956	553.62
425.178	526.62
425.401	515.62
425.623	512.62
425.846	453.62
426.068	460.62
426.291	432.62
426.513	451.62
426.735	440.62
426.958	471.62
427.18	534.62
427.402	606.62
427.625	682.62
427.847	574.62
428.069	513.62
428.292	474.62
428.514	440.62
428.736	429.62
428.958	420.62
429.181	420.62
429.403	390.62
429.625	429.62
429.847	460.62
430.069	472.62
430.292	469.62
430.514	411.62
430.736	406.62
430.958	413.62
431.18	410.62
431.402	395.62
431.624	387.62
431.846	393.62
432.068	381.62
432.29	412.62
432.512	395.62
432.734	394.62
432.956	405.62
433.178	409.62
433.4	405.62
433.622	412.62
433.844	372.62
434.066	412.62
434.287	392.62
434.509	400.62
434.731	393.62
434.953	403.62
435.175	429.62
435.397	417.62
435.618	450.62
435.84	457.62
436.062	527.62
436.284	573.62
436.505	477.62
436.727	453.62
436.949	427.62
437.17	407.62
437.392	408.62
437.614	437.62
437.835	450.62
438.057	501.62
438.278	570.62
438.5	557.62
438.721	607.62
438.943	592.62
439.165	472.62
439.386	454.62
439.608	452.62
439.829	434.62
440.05	477.62
440.272	498.62
440.493	461.62
440.715	439.62
440.936	423.62
441.158	438.62
441.379	406.62
441.6	424.62
441.822	444.62
442.043	439.62
442.264	523.62
442.486	565.62
442.707	475.62
442.928	448.62
443.149	465.62
443.371	478.62
443.592	503.62
443.813	542.62
444.034	596.62
444.255	506.62
444.476	472.62
444.698	446.62
444.919	451.62
445.14	537.62
445.361	512.62
445.582	495.62
445.803	514.62
446.024	594.62
446.245	576.62
446.466	508.62
446.687	471.62
446.908	447.62
447.129	411.62
447.35	406.62
447.571	397.62
447.792	377.62
448.013	407.62
448.234	414.62
448.455	470.62
448.675	550.62
448.896	615.62
449.117	553.62
449.338	487.62
449.559	565.62
449.779	654.62
450	512.62
450.221	436.62
450.442	417.62
450.662	404.62
450.883	403.62
451.104	394.62
451.324	383.62
451.545	386.62
451.766	379.62
451.986	374.62
452.207	364.62
452.428	368.62
452.648	380.62
452.869	357.62
453.089	349.62
453.31	382.62
453.53	378.62
453.751	362.62
453.971	349.62
454.192	380.62
454.412	353.62
454.633	369.62
454.853	390.62
455.073	366.62
455.294	398.62
455.514	442.62
455.734	405.62
455.955	369.62
456.175	361.62
456.395	350.62
456.616	357.62
456.836	352.62
457.056	347.62
457.276	357.62
457.497	358.62
457.717	349.62
457.937	368.62
458.157	353.62
458.377	362.62
458.598	387.62
458.818	390.62
459.038	449.62
459.258	463.62
459.478	425.62
459.698	373.62
459.918	397.62
460.138	370.62
460.358	403.62
460.578	366.62
460.798	408.62
461.018	409.62
461.238	400.62
461.458	413.62
461.678	398.62
461.898	426.62
462.118	418.62
462.338	437.62
462.558	411.62
462.777	430.62
462.997	448.62
463.217	446.62
463.437	422.62
463.657	439.62
463.876	447.62
464.096	401.62
464.316	414.62
464.536	436.62
464.755	430.62
464.975	433.62
465.195	455.62
465.414	466.62
465.634	411.62
465.854	410.62
466.073	398.62
466.293	396.62
466.512	390.62
466.732	374.62
466.951	406.62
467.171	378.62
467.391	372.62
467.61	399.62
467.829	385.62
468.049	385.62
468.268	390.62
468.488	365.62
468.707	374.62
468.927	359.62
469.146	367.62
469.365	382.62
469.585	402.62
469.804	369.62
470.023	384.62
470.243	368.62
470.462	373.62
470.681	398.62
470.901	396.62
471.12	399.62
471.339	384.62
471.558	385.62
471.777	383.62
471.997	380.62
472.216	385.62
472.435	392.62
472.654	390.62
472.873	389.62
473.092	369.62
473.311	383.62
473.53	365.62
473.749	392.62
473.968	422.62
474.187	471.62
474.406	466.62
474.625	427.62
474.844	381.62
475.063	377.62
475.282	364.62
475.501	392.62
475.72	369.62
475.939	386.62
476.158	410.62
476.377	411.62
476.596	388.62
476.814	388.62
477.033	415.62
477.252	411.62
477.471	386.62
477.69	408.62
477.908	416.62
478.127	427.62
478.346	412.62
478.564	434.62
478.783	432.62
479.002	434.62
479.22	418.62
479.439	433.62
479.658	445.62
479.876	455.62
480.095	456.62
480.313	461.62
480.532	464.62
480.751	447.62
480.969	461.62
481.188	499.62
481.406	521.62
481.624	480.62
481.843	451.62
482.061	465.62
482.28	449.62
482.498	445.62
482.717	441.62
482.935	430.62
483.153	431.62
483.372	436.62
483.59	440.62
483.808	444.62
484.027	428.62
484.245	443.62
484.463	481.62
484.681	467.62
484.9	451.62
485.118	449.62
485.336	433.62
485.554	439.62
485.772	464.62
485.99	450.62
486.209	459.62
486.427	473.62
486.645	468.62
486.863	468.62
487.081	472.62
487.299	470.62
487.517	474.62
487.735	446.62
487.953	458.62
488.171	479.62
488.389	454.62
488.607	454.62
488.825	462.62
489.043	484.62
489.261	491.62
489.479	486.62
489.696	474.62
489.914	473.62
490.132	474.62
490.35	491.62
490.568	501.62
490.786	502.62
491.003	479.62
491.221	498.62
491.439	496.62
491.657	504.62
491.874	512.62
492.092	525.62
492.31	510.62
492.527	525.62
492.745	541.62
492.963	511.62
493.18	539.62
493.398	521.62
493.615	525.62
493.833	541.62
494.05	514.62
494.268	524.62
494.485	515.62
494.703	541.62
494.92	552.62
495.138	536.62
495.355	557.62
495.573	549.62
495.79	546.62
496.008	561.62
496.225	519.62
496.442	550.62
496.66	556.62
496.877	548.62
497.094	554.62
497.312	575.62
497.529	579.62
497.746	589.62
497.963	536.62
498.181	584.62
498.398	592.62
498.615	599.62
498.832	619.62
499.049	624.62
499.267	657.62
499.484	688.62
499.701	706.62
499.918	710.62
500.135	732.62
500.352	768.62
500.569	779.62
500.786	786.62
501.003	800.62
501.22	735.62
501.437	719.62
501.654	710.62
501.871	707.62
