Data from 1960PennyLincolnUp.LampE5.5.200Scan.07172019.P1.ChangedAngle_HRD10591_13-14-40-822.txt Node
Date: Thu Jul 18 13:14:40 EDT 2019
User: cochatt
Spectrometer: HR+D1059
Trigger mode: 1
Integration Time (sec): 1.000000E-1
Scans to average: 1
Electric dark correction enabled: true
Nonlinearity correction enabled: false
Boxcar width: 0
XAxis mode: Wavelengths
Number of Pixels in Spectrum: 2048
>>>>>Begin Spectral Data<<<<<
223.165	-12.88
223.4	-12.88
223.635	-12.88
223.869	-18.88
224.104	-19.88
224.338	-7.88
224.573	-12.88
224.808	0.12
225.042	-11.88
225.277	-7.88
225.511	-8.88
225.746	10.12
225.98	11.12
226.215	14.12
226.449	1.12
226.683	24.12
226.918	24.12
227.152	16.12
227.387	35.12
227.621	43.12
227.856	29.12
228.09	53.12
228.324	52.12
228.559	64.12
228.793	66.12
229.027	95.12
229.262	104.12
229.496	91.12
229.73	97.12
229.964	116.12
230.199	89.12
230.433	110.12
230.667	92.12
230.901	104.12
231.136	112.12
231.37	84.12
231.604	100.12
231.838	101.12
232.072	113.12
232.306	104.12
232.541	106.12
232.775	116.12
233.009	93.12
233.243	108.12
233.477	114.12
233.711	111.12
233.945	110.12
234.179	114.12
234.413	83.12
234.647	110.12
234.881	98.12
235.115	107.12
235.349	110.12
235.583	108.12
235.817	103.12
236.051	110.12
236.285	122.12
236.519	108.12
236.753	116.12
236.987	124.12
237.221	150.12
237.455	180.12
237.689	144.12
237.922	132.12
238.156	127.12
238.39	120.12
238.624	115.12
238.858	114.12
239.091	115.12
239.325	114.12
239.559	123.12
239.793	107.12
240.027	120.12
240.26	128.12
240.494	129.12
240.728	116.12
240.961	130.12
241.195	138.12
241.429	124.12
241.662	125.12
241.896	125.12
242.13	115.12
242.363	120.12
242.597	112.12
242.83	113.12
243.064	116.12
243.298	141.12
243.531	146.12
243.765	122.12
243.998	117.12
244.232	114.12
244.465	132.12
244.699	152.12
244.932	125.12
245.166	122.12
245.399	126.12
245.633	144.12
245.866	120.12
246.099	136.12
246.333	139.12
246.566	130.12
246.8	131.12
247.033	146.12
247.266	149.12
247.5	137.12
247.733	168.12
247.966	136.12
248.2	155.12
248.433	164.12
248.666	145.12
248.899	184.12
249.133	161.12
249.366	174.12
249.599	178.12
249.832	162.12
250.066	160.12
250.299	166.12
250.532	173.12
250.765	185.12
250.998	183.12
251.231	185.12
251.465	182.12
251.698	185.12
251.931	176.12
252.164	170.12
252.397	182.12
252.63	152.12
252.863	179.12
253.096	179.12
253.329	191.12
253.562	190.12
253.795	176.12
254.028	194.12
254.261	181.12
254.494	180.12
254.727	196.12
254.96	237.12
255.193	216.12
255.426	192.12
255.659	204.12
255.892	208.12
256.124	215.12
256.357	190.12
256.59	198.12
256.823	189.12
257.056	179.12
257.289	190.12
257.521	197.12
257.754	187.12
257.987	191.12
258.22	191.12
258.452	183.12
258.685	185.12
258.918	189.12
259.151	191.12
259.383	197.12
259.616	188.12
259.849	195.12
260.081	199.12
260.314	204.12
260.547	212.12
260.779	197.12
261.012	210.12
261.244	217.12
261.477	188.12
261.71	208.12
261.942	199.12
262.175	188.12
262.407	197.12
262.64	212.12
262.872	193.12
263.105	198.12
263.337	190.12
263.57	192.12
263.802	202.12
264.035	195.12
264.267	206.12
264.499	182.12
264.732	224.12
264.964	201.12
265.197	212.12
265.429	194.12
265.661	211.12
265.894	207.12
266.126	205.12
266.358	220.12
266.591	201.12
266.823	206.12
267.055	214.12
267.287	213.12
267.52	217.12
267.752	225.12
267.984	217.12
268.216	175.12
268.448	229.12
268.681	223.12
268.913	217.12
269.145	237.12
269.377	240.12
269.609	244.12
269.841	246.12
270.073	249.12
270.306	234.12
270.538	277.12
270.77	259.12
271.002	252.12
271.234	254.12
271.466	269.12
271.698	264.12
271.93	277.12
272.162	275.12
272.394	278.12
272.626	269.12
272.858	262.12
273.09	250.12
273.322	250.12
273.553	247.12
273.785	245.12
274.017	252.12
274.249	232.12
274.481	249.12
274.713	234.12
274.945	245.12
275.176	253.12
275.408	257.12
275.64	243.12
275.872	240.12
276.104	252.12
276.335	256.12
276.567	240.12
276.799	258.12
277.031	265.12
277.262	262.12
277.494	263.12
277.726	271.12
277.957	272.12
278.189	268.12
278.421	246.12
278.652	263.12
278.884	259.12
279.115	256.12
279.347	251.12
279.579	252.12
279.81	249.12
280.042	256.12
280.273	235.12
280.505	251.12
280.736	262.12
280.968	258.12
281.199	255.12
281.431	248.12
281.662	243.12
281.894	269.12
282.125	259.12
282.356	249.12
282.588	278.12
282.819	265.12
283.051	254.12
283.282	266.12
283.513	252.12
283.745	233.12
283.976	273.12
284.207	277.12
284.439	271.12
284.67	260.12
284.901	275.12
285.132	273.12
285.364	257.12
285.595	282.12
285.826	266.12
286.057	250.12
286.288	253.12
286.52	258.12
286.751	276.12
286.982	277.12
287.213	280.12
287.444	264.12
287.675	262.12
287.906	266.12
288.138	267.12
288.369	291.12
288.6	289.12
288.831	288.12
289.062	277.12
289.293	279.12
289.524	274.12
289.755	269.12
289.986	276.12
290.217	264.12
290.448	266.12
290.679	289.12
290.91	292.12
291.141	293.12
291.371	286.12
291.602	291.12
291.833	273.12
292.064	252.12
292.295	281.12
292.526	270.12
292.757	269.12
292.987	264.12
293.218	286.12
293.449	253.12
293.68	278.12
293.91	278.12
294.141	288.12
294.372	286.12
294.603	285.12
294.833	281.12
295.064	285.12
295.295	297.12
295.525	296.12
295.756	283.12
295.987	289.12
296.217	273.12
296.448	300.12
296.679	289.12
296.909	282.12
297.14	280.12
297.37	284.12
297.601	284.12
297.831	279.12
298.062	292.12
298.292	298.12
298.523	304.12
298.753	284.12
298.984	288.12
299.214	282.12
299.445	302.12
299.675	308.12
299.905	313.12
300.136	280.12
300.366	295.12
300.597	285.12
300.827	313.12
301.057	305.12
301.288	317.12
301.518	319.12
301.748	304.12
301.979	302.12
302.209	314.12
302.439	308.12
302.669	312.12
302.9	328.12
303.13	300.12
303.36	322.12
303.59	323.12
303.82	338.12
304.051	306.12
304.281	321.12
304.511	296.12
304.741	337.12
304.971	324.12
305.201	317.12
305.431	307.12
305.661	304.12
305.891	302.12
306.121	303.12
306.352	305.12
306.582	319.12
306.812	328.12
307.042	297.12
307.272	319.12
307.502	314.12
307.731	336.12
307.961	317.12
308.191	314.12
308.421	327.12
308.651	327.12
308.881	326.12
309.111	332.12
309.341	317.12
309.571	324.12
309.8	349.12
310.03	325.12
310.26	340.12
310.49	317.12
310.72	349.12
310.949	340.12
311.179	328.12
311.409	328.12
311.639	331.12
311.868	320.12
312.098	358.12
312.328	340.12
312.557	337.12
312.787	359.12
313.017	345.12
313.246	342.12
313.476	373.12
313.706	351.12
313.935	340.12
314.165	352.12
314.394	344.12
314.624	345.12
314.853	355.12
315.083	360.12
315.312	337.12
315.542	338.12
315.771	343.12
316.001	343.12
316.23	346.12
316.46	355.12
316.689	346.12
316.919	359.12
317.148	364.12
317.377	358.12
317.607	356.12
317.836	356.12
318.065	351.12
318.295	356.12
318.524	352.12
318.753	342.12
318.983	360.12
319.212	351.12
319.441	348.12
319.67	357.12
319.9	376.12
320.129	332.12
320.358	340.12
320.587	346.12
320.816	344.12
321.046	353.12
321.275	374.12
321.504	357.12
321.733	358.12
321.962	371.12
322.191	369.12
322.42	373.12
322.649	402.12
322.878	380.12
323.108	382.12
323.337	412.12
323.566	406.12
323.795	416.12
324.024	457.12
324.253	527.12
324.482	686.12
324.71	971.12
324.939	1291.12
325.168	1104.12
325.397	655.12
325.626	467.12
325.855	436.12
326.084	418.12
326.313	415.12
326.542	427.12
326.77	442.12
326.999	524.12
327.228	633.12
327.457	879.12
327.686	1002.12
327.914	705.12
328.143	513.12
328.372	474.12
328.6	478.12
328.829	453.12
329.058	447.12
329.287	449.12
329.515	453.12
329.744	424.12
329.972	432.12
330.201	434.12
330.43	454.12
330.658	457.12
330.887	462.12
331.115	456.12
331.344	420.12
331.572	422.12
331.801	404.12
332.03	423.12
332.258	413.12
332.486	389.12
332.715	405.12
332.943	424.12
333.172	402.12
333.4	399.12
333.629	435.12
333.857	418.12
334.085	446.12
334.314	438.12
334.542	464.12
334.771	446.12
334.999	420.12
335.227	418.12
335.455	432.12
335.684	422.12
335.912	422.12
336.14	413.12
336.369	408.12
336.597	409.12
336.825	407.12
337.053	399.12
337.281	403.12
337.51	400.12
337.738	386.12
337.966	424.12
338.194	402.12
338.422	398.12
338.65	399.12
338.878	402.12
339.106	391.12
339.334	396.12
339.562	382.12
339.79	392.12
340.018	385.12
340.246	370.12
340.474	384.12
340.702	383.12
340.93	382.12
341.158	382.12
341.386	384.12
341.614	393.12
341.842	398.12
342.07	397.12
342.298	373.12
342.526	370.12
342.754	391.12
342.981	380.12
343.209	378.12
343.437	402.12
343.665	400.12
343.893	400.12
344.12	416.12
344.348	414.12
344.576	411.12
344.804	412.12
345.031	408.12
345.259	402.12
345.487	401.12
345.714	382.12
345.942	385.12
346.17	372.12
346.397	390.12
346.625	374.12
346.853	367.12
347.08	343.12
347.308	370.12
347.535	348.12
347.763	364.12
347.99	375.12
348.218	361.12
348.445	353.12
348.673	367.12
348.9	372.12
349.128	364.12
349.355	365.12
349.583	372.12
349.81	358.12
350.037	368.12
350.265	354.12
350.492	372.12
350.72	362.12
350.947	367.12
351.174	365.12
351.402	377.12
351.629	372.12
351.856	345.12
352.083	360.12
352.311	364.12
352.538	362.12
352.765	385.12
352.992	362.12
353.22	376.12
353.447	353.12
353.674	353.12
353.901	381.12
354.128	357.12
354.355	358.12
354.583	334.12
354.81	350.12
355.037	372.12
355.264	328.12
355.491	348.12
355.718	341.12
355.945	343.12
356.172	335.12
356.399	317.12
356.626	370.12
356.853	356.12
357.08	344.12
357.307	346.12
357.534	350.12
357.761	351.12
357.988	355.12
358.215	346.12
358.441	360.12
358.668	358.12
358.895	359.12
359.122	362.12
359.349	358.12
359.576	366.12
359.802	365.12
360.029	387.12
360.256	367.12
360.483	377.12
360.709	354.12
360.936	358.12
361.163	370.12
361.39	372.12
361.616	349.12
361.843	366.12
362.07	358.12
362.296	361.12
362.523	358.12
362.749	350.12
362.976	365.12
363.203	352.12
363.429	351.12
363.656	336.12
363.882	364.12
364.109	362.12
364.335	345.12
364.562	358.12
364.788	342.12
365.015	356.12
365.241	353.12
365.468	343.12
365.694	349.12
365.92	362.12
366.147	356.12
366.373	342.12
366.599	346.12
366.826	348.12
367.052	331.12
367.278	353.12
367.505	345.12
367.731	346.12
367.957	362.12
368.184	357.12
368.41	361.12
368.636	331.12
368.862	332.12
369.089	351.12
369.315	353.12
369.541	358.12
369.767	352.12
369.993	353.12
370.219	338.12
370.445	342.12
370.672	356.12
370.898	336.12
371.124	346.12
371.35	350.12
371.576	349.12
371.802	345.12
372.028	356.12
372.254	344.12
372.48	345.12
372.706	337.12
372.932	356.12
373.158	336.12
373.384	360.12
373.61	372.12
373.835	351.12
374.061	347.12
374.287	337.12
374.513	358.12
374.739	336.12
374.965	372.12
375.191	352.12
375.416	359.12
375.642	355.12
375.868	349.12
376.094	357.12
376.319	334.12
376.545	359.12
376.771	344.12
376.997	350.12
377.222	345.12
377.448	349.12
377.674	336.12
377.899	358.12
378.125	338.12
378.35	335.12
378.576	343.12
378.802	351.12
379.027	362.12
379.253	342.12
379.478	353.12
379.704	348.12
379.929	338.12
380.155	350.12
380.38	342.12
380.606	330.12
380.831	331.12
381.057	338.12
381.282	352.12
381.507	358.12
381.733	351.12
381.958	340.12
382.184	337.12
382.409	341.12
382.634	360.12
382.86	334.12
383.085	333.12
383.31	333.12
383.535	359.12
383.761	340.12
383.986	360.12
384.211	357.12
384.436	332.12
384.662	343.12
384.887	353.12
385.112	365.12
385.337	376.12
385.562	364.12
385.787	369.12
386.013	363.12
386.238	368.12
386.463	377.12
386.688	382.12
386.913	366.12
387.138	373.12
387.363	377.12
387.588	357.12
387.813	377.12
388.038	387.12
388.263	370.12
388.488	380.12
388.713	374.12
388.938	367.12
389.163	387.12
389.387	378.12
389.612	392.12
389.837	364.12
390.062	381.12
390.287	369.12
390.512	364.12
390.736	380.12
390.961	363.12
391.186	367.12
391.411	358.12
391.636	382.12
391.86	368.12
392.085	385.12
392.31	385.12
392.534	385.12
392.759	369.12
392.984	374.12
393.208	375.12
393.433	394.12
393.658	388.12
393.882	371.12
394.107	386.12
394.331	396.12
394.556	382.12
394.78	364.12
395.005	361.12
395.229	367.12
395.454	381.12
395.678	395.12
395.903	394.12
396.127	387.12
396.352	397.12
396.576	391.12
396.801	394.12
397.025	391.12
397.249	383.12
397.474	367.12
397.698	390.12
397.922	392.12
398.147	390.12
398.371	396.12
398.595	415.12
398.82	417.12
399.044	431.12
399.268	456.12
399.492	465.12
399.717	463.12
399.941	488.12
400.165	502.12
400.389	526.12
400.613	477.12
400.837	437.12
401.062	403.12
401.286	428.12
401.51	417.12
401.734	398.12
401.958	431.12
402.182	424.12
402.406	434.12
402.63	392.12
402.854	448.12
403.078	425.12
403.302	410.12
403.526	409.12
403.75	426.12
403.974	434.12
404.198	420.12
404.422	426.12
404.645	432.12
404.869	454.12
405.093	457.12
405.317	472.12
405.541	529.12
405.765	462.12
405.988	446.12
406.212	450.12
406.436	444.12
406.66	458.12
406.883	439.12
407.107	448.12
407.331	469.12
407.555	522.12
407.778	517.12
408.002	472.12
408.226	441.12
408.449	454.12
408.673	461.12
408.896	472.12
409.12	466.12
409.344	454.12
409.567	465.12
409.791	434.12
410.014	422.12
410.238	416.12
410.461	398.12
410.685	411.12
410.908	440.12
411.132	462.12
411.355	460.12
411.578	446.12
411.802	423.12
412.025	433.12
412.249	425.12
412.472	428.12
412.695	466.12
412.919	447.12
413.142	440.12
413.365	428.12
413.589	407.12
413.812	386.12
414.035	392.12
414.258	412.12
414.482	394.12
414.705	397.12
414.928	391.12
415.151	394.12
415.374	380.12
415.597	392.12
415.821	405.12
416.044	392.12
416.267	409.12
416.49	385.12
416.713	390.12
416.936	384.12
417.159	384.12
417.382	416.12
417.605	406.12
417.828	408.12
418.051	397.12
418.274	400.12
418.497	399.12
418.72	395.12
418.943	397.12
419.166	404.12
419.389	417.12
419.611	400.12
419.834	399.12
420.057	414.12
420.28	407.12
420.503	415.12
420.726	407.12
420.948	413.12
421.171	445.12
421.394	450.12
421.617	400.12
421.839	405.12
422.062	386.12
422.285	412.12
422.507	449.12
422.73	481.12
422.953	490.12
423.175	411.12
423.398	426.12
423.621	406.12
423.843	426.12
424.066	425.12
424.288	421.12
424.511	421.12
424.733	473.12
424.956	506.12
425.178	492.12
425.401	501.12
425.623	502.12
425.846	451.12
426.068	405.12
426.291	403.12
426.513	407.12
426.735	420.12
426.958	458.12
427.18	520.12
427.402	580.12
427.625	613.12
427.847	545.12
428.069	496.12
428.292	435.12
428.514	420.12
428.736	404.12
428.958	395.12
429.181	386.12
429.403	418.12
429.625	395.12
429.847	414.12
430.069	464.12
430.292	441.12
430.514	408.12
430.736	398.12
430.958	380.12
431.18	381.12
431.402	406.12
431.624	377.12
431.846	367.12
432.068	365.12
432.29	358.12
432.512	377.12
432.734	383.12
432.956	361.12
433.178	386.12
433.4	378.12
433.622	370.12
433.844	389.12
434.066	368.12
434.287	353.12
434.509	371.12
434.731	385.12
434.953	396.12
435.175	397.12
435.397	407.12
435.618	440.12
435.84	441.12
436.062	494.12
436.284	529.12
436.505	467.12
436.727	425.12
436.949	400.12
437.17	388.12
437.392	386.12
437.614	392.12
437.835	409.12
438.057	481.12
438.278	545.12
438.5	555.12
438.721	562.12
438.943	564.12
439.165	461.12
439.386	404.12
439.608	416.12
439.829	417.12
440.05	431.12
440.272	435.12
440.493	430.12
440.715	389.12
440.936	408.12
441.158	392.12
441.379	396.12
441.6	399.12
441.822	398.12
442.043	432.12
442.264	509.12
442.486	508.12
442.707	448.12
442.928	446.12
443.149	424.12
443.371	450.12
443.592	478.12
443.813	518.12
444.034	540.12
444.255	489.12
444.476	426.12
444.698	412.12
444.919	403.12
445.14	506.12
445.361	473.12
445.582	442.12
445.803	470.12
446.024	524.12
446.245	517.12
446.466	490.12
446.687	435.12
446.908	406.12
447.129	385.12
447.35	394.12
447.571	393.12
447.792	371.12
448.013	395.12
448.234	387.12
448.455	422.12
448.675	489.12
448.896	541.12
449.117	479.12
449.338	468.12
449.559	511.12
449.779	593.12
450	494.12
450.221	396.12
450.442	385.12
450.662	366.12
450.883	373.12
451.104	383.12
451.324	378.12
451.545	372.12
451.766	372.12
451.986	334.12
452.207	349.12
452.428	346.12
452.648	348.12
452.869	331.12
453.089	346.12
453.31	361.12
453.53	348.12
453.751	348.12
453.971	333.12
454.192	362.12
454.412	332.12
454.633	338.12
454.853	345.12
455.073	358.12
455.294	364.12
455.514	392.12
455.734	350.12
455.955	337.12
456.175	334.12
456.395	349.12
456.616	337.12
456.836	315.12
457.056	330.12
457.276	337.12
457.497	336.12
457.717	340.12
457.937	341.12
458.157	337.12
458.377	334.12
458.598	353.12
458.818	368.12
459.038	405.12
459.258	440.12
459.478	397.12
459.698	368.12
459.918	363.12
460.138	376.12
460.358	373.12
460.578	376.12
460.798	383.12
461.018	392.12
461.238	369.12
461.458	376.12
461.678	388.12
461.898	394.12
462.118	384.12
462.338	380.12
462.558	400.12
462.777	410.12
462.997	407.12
463.217	428.12
463.437	422.12
463.657	432.12
463.876	426.12
464.096	406.12
464.316	403.12
464.536	399.12
464.755	393.12
464.975	400.12
465.195	414.12
465.414	432.12
465.634	400.12
465.854	398.12
466.073	395.12
466.293	361.12
466.512	351.12
466.732	370.12
466.951	362.12
467.171	344.12
467.391	358.12
467.61	361.12
467.829	353.12
468.049	350.12
468.268	362.12
468.488	360.12
468.707	337.12
468.927	366.12
469.146	359.12
469.365	341.12
469.585	348.12
469.804	360.12
470.023	373.12
470.243	363.12
470.462	365.12
470.681	369.12
470.901	375.12
471.12	350.12
471.339	364.12
471.558	378.12
471.777	353.12
471.997	367.12
472.216	352.12
472.435	368.12
472.654	366.12
472.873	367.12
473.092	376.12
473.311	362.12
473.53	365.12
473.749	380.12
473.968	397.12
474.187	452.12
474.406	442.12
474.625	377.12
474.844	378.12
475.063	356.12
475.282	376.12
475.501	367.12
475.72	355.12
475.939	357.12
476.158	382.12
476.377	386.12
476.596	377.12
476.814	380.12
477.033	377.12
477.252	392.12
477.471	399.12
477.69	393.12
477.908	402.12
478.127	394.12
478.346	393.12
478.564	418.12
478.783	402.12
479.002	404.12
479.22	410.12
479.439	428.12
479.658	408.12
479.876	428.12
480.095	426.12
480.313	452.12
480.532	405.12
480.751	454.12
480.969	440.12
481.188	457.12
481.406	477.12
481.624	453.12
481.843	431.12
482.061	415.12
482.28	440.12
482.498	432.12
482.717	404.12
482.935	430.12
483.153	417.12
483.372	410.12
483.59	416.12
483.808	425.12
484.027	415.12
484.245	436.12
484.463	433.12
484.681	426.12
484.9	426.12
485.118	429.12
485.336	415.12
485.554	432.12
485.772	424.12
485.99	429.12
486.209	433.12
486.427	441.12
486.645	449.12
486.863	443.12
487.081	430.12
487.299	463.12
487.517	448.12
487.735	445.12
487.953	443.12
488.171	434.12
488.389	454.12
488.607	461.12
488.825	468.12
489.043	448.12
489.261	442.12
489.479	460.12
489.696	476.12
489.914	466.12
490.132	447.12
490.35	446.12
490.568	454.12
490.786	472.12
491.003	457.12
491.221	503.12
491.439	488.12
491.657	468.12
491.874	519.12
492.092	511.12
492.31	500.12
492.527	503.12
492.745	515.12
492.963	506.12
493.18	513.12
493.398	471.12
493.615	482.12
493.833	504.12
494.05	530.12
494.268	522.12
494.485	502.12
494.703	506.12
494.92	509.12
495.138	503.12
495.355	523.12
495.573	532.12
495.79	478.12
496.008	518.12
496.225	512.12
496.442	532.12
496.66	514.12
496.877	502.12
497.094	501.12
497.312	513.12
497.529	514.12
497.746	539.12
497.963	559.12
498.181	558.12
498.398	561.12
498.615	591.12
498.832	579.12
499.049	600.12
499.267	624.12
499.484	637.12
499.701	653.12
499.918	689.12
500.135	718.12
500.352	758.12
500.569	764.12
500.786	753.12
501.003	711.12
501.22	695.12
501.437	708.12
501.654	678.12
501.871	673.12
