Data from 1960PennyLincolnUp.LampE6.200Scan.07172019.P1_HRD10591_13-05-19-001.txt Node
Date: Thu Jul 18 13:05:19 EDT 2019
User: cochatt
Spectrometer: HR+D1059
Trigger mode: 1
Integration Time (sec): 1.000000E-1
Scans to average: 1
Electric dark correction enabled: true
Nonlinearity correction enabled: false
Boxcar width: 0
XAxis mode: Wavelengths
Number of Pixels in Spectrum: 2048
>>>>>Begin Spectral Data<<<<<
223.165	-12.12
223.4	-12.12
223.635	-12.12
223.869	-9.12
224.104	-24.12
224.338	-3.12
224.573	-11.12
224.808	-9.12
225.042	1.88
225.277	-13.12
225.511	-15.12
225.746	-0.12
225.98	2.88
226.215	15.88
226.449	17.88
226.683	13.88
226.918	17.88
227.152	26.88
227.387	38.88
227.621	28.88
227.856	38.88
228.09	31.88
228.324	44.88
228.559	47.88
228.793	64.88
229.027	84.88
229.262	104.88
229.496	93.88
229.73	105.88
229.964	116.88
230.199	114.88
230.433	104.88
230.667	123.88
230.901	108.88
231.136	96.88
231.37	106.88
231.604	109.88
231.838	108.88
232.072	117.88
232.306	98.88
232.541	98.88
232.775	101.88
233.009	105.88
233.243	97.88
233.477	104.88
233.711	109.88
233.945	122.88
234.179	110.88
234.413	115.88
234.647	118.88
234.881	110.88
235.115	102.88
235.349	116.88
235.583	107.88
235.817	104.88
236.051	115.88
236.285	102.88
236.519	127.88
236.753	136.88
236.987	136.88
237.221	152.88
237.455	181.88
237.689	139.88
237.922	127.88
238.156	121.88
238.39	119.88
238.624	128.88
238.858	116.88
239.091	119.88
239.325	117.88
239.559	114.88
239.793	118.88
240.027	123.88
240.26	130.88
240.494	151.88
240.728	120.88
240.961	132.88
241.195	130.88
241.429	120.88
241.662	141.88
241.896	142.88
242.13	123.88
242.363	129.88
242.597	114.88
242.83	129.88
243.064	145.88
243.298	129.88
243.531	125.88
243.765	134.88
243.998	128.88
244.232	122.88
244.465	150.88
244.699	144.88
244.932	143.88
245.166	137.88
245.399	136.88
245.633	132.88
245.866	137.88
246.099	133.88
246.333	129.88
246.566	142.88
246.8	130.88
247.033	145.88
247.266	154.88
247.5	145.88
247.733	143.88
247.966	153.88
248.2	161.88
248.433	170.88
248.666	146.88
248.899	161.88
249.133	170.88
249.366	173.88
249.599	167.88
249.832	165.88
250.066	176.88
250.299	160.88
250.532	161.88
250.765	172.88
250.998	183.88
251.231	173.88
251.465	185.88
251.698	179.88
251.931	168.88
252.164	187.88
252.397	178.88
252.63	180.88
252.863	182.88
253.096	201.88
253.329	200.88
253.562	198.88
253.795	195.88
254.028	185.88
254.261	198.88
254.494	200.88
254.727	202.88
254.96	211.88
255.193	211.88
255.426	180.88
255.659	194.88
255.892	183.88
256.124	199.88
256.357	210.88
256.59	192.88
256.823	180.88
257.056	180.88
257.289	173.88
257.521	193.88
257.754	186.88
257.987	189.88
258.22	186.88
258.452	182.88
258.685	190.88
258.918	199.88
259.151	183.88
259.383	195.88
259.616	198.88
259.849	197.88
260.081	201.88
260.314	209.88
260.547	211.88
260.779	212.88
261.012	200.88
261.244	188.88
261.477	207.88
261.71	196.88
261.942	209.88
262.175	191.88
262.407	215.88
262.64	207.88
262.872	201.88
263.105	202.88
263.337	216.88
263.57	196.88
263.802	207.88
264.035	194.88
264.267	190.88
264.499	204.88
264.732	212.88
264.964	217.88
265.197	225.88
265.429	202.88
265.661	208.88
265.894	217.88
266.126	221.88
266.358	207.88
266.591	200.88
266.823	212.88
267.055	217.88
267.287	222.88
267.52	228.88
267.752	214.88
267.984	211.88
268.216	226.88
268.448	211.88
268.681	210.88
268.913	229.88
269.145	247.88
269.377	262.88
269.609	242.88
269.841	245.88
270.073	243.88
270.306	271.88
270.538	261.88
270.77	275.88
271.002	252.88
271.234	243.88
271.466	249.88
271.698	266.88
271.93	250.88
272.162	271.88
272.394	276.88
272.626	247.88
272.858	250.88
273.09	251.88
273.322	252.88
273.553	246.88
273.785	248.88
274.017	245.88
274.249	248.88
274.481	232.88
274.713	243.88
274.945	249.88
275.176	250.88
275.408	241.88
275.64	227.88
275.872	245.88
276.104	243.88
276.335	249.88
276.567	250.88
276.799	246.88
277.031	266.88
277.262	275.88
277.494	271.88
277.726	263.88
277.957	270.88
278.189	249.88
278.421	261.88
278.652	266.88
278.884	262.88
279.115	262.88
279.347	265.88
279.579	262.88
279.81	241.88
280.042	268.88
280.273	247.88
280.505	251.88
280.736	266.88
280.968	269.88
281.199	262.88
281.431	267.88
281.662	272.88
281.894	280.88
282.125	263.88
282.356	266.88
282.588	269.88
282.819	279.88
283.051	261.88
283.282	275.88
283.513	277.88
283.745	257.88
283.976	273.88
284.207	279.88
284.439	278.88
284.67	279.88
284.901	281.88
285.132	287.88
285.364	279.88
285.595	279.88
285.826	293.88
286.057	280.88
286.288	286.88
286.52	295.88
286.751	279.88
286.982	298.88
287.213	282.88
287.444	280.88
287.675	295.88
287.906	288.88
288.138	305.88
288.369	314.88
288.6	307.88
288.831	295.88
289.062	290.88
289.293	284.88
289.524	292.88
289.755	312.88
289.986	298.88
290.217	292.88
290.448	289.88
290.679	291.88
290.91	308.88
291.141	291.88
291.371	295.88
291.602	295.88
291.833	294.88
292.064	297.88
292.295	285.88
292.526	292.88
292.757	290.88
292.987	302.88
293.218	278.88
293.449	291.88
293.68	299.88
293.91	294.88
294.141	317.88
294.372	310.88
294.603	306.88
294.833	285.88
295.064	301.88
295.295	306.88
295.525	314.88
295.756	297.88
295.987	314.88
296.217	317.88
296.448	296.88
296.679	305.88
296.909	304.88
297.14	319.88
297.37	309.88
297.601	307.88
297.831	304.88
298.062	311.88
298.292	322.88
298.523	305.88
298.753	313.88
298.984	317.88
299.214	337.88
299.445	339.88
299.675	304.88
299.905	309.88
300.136	324.88
300.366	325.88
300.597	322.88
300.827	331.88
301.057	322.88
301.288	338.88
301.518	307.88
301.748	325.88
301.979	341.88
302.209	340.88
302.439	340.88
302.669	329.88
302.9	352.88
303.13	332.88
303.36	340.88
303.59	343.88
303.82	333.88
304.051	352.88
304.281	348.88
304.511	337.88
304.741	336.88
304.971	336.88
305.201	329.88
305.431	332.88
305.661	340.88
305.891	323.88
306.121	353.88
306.352	336.88
306.582	343.88
306.812	342.88
307.042	325.88
307.272	331.88
307.502	343.88
307.731	350.88
307.961	332.88
308.191	342.88
308.421	342.88
308.651	332.88
308.881	334.88
309.111	338.88
309.341	331.88
309.571	335.88
309.8	345.88
310.03	335.88
310.26	353.88
310.49	362.88
310.72	358.88
310.949	359.88
311.179	352.88
311.409	364.88
311.639	351.88
311.868	348.88
312.098	362.88
312.328	370.88
312.557	351.88
312.787	367.88
313.017	375.88
313.246	372.88
313.476	345.88
313.706	356.88
313.935	372.88
314.165	362.88
314.394	384.88
314.624	375.88
314.853	358.88
315.083	380.88
315.312	375.88
315.542	368.88
315.771	366.88
316.001	367.88
316.23	355.88
316.46	354.88
316.689	373.88
316.919	369.88
317.148	356.88
317.377	377.88
317.607	370.88
317.836	378.88
318.065	361.88
318.295	359.88
318.524	366.88
318.753	363.88
318.983	369.88
319.212	360.88
319.441	369.88
319.67	363.88
319.9	361.88
320.129	385.88
320.358	366.88
320.587	378.88
320.816	378.88
321.046	368.88
321.275	387.88
321.504	383.88
321.733	382.88
321.962	390.88
322.191	397.88
322.42	389.88
322.649	382.88
322.878	411.88
323.108	416.88
323.337	411.88
323.566	414.88
323.795	411.88
324.024	450.88
324.253	515.88
324.482	660.88
324.71	888.88
324.939	1166.88
325.168	1016.88
325.397	596.88
325.626	479.88
325.855	422.88
326.084	426.88
326.313	434.88
326.542	430.88
326.77	465.88
326.999	490.88
327.228	625.88
327.457	851.88
327.686	950.88
327.914	646.88
328.143	516.88
328.372	503.88
328.6	465.88
328.829	448.88
329.058	458.88
329.287	441.88
329.515	462.88
329.744	442.88
329.972	445.88
330.201	444.88
330.43	472.88
330.658	474.88
330.887	497.88
331.115	465.88
331.344	462.88
331.572	436.88
331.801	444.88
332.03	430.88
332.258	432.88
332.486	441.88
332.715	469.88
332.943	492.88
333.172	476.88
333.4	497.88
333.629	480.88
333.857	502.88
334.085	533.88
334.314	518.88
334.542	529.88
334.771	534.88
334.999	488.88
335.227	483.88
335.455	506.88
335.684	506.88
335.912	470.88
336.14	463.88
336.369	457.88
336.597	465.88
336.825	468.88
337.053	474.88
337.281	457.88
337.51	441.88
337.738	438.88
337.966	464.88
338.194	492.88
338.422	425.88
338.65	436.88
338.878	425.88
339.106	429.88
339.334	431.88
339.562	456.88
339.79	418.88
340.018	417.88
340.246	425.88
340.474	434.88
340.702	453.88
340.93	433.88
341.158	412.88
341.386	428.88
341.614	435.88
341.842	432.88
342.07	412.88
342.298	420.88
342.526	401.88
342.754	420.88
342.981	409.88
343.209	427.88
343.437	457.88
343.665	442.88
343.893	473.88
344.12	488.88
344.348	479.88
344.576	452.88
344.804	427.88
345.031	467.88
345.259	413.88
345.487	422.88
345.714	425.88
345.942	393.88
346.17	404.88
346.397	399.88
346.625	406.88
346.853	406.88
347.08	397.88
347.308	408.88
347.535	423.88
347.763	409.88
347.99	421.88
348.218	415.88
348.445	416.88
348.673	414.88
348.9	421.88
349.128	398.88
349.355	399.88
349.583	422.88
349.81	398.88
350.037	408.88
350.265	395.88
350.492	395.88
350.72	384.88
350.947	388.88
351.174	413.88
351.402	407.88
351.629	409.88
351.856	397.88
352.083	406.88
352.311	386.88
352.538	408.88
352.765	412.88
352.992	400.88
353.22	389.88
353.447	407.88
353.674	404.88
353.901	396.88
354.128	401.88
354.355	372.88
354.583	407.88
354.81	416.88
355.037	407.88
355.264	400.88
355.491	390.88
355.718	404.88
355.945	392.88
356.172	395.88
356.399	392.88
356.626	402.88
356.853	394.88
357.08	407.88
357.307	392.88
357.534	405.88
357.761	370.88
357.988	394.88
358.215	387.88
358.441	382.88
358.668	379.88
358.895	402.88
359.122	386.88
359.349	408.88
359.576	416.88
359.802	417.88
360.029	416.88
360.256	417.88
360.483	407.88
360.709	390.88
360.936	406.88
361.163	425.88
361.39	409.88
361.616	400.88
361.843	397.88
362.07	415.88
362.296	399.88
362.523	389.88
362.749	395.88
362.976	394.88
363.203	418.88
363.429	396.88
363.656	384.88
363.882	386.88
364.109	384.88
364.335	393.88
364.562	397.88
364.788	361.88
365.015	395.88
365.241	404.88
365.468	394.88
365.694	401.88
365.92	392.88
366.147	399.88
366.373	382.88
366.599	399.88
366.826	378.88
367.052	373.88
367.278	390.88
367.505	397.88
367.731	391.88
367.957	403.88
368.184	402.88
368.41	391.88
368.636	394.88
368.862	409.88
369.089	398.88
369.315	384.88
369.541	399.88
369.767	418.88
369.993	417.88
370.219	391.88
370.445	414.88
370.672	400.88
370.898	423.88
371.124	400.88
371.35	407.88
371.576	423.88
371.802	416.88
372.028	412.88
372.254	419.88
372.48	408.88
372.706	422.88
372.932	436.88
373.158	432.88
373.384	420.88
373.61	429.88
373.835	418.88
374.061	400.88
374.287	414.88
374.513	418.88
374.739	424.88
374.965	444.88
375.191	436.88
375.416	446.88
375.642	446.88
375.868	422.88
376.094	416.88
376.319	414.88
376.545	421.88
376.771	419.88
376.997	408.88
377.222	424.88
377.448	422.88
377.674	401.88
377.899	419.88
378.125	404.88
378.35	411.88
378.576	408.88
378.802	412.88
379.027	418.88
379.253	404.88
379.478	398.88
379.704	412.88
379.929	412.88
380.155	408.88
380.38	407.88
380.606	435.88
380.831	421.88
381.057	434.88
381.282	415.88
381.507	420.88
381.733	426.88
381.958	426.88
382.184	433.88
382.409	457.88
382.634	431.88
382.86	424.88
383.085	437.88
383.31	450.88
383.535	433.88
383.761	452.88
383.986	454.88
384.211	441.88
384.436	435.88
384.662	465.88
384.887	458.88
385.112	459.88
385.337	464.88
385.562	465.88
385.787	424.88
386.013	506.88
386.238	489.88
386.463	506.88
386.688	471.88
386.913	490.88
387.138	494.88
387.363	485.88
387.588	468.88
387.813	462.88
388.038	469.88
388.263	469.88
388.488	468.88
388.713	479.88
388.938	465.88
389.163	462.88
389.387	484.88
389.612	462.88
389.837	459.88
390.062	468.88
390.287	469.88
390.512	477.88
390.736	450.88
390.961	462.88
391.186	494.88
391.411	487.88
391.636	501.88
391.86	508.88
392.085	520.88
392.31	493.88
392.534	504.88
392.759	502.88
392.984	493.88
393.208	505.88
393.433	505.88
393.658	490.88
393.882	499.88
394.107	494.88
394.331	516.88
394.556	473.88
394.78	474.88
395.005	494.88
395.229	503.88
395.454	505.88
395.678	513.88
395.903	539.88
396.127	513.88
396.352	518.88
396.576	506.88
396.801	511.88
397.025	504.88
397.249	493.88
397.474	519.88
397.698	518.88
397.922	536.88
398.147	543.88
398.371	521.88
398.595	544.88
398.82	528.88
399.044	564.88
399.268	617.88
399.492	706.88
399.717	754.88
399.941	765.88
400.165	736.88
400.389	678.88
400.613	633.88
400.837	579.88
401.062	582.88
401.286	579.88
401.51	541.88
401.734	567.88
401.958	567.88
402.182	581.88
402.406	572.88
402.63	575.88
402.854	573.88
403.078	593.88
403.302	593.88
403.526	590.88
403.75	615.88
403.974	630.88
404.198	618.88
404.422	630.88
404.645	606.88
404.869	599.88
405.093	638.88
405.317	652.88
405.541	664.88
405.765	645.88
405.988	599.88
406.212	620.88
406.436	624.88
406.66	649.88
406.883	623.88
407.107	680.88
407.331	701.88
407.555	728.88
407.778	718.88
408.002	661.88
408.226	660.88
408.449	638.88
408.673	615.88
408.896	631.88
409.12	671.88
409.344	628.88
409.567	610.88
409.791	584.88
410.014	608.88
410.238	608.88
410.461	564.88
410.685	592.88
410.908	591.88
411.132	601.88
411.355	620.88
411.578	595.88
411.802	571.88
412.025	584.88
412.249	599.88
412.472	603.88
412.695	625.88
412.919	599.88
413.142	580.88
413.365	567.88
413.589	578.88
413.812	566.88
414.035	562.88
414.258	548.88
414.482	557.88
414.705	578.88
414.928	553.88
415.151	568.88
415.374	559.88
415.597	561.88
415.821	544.88
416.044	551.88
416.267	536.88
416.49	544.88
416.713	538.88
416.936	535.88
417.159	536.88
417.382	548.88
417.605	556.88
417.828	563.88
418.051	558.88
418.274	573.88
418.497	563.88
418.72	576.88
418.943	567.88
419.166	613.88
419.389	605.88
419.611	593.88
419.834	586.88
420.057	570.88
420.28	583.88
420.503	547.88
420.726	556.88
420.948	558.88
421.171	581.88
421.394	608.88
421.617	574.88
421.839	561.88
422.062	569.88
422.285	569.88
422.507	608.88
422.73	644.88
422.953	662.88
423.175	584.88
423.398	590.88
423.621	573.88
423.843	610.88
424.066	601.88
424.288	590.88
424.511	606.88
424.733	634.88
424.956	664.88
425.178	650.88
425.401	631.88
425.623	617.88
425.846	597.88
426.068	584.88
426.291	584.88
426.513	576.88
426.735	570.88
426.958	555.88
427.18	629.88
427.402	690.88
427.625	743.88
427.847	654.88
428.069	604.88
428.292	595.88
428.514	525.88
428.736	512.88
428.958	529.88
429.181	504.88
429.403	514.88
429.625	519.88
429.847	527.88
430.069	577.88
430.292	550.88
430.514	519.88
430.736	492.88
430.958	516.88
431.18	493.88
431.402	491.88
431.624	484.88
431.846	481.88
432.068	505.88
432.29	496.88
432.512	521.88
432.734	516.88
432.956	496.88
433.178	499.88
433.4	502.88
433.622	510.88
433.844	512.88
434.066	498.88
434.287	507.88
434.509	534.88
434.731	525.88
434.953	528.88
435.175	575.88
435.397	568.88
435.618	573.88
435.84	575.88
436.062	614.88
436.284	657.88
436.505	577.88
436.727	534.88
436.949	540.88
437.17	521.88
437.392	504.88
437.614	513.88
437.835	514.88
438.057	575.88
438.278	618.88
438.5	642.88
438.721	677.88
438.943	656.88
439.165	572.88
439.386	541.88
439.608	550.88
439.829	525.88
440.05	554.88
440.272	568.88
440.493	542.88
440.715	530.88
440.936	522.88
441.158	530.88
441.379	530.88
441.6	574.88
441.822	582.88
442.043	581.88
442.264	615.88
442.486	624.88
442.707	577.88
442.928	566.88
443.149	581.88
443.371	586.88
443.592	597.88
443.813	656.88
444.034	689.88
444.255	654.88
444.476	604.88
444.698	624.88
444.919	615.88
445.14	719.88
445.361	628.88
445.582	602.88
445.803	626.88
446.024	674.88
446.245	645.88
446.466	618.88
446.687	566.88
446.908	528.88
447.129	493.88
447.35	516.88
447.571	477.88
447.792	506.88
448.013	487.88
448.234	471.88
448.455	525.88
448.675	598.88
448.896	658.88
449.117	581.88
449.338	578.88
449.559	608.88
449.779	664.88
450	550.88
450.221	505.88
450.442	497.88
450.662	490.88
450.883	470.88
451.104	497.88
451.324	480.88
451.545	474.88
451.766	444.88
451.986	460.88
452.207	454.88
452.428	449.88
452.648	457.88
452.869	463.88
453.089	459.88
453.31	464.88
453.53	455.88
453.751	439.88
453.971	442.88
454.192	467.88
454.412	452.88
454.633	459.88
454.853	430.88
455.073	436.88
455.294	470.88
455.514	504.88
455.734	452.88
455.955	439.88
456.175	424.88
456.395	432.88
456.616	432.88
456.836	424.88
457.056	420.88
457.276	414.88
457.497	422.88
457.717	416.88
457.937	436.88
458.157	450.88
458.377	461.88
458.598	439.88
458.818	503.88
459.038	541.88
459.258	533.88
459.478	507.88
459.698	494.88
459.918	513.88
460.138	506.88
460.358	517.88
460.578	533.88
460.798	554.88
461.018	567.88
461.238	556.88
461.458	541.88
461.678	513.88
461.898	538.88
462.118	550.88
462.338	537.88
462.558	567.88
462.777	588.88
462.997	620.88
463.217	643.88
463.437	648.88
463.657	607.88
463.876	619.88
464.096	603.88
464.316	608.88
464.536	601.88
464.755	622.88
464.975	570.88
465.195	558.88
465.414	588.88
465.634	551.88
465.854	525.88
466.073	489.88
466.293	499.88
466.512	509.88
466.732	462.88
466.951	464.88
467.171	446.88
467.391	477.88
467.61	492.88
467.829	480.88
468.049	480.88
468.268	447.88
468.488	456.88
468.707	449.88
468.927	461.88
469.146	458.88
469.365	460.88
469.585	453.88
469.804	480.88
470.023	500.88
470.243	486.88
470.462	486.88
470.681	509.88
470.901	481.88
471.12	508.88
471.339	493.88
471.558	477.88
471.777	473.88
471.997	462.88
472.216	483.88
472.435	488.88
472.654	487.88
472.873	458.88
473.092	446.88
473.311	477.88
473.53	466.88
473.749	463.88
473.968	481.88
474.187	542.88
474.406	537.88
474.625	506.88
474.844	480.88
475.063	469.88
475.282	464.88
475.501	449.88
475.72	485.88
475.939	468.88
476.158	462.88
476.377	478.88
476.596	464.88
476.814	478.88
477.033	471.88
477.252	503.88
477.471	512.88
477.69	510.88
477.908	537.88
478.127	531.88
478.346	540.88
478.564	535.88
478.783	542.88
479.002	545.88
479.22	548.88
479.439	537.88
479.658	554.88
479.876	543.88
480.095	565.88
480.313	586.88
480.532	600.88
480.751	598.88
480.969	578.88
481.188	605.88
481.406	615.88
481.624	572.88
481.843	551.88
482.061	529.88
482.28	518.88
482.498	550.88
482.717	524.88
482.935	529.88
483.153	525.88
483.372	517.88
483.59	550.88
483.808	511.88
484.027	532.88
484.245	538.88
484.463	541.88
484.681	554.88
484.9	565.88
485.118	550.88
485.336	531.88
485.554	546.88
485.772	588.88
485.99	558.88
486.209	569.88
486.427	553.88
486.645	574.88
486.863	583.88
487.081	574.88
487.299	572.88
487.517	565.88
487.735	580.88
487.953	589.88
488.171	566.88
488.389	562.88
488.607	548.88
488.825	557.88
489.043	554.88
489.261	558.88
489.479	576.88
489.696	578.88
489.914	569.88
490.132	558.88
490.35	585.88
490.568	596.88
490.786	614.88
491.003	570.88
491.221	590.88
491.439	608.88
491.657	624.88
491.874	631.88
492.092	640.88
492.31	639.88
492.527	647.88
492.745	631.88
492.963	632.88
493.18	647.88
493.398	638.88
493.615	653.88
493.833	645.88
494.05	645.88
494.268	640.88
494.485	671.88
494.703	646.88
494.92	652.88
495.138	652.88
495.355	655.88
495.573	652.88
495.79	633.88
496.008	642.88
496.225	642.88
496.442	663.88
496.66	658.88
496.877	648.88
497.094	660.88
497.312	677.88
497.529	695.88
497.746	700.88
497.963	716.88
498.181	727.88
498.398	744.88
498.615	750.88
498.832	765.88
499.049	836.88
499.267	885.88
499.484	934.88
499.701	1000.88
499.918	1042.88
500.135	1170.88
500.352	1324.88
500.569	1288.88
500.786	1308.88
501.003	1252.88
501.22	1127.88
501.437	1062.88
501.654	996.88
501.871	945.88
502.088	864.88
