Data from 1960PennyLincolnUp.LampE5.5.200Scan.07172019.P1.ChangedAngle_HRD10591_13-15-27-821.txt Node
Date: Thu Jul 18 13:15:27 EDT 2019
User: cochatt
Spectrometer: HR+D1059
Trigger mode: 1
Integration Time (sec): 1.000000E-1
Scans to average: 1
Electric dark correction enabled: true
Nonlinearity correction enabled: false
Boxcar width: 0
XAxis mode: Wavelengths
Number of Pixels in Spectrum: 2048
>>>>>Begin Spectral Data<<<<<
223.165	-23.75
223.4	-23.75
223.635	-23.75
223.869	-25.75
224.104	-24.75
224.338	-5.75
224.573	-5.75
224.808	-6.75
225.042	0.25
225.277	-12.75
225.511	1.25
225.746	-1.75
225.98	7.25
226.215	25.25
226.449	6.25
226.683	17.25
226.918	18.25
227.152	31.25
227.387	33.25
227.621	31.25
227.856	43.25
228.09	40.25
228.324	52.25
228.559	58.25
228.793	64.25
229.027	87.25
229.262	90.25
229.496	93.25
229.73	99.25
229.964	121.25
230.199	99.25
230.433	90.25
230.667	108.25
230.901	102.25
231.136	107.25
231.37	108.25
231.604	108.25
231.838	109.25
232.072	113.25
232.306	107.25
232.541	114.25
232.775	92.25
233.009	113.25
233.243	110.25
233.477	122.25
233.711	122.25
233.945	117.25
234.179	121.25
234.413	89.25
234.647	104.25
234.881	100.25
235.115	103.25
235.349	109.25
235.583	112.25
235.817	99.25
236.051	101.25
236.285	116.25
236.519	120.25
236.753	128.25
236.987	133.25
237.221	135.25
237.455	189.25
237.689	151.25
237.922	117.25
238.156	127.25
238.39	115.25
238.624	103.25
238.858	118.25
239.091	111.25
239.325	115.25
239.559	125.25
239.793	111.25
240.027	123.25
240.26	132.25
240.494	129.25
240.728	132.25
240.961	141.25
241.195	128.25
241.429	142.25
241.662	125.25
241.896	135.25
242.13	136.25
242.363	120.25
242.597	118.25
242.83	130.25
243.064	122.25
243.298	139.25
243.531	132.25
243.765	125.25
243.998	126.25
244.232	125.25
244.465	141.25
244.699	134.25
244.932	134.25
245.166	131.25
245.399	145.25
245.633	132.25
245.866	142.25
246.099	150.25
246.333	138.25
246.566	143.25
246.8	136.25
247.033	134.25
247.266	145.25
247.5	151.25
247.733	141.25
247.966	140.25
248.2	159.25
248.433	152.25
248.666	153.25
248.899	154.25
249.133	181.25
249.366	170.25
249.599	179.25
249.832	168.25
250.066	168.25
250.299	152.25
250.532	169.25
250.765	176.25
250.998	188.25
251.231	197.25
251.465	209.25
251.698	181.25
251.931	181.25
252.164	170.25
252.397	185.25
252.63	187.25
252.863	177.25
253.096	180.25
253.329	202.25
253.562	192.25
253.795	191.25
254.028	194.25
254.261	196.25
254.494	211.25
254.727	211.25
254.96	240.25
255.193	237.25
255.426	209.25
255.659	208.25
255.892	215.25
256.124	201.25
256.357	204.25
256.59	196.25
256.823	192.25
257.056	205.25
257.289	188.25
257.521	209.25
257.754	196.25
257.987	191.25
258.22	202.25
258.452	190.25
258.685	200.25
258.918	194.25
259.151	200.25
259.383	195.25
259.616	222.25
259.849	200.25
260.081	214.25
260.314	210.25
260.547	215.25
260.779	227.25
261.012	215.25
261.244	214.25
261.477	189.25
261.71	231.25
261.942	220.25
262.175	212.25
262.407	242.25
262.64	198.25
262.872	206.25
263.105	196.25
263.337	213.25
263.57	210.25
263.802	203.25
264.035	214.25
264.267	189.25
264.499	205.25
264.732	204.25
264.964	197.25
265.197	208.25
265.429	200.25
265.661	217.25
265.894	216.25
266.126	213.25
266.358	220.25
266.591	222.25
266.823	195.25
267.055	217.25
267.287	203.25
267.52	213.25
267.752	206.25
267.984	210.25
268.216	205.25
268.448	237.25
268.681	242.25
268.913	218.25
269.145	257.25
269.377	251.25
269.609	250.25
269.841	245.25
270.073	256.25
270.306	253.25
270.538	286.25
270.77	276.25
271.002	262.25
271.234	273.25
271.466	256.25
271.698	279.25
271.93	279.25
272.162	278.25
272.394	285.25
272.626	265.25
272.858	272.25
273.09	241.25
273.322	260.25
273.553	257.25
273.785	252.25
274.017	235.25
274.249	253.25
274.481	281.25
274.713	253.25
274.945	250.25
275.176	235.25
275.408	248.25
275.64	252.25
275.872	253.25
276.104	247.25
276.335	252.25
276.567	277.25
276.799	261.25
277.031	290.25
277.262	290.25
277.494	287.25
277.726	277.25
277.957	270.25
278.189	285.25
278.421	267.25
278.652	266.25
278.884	266.25
279.115	256.25
279.347	262.25
279.579	261.25
279.81	267.25
280.042	266.25
280.273	251.25
280.505	268.25
280.736	235.25
280.968	261.25
281.199	276.25
281.431	262.25
281.662	267.25
281.894	272.25
282.125	257.25
282.356	270.25
282.588	278.25
282.819	279.25
283.051	272.25
283.282	279.25
283.513	285.25
283.745	277.25
283.976	290.25
284.207	266.25
284.439	269.25
284.67	285.25
284.901	276.25
285.132	286.25
285.364	275.25
285.595	268.25
285.826	255.25
286.057	278.25
286.288	283.25
286.52	278.25
286.751	278.25
286.982	288.25
287.213	287.25
287.444	288.25
287.675	279.25
287.906	283.25
288.138	296.25
288.369	301.25
288.6	282.25
288.831	269.25
289.062	277.25
289.293	304.25
289.524	287.25
289.755	292.25
289.986	269.25
290.217	298.25
290.448	288.25
290.679	281.25
290.91	282.25
291.141	288.25
291.371	278.25
291.602	277.25
291.833	299.25
292.064	278.25
292.295	289.25
292.526	282.25
292.757	303.25
292.987	287.25
293.218	296.25
293.449	286.25
293.68	292.25
293.91	296.25
294.141	291.25
294.372	270.25
294.603	291.25
294.833	294.25
295.064	294.25
295.295	283.25
295.525	283.25
295.756	300.25
295.987	304.25
296.217	302.25
296.448	315.25
296.679	285.25
296.909	283.25
297.14	282.25
297.37	301.25
297.601	312.25
297.831	298.25
298.062	293.25
298.292	320.25
298.523	294.25
298.753	312.25
298.984	292.25
299.214	278.25
299.445	304.25
299.675	306.25
299.905	309.25
300.136	314.25
300.366	307.25
300.597	320.25
300.827	312.25
301.057	314.25
301.288	316.25
301.518	309.25
301.748	320.25
301.979	336.25
302.209	324.25
302.439	312.25
302.669	314.25
302.9	318.25
303.13	312.25
303.36	323.25
303.59	321.25
303.82	327.25
304.051	336.25
304.281	304.25
304.511	325.25
304.741	347.25
304.971	327.25
305.201	323.25
305.431	316.25
305.661	310.25
305.891	312.25
306.121	311.25
306.352	334.25
306.582	347.25
306.812	315.25
307.042	330.25
307.272	342.25
307.502	331.25
307.731	316.25
307.961	331.25
308.191	330.25
308.421	308.25
308.651	329.25
308.881	346.25
309.111	342.25
309.341	334.25
309.571	328.25
309.8	353.25
310.03	341.25
310.26	342.25
310.49	346.25
310.72	364.25
310.949	366.25
311.179	347.25
311.409	344.25
311.639	337.25
311.868	350.25
312.098	371.25
312.328	352.25
312.557	359.25
312.787	397.25
313.017	373.25
313.246	365.25
313.476	344.25
313.706	354.25
313.935	370.25
314.165	376.25
314.394	359.25
314.624	385.25
314.853	384.25
315.083	366.25
315.312	366.25
315.542	360.25
315.771	342.25
316.001	343.25
316.23	356.25
316.46	351.25
316.689	374.25
316.919	366.25
317.148	388.25
317.377	363.25
317.607	360.25
317.836	364.25
318.065	355.25
318.295	364.25
318.524	368.25
318.753	372.25
318.983	373.25
319.212	362.25
319.441	372.25
319.67	385.25
319.9	364.25
320.129	359.25
320.358	363.25
320.587	387.25
320.816	375.25
321.046	390.25
321.275	387.25
321.504	377.25
321.733	374.25
321.962	381.25
322.191	411.25
322.42	407.25
322.649	419.25
322.878	407.25
323.108	406.25
323.337	435.25
323.566	428.25
323.795	457.25
324.024	487.25
324.253	585.25
324.482	811.25
324.71	1108.25
324.939	1439.25
325.168	1292.25
325.397	719.25
325.626	524.25
325.855	467.25
326.084	442.25
326.313	424.25
326.542	454.25
326.77	504.25
326.999	551.25
327.228	724.25
327.457	966.25
327.686	1129.25
327.914	782.25
328.143	566.25
328.372	534.25
328.6	484.25
328.829	476.25
329.058	491.25
329.287	512.25
329.515	454.25
329.744	439.25
329.972	435.25
330.201	461.25
330.43	483.25
330.658	500.25
330.887	507.25
331.115	471.25
331.344	446.25
331.572	426.25
331.801	441.25
332.03	434.25
332.258	439.25
332.486	436.25
332.715	414.25
332.943	440.25
333.172	441.25
333.4	428.25
333.629	423.25
333.857	445.25
334.085	455.25
334.314	470.25
334.542	469.25
334.771	504.25
334.999	458.25
335.227	451.25
335.455	438.25
335.684	429.25
335.912	418.25
336.14	422.25
336.369	412.25
336.597	438.25
336.825	406.25
337.053	430.25
337.281	406.25
337.51	413.25
337.738	431.25
337.966	423.25
338.194	413.25
338.422	427.25
338.65	411.25
338.878	406.25
339.106	408.25
339.334	398.25
339.562	413.25
339.79	408.25
340.018	390.25
340.246	410.25
340.474	401.25
340.702	396.25
340.93	407.25
341.158	410.25
341.386	416.25
341.614	384.25
341.842	403.25
342.07	403.25
342.298	382.25
342.526	404.25
342.754	383.25
342.981	403.25
343.209	383.25
343.437	385.25
343.665	392.25
343.893	406.25
344.12	418.25
344.348	426.25
344.576	414.25
344.804	413.25
345.031	398.25
345.259	420.25
345.487	397.25
345.714	415.25
345.942	395.25
346.17	390.25
346.397	402.25
346.625	390.25
346.853	368.25
347.08	367.25
347.308	388.25
347.535	391.25
347.763	385.25
347.99	374.25
348.218	379.25
348.445	416.25
348.673	392.25
348.9	392.25
349.128	363.25
349.355	386.25
349.583	356.25
349.81	379.25
350.037	368.25
350.265	366.25
350.492	395.25
350.72	385.25
350.947	375.25
351.174	359.25
351.402	365.25
351.629	386.25
351.856	374.25
352.083	390.25
352.311	396.25
352.538	384.25
352.765	366.25
352.992	388.25
353.22	397.25
353.447	353.25
353.674	364.25
353.901	376.25
354.128	361.25
354.355	348.25
354.583	363.25
354.81	370.25
355.037	370.25
355.264	363.25
355.491	354.25
355.718	356.25
355.945	364.25
356.172	352.25
356.399	360.25
356.626	362.25
356.853	358.25
357.08	340.25
357.307	358.25
357.534	354.25
357.761	370.25
357.988	365.25
358.215	363.25
358.441	366.25
358.668	356.25
358.895	375.25
359.122	355.25
359.349	355.25
359.576	370.25
359.802	378.25
360.029	374.25
360.256	390.25
360.483	365.25
360.709	363.25
360.936	377.25
361.163	383.25
361.39	372.25
361.616	372.25
361.843	363.25
362.07	369.25
362.296	397.25
362.523	360.25
362.749	352.25
362.976	355.25
363.203	368.25
363.429	374.25
363.656	364.25
363.882	367.25
364.109	359.25
364.335	350.25
364.562	362.25
364.788	333.25
365.015	347.25
365.241	344.25
365.468	361.25
365.694	358.25
365.92	362.25
366.147	370.25
366.373	365.25
366.599	368.25
366.826	341.25
367.052	351.25
367.278	352.25
367.505	361.25
367.731	362.25
367.957	363.25
368.184	363.25
368.41	350.25
368.636	364.25
368.862	363.25
369.089	358.25
369.315	357.25
369.541	363.25
369.767	375.25
369.993	335.25
370.219	370.25
370.445	354.25
370.672	362.25
370.898	352.25
371.124	347.25
371.35	378.25
371.576	350.25
371.802	350.25
372.028	347.25
372.254	361.25
372.48	365.25
372.706	367.25
372.932	365.25
373.158	363.25
373.384	359.25
373.61	359.25
373.835	361.25
374.061	362.25
374.287	355.25
374.513	342.25
374.739	368.25
374.965	378.25
375.191	381.25
375.416	362.25
375.642	341.25
375.868	329.25
376.094	347.25
376.319	358.25
376.545	373.25
376.771	356.25
376.997	353.25
377.222	363.25
377.448	355.25
377.674	357.25
377.899	351.25
378.125	330.25
378.35	346.25
378.576	324.25
378.802	357.25
379.027	364.25
379.253	347.25
379.478	350.25
379.704	342.25
379.929	355.25
380.155	356.25
380.38	362.25
380.606	358.25
380.831	356.25
381.057	357.25
381.282	351.25
381.507	361.25
381.733	346.25
381.958	347.25
382.184	357.25
382.409	362.25
382.634	353.25
382.86	361.25
383.085	368.25
383.31	385.25
383.535	360.25
383.761	334.25
383.986	360.25
384.211	373.25
384.436	363.25
384.662	343.25
384.887	363.25
385.112	378.25
385.337	374.25
385.562	381.25
385.787	351.25
386.013	368.25
386.238	381.25
386.463	393.25
386.688	376.25
386.913	368.25
387.138	376.25
387.363	371.25
387.588	375.25
387.813	370.25
388.038	388.25
388.263	390.25
388.488	383.25
388.713	385.25
388.938	375.25
389.163	372.25
389.387	379.25
389.612	374.25
389.837	376.25
390.062	357.25
390.287	393.25
390.512	372.25
390.736	372.25
390.961	366.25
391.186	386.25
391.411	388.25
391.636	386.25
391.86	398.25
392.085	384.25
392.31	392.25
392.534	390.25
392.759	399.25
392.984	382.25
393.208	404.25
393.433	404.25
393.658	382.25
393.882	393.25
394.107	370.25
394.331	390.25
394.556	375.25
394.78	384.25
395.005	380.25
395.229	391.25
395.454	390.25
395.678	407.25
395.903	384.25
396.127	411.25
396.352	406.25
396.576	396.25
396.801	378.25
397.025	386.25
397.249	391.25
397.474	364.25
397.698	410.25
397.922	414.25
398.147	403.25
398.371	426.25
398.595	446.25
398.82	429.25
399.044	445.25
399.268	453.25
399.492	442.25
399.717	473.25
399.941	491.25
400.165	498.25
400.389	506.25
400.613	466.25
400.837	452.25
401.062	432.25
401.286	436.25
401.51	402.25
401.734	416.25
401.958	399.25
402.182	429.25
402.406	444.25
402.63	429.25
402.854	443.25
403.078	432.25
403.302	436.25
403.526	429.25
403.75	443.25
403.974	449.25
404.198	418.25
404.422	420.25
404.645	430.25
404.869	431.25
405.093	457.25
405.317	473.25
405.541	508.25
405.765	479.25
405.988	451.25
406.212	454.25
406.436	458.25
406.66	471.25
406.883	458.25
407.107	450.25
407.331	511.25
407.555	562.25
407.778	541.25
408.002	488.25
408.226	486.25
408.449	467.25
408.673	469.25
408.896	472.25
409.12	518.25
409.344	484.25
409.567	441.25
409.791	464.25
410.014	457.25
410.238	441.25
410.461	428.25
410.685	438.25
410.908	446.25
411.132	444.25
411.355	498.25
411.578	455.25
411.802	430.25
412.025	429.25
412.249	437.25
412.472	440.25
412.695	464.25
412.919	464.25
413.142	432.25
413.365	436.25
413.589	423.25
413.812	427.25
414.035	397.25
414.258	406.25
414.482	432.25
414.705	405.25
414.928	406.25
415.151	385.25
415.374	404.25
415.597	408.25
415.821	435.25
416.044	399.25
416.267	403.25
416.49	395.25
416.713	398.25
416.936	375.25
417.159	407.25
417.382	410.25
417.605	406.25
417.828	386.25
418.051	415.25
418.274	402.25
418.497	414.25
418.72	400.25
418.943	391.25
419.166	401.25
419.389	418.25
419.611	423.25
419.834	415.25
420.057	405.25
420.28	408.25
420.503	412.25
420.726	394.25
420.948	414.25
421.171	452.25
421.394	454.25
421.617	430.25
421.839	425.25
422.062	428.25
422.285	427.25
422.507	472.25
422.73	518.25
422.953	491.25
423.175	470.25
423.398	438.25
423.621	409.25
423.843	441.25
424.066	430.25
424.288	429.25
424.511	458.25
424.733	477.25
424.956	534.25
425.178	543.25
425.401	486.25
425.623	530.25
425.846	455.25
426.068	430.25
426.291	423.25
426.513	423.25
426.735	433.25
426.958	467.25
427.18	524.25
427.402	605.25
427.625	649.25
427.847	575.25
428.069	501.25
428.292	459.25
428.514	423.25
428.736	408.25
428.958	420.25
429.181	403.25
429.403	402.25
429.625	395.25
429.847	439.25
430.069	486.25
430.292	462.25
430.514	406.25
430.736	401.25
430.958	394.25
431.18	382.25
431.402	398.25
431.624	372.25
431.846	390.25
432.068	384.25
432.29	394.25
432.512	380.25
432.734	393.25
432.956	382.25
433.178	396.25
433.4	400.25
433.622	407.25
433.844	378.25
434.066	402.25
434.287	398.25
434.509	402.25
434.731	406.25
434.953	390.25
435.175	402.25
435.397	420.25
435.618	435.25
435.84	452.25
436.062	527.25
436.284	541.25
436.505	491.25
436.727	448.25
436.949	422.25
437.17	413.25
437.392	397.25
437.614	393.25
437.835	435.25
438.057	470.25
438.278	526.25
438.5	543.25
438.721	610.25
438.943	590.25
439.165	465.25
439.386	446.25
439.608	438.25
439.829	430.25
440.05	435.25
440.272	464.25
440.493	442.25
440.715	416.25
440.936	398.25
441.158	420.25
441.379	388.25
441.6	422.25
441.822	408.25
442.043	446.25
442.264	487.25
442.486	530.25
442.707	461.25
442.928	449.25
443.149	431.25
443.371	422.25
443.592	494.25
443.813	540.25
444.034	586.25
444.255	502.25
444.476	445.25
444.698	454.25
444.919	441.25
445.14	513.25
445.361	471.25
445.582	463.25
445.803	482.25
446.024	546.25
446.245	563.25
446.466	515.25
446.687	456.25
446.908	439.25
447.129	418.25
447.35	410.25
447.571	409.25
447.792	397.25
448.013	413.25
448.234	433.25
448.455	463.25
448.675	516.25
448.896	581.25
449.117	524.25
449.338	490.25
449.559	556.25
449.779	622.25
450	513.25
450.221	444.25
450.442	390.25
450.662	391.25
450.883	388.25
451.104	390.25
451.324	397.25
451.545	377.25
451.766	361.25
451.986	362.25
452.207	358.25
452.428	344.25
452.648	352.25
452.869	383.25
453.089	367.25
453.31	385.25
453.53	366.25
453.751	351.25
453.971	351.25
454.192	359.25
454.412	366.25
454.633	346.25
454.853	344.25
455.073	344.25
455.294	365.25
455.514	404.25
455.734	396.25
455.955	365.25
456.175	345.25
456.395	329.25
456.616	353.25
456.836	328.25
457.056	330.25
457.276	347.25
457.497	338.25
457.717	347.25
457.937	338.25
458.157	347.25
458.377	363.25
458.598	368.25
458.818	393.25
459.038	441.25
459.258	433.25
459.478	406.25
459.698	390.25
459.918	376.25
460.138	379.25
460.358	394.25
460.578	369.25
460.798	392.25
461.018	409.25
461.238	393.25
461.458	376.25
461.678	374.25
461.898	367.25
462.118	404.25
462.338	406.25
462.558	404.25
462.777	403.25
462.997	426.25
463.217	424.25
463.437	434.25
463.657	444.25
463.876	432.25
464.096	412.25
464.316	420.25
464.536	436.25
464.755	423.25
464.975	423.25
465.195	445.25
465.414	457.25
465.634	411.25
465.854	400.25
466.073	390.25
466.293	386.25
466.512	384.25
466.732	365.25
466.951	374.25
467.171	365.25
467.391	371.25
467.61	391.25
467.829	373.25
468.049	372.25
468.268	364.25
468.488	371.25
468.707	369.25
468.927	353.25
469.146	375.25
469.365	368.25
469.585	354.25
469.804	384.25
470.023	369.25
470.243	365.25
470.462	370.25
470.681	411.25
470.901	383.25
471.12	382.25
471.339	388.25
471.558	365.25
471.777	370.25
471.997	363.25
472.216	379.25
472.435	396.25
472.654	388.25
472.873	355.25
473.092	373.25
473.311	354.25
473.53	369.25
473.749	372.25
473.968	400.25
474.187	470.25
474.406	462.25
474.625	397.25
474.844	381.25
475.063	382.25
475.282	384.25
475.501	375.25
475.72	399.25
475.939	388.25
476.158	382.25
476.377	391.25
476.596	396.25
476.814	385.25
477.033	397.25
477.252	379.25
477.471	388.25
477.69	385.25
477.908	409.25
478.127	403.25
478.346	399.25
478.564	413.25
478.783	406.25
479.002	445.25
479.22	426.25
479.439	437.25
479.658	414.25
479.876	428.25
480.095	445.25
480.313	469.25
480.532	431.25
480.751	424.25
480.969	451.25
481.188	463.25
481.406	509.25
481.624	446.25
481.843	441.25
482.061	436.25
482.28	445.25
482.498	429.25
482.717	445.25
482.935	417.25
483.153	413.25
483.372	441.25
483.59	415.25
483.808	431.25
484.027	434.25
484.245	455.25
484.463	440.25
484.681	427.25
484.9	439.25
485.118	439.25
485.336	430.25
485.554	441.25
485.772	444.25
485.99	426.25
486.209	430.25
486.427	462.25
486.645	464.25
486.863	473.25
487.081	468.25
487.299	441.25
487.517	458.25
487.735	452.25
487.953	456.25
488.171	468.25
488.389	456.25
488.607	448.25
488.825	482.25
489.043	447.25
489.261	454.25
489.479	442.25
489.696	460.25
489.914	459.25
490.132	449.25
490.35	449.25
490.568	472.25
490.786	488.25
491.003	482.25
491.221	503.25
491.439	484.25
491.657	503.25
491.874	483.25
492.092	505.25
492.31	502.25
492.527	513.25
492.745	524.25
492.963	513.25
493.18	504.25
493.398	532.25
493.615	507.25
493.833	524.25
494.05	526.25
494.268	519.25
494.485	502.25
494.703	505.25
494.92	529.25
495.138	524.25
495.355	530.25
495.573	536.25
495.79	519.25
496.008	526.25
496.225	515.25
496.442	544.25
496.66	539.25
496.877	528.25
497.094	550.25
497.312	532.25
497.529	564.25
497.746	560.25
497.963	584.25
498.181	601.25
498.398	580.25
498.615	608.25
498.832	618.25
499.049	619.25
499.267	647.25
499.484	671.25
499.701	679.25
499.918	702.25
500.135	738.25
500.352	752.25
500.569	755.25
500.786	790.25
501.003	742.25
501.22	741.25
501.437	707.25
501.654	668.25
501.871	659.25
