Data from 1960PennyLincolnUp.LampE6.200Scan.07172019.P1_HRD10591_13-05-58-001.txt Node
Date: Thu Jul 18 13:05:58 EDT 2019
User: cochatt
Spectrometer: HR+D1059
Trigger mode: 1
Integration Time (sec): 1.000000E-1
Scans to average: 1
Electric dark correction enabled: true
Nonlinearity correction enabled: false
Boxcar width: 0
XAxis mode: Wavelengths
Number of Pixels in Spectrum: 2048
>>>>>Begin Spectral Data<<<<<
223.165	-24.62
223.4	-24.62
223.635	-24.62
223.869	-21.62
224.104	-17.62
224.338	-10.62
224.573	-9.62
224.808	-4.62
225.042	-1.62
225.277	-0.62
225.511	-7.62
225.746	7.38
225.98	6.38
226.215	7.38
226.449	10.38
226.683	11.38
226.918	14.38
227.152	41.38
227.387	30.38
227.621	24.38
227.856	47.38
228.09	47.38
228.324	30.38
228.559	42.38
228.793	58.38
229.027	80.38
229.262	81.38
229.496	98.38
229.73	102.38
229.964	126.38
230.199	112.38
230.433	93.38
230.667	94.38
230.901	92.38
231.136	92.38
231.37	109.38
231.604	111.38
231.838	110.38
232.072	100.38
232.306	97.38
232.541	103.38
232.775	95.38
233.009	92.38
233.243	100.38
233.477	121.38
233.711	109.38
233.945	91.38
234.179	98.38
234.413	115.38
234.647	108.38
234.881	109.38
235.115	98.38
235.349	108.38
235.583	99.38
235.817	117.38
236.051	125.38
236.285	102.38
236.519	106.38
236.753	120.38
236.987	127.38
237.221	143.38
237.455	170.38
237.689	145.38
237.922	122.38
238.156	105.38
238.39	124.38
238.624	123.38
238.858	111.38
239.091	106.38
239.325	115.38
239.559	122.38
239.793	102.38
240.027	119.38
240.26	106.38
240.494	116.38
240.728	140.38
240.961	114.38
241.195	126.38
241.429	119.38
241.662	122.38
241.896	117.38
242.13	123.38
242.363	115.38
242.597	114.38
242.83	119.38
243.064	133.38
243.298	119.38
243.531	117.38
243.765	109.38
243.998	138.38
244.232	138.38
244.465	127.38
244.699	131.38
244.932	111.38
245.166	140.38
245.399	139.38
245.633	131.38
245.866	136.38
246.099	134.38
246.333	138.38
246.566	139.38
246.8	140.38
247.033	142.38
247.266	137.38
247.5	137.38
247.733	137.38
247.966	144.38
248.2	162.38
248.433	155.38
248.666	151.38
248.899	172.38
249.133	178.38
249.366	169.38
249.599	152.38
249.832	162.38
250.066	171.38
250.299	154.38
250.532	158.38
250.765	173.38
250.998	190.38
251.231	208.38
251.465	181.38
251.698	166.38
251.931	170.38
252.164	171.38
252.397	179.38
252.63	180.38
252.863	192.38
253.096	204.38
253.329	194.38
253.562	207.38
253.795	169.38
254.028	173.38
254.261	188.38
254.494	182.38
254.727	204.38
254.96	211.38
255.193	220.38
255.426	202.38
255.659	185.38
255.892	201.38
256.124	203.38
256.357	196.38
256.59	179.38
256.823	193.38
257.056	184.38
257.289	180.38
257.521	178.38
257.754	186.38
257.987	190.38
258.22	176.38
258.452	186.38
258.685	179.38
258.918	175.38
259.151	172.38
259.383	189.38
259.616	202.38
259.849	197.38
260.081	211.38
260.314	215.38
260.547	210.38
260.779	210.38
261.012	195.38
261.244	178.38
261.477	190.38
261.71	184.38
261.942	194.38
262.175	204.38
262.407	179.38
262.64	182.38
262.872	210.38
263.105	182.38
263.337	192.38
263.57	186.38
263.802	185.38
264.035	183.38
264.267	187.38
264.499	195.38
264.732	206.38
264.964	207.38
265.197	195.38
265.429	194.38
265.661	186.38
265.894	192.38
266.126	196.38
266.358	215.38
266.591	194.38
266.823	201.38
267.055	211.38
267.287	216.38
267.52	198.38
267.752	220.38
267.984	212.38
268.216	211.38
268.448	207.38
268.681	212.38
268.913	225.38
269.145	251.38
269.377	237.38
269.609	267.38
269.841	232.38
270.073	234.38
270.306	253.38
270.538	264.38
270.77	256.38
271.002	234.38
271.234	243.38
271.466	261.38
271.698	262.38
271.93	268.38
272.162	248.38
272.394	260.38
272.626	264.38
272.858	238.38
273.09	230.38
273.322	232.38
273.553	250.38
273.785	246.38
274.017	245.38
274.249	238.38
274.481	237.38
274.713	235.38
274.945	252.38
275.176	256.38
275.408	251.38
275.64	247.38
275.872	245.38
276.104	240.38
276.335	252.38
276.567	274.38
276.799	265.38
277.031	276.38
277.262	274.38
277.494	261.38
277.726	264.38
277.957	249.38
278.189	251.38
278.421	247.38
278.652	243.38
278.884	266.38
279.115	250.38
279.347	236.38
279.579	250.38
279.81	249.38
280.042	251.38
280.273	237.38
280.505	266.38
280.736	272.38
280.968	272.38
281.199	267.38
281.431	252.38
281.662	249.38
281.894	255.38
282.125	280.38
282.356	284.38
282.588	275.38
282.819	275.38
283.051	294.38
283.282	261.38
283.513	283.38
283.745	271.38
283.976	271.38
284.207	268.38
284.439	280.38
284.67	284.38
284.901	265.38
285.132	283.38
285.364	288.38
285.595	286.38
285.826	272.38
286.057	278.38
286.288	281.38
286.52	286.38
286.751	274.38
286.982	272.38
287.213	289.38
287.444	305.38
287.675	308.38
287.906	296.38
288.138	284.38
288.369	308.38
288.6	311.38
288.831	303.38
289.062	291.38
289.293	315.38
289.524	272.38
289.755	300.38
289.986	290.38
290.217	291.38
290.448	300.38
290.679	299.38
290.91	287.38
291.141	283.38
291.371	302.38
291.602	297.38
291.833	297.38
292.064	296.38
292.295	289.38
292.526	294.38
292.757	304.38
292.987	285.38
293.218	296.38
293.449	311.38
293.68	287.38
293.91	304.38
294.141	284.38
294.372	281.38
294.603	296.38
294.833	278.38
295.064	289.38
295.295	317.38
295.525	297.38
295.756	303.38
295.987	299.38
296.217	311.38
296.448	330.38
296.679	292.38
296.909	292.38
297.14	287.38
297.37	301.38
297.601	289.38
297.831	308.38
298.062	305.38
298.292	330.38
298.523	307.38
298.753	316.38
298.984	321.38
299.214	291.38
299.445	330.38
299.675	306.38
299.905	324.38
300.136	312.38
300.366	296.38
300.597	315.38
300.827	319.38
301.057	336.38
301.288	333.38
301.518	329.38
301.748	332.38
301.979	323.38
302.209	320.38
302.439	335.38
302.669	343.38
302.9	333.38
303.13	335.38
303.36	324.38
303.59	326.38
303.82	344.38
304.051	332.38
304.281	347.38
304.511	330.38
304.741	331.38
304.971	334.38
305.201	358.38
305.431	323.38
305.661	328.38
305.891	335.38
306.121	329.38
306.352	328.38
306.582	334.38
306.812	325.38
307.042	336.38
307.272	320.38
307.502	323.38
307.731	329.38
307.961	318.38
308.191	327.38
308.421	323.38
308.651	337.38
308.881	339.38
309.111	352.38
309.341	326.38
309.571	351.38
309.8	342.38
310.03	339.38
310.26	353.38
310.49	348.38
310.72	352.38
310.949	344.38
311.179	355.38
311.409	370.38
311.639	366.38
311.868	371.38
312.098	350.38
312.328	358.38
312.557	371.38
312.787	386.38
313.017	379.38
313.246	364.38
313.476	352.38
313.706	356.38
313.935	358.38
314.165	387.38
314.394	389.38
314.624	388.38
314.853	358.38
315.083	372.38
315.312	347.38
315.542	347.38
315.771	379.38
316.001	370.38
316.23	360.38
316.46	360.38
316.689	376.38
316.919	363.38
317.148	383.38
317.377	346.38
317.607	378.38
317.836	377.38
318.065	370.38
318.295	368.38
318.524	365.38
318.753	357.38
318.983	369.38
319.212	350.38
319.441	357.38
319.67	359.38
319.9	371.38
320.129	361.38
320.358	377.38
320.587	383.38
320.816	366.38
321.046	366.38
321.275	361.38
321.504	353.38
321.733	368.38
321.962	394.38
322.191	398.38
322.42	393.38
322.649	387.38
322.878	390.38
323.108	397.38
323.337	418.38
323.566	426.38
323.795	438.38
324.024	462.38
324.253	526.38
324.482	686.38
324.71	971.38
324.939	1328.38
325.168	1103.38
325.397	607.38
325.626	477.38
325.855	426.38
326.084	440.38
326.313	433.38
326.542	437.38
326.77	463.38
326.999	539.38
327.228	654.38
327.457	904.38
327.686	1044.38
327.914	705.38
328.143	502.38
328.372	500.38
328.6	482.38
328.829	488.38
329.058	455.38
329.287	450.38
329.515	442.38
329.744	444.38
329.972	453.38
330.201	460.38
330.43	487.38
330.658	486.38
330.887	517.38
331.115	509.38
331.344	451.38
331.572	451.38
331.801	458.38
332.03	463.38
332.258	462.38
332.486	457.38
332.715	463.38
332.943	475.38
333.172	465.38
333.4	502.38
333.629	499.38
333.857	520.38
334.085	508.38
334.314	523.38
334.542	532.38
334.771	528.38
334.999	489.38
335.227	515.38
335.455	500.38
335.684	476.38
335.912	456.38
336.14	478.38
336.369	471.38
336.597	453.38
336.825	472.38
337.053	470.38
337.281	453.38
337.51	438.38
337.738	471.38
337.966	458.38
338.194	451.38
338.422	456.38
338.65	436.38
338.878	442.38
339.106	435.38
339.334	434.38
339.562	423.38
339.79	430.38
340.018	426.38
340.246	422.38
340.474	427.38
340.702	426.38
340.93	430.38
341.158	427.38
341.386	416.38
341.614	427.38
341.842	428.38
342.07	431.38
342.298	441.38
342.526	428.38
342.754	408.38
342.981	427.38
343.209	438.38
343.437	442.38
343.665	448.38
343.893	449.38
344.12	488.38
344.348	451.38
344.576	458.38
344.804	447.38
345.031	453.38
345.259	440.38
345.487	421.38
345.714	418.38
345.942	415.38
346.17	413.38
346.397	410.38
346.625	408.38
346.853	418.38
347.08	400.38
347.308	393.38
347.535	416.38
347.763	425.38
347.99	408.38
348.218	402.38
348.445	408.38
348.673	390.38
348.9	409.38
349.128	382.38
349.355	403.38
349.583	406.38
349.81	388.38
350.037	394.38
350.265	376.38
350.492	388.38
350.72	389.38
350.947	404.38
351.174	402.38
351.402	400.38
351.629	411.38
351.856	394.38
352.083	412.38
352.311	435.38
352.538	408.38
352.765	384.38
352.992	391.38
353.22	409.38
353.447	398.38
353.674	390.38
353.901	364.38
354.128	401.38
354.355	382.38
354.583	392.38
354.81	390.38
355.037	363.38
355.264	384.38
355.491	388.38
355.718	391.38
355.945	379.38
356.172	384.38
356.399	404.38
356.626	366.38
356.853	380.38
357.08	398.38
357.307	391.38
357.534	388.38
357.761	406.38
357.988	391.38
358.215	406.38
358.441	403.38
358.668	412.38
358.895	389.38
359.122	394.38
359.349	393.38
359.576	416.38
359.802	416.38
360.029	435.38
360.256	457.38
360.483	406.38
360.709	385.38
360.936	413.38
361.163	401.38
361.39	412.38
361.616	407.38
361.843	401.38
362.07	400.38
362.296	398.38
362.523	383.38
362.749	381.38
362.976	393.38
363.203	386.38
363.429	371.38
363.656	399.38
363.882	409.38
364.109	401.38
364.335	387.38
364.562	402.38
364.788	385.38
365.015	399.38
365.241	390.38
365.468	383.38
365.694	399.38
365.92	409.38
366.147	410.38
366.373	388.38
366.599	402.38
366.826	398.38
367.052	369.38
367.278	404.38
367.505	380.38
367.731	385.38
367.957	375.38
368.184	394.38
368.41	422.38
368.636	418.38
368.862	400.38
369.089	406.38
369.315	393.38
369.541	382.38
369.767	393.38
369.993	402.38
370.219	410.38
370.445	433.38
370.672	406.38
370.898	395.38
371.124	424.38
371.35	442.38
371.576	400.38
371.802	410.38
372.028	395.38
372.254	406.38
372.48	423.38
372.706	441.38
372.932	414.38
373.158	433.38
373.384	431.38
373.61	424.38
373.835	408.38
374.061	416.38
374.287	414.38
374.513	412.38
374.739	424.38
374.965	448.38
375.191	441.38
375.416	440.38
375.642	419.38
375.868	450.38
376.094	423.38
376.319	424.38
376.545	408.38
376.771	411.38
376.997	403.38
377.222	404.38
377.448	419.38
377.674	408.38
377.899	412.38
378.125	406.38
378.35	401.38
378.576	395.38
378.802	408.38
379.027	406.38
379.253	420.38
379.478	417.38
379.704	398.38
379.929	416.38
380.155	414.38
380.38	427.38
380.606	397.38
380.831	402.38
381.057	434.38
381.282	409.38
381.507	400.38
381.733	423.38
381.958	387.38
382.184	401.38
382.409	404.38
382.634	428.38
382.86	426.38
383.085	425.38
383.31	420.38
383.535	418.38
383.761	455.38
383.986	451.38
384.211	463.38
384.436	464.38
384.662	467.38
384.887	467.38
385.112	464.38
385.337	447.38
385.562	472.38
385.787	467.38
386.013	499.38
386.238	470.38
386.463	450.38
386.688	471.38
386.913	486.38
387.138	476.38
387.363	447.38
387.588	457.38
387.813	462.38
388.038	464.38
388.263	491.38
388.488	474.38
388.713	480.38
388.938	465.38
389.163	446.38
389.387	443.38
389.612	460.38
389.837	456.38
390.062	439.38
390.287	462.38
390.512	461.38
390.736	456.38
390.961	477.38
391.186	482.38
391.411	493.38
391.636	483.38
391.86	530.38
392.085	519.38
392.31	495.38
392.534	501.38
392.759	490.38
392.984	500.38
393.208	480.38
393.433	494.38
393.658	486.38
393.882	468.38
394.107	464.38
394.331	506.38
394.556	482.38
394.78	470.38
395.005	490.38
395.229	462.38
395.454	516.38
395.678	504.38
395.903	514.38
396.127	539.38
396.352	491.38
396.576	486.38
396.801	489.38
397.025	500.38
397.249	514.38
397.474	517.38
397.698	498.38
397.922	515.38
398.147	510.38
398.371	555.38
398.595	538.38
398.82	541.38
399.044	593.38
399.268	620.38
399.492	702.38
399.717	742.38
399.941	776.38
400.165	735.38
400.389	678.38
400.613	626.38
400.837	586.38
401.062	572.38
401.286	567.38
401.51	559.38
401.734	547.38
401.958	555.38
402.182	563.38
402.406	590.38
402.63	620.38
402.854	587.38
403.078	587.38
403.302	611.38
403.526	623.38
403.75	604.38
403.974	610.38
404.198	590.38
404.422	648.38
404.645	615.38
404.869	627.38
405.093	626.38
405.317	669.38
405.541	660.38
405.765	624.38
405.988	617.38
406.212	590.38
406.436	641.38
406.66	620.38
406.883	622.38
407.107	636.38
407.331	697.38
407.555	740.38
407.778	731.38
408.002	696.38
408.226	655.38
408.449	642.38
408.673	623.38
408.896	649.38
409.12	636.38
409.344	627.38
409.567	618.38
409.791	613.38
410.014	605.38
410.238	584.38
410.461	591.38
410.685	592.38
410.908	587.38
411.132	624.38
411.355	639.38
411.578	604.38
411.802	579.38
412.025	602.38
412.249	594.38
412.472	594.38
412.695	615.38
412.919	598.38
413.142	582.38
413.365	566.38
413.589	589.38
413.812	557.38
414.035	555.38
414.258	564.38
414.482	550.38
414.705	561.38
414.928	555.38
415.151	535.38
415.374	558.38
415.597	521.38
415.821	532.38
416.044	542.38
416.267	577.38
416.49	561.38
416.713	548.38
416.936	530.38
417.159	529.38
417.382	541.38
417.605	539.38
417.828	553.38
418.051	572.38
418.274	568.38
418.497	564.38
418.72	555.38
418.943	577.38
419.166	577.38
419.389	596.38
419.611	603.38
419.834	574.38
420.057	560.38
420.28	572.38
420.503	565.38
420.726	549.38
420.948	546.38
421.171	610.38
421.394	597.38
421.617	552.38
421.839	566.38
422.062	556.38
422.285	562.38
422.507	611.38
422.73	646.38
422.953	592.38
423.175	579.38
423.398	592.38
423.621	571.38
423.843	602.38
424.066	601.38
424.288	578.38
424.511	620.38
424.733	620.38
424.956	656.38
425.178	637.38
425.401	647.38
425.623	659.38
425.846	605.38
426.068	564.38
426.291	573.38
426.513	554.38
426.735	555.38
426.958	593.38
427.18	645.38
427.402	720.38
427.625	748.38
427.847	653.38
428.069	600.38
428.292	558.38
428.514	543.38
428.736	523.38
428.958	522.38
429.181	507.38
429.403	516.38
429.625	518.38
429.847	529.38
430.069	571.38
430.292	576.38
430.514	516.38
430.736	511.38
430.958	522.38
431.18	506.38
431.402	490.38
431.624	515.38
431.846	497.38
432.068	508.38
432.29	491.38
432.512	511.38
432.734	548.38
432.956	505.38
433.178	508.38
433.4	511.38
433.622	499.38
433.844	482.38
434.066	496.38
434.287	510.38
434.509	532.38
434.731	509.38
434.953	548.38
435.175	540.38
435.397	574.38
435.618	541.38
435.84	571.38
436.062	591.38
436.284	639.38
436.505	572.38
436.727	557.38
436.949	516.38
437.17	504.38
437.392	493.38
437.614	512.38
437.835	505.38
438.057	584.38
438.278	636.38
438.5	634.38
438.721	666.38
438.943	643.38
439.165	563.38
439.386	554.38
439.608	529.38
439.829	545.38
440.05	541.38
440.272	567.38
440.493	542.38
440.715	520.38
440.936	522.38
441.158	518.38
441.379	530.38
441.6	553.38
441.822	549.38
442.043	577.38
442.264	638.38
442.486	626.38
442.707	585.38
442.928	563.38
443.149	590.38
443.371	570.38
443.592	615.38
443.813	672.38
444.034	706.38
444.255	624.38
444.476	606.38
444.698	617.38
444.919	616.38
445.14	722.38
445.361	654.38
445.582	614.38
445.803	623.38
446.024	676.38
446.245	670.38
446.466	625.38
446.687	557.38
446.908	536.38
447.129	523.38
447.35	506.38
447.571	494.38
447.792	486.38
448.013	507.38
448.234	499.38
448.455	550.38
448.675	586.38
448.896	643.38
449.117	567.38
449.338	568.38
449.559	625.38
449.779	665.38
450	554.38
450.221	508.38
450.442	492.38
450.662	465.38
450.883	474.38
451.104	492.38
451.324	489.38
451.545	474.38
451.766	451.38
451.986	465.38
452.207	448.38
452.428	428.38
452.648	454.38
452.869	461.38
453.089	449.38
453.31	465.38
453.53	462.38
453.751	437.38
453.971	454.38
454.192	471.38
454.412	441.38
454.633	446.38
454.853	444.38
455.073	436.38
455.294	458.38
455.514	491.38
455.734	492.38
455.955	443.38
456.175	405.38
456.395	439.38
456.616	412.38
456.836	417.38
457.056	403.38
457.276	413.38
457.497	409.38
457.717	419.38
457.937	439.38
458.157	434.38
458.377	426.38
458.598	450.38
458.818	481.38
459.038	552.38
459.258	552.38
459.478	520.38
459.698	492.38
459.918	505.38
460.138	519.38
460.358	503.38
460.578	518.38
460.798	548.38
461.018	536.38
461.238	549.38
461.458	536.38
461.678	539.38
461.898	542.38
462.118	554.38
462.338	563.38
462.558	579.38
462.777	583.38
462.997	600.38
463.217	639.38
463.437	629.38
463.657	628.38
463.876	582.38
464.096	591.38
464.316	598.38
464.536	596.38
464.755	581.38
464.975	566.38
465.195	585.38
465.414	618.38
465.634	535.38
465.854	524.38
466.073	513.38
466.293	480.38
466.512	455.38
466.732	439.38
466.951	462.38
467.171	443.38
467.391	470.38
467.61	486.38
467.829	504.38
468.049	467.38
468.268	470.38
468.488	452.38
468.707	459.38
468.927	459.38
469.146	463.38
469.365	454.38
469.585	455.38
469.804	481.38
470.023	494.38
470.243	496.38
470.462	490.38
470.681	511.38
470.901	506.38
471.12	496.38
471.339	480.38
471.558	479.38
471.777	467.38
471.997	462.38
472.216	466.38
472.435	491.38
472.654	506.38
472.873	460.38
473.092	456.38
473.311	479.38
473.53	453.38
473.749	469.38
473.968	485.38
474.187	536.38
474.406	551.38
474.625	479.38
474.844	463.38
475.063	447.38
475.282	446.38
475.501	463.38
475.72	482.38
475.939	468.38
476.158	481.38
476.377	459.38
476.596	451.38
476.814	484.38
477.033	490.38
477.252	495.38
477.471	490.38
477.69	512.38
477.908	487.38
478.127	524.38
478.346	516.38
478.564	561.38
478.783	539.38
479.002	576.38
479.22	542.38
479.439	568.38
479.658	533.38
479.876	558.38
480.095	561.38
480.313	588.38
480.532	593.38
480.751	580.38
480.969	558.38
481.188	617.38
481.406	627.38
481.624	565.38
481.843	564.38
482.061	556.38
482.28	534.38
482.498	531.38
482.717	524.38
482.935	529.38
483.153	531.38
483.372	527.38
483.59	543.38
483.808	540.38
484.027	532.38
484.245	542.38
484.463	534.38
484.681	543.38
484.9	537.38
485.118	560.38
485.336	561.38
485.554	543.38
485.772	532.38
485.99	560.38
486.209	551.38
486.427	562.38
486.645	558.38
486.863	585.38
487.081	573.38
487.299	576.38
487.517	546.38
487.735	565.38
487.953	574.38
488.171	536.38
488.389	558.38
488.607	561.38
488.825	557.38
489.043	582.38
489.261	551.38
489.479	579.38
489.696	569.38
489.914	580.38
490.132	572.38
490.35	563.38
490.568	571.38
490.786	605.38
491.003	605.38
491.221	617.38
491.439	598.38
491.657	620.38
491.874	612.38
492.092	634.38
492.31	651.38
492.527	656.38
492.745	626.38
492.963	630.38
493.18	641.38
493.398	651.38
493.615	675.38
493.833	645.38
494.05	651.38
494.268	625.38
494.485	647.38
494.703	680.38
494.92	636.38
495.138	646.38
495.355	640.38
495.573	652.38
495.79	647.38
496.008	648.38
496.225	655.38
496.442	638.38
496.66	657.38
496.877	676.38
497.094	690.38
497.312	671.38
497.529	659.38
497.746	683.38
497.963	725.38
498.181	735.38
498.398	793.38
498.615	777.38
498.832	807.38
499.049	815.38
499.267	889.38
499.484	926.38
499.701	1007.38
499.918	1073.38
500.135	1147.38
500.352	1270.38
500.569	1298.38
500.786	1272.38
501.003	1214.38
501.22	1154.38
501.437	1078.38
501.654	992.38
501.871	932.38
502.088	877.38
