Data from 1960PennyLincolnUp.LampE5.5.200Scan.07172019.P1.ChangedAngle_HRD10591_13-15-14-822.txt Node
Date: Thu Jul 18 13:15:14 EDT 2019
User: cochatt
Spectrometer: HR+D1059
Trigger mode: 1
Integration Time (sec): 1.000000E-1
Scans to average: 1
Electric dark correction enabled: true
Nonlinearity correction enabled: false
Boxcar width: 0
XAxis mode: Wavelengths
Number of Pixels in Spectrum: 2048
>>>>>Begin Spectral Data<<<<<
223.165	-21.69
223.4	-21.69
223.635	-21.69
223.869	-18.69
224.104	-7.69
224.338	-0.69
224.573	-11.69
224.808	0.31
225.042	-25.69
225.277	-5.69
225.511	7.31
225.746	-2.69
225.98	9.31
226.215	15.31
226.449	7.31
226.683	9.31
226.918	12.31
227.152	33.31
227.387	31.31
227.621	28.31
227.856	45.31
228.09	50.31
228.324	52.31
228.559	53.31
228.793	54.31
229.027	98.31
229.262	102.31
229.496	111.31
229.73	116.31
229.964	126.31
230.199	112.31
230.433	115.31
230.667	111.31
230.901	104.31
231.136	101.31
231.37	98.31
231.604	101.31
231.838	105.31
232.072	111.31
232.306	115.31
232.541	109.31
232.775	118.31
233.009	109.31
233.243	109.31
233.477	111.31
233.711	109.31
233.945	113.31
234.179	122.31
234.413	115.31
234.647	94.31
234.881	94.31
235.115	116.31
235.349	114.31
235.583	121.31
235.817	125.31
236.051	118.31
236.285	121.31
236.519	125.31
236.753	124.31
236.987	135.31
237.221	150.31
237.455	181.31
237.689	143.31
237.922	128.31
238.156	131.31
238.39	118.31
238.624	128.31
238.858	127.31
239.091	120.31
239.325	111.31
239.559	122.31
239.793	139.31
240.027	129.31
240.26	147.31
240.494	149.31
240.728	127.31
240.961	120.31
241.195	141.31
241.429	127.31
241.662	120.31
241.896	128.31
242.13	121.31
242.363	121.31
242.597	138.31
242.83	129.31
243.064	119.31
243.298	126.31
243.531	122.31
243.765	133.31
243.998	130.31
244.232	133.31
244.465	142.31
244.699	151.31
244.932	139.31
245.166	145.31
245.399	127.31
245.633	142.31
245.866	138.31
246.099	140.31
246.333	150.31
246.566	135.31
246.8	146.31
247.033	147.31
247.266	150.31
247.5	128.31
247.733	163.31
247.966	161.31
248.2	146.31
248.433	175.31
248.666	152.31
248.899	171.31
249.133	169.31
249.366	193.31
249.599	179.31
249.832	160.31
250.066	165.31
250.299	153.31
250.532	185.31
250.765	161.31
250.998	193.31
251.231	210.31
251.465	181.31
251.698	187.31
251.931	186.31
252.164	163.31
252.397	168.31
252.63	177.31
252.863	196.31
253.096	193.31
253.329	190.31
253.562	203.31
253.795	205.31
254.028	194.31
254.261	179.31
254.494	210.31
254.727	222.31
254.96	217.31
255.193	222.31
255.426	213.31
255.659	208.31
255.892	207.31
256.124	211.31
256.357	216.31
256.59	203.31
256.823	188.31
257.056	193.31
257.289	209.31
257.521	199.31
257.754	197.31
257.987	211.31
258.22	186.31
258.452	188.31
258.685	198.31
258.918	197.31
259.151	209.31
259.383	201.31
259.616	209.31
259.849	202.31
260.081	204.31
260.314	218.31
260.547	215.31
260.779	223.31
261.012	204.31
261.244	216.31
261.477	203.31
261.71	191.31
261.942	212.31
262.175	204.31
262.407	210.31
262.64	199.31
262.872	195.31
263.105	215.31
263.337	205.31
263.57	205.31
263.802	206.31
264.035	213.31
264.267	210.31
264.499	200.31
264.732	198.31
264.964	206.31
265.197	195.31
265.429	194.31
265.661	222.31
265.894	221.31
266.126	217.31
266.358	209.31
266.591	221.31
266.823	216.31
267.055	210.31
267.287	214.31
267.52	229.31
267.752	229.31
267.984	222.31
268.216	215.31
268.448	216.31
268.681	222.31
268.913	218.31
269.145	249.31
269.377	239.31
269.609	251.31
269.841	237.31
270.073	251.31
270.306	266.31
270.538	265.31
270.77	257.31
271.002	263.31
271.234	255.31
271.466	279.31
271.698	288.31
271.93	293.31
272.162	271.31
272.394	285.31
272.626	288.31
272.858	269.31
273.09	268.31
273.322	273.31
273.553	259.31
273.785	254.31
274.017	244.31
274.249	245.31
274.481	255.31
274.713	253.31
274.945	253.31
275.176	249.31
275.408	253.31
275.64	240.31
275.872	243.31
276.104	232.31
276.335	263.31
276.567	254.31
276.799	256.31
277.031	285.31
277.262	312.31
277.494	283.31
277.726	261.31
277.957	258.31
278.189	272.31
278.421	271.31
278.652	265.31
278.884	268.31
279.115	262.31
279.347	267.31
279.579	279.31
279.81	272.31
280.042	269.31
280.273	263.31
280.505	258.31
280.736	266.31
280.968	284.31
281.199	261.31
281.431	270.31
281.662	277.31
281.894	282.31
282.125	273.31
282.356	288.31
282.588	279.31
282.819	274.31
283.051	272.31
283.282	257.31
283.513	261.31
283.745	270.31
283.976	265.31
284.207	279.31
284.439	271.31
284.67	282.31
284.901	274.31
285.132	273.31
285.364	279.31
285.595	267.31
285.826	269.31
286.057	266.31
286.288	269.31
286.52	274.31
286.751	281.31
286.982	281.31
287.213	277.31
287.444	286.31
287.675	297.31
287.906	312.31
288.138	299.31
288.369	276.31
288.6	293.31
288.831	310.31
289.062	296.31
289.293	295.31
289.524	278.31
289.755	277.31
289.986	290.31
290.217	275.31
290.448	288.31
290.679	291.31
290.91	299.31
291.141	279.31
291.371	299.31
291.602	293.31
291.833	303.31
292.064	294.31
292.295	285.31
292.526	284.31
292.757	296.31
292.987	293.31
293.218	276.31
293.449	294.31
293.68	289.31
293.91	295.31
294.141	272.31
294.372	277.31
294.603	297.31
294.833	303.31
295.064	296.31
295.295	287.31
295.525	304.31
295.756	319.31
295.987	303.31
296.217	310.31
296.448	301.31
296.679	287.31
296.909	305.31
297.14	303.31
297.37	310.31
297.601	294.31
297.831	308.31
298.062	305.31
298.292	305.31
298.523	293.31
298.753	303.31
298.984	302.31
299.214	286.31
299.445	320.31
299.675	300.31
299.905	312.31
300.136	313.31
300.366	326.31
300.597	306.31
300.827	344.31
301.057	323.31
301.288	315.31
301.518	304.31
301.748	341.31
301.979	329.31
302.209	331.31
302.439	337.31
302.669	323.31
302.9	316.31
303.13	310.31
303.36	320.31
303.59	339.31
303.82	323.31
304.051	334.31
304.281	322.31
304.511	341.31
304.741	320.31
304.971	314.31
305.201	305.31
305.431	343.31
305.661	321.31
305.891	320.31
306.121	345.31
306.352	329.31
306.582	340.31
306.812	329.31
307.042	317.31
307.272	341.31
307.502	324.31
307.731	315.31
307.961	316.31
308.191	339.31
308.421	341.31
308.651	328.31
308.881	329.31
309.111	324.31
309.341	336.31
309.571	333.31
309.8	356.31
310.03	353.31
310.26	338.31
310.49	357.31
310.72	354.31
310.949	361.31
311.179	343.31
311.409	369.31
311.639	365.31
311.868	352.31
312.098	374.31
312.328	369.31
312.557	350.31
312.787	371.31
313.017	369.31
313.246	365.31
313.476	351.31
313.706	361.31
313.935	375.31
314.165	351.31
314.394	385.31
314.624	375.31
314.853	369.31
315.083	369.31
315.312	378.31
315.542	352.31
315.771	376.31
316.001	363.31
316.23	339.31
316.46	341.31
316.689	363.31
316.919	371.31
317.148	367.31
317.377	378.31
317.607	364.31
317.836	361.31
318.065	368.31
318.295	358.31
318.524	349.31
318.753	357.31
318.983	375.31
319.212	359.31
319.441	370.31
319.67	366.31
319.9	363.31
320.129	361.31
320.358	378.31
320.587	377.31
320.816	373.31
321.046	373.31
321.275	377.31
321.504	389.31
321.733	367.31
321.962	370.31
322.191	403.31
322.42	393.31
322.649	406.31
322.878	410.31
323.108	411.31
323.337	431.31
323.566	438.31
323.795	451.31
324.024	497.31
324.253	548.31
324.482	769.31
324.71	1112.31
324.939	1437.31
325.168	1279.31
325.397	735.31
325.626	504.31
325.855	461.31
326.084	455.31
326.313	452.31
326.542	451.31
326.77	483.31
326.999	554.31
327.228	698.31
327.457	997.31
327.686	1111.31
327.914	810.31
328.143	574.31
328.372	520.31
328.6	501.31
328.829	497.31
329.058	497.31
329.287	505.31
329.515	456.31
329.744	451.31
329.972	443.31
330.201	457.31
330.43	493.31
330.658	472.31
330.887	509.31
331.115	471.31
331.344	462.31
331.572	443.31
331.801	464.31
332.03	454.31
332.258	421.31
332.486	417.31
332.715	415.31
332.943	428.31
333.172	431.31
333.4	451.31
333.629	446.31
333.857	452.31
334.085	448.31
334.314	467.31
334.542	468.31
334.771	477.31
334.999	467.31
335.227	435.31
335.455	448.31
335.684	441.31
335.912	418.31
336.14	422.31
336.369	418.31
336.597	437.31
336.825	443.31
337.053	435.31
337.281	442.31
337.51	414.31
337.738	425.31
337.966	397.31
338.194	415.31
338.422	423.31
338.65	441.31
338.878	411.31
339.106	424.31
339.334	423.31
339.562	417.31
339.79	401.31
340.018	409.31
340.246	394.31
340.474	421.31
340.702	423.31
340.93	409.31
341.158	397.31
341.386	399.31
341.614	387.31
341.842	413.31
342.07	387.31
342.298	387.31
342.526	399.31
342.754	394.31
342.981	401.31
343.209	413.31
343.437	396.31
343.665	414.31
343.893	423.31
344.12	415.31
344.348	416.31
344.576	425.31
344.804	395.31
345.031	412.31
345.259	429.31
345.487	415.31
345.714	395.31
345.942	398.31
346.17	399.31
346.397	382.31
346.625	390.31
346.853	365.31
347.08	375.31
347.308	386.31
347.535	399.31
347.763	389.31
347.99	405.31
348.218	391.31
348.445	396.31
348.673	374.31
348.9	377.31
349.128	385.31
349.355	379.31
349.583	366.31
349.81	363.31
350.037	368.31
350.265	379.31
350.492	379.31
350.72	374.31
350.947	376.31
351.174	397.31
351.402	381.31
351.629	379.31
351.856	387.31
352.083	391.31
352.311	388.31
352.538	402.31
352.765	375.31
352.992	386.31
353.22	382.31
353.447	369.31
353.674	368.31
353.901	367.31
354.128	364.31
354.355	375.31
354.583	359.31
354.81	358.31
355.037	368.31
355.264	365.31
355.491	357.31
355.718	354.31
355.945	362.31
356.172	391.31
356.399	365.31
356.626	357.31
356.853	378.31
357.08	365.31
357.307	353.31
357.534	352.31
357.761	350.31
357.988	376.31
358.215	375.31
358.441	349.31
358.668	357.31
358.895	353.31
359.122	367.31
359.349	383.31
359.576	379.31
359.802	412.31
360.029	390.31
360.256	394.31
360.483	403.31
360.709	381.31
360.936	403.31
361.163	395.31
361.39	364.31
361.616	355.31
361.843	361.31
362.07	389.31
362.296	390.31
362.523	366.31
362.749	388.31
362.976	384.31
363.203	350.31
363.429	361.31
363.656	377.31
363.882	366.31
364.109	358.31
364.335	371.31
364.562	357.31
364.788	367.31
365.015	375.31
365.241	366.31
365.468	375.31
365.694	377.31
365.92	377.31
366.147	369.31
366.373	365.31
366.599	375.31
366.826	358.31
367.052	352.31
367.278	361.31
367.505	359.31
367.731	365.31
367.957	347.31
368.184	365.31
368.41	353.31
368.636	375.31
368.862	401.31
369.089	368.31
369.315	353.31
369.541	371.31
369.767	371.31
369.993	353.31
370.219	354.31
370.445	347.31
370.672	363.31
370.898	356.31
371.124	349.31
371.35	349.31
371.576	365.31
371.802	381.31
372.028	362.31
372.254	357.31
372.48	383.31
372.706	371.31
372.932	370.31
373.158	344.31
373.384	368.31
373.61	344.31
373.835	373.31
374.061	346.31
374.287	352.31
374.513	364.31
374.739	359.31
374.965	380.31
375.191	377.31
375.416	357.31
375.642	352.31
375.868	373.31
376.094	363.31
376.319	356.31
376.545	369.31
376.771	352.31
376.997	360.31
377.222	380.31
377.448	363.31
377.674	339.31
377.899	346.31
378.125	360.31
378.35	364.31
378.576	338.31
378.802	344.31
379.027	369.31
379.253	355.31
379.478	353.31
379.704	361.31
379.929	359.31
380.155	353.31
380.38	363.31
380.606	350.31
380.831	357.31
381.057	365.31
381.282	368.31
381.507	341.31
381.733	358.31
381.958	342.31
382.184	336.31
382.409	385.31
382.634	366.31
382.86	346.31
383.085	369.31
383.31	354.31
383.535	365.31
383.761	362.31
383.986	369.31
384.211	366.31
384.436	387.31
384.662	379.31
384.887	374.31
385.112	369.31
385.337	381.31
385.562	384.31
385.787	387.31
386.013	398.31
386.238	389.31
386.463	385.31
386.688	384.31
386.913	396.31
387.138	391.31
387.363	368.31
387.588	380.31
387.813	378.31
388.038	385.31
388.263	394.31
388.488	383.31
388.713	379.31
388.938	382.31
389.163	379.31
389.387	371.31
389.612	388.31
389.837	391.31
390.062	382.31
390.287	379.31
390.512	382.31
390.736	367.31
390.961	377.31
391.186	369.31
391.411	377.31
391.636	398.31
391.86	397.31
392.085	411.31
392.31	400.31
392.534	391.31
392.759	385.31
392.984	382.31
393.208	400.31
393.433	411.31
393.658	406.31
393.882	381.31
394.107	375.31
394.331	378.31
394.556	368.31
394.78	367.31
395.005	387.31
395.229	394.31
395.454	410.31
395.678	400.31
395.903	425.31
396.127	423.31
396.352	434.31
396.576	405.31
396.801	406.31
397.025	396.31
397.249	391.31
397.474	428.31
397.698	420.31
397.922	414.31
398.147	416.31
398.371	407.31
398.595	423.31
398.82	442.31
399.044	421.31
399.268	469.31
399.492	475.31
399.717	474.31
399.941	519.31
400.165	515.31
400.389	505.31
400.613	482.31
400.837	450.31
401.062	445.31
401.286	433.31
401.51	444.31
401.734	414.31
401.958	410.31
402.182	440.31
402.406	439.31
402.63	439.31
402.854	443.31
403.078	456.31
403.302	417.31
403.526	426.31
403.75	435.31
403.974	439.31
404.198	435.31
404.422	436.31
404.645	435.31
404.869	455.31
405.093	477.31
405.317	481.31
405.541	490.31
405.765	483.31
405.988	468.31
406.212	445.31
406.436	454.31
406.66	473.31
406.883	470.31
407.107	485.31
407.331	514.31
407.555	539.31
407.778	564.31
408.002	513.31
408.226	470.31
408.449	462.31
408.673	481.31
408.896	510.31
409.12	515.31
409.344	491.31
409.567	450.31
409.791	442.31
410.014	454.31
410.238	464.31
410.461	463.31
410.685	464.31
410.908	452.31
411.132	462.31
411.355	489.31
411.578	489.31
411.802	440.31
412.025	435.31
412.249	456.31
412.472	460.31
412.695	471.31
412.919	474.31
413.142	453.31
413.365	407.31
413.589	411.31
413.812	417.31
414.035	417.31
414.258	432.31
414.482	403.31
414.705	412.31
414.928	415.31
415.151	396.31
415.374	414.31
415.597	406.31
415.821	397.31
416.044	417.31
416.267	431.31
416.49	399.31
416.713	391.31
416.936	413.31
417.159	403.31
417.382	402.31
417.605	394.31
417.828	415.31
418.051	430.31
418.274	416.31
418.497	393.31
418.72	415.31
418.943	405.31
419.166	450.31
419.389	432.31
419.611	455.31
419.834	452.31
420.057	420.31
420.28	411.31
420.503	419.31
420.726	424.31
420.948	445.31
421.171	453.31
421.394	484.31
421.617	443.31
421.839	433.31
422.062	440.31
422.285	434.31
422.507	476.31
422.73	525.31
422.953	510.31
423.175	458.31
423.398	444.31
423.621	437.31
423.843	437.31
424.066	445.31
424.288	441.31
424.511	436.31
424.733	477.31
424.956	534.31
425.178	528.31
425.401	529.31
425.623	535.31
425.846	472.31
426.068	427.31
426.291	418.31
426.513	433.31
426.735	459.31
426.958	467.31
427.18	530.31
427.402	596.31
427.625	643.31
427.847	557.31
428.069	501.31
428.292	473.31
428.514	416.31
428.736	402.31
428.958	420.31
429.181	411.31
429.403	399.31
429.625	415.31
429.847	443.31
430.069	472.31
430.292	483.31
430.514	406.31
430.736	424.31
430.958	401.31
431.18	407.31
431.402	385.31
431.624	367.31
431.846	374.31
432.068	396.31
432.29	388.31
432.512	387.31
432.734	399.31
432.956	407.31
433.178	388.31
433.4	399.31
433.622	401.31
433.844	396.31
434.066	389.31
434.287	378.31
434.509	387.31
434.731	404.31
434.953	403.31
435.175	419.31
435.397	440.31
435.618	438.31
435.84	461.31
436.062	528.31
436.284	577.31
436.505	483.31
436.727	435.31
436.949	430.31
437.17	393.31
437.392	410.31
437.614	424.31
437.835	445.31
438.057	492.31
438.278	550.31
438.5	550.31
438.721	620.31
438.943	578.31
439.165	482.31
439.386	474.31
439.608	449.31
439.829	431.31
440.05	450.31
440.272	468.31
440.493	432.31
440.715	416.31
440.936	413.31
441.158	409.31
441.379	410.31
441.6	425.31
441.822	444.31
442.043	469.31
442.264	507.31
442.486	533.31
442.707	469.31
442.928	427.31
443.149	452.31
443.371	448.31
443.592	490.31
443.813	544.31
444.034	578.31
444.255	506.31
444.476	462.31
444.698	453.31
444.919	441.31
445.14	537.31
445.361	475.31
445.582	452.31
445.803	497.31
446.024	576.31
446.245	578.31
446.466	541.31
446.687	465.31
446.908	417.31
447.129	414.31
447.35	432.31
447.571	409.31
447.792	410.31
448.013	414.31
448.234	405.31
448.455	445.31
448.675	519.31
448.896	581.31
449.117	504.31
449.338	478.31
449.559	558.31
449.779	635.31
450	501.31
450.221	445.31
450.442	394.31
450.662	371.31
450.883	399.31
451.104	402.31
451.324	399.31
451.545	403.31
451.766	373.31
451.986	368.31
452.207	361.31
452.428	367.31
452.648	383.31
452.869	358.31
453.089	366.31
453.31	375.31
453.53	367.31
453.751	351.31
453.971	366.31
454.192	361.31
454.412	370.31
454.633	373.31
454.853	373.31
455.073	349.31
455.294	388.31
455.514	398.31
455.734	402.31
455.955	361.31
456.175	331.31
456.395	333.31
456.616	339.31
456.836	359.31
457.056	347.31
457.276	339.31
457.497	362.31
457.717	337.31
457.937	342.31
458.157	361.31
458.377	357.31
458.598	376.31
458.818	422.31
459.038	444.31
459.258	456.31
459.478	411.31
459.698	392.31
459.918	389.31
460.138	386.31
460.358	379.31
460.578	393.31
460.798	406.31
461.018	379.31
461.238	405.31
461.458	394.31
461.678	393.31
461.898	393.31
462.118	412.31
462.338	400.31
462.558	393.31
462.777	419.31
462.997	440.31
463.217	416.31
463.437	437.31
463.657	417.31
463.876	426.31
464.096	431.31
464.316	426.31
464.536	417.31
464.755	423.31
464.975	408.31
465.195	439.31
465.414	464.31
465.634	432.31
465.854	395.31
466.073	385.31
466.293	375.31
466.512	387.31
466.732	382.31
466.951	371.31
467.171	371.31
467.391	375.31
467.61	399.31
467.829	402.31
468.049	378.31
468.268	373.31
468.488	370.31
468.707	365.31
468.927	373.31
469.146	362.31
469.365	367.31
469.585	357.31
469.804	377.31
470.023	377.31
470.243	370.31
470.462	391.31
470.681	365.31
470.901	386.31
471.12	366.31
471.339	364.31
471.558	382.31
471.777	380.31
471.997	380.31
472.216	387.31
472.435	408.31
472.654	401.31
472.873	368.31
473.092	375.31
473.311	373.31
473.53	384.31
473.749	378.31
473.968	399.31
474.187	479.31
474.406	482.31
474.625	407.31
474.844	407.31
475.063	386.31
475.282	368.31
475.501	386.31
475.72	401.31
475.939	394.31
476.158	375.31
476.377	395.31
476.596	387.31
476.814	406.31
477.033	389.31
477.252	386.31
477.471	407.31
477.69	410.31
477.908	437.31
478.127	412.31
478.346	401.31
478.564	411.31
478.783	418.31
479.002	440.31
479.22	435.31
479.439	450.31
479.658	446.31
479.876	433.31
480.095	461.31
480.313	488.31
480.532	467.31
480.751	450.31
480.969	444.31
481.188	499.31
481.406	511.31
481.624	496.31
481.843	459.31
482.061	441.31
482.28	436.31
482.498	438.31
482.717	446.31
482.935	449.31
483.153	437.31
483.372	437.31
483.59	422.31
483.808	422.31
484.027	459.31
484.245	446.31
484.463	456.31
484.681	432.31
484.9	449.31
485.118	464.31
485.336	445.31
485.554	447.31
485.772	447.31
485.99	471.31
486.209	462.31
486.427	477.31
486.645	445.31
486.863	482.31
487.081	476.31
487.299	482.31
487.517	472.31
487.735	441.31
487.953	451.31
488.171	455.31
488.389	469.31
488.607	442.31
488.825	445.31
489.043	460.31
489.261	463.31
489.479	446.31
489.696	478.31
489.914	467.31
490.132	468.31
490.35	475.31
490.568	460.31
490.786	497.31
491.003	507.31
491.221	519.31
491.439	504.31
491.657	510.31
491.874	511.31
492.092	542.31
492.31	527.31
492.527	533.31
492.745	513.31
492.963	528.31
493.18	533.31
493.398	520.31
493.615	522.31
493.833	526.31
494.05	538.31
494.268	542.31
494.485	525.31
494.703	537.31
494.92	534.31
495.138	541.31
495.355	509.31
495.573	536.31
495.79	535.31
496.008	531.31
496.225	524.31
496.442	534.31
496.66	533.31
496.877	553.31
497.094	536.31
497.312	565.31
497.529	559.31
497.746	554.31
497.963	585.31
498.181	588.31
498.398	587.31
498.615	587.31
498.832	616.31
499.049	629.31
499.267	639.31
499.484	664.31
499.701	671.31
499.918	717.31
500.135	729.31
500.352	745.31
500.569	787.31
500.786	783.31
501.003	786.31
501.22	750.31
501.437	697.31
501.654	683.31
501.871	685.31
