Data from 1960PennyLincolnUp.LampE6.200Scan.07172019.P1_HRD10591_13-06-26-001.txt Node
Date: Thu Jul 18 13:06:26 EDT 2019
User: cochatt
Spectrometer: HR+D1059
Trigger mode: 1
Integration Time (sec): 1.000000E-1
Scans to average: 1
Electric dark correction enabled: true
Nonlinearity correction enabled: false
Boxcar width: 0
XAxis mode: Wavelengths
Number of Pixels in Spectrum: 2048
>>>>>Begin Spectral Data<<<<<
223.165	-16.25
223.4	-16.25
223.635	-16.25
223.869	-7.25
224.104	-14.25
224.338	-6.25
224.573	-21.25
224.808	-21.25
225.042	-17.25
225.277	-1.25
225.511	-0.25
225.746	13.75
225.98	10.75
226.215	24.75
226.449	13.75
226.683	-5.25
226.918	20.75
227.152	26.75
227.387	35.75
227.621	34.75
227.856	53.75
228.09	49.75
228.324	48.75
228.559	57.75
228.793	58.75
229.027	90.75
229.262	98.75
229.496	97.75
229.73	99.75
229.964	118.75
230.199	110.75
230.433	93.75
230.667	96.75
230.901	90.75
231.136	95.75
231.37	107.75
231.604	103.75
231.838	112.75
232.072	111.75
232.306	116.75
232.541	110.75
232.775	120.75
233.009	120.75
233.243	113.75
233.477	117.75
233.711	116.75
233.945	101.75
234.179	104.75
234.413	115.75
234.647	105.75
234.881	104.75
235.115	122.75
235.349	124.75
235.583	115.75
235.817	126.75
236.051	114.75
236.285	116.75
236.519	111.75
236.753	131.75
236.987	129.75
237.221	154.75
237.455	155.75
237.689	165.75
237.922	129.75
238.156	113.75
238.39	128.75
238.624	134.75
238.858	115.75
239.091	118.75
239.325	115.75
239.559	123.75
239.793	129.75
240.027	137.75
240.26	123.75
240.494	138.75
240.728	129.75
240.961	137.75
241.195	123.75
241.429	134.75
241.662	120.75
241.896	141.75
242.13	135.75
242.363	119.75
242.597	136.75
242.83	143.75
243.064	132.75
243.298	140.75
243.531	147.75
243.765	132.75
243.998	140.75
244.232	134.75
244.465	141.75
244.699	138.75
244.932	120.75
245.166	147.75
245.399	133.75
245.633	146.75
245.866	145.75
246.099	146.75
246.333	145.75
246.566	157.75
246.8	144.75
247.033	143.75
247.266	154.75
247.5	165.75
247.733	157.75
247.966	163.75
248.2	155.75
248.433	166.75
248.666	171.75
248.899	168.75
249.133	177.75
249.366	171.75
249.599	174.75
249.832	161.75
250.066	172.75
250.299	176.75
250.532	184.75
250.765	180.75
250.998	193.75
251.231	171.75
251.465	199.75
251.698	184.75
251.931	177.75
252.164	191.75
252.397	179.75
252.63	178.75
252.863	197.75
253.096	209.75
253.329	191.75
253.562	196.75
253.795	200.75
254.028	198.75
254.261	187.75
254.494	194.75
254.727	212.75
254.96	246.75
255.193	225.75
255.426	200.75
255.659	182.75
255.892	216.75
256.124	213.75
256.357	203.75
256.59	200.75
256.823	182.75
257.056	197.75
257.289	200.75
257.521	190.75
257.754	195.75
257.987	194.75
258.22	201.75
258.452	169.75
258.685	183.75
258.918	199.75
259.151	189.75
259.383	205.75
259.616	200.75
259.849	202.75
260.081	219.75
260.314	218.75
260.547	216.75
260.779	214.75
261.012	202.75
261.244	200.75
261.477	198.75
261.71	205.75
261.942	209.75
262.175	216.75
262.407	194.75
262.64	216.75
262.872	206.75
263.105	214.75
263.337	187.75
263.57	199.75
263.802	203.75
264.035	217.75
264.267	212.75
264.499	198.75
264.732	213.75
264.964	190.75
265.197	216.75
265.429	213.75
265.661	199.75
265.894	200.75
266.126	214.75
266.358	215.75
266.591	194.75
266.823	234.75
267.055	234.75
267.287	222.75
267.52	231.75
267.752	217.75
267.984	219.75
268.216	226.75
268.448	204.75
268.681	237.75
268.913	229.75
269.145	237.75
269.377	251.75
269.609	240.75
269.841	250.75
270.073	261.75
270.306	266.75
270.538	283.75
270.77	279.75
271.002	270.75
271.234	244.75
271.466	271.75
271.698	277.75
271.93	295.75
272.162	296.75
272.394	286.75
272.626	286.75
272.858	253.75
273.09	258.75
273.322	262.75
273.553	254.75
273.785	242.75
274.017	242.75
274.249	253.75
274.481	253.75
274.713	263.75
274.945	264.75
275.176	261.75
275.408	264.75
275.64	242.75
275.872	261.75
276.104	256.75
276.335	257.75
276.567	274.75
276.799	268.75
277.031	268.75
277.262	292.75
277.494	289.75
277.726	292.75
277.957	276.75
278.189	264.75
278.421	266.75
278.652	261.75
278.884	248.75
279.115	273.75
279.347	261.75
279.579	270.75
279.81	250.75
280.042	255.75
280.273	261.75
280.505	268.75
280.736	257.75
280.968	267.75
281.199	259.75
281.431	264.75
281.662	279.75
281.894	270.75
282.125	274.75
282.356	277.75
282.588	306.75
282.819	280.75
283.051	276.75
283.282	283.75
283.513	271.75
283.745	274.75
283.976	289.75
284.207	296.75
284.439	308.75
284.67	279.75
284.901	290.75
285.132	285.75
285.364	280.75
285.595	290.75
285.826	301.75
286.057	293.75
286.288	276.75
286.52	301.75
286.751	303.75
286.982	285.75
287.213	288.75
287.444	292.75
287.675	293.75
287.906	318.75
288.138	310.75
288.369	298.75
288.6	302.75
288.831	312.75
289.062	311.75
289.293	313.75
289.524	298.75
289.755	308.75
289.986	293.75
290.217	313.75
290.448	299.75
290.679	301.75
290.91	293.75
291.141	313.75
291.371	313.75
291.602	325.75
291.833	291.75
292.064	291.75
292.295	298.75
292.526	296.75
292.757	279.75
292.987	305.75
293.218	301.75
293.449	308.75
293.68	326.75
293.91	322.75
294.141	309.75
294.372	303.75
294.603	302.75
294.833	303.75
295.064	299.75
295.295	308.75
295.525	299.75
295.756	315.75
295.987	322.75
296.217	330.75
296.448	320.75
296.679	312.75
296.909	307.75
297.14	329.75
297.37	319.75
297.601	305.75
297.831	326.75
298.062	323.75
298.292	321.75
298.523	323.75
298.753	317.75
298.984	318.75
299.214	308.75
299.445	331.75
299.675	308.75
299.905	341.75
300.136	337.75
300.366	338.75
300.597	317.75
300.827	330.75
301.057	346.75
301.288	335.75
301.518	340.75
301.748	350.75
301.979	328.75
302.209	369.75
302.439	348.75
302.669	334.75
302.9	344.75
303.13	338.75
303.36	350.75
303.59	333.75
303.82	351.75
304.051	364.75
304.281	355.75
304.511	340.75
304.741	351.75
304.971	355.75
305.201	350.75
305.431	353.75
305.661	351.75
305.891	336.75
306.121	337.75
306.352	345.75
306.582	352.75
306.812	333.75
307.042	352.75
307.272	353.75
307.502	317.75
307.731	333.75
307.961	334.75
308.191	320.75
308.421	361.75
308.651	346.75
308.881	357.75
309.111	353.75
309.341	363.75
309.571	355.75
309.8	363.75
310.03	353.75
310.26	366.75
310.49	353.75
310.72	372.75
310.949	380.75
311.179	388.75
311.409	356.75
311.639	373.75
311.868	395.75
312.098	365.75
312.328	390.75
312.557	387.75
312.787	375.75
313.017	397.75
313.246	388.75
313.476	369.75
313.706	397.75
313.935	373.75
314.165	386.75
314.394	387.75
314.624	388.75
314.853	403.75
315.083	391.75
315.312	368.75
315.542	379.75
315.771	364.75
316.001	373.75
316.23	368.75
316.46	370.75
316.689	368.75
316.919	381.75
317.148	382.75
317.377	400.75
317.607	388.75
317.836	382.75
318.065	374.75
318.295	379.75
318.524	392.75
318.753	382.75
318.983	371.75
319.212	377.75
319.441	394.75
319.67	379.75
319.9	387.75
320.129	373.75
320.358	373.75
320.587	408.75
320.816	390.75
321.046	387.75
321.275	399.75
321.504	378.75
321.733	379.75
321.962	398.75
322.191	403.75
322.42	401.75
322.649	417.75
322.878	415.75
323.108	415.75
323.337	415.75
323.566	442.75
323.795	463.75
324.024	475.75
324.253	578.75
324.482	688.75
324.71	1015.75
324.939	1356.75
325.168	1138.75
325.397	631.75
325.626	508.75
325.855	438.75
326.084	455.75
326.313	450.75
326.542	458.75
326.77	473.75
326.999	538.75
327.228	693.75
327.457	945.75
327.686	1087.75
327.914	757.75
328.143	525.75
328.372	508.75
328.6	485.75
328.829	459.75
329.058	495.75
329.287	491.75
329.515	475.75
329.744	463.75
329.972	452.75
330.201	489.75
330.43	506.75
330.658	529.75
330.887	518.75
331.115	507.75
331.344	480.75
331.572	465.75
331.801	485.75
332.03	485.75
332.258	465.75
332.486	480.75
332.715	465.75
332.943	453.75
333.172	501.75
333.4	508.75
333.629	512.75
333.857	518.75
334.085	529.75
334.314	534.75
334.542	554.75
334.771	553.75
334.999	533.75
335.227	505.75
335.455	496.75
335.684	484.75
335.912	510.75
336.14	474.75
336.369	482.75
336.597	479.75
336.825	471.75
337.053	466.75
337.281	449.75
337.51	438.75
337.738	460.75
337.966	450.75
338.194	432.75
338.422	449.75
338.65	441.75
338.878	452.75
339.106	471.75
339.334	451.75
339.562	438.75
339.79	431.75
340.018	430.75
340.246	450.75
340.474	440.75
340.702	451.75
340.93	441.75
341.158	431.75
341.386	441.75
341.614	438.75
341.842	437.75
342.07	426.75
342.298	432.75
342.526	439.75
342.754	410.75
342.981	437.75
343.209	420.75
343.437	437.75
343.665	468.75
343.893	477.75
344.12	489.75
344.348	476.75
344.576	454.75
344.804	447.75
345.031	445.75
345.259	463.75
345.487	427.75
345.714	438.75
345.942	447.75
346.17	418.75
346.397	395.75
346.625	409.75
346.853	427.75
347.08	407.75
347.308	426.75
347.535	425.75
347.763	429.75
347.99	428.75
348.218	438.75
348.445	432.75
348.673	417.75
348.9	426.75
349.128	415.75
349.355	414.75
349.583	428.75
349.81	423.75
350.037	418.75
350.265	407.75
350.492	417.75
350.72	402.75
350.947	413.75
351.174	407.75
351.402	421.75
351.629	424.75
351.856	410.75
352.083	426.75
352.311	417.75
352.538	435.75
352.765	411.75
352.992	415.75
353.22	421.75
353.447	398.75
353.674	421.75
353.901	406.75
354.128	400.75
354.355	409.75
354.583	395.75
354.81	392.75
355.037	380.75
355.264	398.75
355.491	415.75
355.718	376.75
355.945	399.75
356.172	415.75
356.399	397.75
356.626	408.75
356.853	405.75
357.08	399.75
357.307	391.75
357.534	403.75
357.761	401.75
357.988	382.75
358.215	392.75
358.441	399.75
358.668	403.75
358.895	409.75
359.122	413.75
359.349	397.75
359.576	420.75
359.802	426.75
360.029	448.75
360.256	434.75
360.483	432.75
360.709	418.75
360.936	409.75
361.163	404.75
361.39	433.75
361.616	405.75
361.843	423.75
362.07	418.75
362.296	408.75
362.523	422.75
362.749	429.75
362.976	405.75
363.203	411.75
363.429	409.75
363.656	414.75
363.882	415.75
364.109	389.75
364.335	391.75
364.562	394.75
364.788	411.75
365.015	408.75
365.241	378.75
365.468	395.75
365.694	415.75
365.92	401.75
366.147	401.75
366.373	378.75
366.599	399.75
366.826	399.75
367.052	391.75
367.278	395.75
367.505	405.75
367.731	415.75
367.957	421.75
368.184	424.75
368.41	426.75
368.636	440.75
368.862	421.75
369.089	417.75
369.315	410.75
369.541	422.75
369.767	417.75
369.993	418.75
370.219	416.75
370.445	415.75
370.672	416.75
370.898	410.75
371.124	419.75
371.35	407.75
371.576	432.75
371.802	417.75
372.028	412.75
372.254	408.75
372.48	413.75
372.706	442.75
372.932	423.75
373.158	433.75
373.384	427.75
373.61	429.75
373.835	461.75
374.061	430.75
374.287	436.75
374.513	454.75
374.739	455.75
374.965	438.75
375.191	453.75
375.416	441.75
375.642	435.75
375.868	427.75
376.094	422.75
376.319	428.75
376.545	421.75
376.771	444.75
376.997	409.75
377.222	423.75
377.448	421.75
377.674	429.75
377.899	426.75
378.125	412.75
378.35	421.75
378.576	417.75
378.802	418.75
379.027	439.75
379.253	429.75
379.478	438.75
379.704	448.75
379.929	430.75
380.155	426.75
380.38	410.75
380.606	407.75
380.831	419.75
381.057	441.75
381.282	438.75
381.507	426.75
381.733	420.75
381.958	413.75
382.184	433.75
382.409	427.75
382.634	439.75
382.86	438.75
383.085	449.75
383.31	441.75
383.535	469.75
383.761	459.75
383.986	453.75
384.211	456.75
384.436	489.75
384.662	484.75
384.887	487.75
385.112	462.75
385.337	473.75
385.562	483.75
385.787	477.75
386.013	495.75
386.238	486.75
386.463	492.75
386.688	473.75
386.913	497.75
387.138	464.75
387.363	498.75
387.588	493.75
387.813	461.75
388.038	464.75
388.263	496.75
388.488	503.75
388.713	489.75
388.938	470.75
389.163	485.75
389.387	482.75
389.612	470.75
389.837	474.75
390.062	469.75
390.287	478.75
390.512	462.75
390.736	490.75
390.961	471.75
391.186	480.75
391.411	495.75
391.636	516.75
391.86	524.75
392.085	521.75
392.31	503.75
392.534	524.75
392.759	531.75
392.984	496.75
393.208	505.75
393.433	503.75
393.658	481.75
393.882	479.75
394.107	499.75
394.331	506.75
394.556	494.75
394.78	524.75
395.005	503.75
395.229	497.75
395.454	510.75
395.678	545.75
395.903	515.75
396.127	533.75
396.352	535.75
396.576	518.75
396.801	526.75
397.025	527.75
397.249	507.75
397.474	539.75
397.698	538.75
397.922	518.75
398.147	547.75
398.371	545.75
398.595	556.75
398.82	570.75
399.044	583.75
399.268	615.75
399.492	711.75
399.717	767.75
399.941	751.75
400.165	757.75
400.389	688.75
400.613	649.75
400.837	599.75
401.062	597.75
401.286	577.75
401.51	584.75
401.734	566.75
401.958	577.75
402.182	586.75
402.406	587.75
402.63	587.75
402.854	623.75
403.078	587.75
403.302	618.75
403.526	635.75
403.75	623.75
403.974	656.75
404.198	610.75
404.422	650.75
404.645	626.75
404.869	627.75
405.093	635.75
405.317	646.75
405.541	699.75
405.765	637.75
405.988	623.75
406.212	621.75
406.436	629.75
406.66	655.75
406.883	657.75
407.107	693.75
407.331	724.75
407.555	787.75
407.778	761.75
408.002	692.75
408.226	659.75
408.449	670.75
408.673	651.75
408.896	653.75
409.12	683.75
409.344	669.75
409.567	592.75
409.791	627.75
410.014	612.75
410.238	619.75
410.461	611.75
410.685	606.75
410.908	598.75
411.132	623.75
411.355	643.75
411.578	595.75
411.802	600.75
412.025	593.75
412.249	601.75
412.472	611.75
412.695	607.75
412.919	622.75
413.142	594.75
413.365	575.75
413.589	582.75
413.812	566.75
414.035	558.75
414.258	560.75
414.482	572.75
414.705	557.75
414.928	573.75
415.151	537.75
415.374	574.75
415.597	555.75
415.821	538.75
416.044	547.75
416.267	544.75
416.49	553.75
416.713	559.75
416.936	565.75
417.159	573.75
417.382	566.75
417.605	541.75
417.828	582.75
418.051	574.75
418.274	577.75
418.497	570.75
418.72	565.75
418.943	550.75
419.166	592.75
419.389	593.75
419.611	590.75
419.834	575.75
420.057	568.75
420.28	605.75
420.503	570.75
420.726	569.75
420.948	590.75
421.171	602.75
421.394	611.75
421.617	585.75
421.839	577.75
422.062	604.75
422.285	581.75
422.507	635.75
422.73	674.75
422.953	658.75
423.175	615.75
423.398	615.75
423.621	609.75
423.843	636.75
424.066	610.75
424.288	602.75
424.511	628.75
424.733	635.75
424.956	697.75
425.178	647.75
425.401	655.75
425.623	657.75
425.846	598.75
426.068	559.75
426.291	575.75
426.513	571.75
426.735	570.75
426.958	600.75
427.18	641.75
427.402	717.75
427.625	753.75
427.847	707.75
428.069	622.75
428.292	586.75
428.514	557.75
428.736	529.75
428.958	520.75
429.181	534.75
429.403	513.75
429.625	553.75
429.847	544.75
430.069	591.75
430.292	578.75
430.514	549.75
430.736	538.75
430.958	530.75
431.18	495.75
431.402	519.75
431.624	523.75
431.846	506.75
432.068	508.75
432.29	518.75
432.512	501.75
432.734	531.75
432.956	522.75
433.178	527.75
433.4	521.75
433.622	524.75
433.844	534.75
434.066	503.75
434.287	519.75
434.509	525.75
434.731	560.75
434.953	561.75
435.175	565.75
435.397	578.75
435.618	559.75
435.84	574.75
436.062	646.75
436.284	681.75
436.505	577.75
436.727	546.75
436.949	543.75
437.17	527.75
437.392	519.75
437.614	518.75
437.835	532.75
438.057	598.75
438.278	645.75
438.5	629.75
438.721	710.75
438.943	673.75
439.165	556.75
439.386	538.75
439.608	550.75
439.829	557.75
440.05	571.75
440.272	584.75
440.493	547.75
440.715	545.75
440.936	535.75
441.158	528.75
441.379	546.75
441.6	567.75
441.822	575.75
442.043	601.75
442.264	651.75
442.486	660.75
442.707	600.75
442.928	571.75
443.149	619.75
443.371	599.75
443.592	634.75
443.813	683.75
444.034	697.75
444.255	664.75
444.476	615.75
444.698	615.75
444.919	636.75
445.14	748.75
445.361	651.75
445.582	623.75
445.803	635.75
446.024	701.75
446.245	705.75
446.466	623.75
446.687	557.75
446.908	533.75
447.129	523.75
447.35	531.75
447.571	499.75
447.792	488.75
448.013	513.75
448.234	521.75
448.455	563.75
448.675	615.75
448.896	674.75
449.117	579.75
449.338	568.75
449.559	649.75
449.779	699.75
450	576.75
450.221	530.75
450.442	490.75
450.662	498.75
450.883	494.75
451.104	489.75
451.324	487.75
451.545	472.75
451.766	456.75
451.986	481.75
452.207	464.75
452.428	487.75
452.648	459.75
452.869	466.75
453.089	468.75
453.31	478.75
453.53	467.75
453.751	455.75
453.971	436.75
454.192	460.75
454.412	445.75
454.633	452.75
454.853	475.75
455.073	457.75
455.294	503.75
455.514	501.75
455.734	510.75
455.955	451.75
456.175	442.75
456.395	423.75
456.616	425.75
456.836	431.75
457.056	452.75
457.276	428.75
457.497	447.75
457.717	441.75
457.937	455.75
458.157	450.75
458.377	448.75
458.598	455.75
458.818	501.75
459.038	561.75
459.258	561.75
459.478	521.75
459.698	524.75
459.918	496.75
460.138	512.75
460.358	544.75
460.578	527.75
460.798	547.75
461.018	584.75
461.238	569.75
461.458	546.75
461.678	543.75
461.898	533.75
462.118	549.75
462.338	559.75
462.558	575.75
462.777	603.75
462.997	633.75
463.217	665.75
463.437	685.75
463.657	636.75
463.876	621.75
464.096	639.75
464.316	610.75
464.536	600.75
464.755	602.75
464.975	577.75
465.195	607.75
465.414	623.75
465.634	572.75
465.854	519.75
466.073	527.75
466.293	505.75
466.512	501.75
466.732	489.75
466.951	486.75
467.171	488.75
467.391	484.75
467.61	491.75
467.829	516.75
468.049	481.75
468.268	474.75
468.488	465.75
468.707	452.75
468.927	458.75
469.146	451.75
469.365	467.75
469.585	468.75
469.804	478.75
470.023	502.75
470.243	500.75
470.462	494.75
470.681	513.75
470.901	511.75
471.12	498.75
471.339	496.75
471.558	485.75
471.777	479.75
471.997	482.75
472.216	501.75
472.435	516.75
472.654	490.75
472.873	482.75
473.092	454.75
473.311	471.75
473.53	472.75
473.749	486.75
473.968	481.75
474.187	548.75
474.406	541.75
474.625	494.75
474.844	466.75
475.063	458.75
475.282	470.75
475.501	463.75
475.72	494.75
475.939	457.75
476.158	495.75
476.377	485.75
476.596	475.75
476.814	479.75
477.033	504.75
477.252	490.75
477.471	505.75
477.69	515.75
477.908	525.75
478.127	523.75
478.346	530.75
478.564	551.75
478.783	556.75
479.002	560.75
479.22	575.75
479.439	536.75
479.658	597.75
479.876	591.75
480.095	557.75
480.313	594.75
480.532	603.75
480.751	611.75
480.969	613.75
481.188	642.75
481.406	651.75
481.624	596.75
481.843	543.75
482.061	538.75
482.28	563.75
482.498	530.75
482.717	547.75
482.935	527.75
483.153	518.75
483.372	548.75
483.59	539.75
483.808	545.75
484.027	513.75
484.245	557.75
484.463	550.75
484.681	570.75
484.9	551.75
485.118	553.75
485.336	560.75
485.554	545.75
485.772	546.75
485.99	562.75
486.209	570.75
486.427	557.75
486.645	547.75
486.863	583.75
487.081	578.75
487.299	578.75
487.517	592.75
487.735	571.75
487.953	577.75
488.171	573.75
488.389	568.75
488.607	573.75
488.825	554.75
489.043	576.75
489.261	593.75
489.479	584.75
489.696	600.75
489.914	558.75
490.132	593.75
490.35	610.75
490.568	601.75
490.786	599.75
491.003	623.75
491.221	625.75
491.439	611.75
491.657	635.75
491.874	642.75
492.092	671.75
492.31	663.75
492.527	634.75
492.745	635.75
492.963	675.75
493.18	656.75
493.398	645.75
493.615	682.75
493.833	691.75
494.05	676.75
494.268	665.75
494.485	666.75
494.703	650.75
494.92	679.75
495.138	677.75
495.355	645.75
495.573	668.75
495.79	672.75
496.008	669.75
496.225	664.75
496.442	655.75
496.66	658.75
496.877	654.75
497.094	685.75
497.312	694.75
497.529	690.75
497.746	694.75
497.963	721.75
498.181	711.75
498.398	740.75
498.615	763.75
498.832	807.75
499.049	852.75
499.267	882.75
499.484	935.75
499.701	1024.75
499.918	1084.75
500.135	1152.75
500.352	1290.75
500.569	1299.75
500.786	1295.75
501.003	1245.75
501.22	1157.75
501.437	1100.75
501.654	1006.75
501.871	937.75
