Data from 1960PennyLincolnUp.LampE5.5.200Scan.07172019.P1.ChangedAngle_HRD10591_13-14-19-822.txt Node
Date: Thu Jul 18 13:14:19 EDT 2019
User: cochatt
Spectrometer: HR+D1059
Trigger mode: 1
Integration Time (sec): 1.000000E-1
Scans to average: 1
Electric dark correction enabled: true
Nonlinearity correction enabled: false
Boxcar width: 0
XAxis mode: Wavelengths
Number of Pixels in Spectrum: 2048
>>>>>Begin Spectral Data<<<<<
223.165	-16.62
223.4	-16.62
223.635	-16.62
223.869	-25.62
224.104	-2.62
224.338	-10.62
224.573	-24.62
224.808	-10.62
225.042	-3.62
225.277	-12.62
225.511	-9.62
225.746	6.38
225.98	12.38
226.215	13.38
226.449	21.38
226.683	14.38
226.918	12.38
227.152	36.38
227.387	36.38
227.621	42.38
227.856	53.38
228.09	42.38
228.324	50.38
228.559	46.38
228.793	61.38
229.027	87.38
229.262	94.38
229.496	94.38
229.73	109.38
229.964	102.38
230.199	106.38
230.433	99.38
230.667	102.38
230.901	116.38
231.136	110.38
231.37	101.38
231.604	94.38
231.838	96.38
232.072	105.38
232.306	92.38
232.541	108.38
232.775	109.38
233.009	98.38
233.243	103.38
233.477	111.38
233.711	106.38
233.945	109.38
234.179	109.38
234.413	109.38
234.647	115.38
234.881	109.38
235.115	113.38
235.349	112.38
235.583	109.38
235.817	120.38
236.051	94.38
236.285	112.38
236.519	116.38
236.753	117.38
236.987	101.38
237.221	136.38
237.455	156.38
237.689	159.38
237.922	130.38
238.156	126.38
238.39	106.38
238.624	112.38
238.858	119.38
239.091	117.38
239.325	108.38
239.559	107.38
239.793	121.38
240.027	116.38
240.26	102.38
240.494	126.38
240.728	116.38
240.961	124.38
241.195	125.38
241.429	106.38
241.662	123.38
241.896	118.38
242.13	122.38
242.363	134.38
242.597	120.38
242.83	122.38
243.064	119.38
243.298	126.38
243.531	126.38
243.765	131.38
243.998	124.38
244.232	132.38
244.465	128.38
244.699	156.38
244.932	134.38
245.166	130.38
245.399	142.38
245.633	124.38
245.866	143.38
246.099	151.38
246.333	141.38
246.566	134.38
246.8	139.38
247.033	138.38
247.266	123.38
247.5	144.38
247.733	126.38
247.966	152.38
248.2	146.38
248.433	158.38
248.666	154.38
248.899	163.38
249.133	154.38
249.366	170.38
249.599	162.38
249.832	165.38
250.066	147.38
250.299	162.38
250.532	152.38
250.765	160.38
250.998	174.38
251.231	183.38
251.465	191.38
251.698	180.38
251.931	173.38
252.164	171.38
252.397	162.38
252.63	171.38
252.863	183.38
253.096	174.38
253.329	188.38
253.562	157.38
253.795	186.38
254.028	190.38
254.261	174.38
254.494	182.38
254.727	208.38
254.96	210.38
255.193	220.38
255.426	200.38
255.659	188.38
255.892	184.38
256.124	203.38
256.357	185.38
256.59	190.38
256.823	188.38
257.056	190.38
257.289	176.38
257.521	186.38
257.754	174.38
257.987	198.38
258.22	174.38
258.452	177.38
258.685	176.38
258.918	183.38
259.151	180.38
259.383	180.38
259.616	184.38
259.849	210.38
260.081	206.38
260.314	212.38
260.547	216.38
260.779	205.38
261.012	189.38
261.244	181.38
261.477	192.38
261.71	179.38
261.942	190.38
262.175	199.38
262.407	208.38
262.64	198.38
262.872	191.38
263.105	191.38
263.337	198.38
263.57	201.38
263.802	192.38
264.035	188.38
264.267	199.38
264.499	187.38
264.732	192.38
264.964	190.38
265.197	194.38
265.429	185.38
265.661	207.38
265.894	205.38
266.126	187.38
266.358	200.38
266.591	202.38
266.823	213.38
267.055	206.38
267.287	200.38
267.52	190.38
267.752	196.38
267.984	211.38
268.216	207.38
268.448	222.38
268.681	223.38
268.913	206.38
269.145	220.38
269.377	237.38
269.609	240.38
269.841	225.38
270.073	224.38
270.306	242.38
270.538	243.38
270.77	227.38
271.002	247.38
271.234	241.38
271.466	246.38
271.698	256.38
271.93	254.38
272.162	251.38
272.394	269.38
272.626	247.38
272.858	210.38
273.09	214.38
273.322	241.38
273.553	232.38
273.785	237.38
274.017	218.38
274.249	230.38
274.481	236.38
274.713	223.38
274.945	222.38
275.176	227.38
275.408	235.38
275.64	237.38
275.872	254.38
276.104	245.38
276.335	233.38
276.567	233.38
276.799	246.38
277.031	251.38
277.262	251.38
277.494	278.38
277.726	247.38
277.957	252.38
278.189	243.38
278.421	240.38
278.652	237.38
278.884	243.38
279.115	254.38
279.347	249.38
279.579	249.38
279.81	230.38
280.042	236.38
280.273	248.38
280.505	232.38
280.736	239.38
280.968	255.38
281.199	267.38
281.431	258.38
281.662	256.38
281.894	243.38
282.125	252.38
282.356	264.38
282.588	269.38
282.819	256.38
283.051	272.38
283.282	252.38
283.513	243.38
283.745	247.38
283.976	268.38
284.207	256.38
284.439	254.38
284.67	268.38
284.901	270.38
285.132	263.38
285.364	268.38
285.595	252.38
285.826	281.38
286.057	242.38
286.288	250.38
286.52	254.38
286.751	261.38
286.982	262.38
287.213	280.38
287.444	266.38
287.675	259.38
287.906	263.38
288.138	257.38
288.369	268.38
288.6	277.38
288.831	276.38
289.062	271.38
289.293	263.38
289.524	264.38
289.755	270.38
289.986	256.38
290.217	290.38
290.448	269.38
290.679	251.38
290.91	252.38
291.141	266.38
291.371	275.38
291.602	272.38
291.833	265.38
292.064	262.38
292.295	264.38
292.526	273.38
292.757	255.38
292.987	282.38
293.218	272.38
293.449	253.38
293.68	271.38
293.91	272.38
294.141	268.38
294.372	278.38
294.603	285.38
294.833	269.38
295.064	273.38
295.295	278.38
295.525	269.38
295.756	275.38
295.987	281.38
296.217	292.38
296.448	290.38
296.679	293.38
296.909	282.38
297.14	274.38
297.37	292.38
297.601	286.38
297.831	283.38
298.062	303.38
298.292	278.38
298.523	272.38
298.753	290.38
298.984	287.38
299.214	287.38
299.445	297.38
299.675	292.38
299.905	293.38
300.136	279.38
300.366	288.38
300.597	277.38
300.827	288.38
301.057	325.38
301.288	296.38
301.518	283.38
301.748	302.38
301.979	300.38
302.209	311.38
302.439	324.38
302.669	309.38
302.9	290.38
303.13	300.38
303.36	300.38
303.59	311.38
303.82	304.38
304.051	304.38
304.281	306.38
304.511	297.38
304.741	297.38
304.971	302.38
305.201	308.38
305.431	298.38
305.661	308.38
305.891	326.38
306.121	307.38
306.352	294.38
306.582	315.38
306.812	310.38
307.042	325.38
307.272	320.38
307.502	314.38
307.731	309.38
307.961	297.38
308.191	302.38
308.421	304.38
308.651	310.38
308.881	303.38
309.111	309.38
309.341	315.38
309.571	332.38
309.8	325.38
310.03	318.38
310.26	349.38
310.49	326.38
310.72	313.38
310.949	347.38
311.179	342.38
311.409	344.38
311.639	330.38
311.868	335.38
312.098	323.38
312.328	332.38
312.557	343.38
312.787	346.38
313.017	340.38
313.246	355.38
313.476	338.38
313.706	344.38
313.935	332.38
314.165	356.38
314.394	329.38
314.624	340.38
314.853	344.38
315.083	348.38
315.312	356.38
315.542	353.38
315.771	344.38
316.001	341.38
316.23	333.38
316.46	339.38
316.689	337.38
316.919	341.38
317.148	372.38
317.377	354.38
317.607	332.38
317.836	343.38
318.065	358.38
318.295	346.38
318.524	354.38
318.753	349.38
318.983	338.38
319.212	347.38
319.441	350.38
319.67	362.38
319.9	335.38
320.129	324.38
320.358	355.38
320.587	341.38
320.816	337.38
321.046	338.38
321.275	343.38
321.504	352.38
321.733	370.38
321.962	368.38
322.191	354.38
322.42	369.38
322.649	371.38
322.878	374.38
323.108	359.38
323.337	378.38
323.566	402.38
323.795	403.38
324.024	424.38
324.253	492.38
324.482	647.38
324.71	911.38
324.939	1147.38
325.168	1014.38
325.397	564.38
325.626	463.38
325.855	434.38
326.084	402.38
326.313	382.38
326.542	402.38
326.77	435.38
326.999	479.38
327.228	612.38
327.457	800.38
327.686	896.38
327.914	650.38
328.143	486.38
328.372	438.38
328.6	433.38
328.829	423.38
329.058	438.38
329.287	419.38
329.515	416.38
329.744	405.38
329.972	408.38
330.201	400.38
330.43	426.38
330.658	418.38
330.887	424.38
331.115	431.38
331.344	400.38
331.572	395.38
331.801	390.38
332.03	405.38
332.258	405.38
332.486	392.38
332.715	398.38
332.943	394.38
333.172	389.38
333.4	419.38
333.629	401.38
333.857	441.38
334.085	435.38
334.314	424.38
334.542	438.38
334.771	439.38
334.999	415.38
335.227	418.38
335.455	422.38
335.684	385.38
335.912	393.38
336.14	407.38
336.369	409.38
336.597	401.38
336.825	396.38
337.053	400.38
337.281	404.38
337.51	395.38
337.738	404.38
337.966	402.38
338.194	397.38
338.422	408.38
338.65	368.38
338.878	390.38
339.106	388.38
339.334	365.38
339.562	405.38
339.79	392.38
340.018	380.38
340.246	389.38
340.474	374.38
340.702	383.38
340.93	372.38
341.158	368.38
341.386	378.38
341.614	370.38
341.842	383.38
342.07	369.38
342.298	372.38
342.526	372.38
342.754	348.38
342.981	355.38
343.209	365.38
343.437	376.38
343.665	383.38
343.893	399.38
344.12	407.38
344.348	384.38
344.576	403.38
344.804	372.38
345.031	402.38
345.259	380.38
345.487	386.38
345.714	375.38
345.942	361.38
346.17	377.38
346.397	356.38
346.625	361.38
346.853	351.38
347.08	347.38
347.308	354.38
347.535	380.38
347.763	344.38
347.99	374.38
348.218	351.38
348.445	351.38
348.673	366.38
348.9	360.38
349.128	351.38
349.355	350.38
349.583	356.38
349.81	371.38
350.037	357.38
350.265	341.38
350.492	338.38
350.72	337.38
350.947	357.38
351.174	358.38
351.402	368.38
351.629	363.38
351.856	370.38
352.083	348.38
352.311	355.38
352.538	352.38
352.765	364.38
352.992	340.38
353.22	354.38
353.447	360.38
353.674	335.38
353.901	363.38
354.128	330.38
354.355	329.38
354.583	351.38
354.81	341.38
355.037	331.38
355.264	331.38
355.491	320.38
355.718	348.38
355.945	333.38
356.172	327.38
356.399	358.38
356.626	364.38
356.853	331.38
357.08	349.38
357.307	321.38
357.534	336.38
357.761	338.38
357.988	351.38
358.215	350.38
358.441	338.38
358.668	344.38
358.895	335.38
359.122	356.38
359.349	333.38
359.576	337.38
359.802	340.38
360.029	362.38
360.256	376.38
360.483	356.38
360.709	356.38
360.936	361.38
361.163	361.38
361.39	342.38
361.616	350.38
361.843	331.38
362.07	338.38
362.296	350.38
362.523	332.38
362.749	348.38
362.976	343.38
363.203	354.38
363.429	344.38
363.656	342.38
363.882	358.38
364.109	337.38
364.335	354.38
364.562	337.38
364.788	340.38
365.015	331.38
365.241	327.38
365.468	340.38
365.694	332.38
365.92	355.38
366.147	320.38
366.373	336.38
366.599	325.38
366.826	335.38
367.052	346.38
367.278	332.38
367.505	322.38
367.731	345.38
367.957	330.38
368.184	327.38
368.41	347.38
368.636	356.38
368.862	350.38
369.089	324.38
369.315	337.38
369.541	334.38
369.767	348.38
369.993	347.38
370.219	342.38
370.445	335.38
370.672	334.38
370.898	332.38
371.124	330.38
371.35	337.38
371.576	343.38
371.802	343.38
372.028	340.38
372.254	347.38
372.48	348.38
372.706	347.38
372.932	334.38
373.158	333.38
373.384	342.38
373.61	339.38
373.835	349.38
374.061	336.38
374.287	367.38
374.513	336.38
374.739	345.38
374.965	364.38
375.191	335.38
375.416	348.38
375.642	355.38
375.868	348.38
376.094	353.38
376.319	348.38
376.545	334.38
376.771	338.38
376.997	338.38
377.222	327.38
377.448	348.38
377.674	350.38
377.899	328.38
378.125	340.38
378.35	332.38
378.576	340.38
378.802	347.38
379.027	340.38
379.253	345.38
379.478	333.38
379.704	330.38
379.929	331.38
380.155	319.38
380.38	350.38
380.606	347.38
380.831	335.38
381.057	340.38
381.282	330.38
381.507	334.38
381.733	348.38
381.958	335.38
382.184	344.38
382.409	341.38
382.634	347.38
382.86	348.38
383.085	362.38
383.31	351.38
383.535	352.38
383.761	347.38
383.986	347.38
384.211	344.38
384.436	347.38
384.662	359.38
384.887	384.38
385.112	361.38
385.337	344.38
385.562	354.38
385.787	354.38
386.013	380.38
386.238	394.38
386.463	369.38
386.688	358.38
386.913	351.38
387.138	366.38
387.363	365.38
387.588	361.38
387.813	351.38
388.038	368.38
388.263	342.38
388.488	360.38
388.713	361.38
388.938	374.38
389.163	380.38
389.387	344.38
389.612	366.38
389.837	362.38
390.062	349.38
390.287	357.38
390.512	359.38
390.736	350.38
390.961	368.38
391.186	356.38
391.411	350.38
391.636	363.38
391.86	368.38
392.085	368.38
392.31	361.38
392.534	362.38
392.759	369.38
392.984	360.38
393.208	383.38
393.433	368.38
393.658	378.38
393.882	376.38
394.107	355.38
394.331	358.38
394.556	360.38
394.78	378.38
395.005	370.38
395.229	355.38
395.454	375.38
395.678	365.38
395.903	376.38
396.127	407.38
396.352	388.38
396.576	389.38
396.801	378.38
397.025	372.38
397.249	377.38
397.474	383.38
397.698	387.38
397.922	383.38
398.147	385.38
398.371	409.38
398.595	408.38
398.82	406.38
399.044	408.38
399.268	419.38
399.492	450.38
399.717	490.38
399.941	478.38
400.165	509.38
400.389	474.38
400.613	422.38
400.837	425.38
401.062	433.38
401.286	432.38
401.51	396.38
401.734	408.38
401.958	400.38
402.182	423.38
402.406	406.38
402.63	420.38
402.854	419.38
403.078	411.38
403.302	418.38
403.526	437.38
403.75	407.38
403.974	402.38
404.198	400.38
404.422	401.38
404.645	412.38
404.869	412.38
405.093	432.38
405.317	459.38
405.541	501.38
405.765	456.38
405.988	447.38
406.212	463.38
406.436	422.38
406.66	452.38
406.883	436.38
407.107	463.38
407.331	476.38
407.555	508.38
407.778	519.38
408.002	472.38
408.226	440.38
408.449	440.38
408.673	440.38
408.896	464.38
409.12	459.38
409.344	475.38
409.567	442.38
409.791	438.38
410.014	413.38
410.238	418.38
410.461	400.38
410.685	412.38
410.908	430.38
411.132	438.38
411.355	459.38
411.578	430.38
411.802	411.38
412.025	415.38
412.249	428.38
412.472	407.38
412.695	436.38
412.919	427.38
413.142	397.38
413.365	404.38
413.589	412.38
413.812	400.38
414.035	395.38
414.258	395.38
414.482	411.38
414.705	390.38
414.928	388.38
415.151	376.38
415.374	385.38
415.597	404.38
415.821	390.38
416.044	390.38
416.267	390.38
416.49	394.38
416.713	384.38
416.936	387.38
417.159	388.38
417.382	386.38
417.605	385.38
417.828	399.38
418.051	397.38
418.274	387.38
418.497	366.38
418.72	384.38
418.943	395.38
419.166	386.38
419.389	422.38
419.611	409.38
419.834	396.38
420.057	397.38
420.28	414.38
420.503	384.38
420.726	381.38
420.948	397.38
421.171	435.38
421.394	429.38
421.617	395.38
421.839	404.38
422.062	381.38
422.285	386.38
422.507	428.38
422.73	465.38
422.953	469.38
423.175	409.38
423.398	413.38
423.621	412.38
423.843	402.38
424.066	412.38
424.288	409.38
424.511	412.38
424.733	448.38
424.956	506.38
425.178	491.38
425.401	486.38
425.623	499.38
425.846	436.38
426.068	418.38
426.291	407.38
426.513	390.38
426.735	422.38
426.958	449.38
427.18	452.38
427.402	548.38
427.625	595.38
427.847	528.38
428.069	462.38
428.292	421.38
428.514	403.38
428.736	386.38
428.958	392.38
429.181	372.38
429.403	369.38
429.625	383.38
429.847	409.38
430.069	432.38
430.292	452.38
430.514	396.38
430.736	382.38
430.958	378.38
431.18	375.38
431.402	358.38
431.624	381.38
431.846	378.38
432.068	367.38
432.29	382.38
432.512	374.38
432.734	363.38
432.956	358.38
433.178	390.38
433.4	379.38
433.622	374.38
433.844	372.38
434.066	367.38
434.287	358.38
434.509	390.38
434.731	377.38
434.953	368.38
435.175	378.38
435.397	372.38
435.618	390.38
435.84	426.38
436.062	518.38
436.284	520.38
436.505	449.38
436.727	418.38
436.949	365.38
437.17	379.38
437.392	365.38
437.614	369.38
437.835	407.38
438.057	451.38
438.278	505.38
438.5	497.38
438.721	552.38
438.943	547.38
439.165	434.38
439.386	412.38
439.608	407.38
439.829	408.38
440.05	398.38
440.272	433.38
440.493	418.38
440.715	401.38
440.936	384.38
441.158	372.38
441.379	393.38
441.6	430.38
441.822	413.38
442.043	431.38
442.264	469.38
442.486	510.38
442.707	426.38
442.928	389.38
443.149	396.38
443.371	419.38
443.592	457.38
443.813	507.38
444.034	539.38
444.255	451.38
444.476	407.38
444.698	400.38
444.919	424.38
445.14	519.38
445.361	459.38
445.582	440.38
445.803	444.38
446.024	518.38
446.245	526.38
446.466	461.38
446.687	429.38
446.908	407.38
447.129	402.38
447.35	378.38
447.571	375.38
447.792	361.38
448.013	367.38
448.234	390.38
448.455	417.38
448.675	498.38
448.896	532.38
449.117	447.38
449.338	437.38
449.559	507.38
449.779	566.38
450	455.38
450.221	393.38
450.442	372.38
450.662	378.38
450.883	357.38
451.104	369.38
451.324	365.38
451.545	340.38
451.766	348.38
451.986	342.38
452.207	331.38
452.428	328.38
452.648	349.38
452.869	339.38
453.089	341.38
453.31	352.38
453.53	331.38
453.751	335.38
453.971	348.38
454.192	362.38
454.412	355.38
454.633	348.38
454.853	328.38
455.073	308.38
455.294	359.38
455.514	382.38
455.734	389.38
455.955	348.38
456.175	327.38
456.395	330.38
456.616	326.38
456.836	328.38
457.056	329.38
457.276	324.38
457.497	322.38
457.717	333.38
457.937	331.38
458.157	329.38
458.377	331.38
458.598	354.38
458.818	372.38
459.038	397.38
459.258	402.38
459.478	379.38
459.698	367.38
459.918	357.38
460.138	345.38
460.358	368.38
460.578	400.38
460.798	374.38
461.018	382.38
461.238	384.38
461.458	348.38
461.678	367.38
461.898	376.38
462.118	380.38
462.338	374.38
462.558	389.38
462.777	394.38
462.997	403.38
463.217	425.38
463.437	415.38
463.657	400.38
463.876	396.38
464.096	402.38
464.316	419.38
464.536	412.38
464.755	400.38
464.975	409.38
465.195	393.38
465.414	426.38
465.634	393.38
465.854	370.38
466.073	366.38
466.293	355.38
466.512	355.38
466.732	348.38
466.951	365.38
467.171	364.38
467.391	370.38
467.61	358.38
467.829	359.38
468.049	360.38
468.268	362.38
468.488	337.38
468.707	351.38
468.927	349.38
469.146	345.38
469.365	343.38
469.585	340.38
469.804	347.38
470.023	356.38
470.243	357.38
470.462	378.38
470.681	362.38
470.901	360.38
471.12	335.38
471.339	353.38
471.558	361.38
471.777	362.38
471.997	346.38
472.216	365.38
472.435	378.38
472.654	359.38
472.873	348.38
473.092	366.38
473.311	354.38
473.53	365.38
473.749	359.38
473.968	383.38
474.187	460.38
474.406	428.38
474.625	393.38
474.844	362.38
475.063	340.38
475.282	360.38
475.501	355.38
475.72	358.38
475.939	364.38
476.158	377.38
476.377	375.38
476.596	391.38
476.814	376.38
477.033	377.38
477.252	379.38
477.471	387.38
477.69	387.38
477.908	404.38
478.127	368.38
478.346	391.38
478.564	391.38
478.783	394.38
479.002	390.38
479.22	426.38
479.439	409.38
479.658	384.38
479.876	427.38
480.095	427.38
480.313	436.38
480.532	422.38
480.751	413.38
480.969	426.38
481.188	429.38
481.406	456.38
481.624	430.38
481.843	414.38
482.061	436.38
482.28	399.38
482.498	432.38
482.717	429.38
482.935	421.38
483.153	419.38
483.372	412.38
483.59	427.38
483.808	418.38
484.027	413.38
484.245	420.38
484.463	428.38
484.681	429.38
484.9	428.38
485.118	430.38
485.336	418.38
485.554	418.38
485.772	429.38
485.99	424.38
486.209	430.38
486.427	425.38
486.645	434.38
486.863	428.38
487.081	427.38
487.299	438.38
487.517	436.38
487.735	414.38
487.953	458.38
488.171	438.38
488.389	444.38
488.607	436.38
488.825	435.38
489.043	422.38
489.261	437.38
489.479	446.38
489.696	455.38
489.914	446.38
490.132	453.38
490.35	437.38
490.568	448.38
490.786	456.38
491.003	475.38
491.221	471.38
491.439	486.38
491.657	483.38
491.874	490.38
492.092	461.38
492.31	466.38
492.527	477.38
492.745	462.38
492.963	482.38
493.18	473.38
493.398	491.38
493.615	494.38
493.833	478.38
494.05	498.38
494.268	475.38
494.485	490.38
494.703	502.38
494.92	492.38
495.138	486.38
495.355	506.38
495.573	488.38
495.79	497.38
496.008	500.38
496.225	515.38
496.442	527.38
496.66	509.38
496.877	508.38
497.094	482.38
497.312	516.38
497.529	507.38
497.746	512.38
497.963	540.38
498.181	555.38
498.398	548.38
498.615	565.38
498.832	584.38
499.049	598.38
499.267	616.38
499.484	626.38
499.701	633.38
499.918	674.38
500.135	710.38
500.352	732.38
500.569	726.38
500.786	754.38
501.003	725.38
501.22	702.38
501.437	664.38
501.654	636.38
501.871	636.38
