Data from 1960PennyLincolnUp.LampE6.200Scan.07172019.P1_HRD10591_13-05-04-005.txt Node
Date: Thu Jul 18 13:05:04 EDT 2019
User: cochatt
Spectrometer: HR+D1059
Trigger mode: 1
Integration Time (sec): 1.000000E-1
Scans to average: 1
Electric dark correction enabled: true
Nonlinearity correction enabled: false
Boxcar width: 0
XAxis mode: Wavelengths
Number of Pixels in Spectrum: 2048
>>>>>Begin Spectral Data<<<<<
223.165	-13.44
223.4	-13.44
223.635	-13.44
223.869	-23.44
224.104	-15.44
224.338	-15.44
224.573	-12.44
224.808	-12.44
225.042	-8.44
225.277	-2.44
225.511	-1.44
225.746	6.56
225.98	5.56
226.215	3.56
226.449	19.56
226.683	15.56
226.918	19.56
227.152	34.56
227.387	34.56
227.621	36.56
227.856	42.56
228.09	38.56
228.324	49.56
228.559	46.56
228.793	58.56
229.027	89.56
229.262	83.56
229.496	81.56
229.73	105.56
229.964	112.56
230.199	111.56
230.433	101.56
230.667	106.56
230.901	106.56
231.136	113.56
231.37	108.56
231.604	105.56
231.838	109.56
232.072	109.56
232.306	110.56
232.541	103.56
232.775	116.56
233.009	114.56
233.243	105.56
233.477	103.56
233.711	105.56
233.945	103.56
234.179	111.56
234.413	121.56
234.647	104.56
234.881	107.56
235.115	118.56
235.349	122.56
235.583	111.56
235.817	107.56
236.051	106.56
236.285	112.56
236.519	101.56
236.753	116.56
236.987	122.56
237.221	143.56
237.455	141.56
237.689	134.56
237.922	110.56
238.156	120.56
238.39	111.56
238.624	120.56
238.858	112.56
239.091	97.56
239.325	116.56
239.559	115.56
239.793	124.56
240.027	123.56
240.26	116.56
240.494	136.56
240.728	135.56
240.961	123.56
241.195	116.56
241.429	106.56
241.662	134.56
241.896	121.56
242.13	120.56
242.363	119.56
242.597	120.56
242.83	140.56
243.064	108.56
243.298	137.56
243.531	138.56
243.765	120.56
243.998	138.56
244.232	129.56
244.465	117.56
244.699	120.56
244.932	127.56
245.166	129.56
245.399	149.56
245.633	134.56
245.866	149.56
246.099	128.56
246.333	138.56
246.566	159.56
246.8	146.56
247.033	146.56
247.266	147.56
247.5	150.56
247.733	156.56
247.966	143.56
248.2	148.56
248.433	145.56
248.666	152.56
248.899	141.56
249.133	162.56
249.366	160.56
249.599	172.56
249.832	172.56
250.066	148.56
250.299	154.56
250.532	164.56
250.765	181.56
250.998	171.56
251.231	174.56
251.465	180.56
251.698	186.56
251.931	164.56
252.164	175.56
252.397	162.56
252.63	187.56
252.863	171.56
253.096	185.56
253.329	187.56
253.562	180.56
253.795	182.56
254.028	202.56
254.261	190.56
254.494	178.56
254.727	190.56
254.96	206.56
255.193	193.56
255.426	190.56
255.659	181.56
255.892	199.56
256.124	186.56
256.357	173.56
256.59	190.56
256.823	175.56
257.056	178.56
257.289	183.56
257.521	182.56
257.754	180.56
257.987	186.56
258.22	195.56
258.452	188.56
258.685	177.56
258.918	187.56
259.151	186.56
259.383	180.56
259.616	195.56
259.849	193.56
260.081	207.56
260.314	208.56
260.547	198.56
260.779	189.56
261.012	199.56
261.244	192.56
261.477	194.56
261.71	184.56
261.942	203.56
262.175	191.56
262.407	188.56
262.64	194.56
262.872	215.56
263.105	193.56
263.337	214.56
263.57	194.56
263.802	188.56
264.035	183.56
264.267	197.56
264.499	182.56
264.732	195.56
264.964	182.56
265.197	201.56
265.429	200.56
265.661	200.56
265.894	201.56
266.126	209.56
266.358	204.56
266.591	188.56
266.823	201.56
267.055	202.56
267.287	196.56
267.52	192.56
267.752	223.56
267.984	211.56
268.216	200.56
268.448	209.56
268.681	222.56
268.913	207.56
269.145	228.56
269.377	230.56
269.609	236.56
269.841	240.56
270.073	232.56
270.306	245.56
270.538	237.56
270.77	245.56
271.002	262.56
271.234	244.56
271.466	249.56
271.698	248.56
271.93	249.56
272.162	256.56
272.394	270.56
272.626	249.56
272.858	241.56
273.09	232.56
273.322	233.56
273.553	232.56
273.785	228.56
274.017	249.56
274.249	225.56
274.481	244.56
274.713	238.56
274.945	229.56
275.176	250.56
275.408	255.56
275.64	232.56
275.872	237.56
276.104	260.56
276.335	233.56
276.567	253.56
276.799	262.56
277.031	259.56
277.262	264.56
277.494	277.56
277.726	262.56
277.957	257.56
278.189	257.56
278.421	254.56
278.652	271.56
278.884	253.56
279.115	261.56
279.347	251.56
279.579	241.56
279.81	264.56
280.042	265.56
280.273	251.56
280.505	271.56
280.736	254.56
280.968	239.56
281.199	257.56
281.431	262.56
281.662	254.56
281.894	271.56
282.125	252.56
282.356	266.56
282.588	290.56
282.819	266.56
283.051	270.56
283.282	250.56
283.513	275.56
283.745	276.56
283.976	264.56
284.207	275.56
284.439	268.56
284.67	278.56
284.901	280.56
285.132	289.56
285.364	268.56
285.595	281.56
285.826	271.56
286.057	273.56
286.288	285.56
286.52	273.56
286.751	250.56
286.982	278.56
287.213	278.56
287.444	280.56
287.675	271.56
287.906	290.56
288.138	312.56
288.369	281.56
288.6	263.56
288.831	298.56
289.062	295.56
289.293	274.56
289.524	279.56
289.755	283.56
289.986	293.56
290.217	288.56
290.448	290.56
290.679	301.56
290.91	285.56
291.141	299.56
291.371	297.56
291.602	283.56
291.833	295.56
292.064	298.56
292.295	294.56
292.526	292.56
292.757	290.56
292.987	288.56
293.218	317.56
293.449	284.56
293.68	305.56
293.91	293.56
294.141	299.56
294.372	289.56
294.603	291.56
294.833	298.56
295.064	289.56
295.295	294.56
295.525	290.56
295.756	303.56
295.987	305.56
296.217	303.56
296.448	311.56
296.679	295.56
296.909	291.56
297.14	289.56
297.37	319.56
297.601	306.56
297.831	327.56
298.062	312.56
298.292	316.56
298.523	318.56
298.753	334.56
298.984	326.56
299.214	309.56
299.445	320.56
299.675	321.56
299.905	309.56
300.136	317.56
300.366	325.56
300.597	324.56
300.827	329.56
301.057	335.56
301.288	327.56
301.518	325.56
301.748	338.56
301.979	323.56
302.209	320.56
302.439	326.56
302.669	311.56
302.9	333.56
303.13	345.56
303.36	326.56
303.59	334.56
303.82	321.56
304.051	320.56
304.281	330.56
304.511	325.56
304.741	328.56
304.971	327.56
305.201	328.56
305.431	350.56
305.661	334.56
305.891	329.56
306.121	314.56
306.352	332.56
306.582	352.56
306.812	313.56
307.042	334.56
307.272	351.56
307.502	327.56
307.731	357.56
307.961	341.56
308.191	316.56
308.421	342.56
308.651	337.56
308.881	335.56
309.111	331.56
309.341	327.56
309.571	349.56
309.8	338.56
310.03	352.56
310.26	344.56
310.49	334.56
310.72	336.56
310.949	332.56
311.179	344.56
311.409	336.56
311.639	359.56
311.868	365.56
312.098	354.56
312.328	364.56
312.557	349.56
312.787	360.56
313.017	360.56
313.246	368.56
313.476	348.56
313.706	373.56
313.935	367.56
314.165	353.56
314.394	366.56
314.624	362.56
314.853	366.56
315.083	373.56
315.312	381.56
315.542	358.56
315.771	366.56
316.001	374.56
316.23	346.56
316.46	371.56
316.689	358.56
316.919	380.56
317.148	365.56
317.377	356.56
317.607	360.56
317.836	372.56
318.065	375.56
318.295	352.56
318.524	385.56
318.753	384.56
318.983	374.56
319.212	360.56
319.441	346.56
319.67	363.56
319.9	356.56
320.129	364.56
320.358	371.56
320.587	381.56
320.816	366.56
321.046	345.56
321.275	381.56
321.504	376.56
321.733	370.56
321.962	360.56
322.191	365.56
322.42	377.56
322.649	398.56
322.878	391.56
323.108	393.56
323.337	416.56
323.566	419.56
323.795	414.56
324.024	445.56
324.253	503.56
324.482	671.56
324.71	921.56
324.939	1217.56
325.168	1020.56
325.397	568.56
325.626	477.56
325.855	435.56
326.084	433.56
326.313	418.56
326.542	428.56
326.77	450.56
326.999	504.56
327.228	648.56
327.457	875.56
327.686	1006.56
327.914	656.56
328.143	512.56
328.372	455.56
328.6	454.56
328.829	427.56
329.058	444.56
329.287	459.56
329.515	434.56
329.744	421.56
329.972	456.56
330.201	476.56
330.43	467.56
330.658	454.56
330.887	465.56
331.115	456.56
331.344	438.56
331.572	445.56
331.801	441.56
332.03	458.56
332.258	450.56
332.486	454.56
332.715	456.56
332.943	459.56
333.172	476.56
333.4	459.56
333.629	494.56
333.857	511.56
334.085	511.56
334.314	524.56
334.542	532.56
334.771	538.56
334.999	504.56
335.227	469.56
335.455	474.56
335.684	438.56
335.912	469.56
336.14	476.56
336.369	481.56
336.597	452.56
336.825	474.56
337.053	444.56
337.281	442.56
337.51	426.56
337.738	457.56
337.966	436.56
338.194	424.56
338.422	444.56
338.65	456.56
338.878	431.56
339.106	432.56
339.334	430.56
339.562	427.56
339.79	418.56
340.018	409.56
340.246	414.56
340.474	428.56
340.702	409.56
340.93	415.56
341.158	422.56
341.386	431.56
341.614	412.56
341.842	404.56
342.07	424.56
342.298	408.56
342.526	418.56
342.754	433.56
342.981	402.56
343.209	406.56
343.437	425.56
343.665	423.56
343.893	473.56
344.12	483.56
344.348	462.56
344.576	464.56
344.804	451.56
345.031	424.56
345.259	428.56
345.487	425.56
345.714	419.56
345.942	413.56
346.17	384.56
346.397	402.56
346.625	408.56
346.853	404.56
347.08	400.56
347.308	400.56
347.535	410.56
347.763	424.56
347.99	405.56
348.218	417.56
348.445	406.56
348.673	384.56
348.9	398.56
349.128	420.56
349.355	379.56
349.583	396.56
349.81	407.56
350.037	388.56
350.265	404.56
350.492	392.56
350.72	420.56
350.947	389.56
351.174	391.56
351.402	382.56
351.629	390.56
351.856	394.56
352.083	385.56
352.311	401.56
352.538	400.56
352.765	410.56
352.992	405.56
353.22	384.56
353.447	386.56
353.674	399.56
353.901	400.56
354.128	408.56
354.355	396.56
354.583	391.56
354.81	388.56
355.037	393.56
355.264	377.56
355.491	386.56
355.718	374.56
355.945	376.56
356.172	384.56
356.399	401.56
356.626	389.56
356.853	394.56
357.08	387.56
357.307	383.56
357.534	384.56
357.761	372.56
357.988	412.56
358.215	398.56
358.441	396.56
358.668	389.56
358.895	382.56
359.122	395.56
359.349	404.56
359.576	391.56
359.802	412.56
360.029	406.56
360.256	438.56
360.483	401.56
360.709	387.56
360.936	396.56
361.163	404.56
361.39	388.56
361.616	391.56
361.843	386.56
362.07	396.56
362.296	390.56
362.523	390.56
362.749	403.56
362.976	392.56
363.203	400.56
363.429	393.56
363.656	384.56
363.882	381.56
364.109	394.56
364.335	389.56
364.562	370.56
364.788	398.56
365.015	398.56
365.241	402.56
365.468	398.56
365.694	388.56
365.92	389.56
366.147	385.56
366.373	408.56
366.599	395.56
366.826	382.56
367.052	376.56
367.278	376.56
367.505	392.56
367.731	386.56
367.957	404.56
368.184	396.56
368.41	376.56
368.636	416.56
368.862	392.56
369.089	399.56
369.315	397.56
369.541	385.56
369.767	396.56
369.993	386.56
370.219	395.56
370.445	390.56
370.672	400.56
370.898	370.56
371.124	396.56
371.35	409.56
371.576	413.56
371.802	407.56
372.028	430.56
372.254	409.56
372.48	403.56
372.706	410.56
372.932	404.56
373.158	398.56
373.384	432.56
373.61	424.56
373.835	432.56
374.061	396.56
374.287	408.56
374.513	425.56
374.739	418.56
374.965	422.56
375.191	437.56
375.416	452.56
375.642	417.56
375.868	416.56
376.094	400.56
376.319	420.56
376.545	432.56
376.771	420.56
376.997	418.56
377.222	408.56
377.448	403.56
377.674	404.56
377.899	405.56
378.125	415.56
378.35	420.56
378.576	417.56
378.802	424.56
379.027	408.56
379.253	410.56
379.478	396.56
379.704	404.56
379.929	414.56
380.155	394.56
380.38	418.56
380.606	417.56
380.831	399.56
381.057	409.56
381.282	423.56
381.507	409.56
381.733	415.56
381.958	421.56
382.184	414.56
382.409	422.56
382.634	422.56
382.86	435.56
383.085	437.56
383.31	441.56
383.535	439.56
383.761	444.56
383.986	450.56
384.211	432.56
384.436	471.56
384.662	482.56
384.887	466.56
385.112	482.56
385.337	494.56
385.562	493.56
385.787	475.56
386.013	482.56
386.238	489.56
386.463	481.56
386.688	478.56
386.913	468.56
387.138	499.56
387.363	474.56
387.588	458.56
387.813	472.56
388.038	480.56
388.263	486.56
388.488	504.56
388.713	461.56
388.938	471.56
389.163	468.56
389.387	458.56
389.612	452.56
389.837	465.56
390.062	466.56
390.287	468.56
390.512	464.56
390.736	458.56
390.961	465.56
391.186	459.56
391.411	509.56
391.636	524.56
391.86	506.56
392.085	507.56
392.31	513.56
392.534	496.56
392.759	498.56
392.984	497.56
393.208	515.56
393.433	554.56
393.658	542.56
393.882	500.56
394.107	498.56
394.331	469.56
394.556	482.56
394.78	496.56
395.005	515.56
395.229	498.56
395.454	514.56
395.678	519.56
395.903	501.56
396.127	521.56
396.352	526.56
396.576	503.56
396.801	540.56
397.025	518.56
397.249	540.56
397.474	496.56
397.698	502.56
397.922	527.56
398.147	535.56
398.371	521.56
398.595	530.56
398.82	560.56
399.044	598.56
399.268	614.56
399.492	677.56
399.717	761.56
399.941	761.56
400.165	711.56
400.389	658.56
400.613	599.56
400.837	586.56
401.062	570.56
401.286	555.56
401.51	548.56
401.734	565.56
401.958	562.56
402.182	574.56
402.406	579.56
402.63	598.56
402.854	601.56
403.078	597.56
403.302	616.56
403.526	592.56
403.75	595.56
403.974	617.56
404.198	592.56
404.422	634.56
404.645	615.56
404.869	600.56
405.093	638.56
405.317	652.56
405.541	644.56
405.765	623.56
405.988	614.56
406.212	628.56
406.436	620.56
406.66	626.56
406.883	621.56
407.107	680.56
407.331	691.56
407.555	724.56
407.778	743.56
408.002	684.56
408.226	659.56
408.449	652.56
408.673	630.56
408.896	619.56
409.12	640.56
409.344	624.56
409.567	594.56
409.791	619.56
410.014	622.56
410.238	574.56
410.461	578.56
410.685	586.56
410.908	586.56
411.132	614.56
411.355	600.56
411.578	580.56
411.802	558.56
412.025	556.56
412.249	580.56
412.472	578.56
412.695	618.56
412.919	585.56
413.142	581.56
413.365	572.56
413.589	575.56
413.812	562.56
414.035	530.56
414.258	530.56
414.482	561.56
414.705	550.56
414.928	540.56
415.151	527.56
415.374	561.56
415.597	550.56
415.821	539.56
416.044	527.56
416.267	544.56
416.49	526.56
416.713	547.56
416.936	554.56
417.159	549.56
417.382	529.56
417.605	547.56
417.828	542.56
418.051	560.56
418.274	572.56
418.497	532.56
418.72	574.56
418.943	558.56
419.166	605.56
419.389	606.56
419.611	597.56
419.834	587.56
420.057	572.56
420.28	547.56
420.503	524.56
420.726	544.56
420.948	554.56
421.171	582.56
421.394	567.56
421.617	572.56
421.839	565.56
422.062	579.56
422.285	577.56
422.507	599.56
422.73	640.56
422.953	649.56
423.175	581.56
423.398	589.56
423.621	574.56
423.843	610.56
424.066	588.56
424.288	581.56
424.511	581.56
424.733	617.56
424.956	642.56
425.178	613.56
425.401	618.56
425.623	629.56
425.846	560.56
426.068	549.56
426.291	554.56
426.513	537.56
426.735	530.56
426.958	569.56
427.18	591.56
427.402	679.56
427.625	720.56
427.847	640.56
428.069	589.56
428.292	553.56
428.514	507.56
428.736	513.56
428.958	506.56
429.181	507.56
429.403	491.56
429.625	514.56
429.847	518.56
430.069	560.56
430.292	561.56
430.514	531.56
430.736	494.56
430.958	512.56
431.18	491.56
431.402	503.56
431.624	513.56
431.846	494.56
432.068	506.56
432.29	499.56
432.512	497.56
432.734	498.56
432.956	500.56
433.178	510.56
433.4	489.56
433.622	515.56
433.844	521.56
434.066	506.56
434.287	512.56
434.509	513.56
434.731	532.56
434.953	532.56
435.175	549.56
435.397	573.56
435.618	535.56
435.84	567.56
436.062	616.56
436.284	618.56
436.505	556.56
436.727	522.56
436.949	518.56
437.17	525.56
437.392	506.56
437.614	497.56
437.835	520.56
438.057	570.56
438.278	614.56
438.5	609.56
438.721	660.56
438.943	646.56
439.165	538.56
439.386	529.56
439.608	519.56
439.829	509.56
440.05	541.56
440.272	573.56
440.493	544.56
440.715	528.56
440.936	538.56
441.158	512.56
441.379	529.56
441.6	544.56
441.822	543.56
442.043	585.56
442.264	594.56
442.486	593.56
442.707	572.56
442.928	562.56
443.149	583.56
443.371	586.56
443.592	583.56
443.813	618.56
444.034	695.56
444.255	624.56
444.476	613.56
444.698	597.56
444.919	613.56
445.14	688.56
445.361	616.56
445.582	567.56
445.803	617.56
446.024	623.56
446.245	650.56
446.466	611.56
446.687	554.56
446.908	534.56
447.129	505.56
447.35	499.56
447.571	492.56
447.792	472.56
448.013	503.56
448.234	499.56
448.455	510.56
448.675	542.56
448.896	610.56
449.117	540.56
449.338	528.56
449.559	598.56
449.779	649.56
450	548.56
450.221	498.56
450.442	491.56
450.662	481.56
450.883	461.56
451.104	494.56
451.324	466.56
451.545	464.56
451.766	457.56
451.986	445.56
452.207	456.56
452.428	438.56
452.648	459.56
452.869	464.56
453.089	453.56
453.31	474.56
453.53	424.56
453.751	448.56
453.971	433.56
454.192	428.56
454.412	444.56
454.633	442.56
454.853	437.56
455.073	445.56
455.294	430.56
455.514	473.56
455.734	474.56
455.955	453.56
456.175	434.56
456.395	420.56
456.616	416.56
456.836	417.56
457.056	427.56
457.276	418.56
457.497	426.56
457.717	418.56
457.937	417.56
458.157	437.56
458.377	446.56
458.598	447.56
458.818	498.56
459.038	521.56
459.258	536.56
459.478	506.56
459.698	505.56
459.918	504.56
460.138	530.56
460.358	529.56
460.578	532.56
460.798	536.56
461.018	557.56
461.238	535.56
461.458	540.56
461.678	525.56
461.898	541.56
462.118	548.56
462.338	567.56
462.558	585.56
462.777	591.56
462.997	626.56
463.217	654.56
463.437	661.56
463.657	612.56
463.876	607.56
464.096	613.56
464.316	599.56
464.536	586.56
464.755	604.56
464.975	569.56
465.195	576.56
465.414	578.56
465.634	544.56
465.854	506.56
466.073	489.56
466.293	487.56
466.512	502.56
466.732	476.56
466.951	472.56
467.171	473.56
467.391	483.56
467.61	494.56
467.829	474.56
468.049	485.56
468.268	476.56
468.488	445.56
468.707	440.56
468.927	452.56
469.146	460.56
469.365	477.56
469.585	466.56
469.804	461.56
470.023	476.56
470.243	484.56
470.462	499.56
470.681	482.56
470.901	490.56
471.12	472.56
471.339	478.56
471.558	484.56
471.777	457.56
471.997	467.56
472.216	480.56
472.435	477.56
472.654	474.56
472.873	456.56
473.092	450.56
473.311	448.56
473.53	447.56
473.749	484.56
473.968	448.56
474.187	516.56
474.406	515.56
474.625	490.56
474.844	471.56
475.063	462.56
475.282	469.56
475.501	449.56
475.72	492.56
475.939	476.56
476.158	497.56
476.377	497.56
476.596	495.56
476.814	476.56
477.033	508.56
477.252	469.56
477.471	494.56
477.69	505.56
477.908	503.56
478.127	523.56
478.346	530.56
478.564	538.56
478.783	549.56
479.002	548.56
479.22	538.56
479.439	554.56
479.658	553.56
479.876	570.56
480.095	571.56
480.313	600.56
480.532	596.56
480.751	601.56
480.969	606.56
481.188	601.56
481.406	638.56
481.624	578.56
481.843	570.56
482.061	535.56
482.28	535.56
482.498	531.56
482.717	530.56
482.935	543.56
483.153	531.56
483.372	544.56
483.59	547.56
483.808	529.56
484.027	544.56
484.245	554.56
484.463	535.56
484.681	555.56
484.9	561.56
485.118	567.56
485.336	561.56
485.554	564.56
485.772	580.56
485.99	577.56
486.209	558.56
486.427	588.56
486.645	570.56
486.863	589.56
487.081	586.56
487.299	589.56
487.517	562.56
487.735	583.56
487.953	564.56
488.171	577.56
488.389	550.56
488.607	560.56
488.825	555.56
489.043	545.56
489.261	581.56
489.479	567.56
489.696	564.56
489.914	596.56
490.132	573.56
490.35	571.56
490.568	602.56
490.786	569.56
491.003	568.56
491.221	589.56
491.439	608.56
491.657	618.56
491.874	619.56
492.092	620.56
492.31	640.56
492.527	639.56
492.745	618.56
492.963	625.56
493.18	635.56
493.398	642.56
493.615	634.56
493.833	647.56
494.05	598.56
494.268	642.56
494.485	635.56
494.703	628.56
494.92	634.56
495.138	616.56
495.355	638.56
495.573	652.56
495.79	639.56
496.008	669.56
496.225	647.56
496.442	629.56
496.66	647.56
496.877	634.56
497.094	623.56
497.312	655.56
497.529	668.56
497.746	665.56
497.963	712.56
498.181	692.56
498.398	737.56
498.615	770.56
498.832	820.56
499.049	868.56
499.267	864.56
499.484	931.56
499.701	990.56
499.918	1076.56
500.135	1167.56
500.352	1292.56
500.569	1339.56
500.786	1320.56
501.003	1272.56
501.22	1144.56
501.437	1059.56
501.654	984.56
501.871	958.56
