Data from 1960PennyLincolnUp.LampE5.5.200Scan.07172019.P1.ChangedAngle_HRD10591_13-14-18-820.txt Node
Date: Thu Jul 18 13:14:18 EDT 2019
User: cochatt
Spectrometer: HR+D1059
Trigger mode: 1
Integration Time (sec): 1.000000E-1
Scans to average: 1
Electric dark correction enabled: true
Nonlinearity correction enabled: false
Boxcar width: 0
XAxis mode: Wavelengths
Number of Pixels in Spectrum: 2048
>>>>>Begin Spectral Data<<<<<
223.165	-14.81
223.4	-14.81
223.635	-14.81
223.869	-14.81
224.104	-12.81
224.338	-7.81
224.573	-2.81
224.808	-19.81
225.042	-3.81
225.277	-0.81
225.511	-9.81
225.746	4.19
225.98	11.19
226.215	4.19
226.449	11.19
226.683	15.19
226.918	12.19
227.152	29.19
227.387	37.19
227.621	35.19
227.856	39.19
228.09	65.19
228.324	54.19
228.559	57.19
228.793	69.19
229.027	76.19
229.262	72.19
229.496	88.19
229.73	98.19
229.964	118.19
230.199	90.19
230.433	89.19
230.667	93.19
230.901	103.19
231.136	99.19
231.37	104.19
231.604	110.19
231.838	104.19
232.072	101.19
232.306	102.19
232.541	98.19
232.775	101.19
233.009	103.19
233.243	109.19
233.477	100.19
233.711	108.19
233.945	101.19
234.179	111.19
234.413	106.19
234.647	112.19
234.881	106.19
235.115	98.19
235.349	110.19
235.583	115.19
235.817	108.19
236.051	106.19
236.285	108.19
236.519	94.19
236.753	92.19
236.987	108.19
237.221	134.19
237.455	174.19
237.689	127.19
237.922	106.19
238.156	120.19
238.39	113.19
238.624	106.19
238.858	110.19
239.091	119.19
239.325	107.19
239.559	113.19
239.793	114.19
240.027	121.19
240.26	119.19
240.494	132.19
240.728	131.19
240.961	127.19
241.195	119.19
241.429	124.19
241.662	116.19
241.896	117.19
242.13	113.19
242.363	122.19
242.597	114.19
242.83	124.19
243.064	111.19
243.298	108.19
243.531	118.19
243.765	112.19
243.998	129.19
244.232	151.19
244.465	119.19
244.699	124.19
244.932	120.19
245.166	124.19
245.399	138.19
245.633	123.19
245.866	134.19
246.099	139.19
246.333	128.19
246.566	137.19
246.8	127.19
247.033	138.19
247.266	144.19
247.5	148.19
247.733	131.19
247.966	142.19
248.2	142.19
248.433	150.19
248.666	136.19
248.899	152.19
249.133	152.19
249.366	158.19
249.599	155.19
249.832	164.19
250.066	152.19
250.299	140.19
250.532	160.19
250.765	178.19
250.998	173.19
251.231	178.19
251.465	173.19
251.698	173.19
251.931	165.19
252.164	160.19
252.397	146.19
252.63	178.19
252.863	172.19
253.096	175.19
253.329	176.19
253.562	194.19
253.795	188.19
254.028	170.19
254.261	180.19
254.494	183.19
254.727	193.19
254.96	205.19
255.193	187.19
255.426	183.19
255.659	185.19
255.892	191.19
256.124	202.19
256.357	208.19
256.59	189.19
256.823	169.19
257.056	176.19
257.289	170.19
257.521	179.19
257.754	176.19
257.987	178.19
258.22	153.19
258.452	179.19
258.685	162.19
258.918	164.19
259.151	188.19
259.383	189.19
259.616	195.19
259.849	186.19
260.081	186.19
260.314	208.19
260.547	192.19
260.779	193.19
261.012	199.19
261.244	193.19
261.477	182.19
261.71	199.19
261.942	204.19
262.175	197.19
262.407	188.19
262.64	198.19
262.872	190.19
263.105	186.19
263.337	195.19
263.57	194.19
263.802	186.19
264.035	177.19
264.267	188.19
264.499	199.19
264.732	173.19
264.964	179.19
265.197	165.19
265.429	200.19
265.661	204.19
265.894	180.19
266.126	182.19
266.358	189.19
266.591	169.19
266.823	196.19
267.055	190.19
267.287	198.19
267.52	195.19
267.752	196.19
267.984	208.19
268.216	201.19
268.448	201.19
268.681	205.19
268.913	218.19
269.145	206.19
269.377	219.19
269.609	224.19
269.841	224.19
270.073	221.19
270.306	239.19
270.538	237.19
270.77	238.19
271.002	227.19
271.234	244.19
271.466	237.19
271.698	228.19
271.93	233.19
272.162	237.19
272.394	258.19
272.626	252.19
272.858	234.19
273.09	217.19
273.322	233.19
273.553	206.19
273.785	239.19
274.017	208.19
274.249	222.19
274.481	237.19
274.713	222.19
274.945	222.19
275.176	225.19
275.408	208.19
275.64	231.19
275.872	228.19
276.104	234.19
276.335	237.19
276.567	227.19
276.799	235.19
277.031	259.19
277.262	262.19
277.494	262.19
277.726	247.19
277.957	234.19
278.189	249.19
278.421	251.19
278.652	242.19
278.884	242.19
279.115	243.19
279.347	237.19
279.579	244.19
279.81	242.19
280.042	242.19
280.273	242.19
280.505	240.19
280.736	231.19
280.968	236.19
281.199	245.19
281.431	237.19
281.662	252.19
281.894	220.19
282.125	252.19
282.356	241.19
282.588	255.19
282.819	248.19
283.051	246.19
283.282	252.19
283.513	244.19
283.745	247.19
283.976	246.19
284.207	264.19
284.439	264.19
284.67	249.19
284.901	263.19
285.132	242.19
285.364	247.19
285.595	258.19
285.826	249.19
286.057	257.19
286.288	247.19
286.52	260.19
286.751	255.19
286.982	251.19
287.213	261.19
287.444	254.19
287.675	270.19
287.906	258.19
288.138	275.19
288.369	277.19
288.6	265.19
288.831	271.19
289.062	274.19
289.293	244.19
289.524	284.19
289.755	249.19
289.986	251.19
290.217	264.19
290.448	264.19
290.679	257.19
290.91	265.19
291.141	240.19
291.371	286.19
291.602	262.19
291.833	267.19
292.064	268.19
292.295	277.19
292.526	255.19
292.757	247.19
292.987	261.19
293.218	248.19
293.449	260.19
293.68	260.19
293.91	267.19
294.141	274.19
294.372	259.19
294.603	264.19
294.833	266.19
295.064	265.19
295.295	260.19
295.525	282.19
295.756	284.19
295.987	291.19
296.217	275.19
296.448	279.19
296.679	267.19
296.909	269.19
297.14	260.19
297.37	283.19
297.601	289.19
297.831	271.19
298.062	268.19
298.292	281.19
298.523	265.19
298.753	278.19
298.984	273.19
299.214	272.19
299.445	291.19
299.675	279.19
299.905	267.19
300.136	264.19
300.366	280.19
300.597	294.19
300.827	290.19
301.057	285.19
301.288	287.19
301.518	280.19
301.748	296.19
301.979	277.19
302.209	299.19
302.439	288.19
302.669	285.19
302.9	300.19
303.13	288.19
303.36	287.19
303.59	291.19
303.82	284.19
304.051	296.19
304.281	299.19
304.511	293.19
304.741	302.19
304.971	283.19
305.201	310.19
305.431	285.19
305.661	296.19
305.891	303.19
306.121	310.19
306.352	304.19
306.582	310.19
306.812	290.19
307.042	299.19
307.272	309.19
307.502	300.19
307.731	297.19
307.961	296.19
308.191	290.19
308.421	304.19
308.651	298.19
308.881	306.19
309.111	312.19
309.341	300.19
309.571	305.19
309.8	297.19
310.03	312.19
310.26	302.19
310.49	317.19
310.72	313.19
310.949	321.19
311.179	326.19
311.409	323.19
311.639	322.19
311.868	317.19
312.098	323.19
312.328	333.19
312.557	328.19
312.787	321.19
313.017	352.19
313.246	321.19
313.476	302.19
313.706	316.19
313.935	323.19
314.165	331.19
314.394	322.19
314.624	325.19
314.853	314.19
315.083	330.19
315.312	320.19
315.542	330.19
315.771	327.19
316.001	323.19
316.23	319.19
316.46	352.19
316.689	336.19
316.919	332.19
317.148	335.19
317.377	326.19
317.607	354.19
317.836	316.19
318.065	322.19
318.295	324.19
318.524	330.19
318.753	321.19
318.983	337.19
319.212	332.19
319.441	331.19
319.67	325.19
319.9	326.19
320.129	344.19
320.358	328.19
320.587	316.19
320.816	332.19
321.046	329.19
321.275	344.19
321.504	321.19
321.733	328.19
321.962	343.19
322.191	342.19
322.42	342.19
322.649	355.19
322.878	354.19
323.108	374.19
323.337	378.19
323.566	386.19
323.795	390.19
324.024	412.19
324.253	486.19
324.482	588.19
324.71	845.19
324.939	1125.19
325.168	959.19
325.397	563.19
325.626	444.19
325.855	405.19
326.084	402.19
326.313	394.19
326.542	403.19
326.77	416.19
326.999	450.19
327.228	549.19
327.457	760.19
327.686	876.19
327.914	626.19
328.143	461.19
328.372	422.19
328.6	406.19
328.829	411.19
329.058	402.19
329.287	429.19
329.515	382.19
329.744	393.19
329.972	400.19
330.201	407.19
330.43	411.19
330.658	424.19
330.887	414.19
331.115	417.19
331.344	410.19
331.572	364.19
331.801	397.19
332.03	373.19
332.258	371.19
332.486	364.19
332.715	388.19
332.943	370.19
333.172	378.19
333.4	394.19
333.629	389.19
333.857	387.19
334.085	390.19
334.314	427.19
334.542	408.19
334.771	420.19
334.999	396.19
335.227	385.19
335.455	375.19
335.684	400.19
335.912	392.19
336.14	375.19
336.369	352.19
336.597	379.19
336.825	376.19
337.053	362.19
337.281	375.19
337.51	364.19
337.738	395.19
337.966	368.19
338.194	358.19
338.422	380.19
338.65	389.19
338.878	361.19
339.106	375.19
339.334	358.19
339.562	372.19
339.79	342.19
340.018	356.19
340.246	346.19
340.474	356.19
340.702	378.19
340.93	368.19
341.158	378.19
341.386	372.19
341.614	372.19
341.842	383.19
342.07	335.19
342.298	343.19
342.526	357.19
342.754	356.19
342.981	347.19
343.209	356.19
343.437	370.19
343.665	355.19
343.893	386.19
344.12	386.19
344.348	394.19
344.576	368.19
344.804	380.19
345.031	380.19
345.259	365.19
345.487	366.19
345.714	383.19
345.942	362.19
346.17	356.19
346.397	352.19
346.625	371.19
346.853	332.19
347.08	360.19
347.308	332.19
347.535	342.19
347.763	353.19
347.99	340.19
348.218	340.19
348.445	356.19
348.673	344.19
348.9	349.19
349.128	357.19
349.355	329.19
349.583	334.19
349.81	336.19
350.037	338.19
350.265	345.19
350.492	353.19
350.72	338.19
350.947	332.19
351.174	350.19
351.402	345.19
351.629	350.19
351.856	340.19
352.083	342.19
352.311	336.19
352.538	342.19
352.765	336.19
352.992	335.19
353.22	342.19
353.447	344.19
353.674	319.19
353.901	318.19
354.128	326.19
354.355	308.19
354.583	322.19
354.81	336.19
355.037	335.19
355.264	325.19
355.491	328.19
355.718	329.19
355.945	320.19
356.172	323.19
356.399	327.19
356.626	326.19
356.853	313.19
357.08	332.19
357.307	320.19
357.534	330.19
357.761	332.19
357.988	310.19
358.215	328.19
358.441	332.19
358.668	319.19
358.895	340.19
359.122	335.19
359.349	318.19
359.576	324.19
359.802	341.19
360.029	358.19
360.256	345.19
360.483	330.19
360.709	345.19
360.936	347.19
361.163	343.19
361.39	328.19
361.616	341.19
361.843	329.19
362.07	330.19
362.296	325.19
362.523	330.19
362.749	366.19
362.976	331.19
363.203	339.19
363.429	330.19
363.656	332.19
363.882	323.19
364.109	342.19
364.335	328.19
364.562	328.19
364.788	318.19
365.015	332.19
365.241	328.19
365.468	325.19
365.694	325.19
365.92	322.19
366.147	312.19
366.373	311.19
366.599	317.19
366.826	329.19
367.052	329.19
367.278	323.19
367.505	316.19
367.731	340.19
367.957	338.19
368.184	340.19
368.41	344.19
368.636	330.19
368.862	325.19
369.089	350.19
369.315	323.19
369.541	341.19
369.767	325.19
369.993	329.19
370.219	329.19
370.445	349.19
370.672	343.19
370.898	333.19
371.124	346.19
371.35	313.19
371.576	315.19
371.802	321.19
372.028	331.19
372.254	329.19
372.48	334.19
372.706	317.19
372.932	329.19
373.158	329.19
373.384	337.19
373.61	323.19
373.835	328.19
374.061	345.19
374.287	317.19
374.513	323.19
374.739	329.19
374.965	339.19
375.191	327.19
375.416	338.19
375.642	338.19
375.868	317.19
376.094	318.19
376.319	325.19
376.545	324.19
376.771	334.19
376.997	313.19
377.222	319.19
377.448	326.19
377.674	300.19
377.899	318.19
378.125	333.19
378.35	296.19
378.576	316.19
378.802	309.19
379.027	325.19
379.253	328.19
379.478	312.19
379.704	309.19
379.929	324.19
380.155	336.19
380.38	324.19
380.606	332.19
380.831	320.19
381.057	322.19
381.282	337.19
381.507	334.19
381.733	317.19
381.958	330.19
382.184	321.19
382.409	337.19
382.634	334.19
382.86	344.19
383.085	331.19
383.31	346.19
383.535	336.19
383.761	353.19
383.986	343.19
384.211	344.19
384.436	318.19
384.662	325.19
384.887	362.19
385.112	354.19
385.337	340.19
385.562	347.19
385.787	340.19
386.013	370.19
386.238	349.19
386.463	360.19
386.688	360.19
386.913	347.19
387.138	340.19
387.363	360.19
387.588	352.19
387.813	347.19
388.038	347.19
388.263	340.19
388.488	355.19
388.713	352.19
388.938	356.19
389.163	326.19
389.387	341.19
389.612	348.19
389.837	345.19
390.062	373.19
390.287	350.19
390.512	352.19
390.736	348.19
390.961	354.19
391.186	356.19
391.411	347.19
391.636	348.19
391.86	374.19
392.085	339.19
392.31	339.19
392.534	361.19
392.759	348.19
392.984	354.19
393.208	360.19
393.433	354.19
393.658	374.19
393.882	360.19
394.107	348.19
394.331	359.19
394.556	334.19
394.78	356.19
395.005	356.19
395.229	360.19
395.454	366.19
395.678	362.19
395.903	349.19
396.127	370.19
396.352	377.19
396.576	387.19
396.801	358.19
397.025	369.19
397.249	355.19
397.474	369.19
397.698	375.19
397.922	372.19
398.147	387.19
398.371	395.19
398.595	382.19
398.82	402.19
399.044	398.19
399.268	374.19
399.492	441.19
399.717	465.19
399.941	465.19
400.165	474.19
400.389	457.19
400.613	451.19
400.837	421.19
401.062	401.19
401.286	403.19
401.51	375.19
401.734	392.19
401.958	387.19
402.182	382.19
402.406	371.19
402.63	388.19
402.854	379.19
403.078	394.19
403.302	386.19
403.526	401.19
403.75	404.19
403.974	378.19
404.198	379.19
404.422	405.19
404.645	403.19
404.869	397.19
405.093	412.19
405.317	428.19
405.541	445.19
405.765	432.19
405.988	400.19
406.212	410.19
406.436	424.19
406.66	436.19
406.883	439.19
407.107	442.19
407.331	454.19
407.555	513.19
407.778	492.19
408.002	460.19
408.226	455.19
408.449	450.19
408.673	434.19
408.896	462.19
409.12	457.19
409.344	450.19
409.567	424.19
409.791	425.19
410.014	406.19
410.238	390.19
410.461	397.19
410.685	408.19
410.908	399.19
411.132	412.19
411.355	431.19
411.578	418.19
411.802	410.19
412.025	406.19
412.249	394.19
412.472	426.19
412.695	433.19
412.919	401.19
413.142	389.19
413.365	382.19
413.589	392.19
413.812	395.19
414.035	370.19
414.258	381.19
414.482	383.19
414.705	396.19
414.928	375.19
415.151	371.19
415.374	361.19
415.597	371.19
415.821	380.19
416.044	369.19
416.267	364.19
416.49	370.19
416.713	388.19
416.936	368.19
417.159	376.19
417.382	379.19
417.605	379.19
417.828	367.19
418.051	370.19
418.274	368.19
418.497	366.19
418.72	362.19
418.943	358.19
419.166	360.19
419.389	388.19
419.611	392.19
419.834	403.19
420.057	376.19
420.28	385.19
420.503	374.19
420.726	372.19
420.948	372.19
421.171	393.19
421.394	439.19
421.617	398.19
421.839	385.19
422.062	381.19
422.285	402.19
422.507	412.19
422.73	454.19
422.953	437.19
423.175	417.19
423.398	390.19
423.621	386.19
423.843	411.19
424.066	420.19
424.288	399.19
424.511	401.19
424.733	458.19
424.956	484.19
425.178	461.19
425.401	442.19
425.623	453.19
425.846	416.19
426.068	407.19
426.291	390.19
426.513	383.19
426.735	379.19
426.958	411.19
427.18	470.19
427.402	554.19
427.625	579.19
427.847	467.19
428.069	441.19
428.292	412.19
428.514	389.19
428.736	380.19
428.958	381.19
429.181	380.19
429.403	360.19
429.625	365.19
429.847	385.19
430.069	405.19
430.292	419.19
430.514	368.19
430.736	372.19
430.958	352.19
431.18	344.19
431.402	364.19
431.624	357.19
431.846	367.19
432.068	365.19
432.29	342.19
432.512	347.19
432.734	362.19
432.956	352.19
433.178	370.19
433.4	364.19
433.622	344.19
433.844	376.19
434.066	355.19
434.287	358.19
434.509	352.19
434.731	369.19
434.953	370.19
435.175	364.19
435.397	384.19
435.618	397.19
435.84	406.19
436.062	452.19
436.284	469.19
436.505	427.19
436.727	387.19
436.949	393.19
437.17	362.19
437.392	339.19
437.614	394.19
437.835	380.19
438.057	431.19
438.278	497.19
438.5	480.19
438.721	539.19
438.943	506.19
439.165	429.19
439.386	416.19
439.608	378.19
439.829	405.19
440.05	400.19
440.272	398.19
440.493	403.19
440.715	385.19
440.936	383.19
441.158	375.19
441.379	362.19
441.6	372.19
441.822	386.19
442.043	427.19
442.264	454.19
442.486	473.19
442.707	395.19
442.928	428.19
443.149	396.19
443.371	405.19
443.592	427.19
443.813	473.19
444.034	506.19
444.255	448.19
444.476	414.19
444.698	397.19
444.919	385.19
445.14	509.19
445.361	448.19
445.582	412.19
445.803	455.19
446.024	489.19
446.245	485.19
446.466	442.19
446.687	407.19
446.908	395.19
447.129	358.19
447.35	359.19
447.571	357.19
447.792	361.19
448.013	349.19
448.234	355.19
448.455	413.19
448.675	465.19
448.896	526.19
449.117	465.19
449.338	442.19
449.559	493.19
449.779	557.19
450	446.19
450.221	388.19
450.442	354.19
450.662	352.19
450.883	352.19
451.104	339.19
451.324	359.19
451.545	348.19
451.766	325.19
451.986	344.19
452.207	347.19
452.428	322.19
452.648	317.19
452.869	322.19
453.089	333.19
453.31	338.19
453.53	347.19
453.751	338.19
453.971	335.19
454.192	311.19
454.412	334.19
454.633	341.19
454.853	322.19
455.073	315.19
455.294	315.19
455.514	354.19
455.734	360.19
455.955	328.19
456.175	325.19
456.395	312.19
456.616	312.19
456.836	299.19
457.056	334.19
457.276	309.19
457.497	330.19
457.717	312.19
457.937	319.19
458.157	316.19
458.377	316.19
458.598	326.19
458.818	333.19
459.038	392.19
459.258	411.19
459.478	355.19
459.698	345.19
459.918	344.19
460.138	361.19
460.358	364.19
460.578	355.19
460.798	362.19
461.018	372.19
461.238	373.19
461.458	380.19
461.678	360.19
461.898	361.19
462.118	357.19
462.338	385.19
462.558	400.19
462.777	367.19
462.997	393.19
463.217	375.19
463.437	408.19
463.657	388.19
463.876	373.19
464.096	386.19
464.316	373.19
464.536	389.19
464.755	379.19
464.975	379.19
465.195	404.19
465.414	409.19
465.634	364.19
465.854	374.19
466.073	369.19
466.293	353.19
466.512	353.19
466.732	351.19
466.951	347.19
467.171	340.19
467.391	337.19
467.61	350.19
467.829	342.19
468.049	328.19
468.268	355.19
468.488	343.19
468.707	333.19
468.927	336.19
469.146	323.19
469.365	330.19
469.585	333.19
469.804	332.19
470.023	338.19
470.243	336.19
470.462	341.19
470.681	357.19
470.901	338.19
471.12	330.19
471.339	347.19
471.558	343.19
471.777	348.19
471.997	347.19
472.216	333.19
472.435	345.19
472.654	330.19
472.873	333.19
473.092	349.19
473.311	349.19
473.53	343.19
473.749	344.19
473.968	388.19
474.187	422.19
474.406	418.19
474.625	390.19
474.844	331.19
475.063	344.19
475.282	353.19
475.501	348.19
475.72	357.19
475.939	349.19
476.158	358.19
476.377	354.19
476.596	354.19
476.814	371.19
477.033	351.19
477.252	373.19
477.471	366.19
477.69	360.19
477.908	369.19
478.127	361.19
478.346	366.19
478.564	397.19
478.783	390.19
479.002	384.19
479.22	392.19
479.439	397.19
479.658	383.19
479.876	388.19
480.095	402.19
480.313	431.19
480.532	404.19
480.751	435.19
480.969	410.19
481.188	437.19
481.406	449.19
481.624	423.19
481.843	402.19
482.061	386.19
482.28	394.19
482.498	401.19
482.717	397.19
482.935	400.19
483.153	396.19
483.372	407.19
483.59	392.19
483.808	409.19
484.027	387.19
484.245	411.19
484.463	399.19
484.681	429.19
484.9	393.19
485.118	402.19
485.336	404.19
485.554	399.19
485.772	411.19
485.99	400.19
486.209	408.19
486.427	428.19
486.645	429.19
486.863	429.19
487.081	423.19
487.299	408.19
487.517	401.19
487.735	417.19
487.953	432.19
488.171	419.19
488.389	426.19
488.607	433.19
488.825	427.19
489.043	409.19
489.261	422.19
489.479	437.19
489.696	441.19
489.914	420.19
490.132	433.19
490.35	440.19
490.568	426.19
490.786	426.19
491.003	426.19
491.221	436.19
491.439	449.19
491.657	465.19
491.874	449.19
492.092	456.19
492.31	447.19
492.527	466.19
492.745	453.19
492.963	463.19
493.18	457.19
493.398	468.19
493.615	466.19
493.833	467.19
494.05	451.19
494.268	475.19
494.485	485.19
494.703	465.19
494.92	468.19
495.138	454.19
495.355	464.19
495.573	484.19
495.79	474.19
496.008	496.19
496.225	483.19
496.442	481.19
496.66	482.19
496.877	494.19
497.094	504.19
497.312	492.19
497.529	508.19
497.746	517.19
497.963	508.19
498.181	516.19
498.398	536.19
498.615	546.19
498.832	550.19
499.049	559.19
499.267	581.19
499.484	606.19
499.701	618.19
499.918	630.19
500.135	646.19
500.352	709.19
500.569	702.19
500.786	706.19
501.003	691.19
501.22	657.19
501.437	649.19
501.654	639.19
501.871	603.19
502.088	584.19
