Data from 1960PennyLincolnUp.LampE5.5.200Scan.07172019.P1.ChangedAngle_HRD10591_13-14-53-821.txt Node
Date: Thu Jul 18 13:14:53 EDT 2019
User: cochatt
Spectrometer: HR+D1059
Trigger mode: 1
Integration Time (sec): 1.000000E-1
Scans to average: 1
Electric dark correction enabled: true
Nonlinearity correction enabled: false
Boxcar width: 0
XAxis mode: Wavelengths
Number of Pixels in Spectrum: 2048
>>>>>Begin Spectral Data<<<<<
223.165	-19.25
223.4	-19.25
223.635	-19.25
223.869	-16.25
224.104	-4.25
224.338	-5.25
224.573	-14.25
224.808	-20.25
225.042	3.75
225.277	-19.25
225.511	4.75
225.746	11.75
225.98	4.75
226.215	-2.25
226.449	10.75
226.683	10.75
226.918	28.75
227.152	25.75
227.387	38.75
227.621	30.75
227.856	42.75
228.09	59.75
228.324	41.75
228.559	56.75
228.793	70.75
229.027	87.75
229.262	70.75
229.496	93.75
229.73	110.75
229.964	122.75
230.199	106.75
230.433	101.75
230.667	103.75
230.901	81.75
231.136	108.75
231.37	94.75
231.604	114.75
231.838	104.75
232.072	117.75
232.306	104.75
232.541	107.75
232.775	112.75
233.009	110.75
233.243	101.75
233.477	101.75
233.711	117.75
233.945	118.75
234.179	101.75
234.413	105.75
234.647	113.75
234.881	113.75
235.115	109.75
235.349	104.75
235.583	114.75
235.817	109.75
236.051	113.75
236.285	121.75
236.519	114.75
236.753	126.75
236.987	118.75
237.221	133.75
237.455	194.75
237.689	150.75
237.922	126.75
238.156	128.75
238.39	118.75
238.624	122.75
238.858	124.75
239.091	114.75
239.325	98.75
239.559	130.75
239.793	116.75
240.027	118.75
240.26	134.75
240.494	141.75
240.728	137.75
240.961	129.75
241.195	128.75
241.429	134.75
241.662	121.75
241.896	122.75
242.13	140.75
242.363	133.75
242.597	126.75
242.83	137.75
243.064	129.75
243.298	136.75
243.531	126.75
243.765	137.75
243.998	138.75
244.232	134.75
244.465	130.75
244.699	137.75
244.932	138.75
245.166	144.75
245.399	145.75
245.633	131.75
245.866	145.75
246.099	139.75
246.333	137.75
246.566	129.75
246.8	145.75
247.033	141.75
247.266	149.75
247.5	153.75
247.733	153.75
247.966	149.75
248.2	159.75
248.433	141.75
248.666	156.75
248.899	172.75
249.133	157.75
249.366	173.75
249.599	161.75
249.832	180.75
250.066	186.75
250.299	168.75
250.532	188.75
250.765	160.75
250.998	183.75
251.231	219.75
251.465	191.75
251.698	187.75
251.931	173.75
252.164	174.75
252.397	184.75
252.63	185.75
252.863	192.75
253.096	189.75
253.329	194.75
253.562	206.75
253.795	207.75
254.028	209.75
254.261	191.75
254.494	199.75
254.727	219.75
254.96	259.75
255.193	226.75
255.426	226.75
255.659	218.75
255.892	207.75
256.124	208.75
256.357	195.75
256.59	205.75
256.823	197.75
257.056	206.75
257.289	192.75
257.521	191.75
257.754	214.75
257.987	189.75
258.22	197.75
258.452	197.75
258.685	196.75
258.918	206.75
259.151	190.75
259.383	206.75
259.616	203.75
259.849	217.75
260.081	217.75
260.314	218.75
260.547	231.75
260.779	230.75
261.012	213.75
261.244	220.75
261.477	196.75
261.71	197.75
261.942	203.75
262.175	208.75
262.407	197.75
262.64	202.75
262.872	209.75
263.105	198.75
263.337	203.75
263.57	198.75
263.802	213.75
264.035	201.75
264.267	213.75
264.499	216.75
264.732	217.75
264.964	206.75
265.197	221.75
265.429	208.75
265.661	222.75
265.894	210.75
266.126	203.75
266.358	214.75
266.591	210.75
266.823	220.75
267.055	228.75
267.287	218.75
267.52	215.75
267.752	223.75
267.984	221.75
268.216	218.75
268.448	233.75
268.681	218.75
268.913	228.75
269.145	232.75
269.377	246.75
269.609	264.75
269.841	269.75
270.073	252.75
270.306	266.75
270.538	268.75
270.77	281.75
271.002	273.75
271.234	264.75
271.466	265.75
271.698	294.75
271.93	287.75
272.162	290.75
272.394	293.75
272.626	290.75
272.858	282.75
273.09	265.75
273.322	248.75
273.553	265.75
273.785	268.75
274.017	255.75
274.249	259.75
274.481	257.75
274.713	253.75
274.945	237.75
275.176	252.75
275.408	275.75
275.64	264.75
275.872	259.75
276.104	268.75
276.335	264.75
276.567	270.75
276.799	256.75
277.031	283.75
277.262	300.75
277.494	281.75
277.726	266.75
277.957	281.75
278.189	282.75
278.421	273.75
278.652	277.75
278.884	264.75
279.115	252.75
279.347	265.75
279.579	253.75
279.81	279.75
280.042	246.75
280.273	268.75
280.505	273.75
280.736	253.75
280.968	271.75
281.199	255.75
281.431	248.75
281.662	276.75
281.894	282.75
282.125	273.75
282.356	262.75
282.588	288.75
282.819	282.75
283.051	272.75
283.282	271.75
283.513	264.75
283.745	283.75
283.976	283.75
284.207	262.75
284.439	266.75
284.67	276.75
284.901	283.75
285.132	280.75
285.364	288.75
285.595	262.75
285.826	287.75
286.057	287.75
286.288	290.75
286.52	278.75
286.751	278.75
286.982	273.75
287.213	290.75
287.444	299.75
287.675	305.75
287.906	288.75
288.138	297.75
288.369	281.75
288.6	298.75
288.831	310.75
289.062	306.75
289.293	294.75
289.524	281.75
289.755	292.75
289.986	303.75
290.217	285.75
290.448	293.75
290.679	279.75
290.91	289.75
291.141	288.75
291.371	298.75
291.602	292.75
291.833	298.75
292.064	284.75
292.295	283.75
292.526	294.75
292.757	276.75
292.987	302.75
293.218	297.75
293.449	287.75
293.68	294.75
293.91	320.75
294.141	299.75
294.372	292.75
294.603	290.75
294.833	280.75
295.064	311.75
295.295	312.75
295.525	284.75
295.756	294.75
295.987	305.75
296.217	306.75
296.448	307.75
296.679	311.75
296.909	284.75
297.14	306.75
297.37	302.75
297.601	301.75
297.831	308.75
298.062	300.75
298.292	300.75
298.523	310.75
298.753	304.75
298.984	308.75
299.214	308.75
299.445	310.75
299.675	295.75
299.905	317.75
300.136	304.75
300.366	305.75
300.597	316.75
300.827	292.75
301.057	323.75
301.288	328.75
301.518	335.75
301.748	332.75
301.979	334.75
302.209	332.75
302.439	344.75
302.669	333.75
302.9	335.75
303.13	339.75
303.36	332.75
303.59	344.75
303.82	342.75
304.051	330.75
304.281	325.75
304.511	329.75
304.741	321.75
304.971	327.75
305.201	321.75
305.431	303.75
305.661	326.75
305.891	361.75
306.121	337.75
306.352	338.75
306.582	330.75
306.812	340.75
307.042	322.75
307.272	316.75
307.502	314.75
307.731	347.75
307.961	338.75
308.191	322.75
308.421	327.75
308.651	335.75
308.881	338.75
309.111	328.75
309.341	348.75
309.571	321.75
309.8	344.75
310.03	343.75
310.26	359.75
310.49	382.75
310.72	348.75
310.949	393.75
311.179	388.75
311.409	366.75
311.639	366.75
311.868	370.75
312.098	370.75
312.328	369.75
312.557	358.75
312.787	390.75
313.017	392.75
313.246	362.75
313.476	361.75
313.706	367.75
313.935	360.75
314.165	351.75
314.394	372.75
314.624	372.75
314.853	377.75
315.083	367.75
315.312	363.75
315.542	377.75
315.771	362.75
316.001	370.75
316.23	359.75
316.46	360.75
316.689	368.75
316.919	369.75
317.148	389.75
317.377	376.75
317.607	367.75
317.836	371.75
318.065	360.75
318.295	351.75
318.524	351.75
318.753	363.75
318.983	367.75
319.212	370.75
319.441	372.75
319.67	367.75
319.9	366.75
320.129	376.75
320.358	378.75
320.587	369.75
320.816	376.75
321.046	390.75
321.275	373.75
321.504	361.75
321.733	377.75
321.962	395.75
322.191	403.75
322.42	402.75
322.649	392.75
322.878	410.75
323.108	401.75
323.337	448.75
323.566	428.75
323.795	429.75
324.024	478.75
324.253	568.75
324.482	773.75
324.71	1089.75
324.939	1398.75
325.168	1216.75
325.397	686.75
325.626	524.75
325.855	481.75
326.084	449.75
326.313	441.75
326.542	439.75
326.77	451.75
326.999	550.75
327.228	697.75
327.457	934.75
327.686	1088.75
327.914	746.75
328.143	562.75
328.372	503.75
328.6	488.75
328.829	468.75
329.058	484.75
329.287	488.75
329.515	479.75
329.744	449.75
329.972	442.75
330.201	461.75
330.43	479.75
330.658	510.75
330.887	485.75
331.115	485.75
331.344	464.75
331.572	454.75
331.801	449.75
332.03	441.75
332.258	446.75
332.486	413.75
332.715	424.75
332.943	442.75
333.172	437.75
333.4	460.75
333.629	449.75
333.857	450.75
334.085	468.75
334.314	452.75
334.542	478.75
334.771	489.75
334.999	454.75
335.227	454.75
335.455	452.75
335.684	455.75
335.912	449.75
336.14	438.75
336.369	420.75
336.597	427.75
336.825	448.75
337.053	429.75
337.281	428.75
337.51	442.75
337.738	442.75
337.966	413.75
338.194	417.75
338.422	411.75
338.65	425.75
338.878	448.75
339.106	400.75
339.334	404.75
339.562	408.75
339.79	392.75
340.018	409.75
340.246	414.75
340.474	402.75
340.702	423.75
340.93	415.75
341.158	413.75
341.386	389.75
341.614	412.75
341.842	398.75
342.07	400.75
342.298	387.75
342.526	402.75
342.754	397.75
342.981	420.75
343.209	388.75
343.437	421.75
343.665	412.75
343.893	421.75
344.12	432.75
344.348	425.75
344.576	422.75
344.804	417.75
345.031	410.75
345.259	400.75
345.487	404.75
345.714	398.75
345.942	392.75
346.17	381.75
346.397	402.75
346.625	398.75
346.853	400.75
347.08	393.75
347.308	379.75
347.535	396.75
347.763	386.75
347.99	393.75
348.218	390.75
348.445	402.75
348.673	396.75
348.9	402.75
349.128	392.75
349.355	382.75
349.583	391.75
349.81	364.75
350.037	374.75
350.265	378.75
350.492	376.75
350.72	371.75
350.947	384.75
351.174	384.75
351.402	401.75
351.629	398.75
351.856	374.75
352.083	374.75
352.311	372.75
352.538	415.75
352.765	412.75
352.992	380.75
353.22	380.75
353.447	368.75
353.674	375.75
353.901	370.75
354.128	361.75
354.355	366.75
354.583	372.75
354.81	364.75
355.037	389.75
355.264	353.75
355.491	388.75
355.718	352.75
355.945	364.75
356.172	365.75
356.399	351.75
356.626	356.75
356.853	364.75
357.08	350.75
357.307	370.75
357.534	374.75
357.761	372.75
357.988	367.75
358.215	395.75
358.441	356.75
358.668	378.75
358.895	380.75
359.122	370.75
359.349	366.75
359.576	378.75
359.802	379.75
360.029	411.75
360.256	407.75
360.483	382.75
360.709	367.75
360.936	370.75
361.163	380.75
361.39	366.75
361.616	374.75
361.843	371.75
362.07	382.75
362.296	381.75
362.523	369.75
362.749	366.75
362.976	387.75
363.203	392.75
363.429	375.75
363.656	374.75
363.882	376.75
364.109	352.75
364.335	362.75
364.562	375.75
364.788	355.75
365.015	348.75
365.241	376.75
365.468	351.75
365.694	353.75
365.92	360.75
366.147	368.75
366.373	359.75
366.599	358.75
366.826	367.75
367.052	367.75
367.278	384.75
367.505	380.75
367.731	353.75
367.957	366.75
368.184	366.75
368.41	380.75
368.636	365.75
368.862	362.75
369.089	349.75
369.315	354.75
369.541	351.75
369.767	366.75
369.993	368.75
370.219	382.75
370.445	376.75
370.672	372.75
370.898	359.75
371.124	349.75
371.35	376.75
371.576	366.75
371.802	361.75
372.028	354.75
372.254	349.75
372.48	369.75
372.706	361.75
372.932	370.75
373.158	379.75
373.384	380.75
373.61	389.75
373.835	365.75
374.061	372.75
374.287	360.75
374.513	364.75
374.739	358.75
374.965	384.75
375.191	364.75
375.416	372.75
375.642	374.75
375.868	374.75
376.094	363.75
376.319	378.75
376.545	359.75
376.771	357.75
376.997	353.75
377.222	356.75
377.448	346.75
377.674	372.75
377.899	350.75
378.125	361.75
378.35	362.75
378.576	352.75
378.802	360.75
379.027	354.75
379.253	358.75
379.478	367.75
379.704	374.75
379.929	350.75
380.155	362.75
380.38	343.75
380.606	366.75
380.831	361.75
381.057	376.75
381.282	349.75
381.507	364.75
381.733	360.75
381.958	361.75
382.184	345.75
382.409	374.75
382.634	384.75
382.86	385.75
383.085	370.75
383.31	361.75
383.535	354.75
383.761	376.75
383.986	383.75
384.211	379.75
384.436	364.75
384.662	385.75
384.887	388.75
385.112	358.75
385.337	374.75
385.562	385.75
385.787	382.75
386.013	404.75
386.238	407.75
386.463	392.75
386.688	411.75
386.913	400.75
387.138	390.75
387.363	368.75
387.588	380.75
387.813	424.75
388.038	380.75
388.263	392.75
388.488	390.75
388.713	397.75
388.938	371.75
389.163	368.75
389.387	393.75
389.612	380.75
389.837	382.75
390.062	406.75
390.287	376.75
390.512	372.75
390.736	363.75
390.961	376.75
391.186	362.75
391.411	393.75
391.636	412.75
391.86	425.75
392.085	394.75
392.31	392.75
392.534	390.75
392.759	366.75
392.984	413.75
393.208	392.75
393.433	380.75
393.658	383.75
393.882	387.75
394.107	376.75
394.331	396.75
394.556	406.75
394.78	384.75
395.005	375.75
395.229	397.75
395.454	400.75
395.678	400.75
395.903	416.75
396.127	408.75
396.352	397.75
396.576	411.75
396.801	401.75
397.025	386.75
397.249	413.75
397.474	398.75
397.698	403.75
397.922	440.75
398.147	411.75
398.371	436.75
398.595	438.75
398.82	420.75
399.044	435.75
399.268	452.75
399.492	454.75
399.717	494.75
399.941	515.75
400.165	538.75
400.389	536.75
400.613	489.75
400.837	431.75
401.062	447.75
401.286	429.75
401.51	437.75
401.734	430.75
401.958	441.75
402.182	457.75
402.406	440.75
402.63	432.75
402.854	453.75
403.078	437.75
403.302	422.75
403.526	464.75
403.75	444.75
403.974	440.75
404.198	434.75
404.422	437.75
404.645	449.75
404.869	450.75
405.093	475.75
405.317	478.75
405.541	506.75
405.765	486.75
405.988	449.75
406.212	464.75
406.436	481.75
406.66	485.75
406.883	476.75
407.107	498.75
407.331	522.75
407.555	541.75
407.778	540.75
408.002	503.75
408.226	474.75
408.449	503.75
408.673	488.75
408.896	506.75
409.12	515.75
409.344	503.75
409.567	460.75
409.791	463.75
410.014	449.75
410.238	457.75
410.461	449.75
410.685	452.75
410.908	434.75
411.132	459.75
411.355	473.75
411.578	468.75
411.802	450.75
412.025	456.75
412.249	447.75
412.472	471.75
412.695	464.75
412.919	484.75
413.142	470.75
413.365	426.75
413.589	447.75
413.812	426.75
414.035	431.75
414.258	426.75
414.482	422.75
414.705	409.75
414.928	431.75
415.151	411.75
415.374	422.75
415.597	428.75
415.821	421.75
416.044	405.75
416.267	396.75
416.49	428.75
416.713	407.75
416.936	422.75
417.159	394.75
417.382	396.75
417.605	415.75
417.828	438.75
418.051	418.75
418.274	418.75
418.497	400.75
418.72	421.75
418.943	393.75
419.166	424.75
419.389	436.75
419.611	442.75
419.834	438.75
420.057	435.75
420.28	411.75
420.503	432.75
420.726	403.75
420.948	446.75
421.171	462.75
421.394	468.75
421.617	444.75
421.839	410.75
422.062	406.75
422.285	419.75
422.507	468.75
422.73	521.75
422.953	489.75
423.175	444.75
423.398	441.75
423.621	437.75
423.843	434.75
424.066	461.75
424.288	450.75
424.511	484.75
424.733	490.75
424.956	572.75
425.178	534.75
425.401	545.75
425.623	530.75
425.846	476.75
426.068	436.75
426.291	443.75
426.513	438.75
426.735	471.75
426.958	492.75
427.18	522.75
427.402	577.75
427.625	653.75
427.847	564.75
428.069	496.75
428.292	476.75
428.514	447.75
428.736	418.75
428.958	417.75
429.181	409.75
429.403	428.75
429.625	408.75
429.847	431.75
430.069	478.75
430.292	458.75
430.514	433.75
430.736	410.75
430.958	418.75
431.18	402.75
431.402	382.75
431.624	416.75
431.846	414.75
432.068	383.75
432.29	399.75
432.512	393.75
432.734	411.75
432.956	405.75
433.178	398.75
433.4	400.75
433.622	394.75
433.844	401.75
434.066	407.75
434.287	401.75
434.509	411.75
434.731	398.75
434.953	404.75
435.175	404.75
435.397	429.75
435.618	436.75
435.84	466.75
436.062	530.75
436.284	548.75
436.505	494.75
436.727	448.75
436.949	417.75
437.17	409.75
437.392	389.75
437.614	418.75
437.835	434.75
438.057	502.75
438.278	559.75
438.5	569.75
438.721	620.75
438.943	598.75
439.165	484.75
439.386	436.75
439.608	440.75
439.829	433.75
440.05	448.75
440.272	468.75
440.493	460.75
440.715	429.75
440.936	426.75
441.158	400.75
441.379	420.75
441.6	438.75
441.822	435.75
442.043	459.75
442.264	515.75
442.486	546.75
442.707	459.75
442.928	448.75
443.149	436.75
443.371	474.75
443.592	485.75
443.813	542.75
444.034	550.75
444.255	502.75
444.476	479.75
444.698	466.75
444.919	446.75
445.14	518.75
445.361	480.75
445.582	436.75
445.803	500.75
446.024	557.75
446.245	561.75
446.466	537.75
446.687	460.75
446.908	447.75
447.129	431.75
447.35	402.75
447.571	415.75
447.792	371.75
448.013	396.75
448.234	426.75
448.455	447.75
448.675	540.75
448.896	584.75
449.117	515.75
449.338	474.75
449.559	585.75
449.779	638.75
450	492.75
450.221	436.75
450.442	434.75
450.662	399.75
450.883	389.75
451.104	401.75
451.324	401.75
451.545	366.75
451.766	382.75
451.986	354.75
452.207	352.75
452.428	364.75
452.648	374.75
452.869	365.75
453.089	357.75
453.31	357.75
453.53	354.75
453.751	360.75
453.971	351.75
454.192	378.75
454.412	356.75
454.633	358.75
454.853	369.75
455.073	372.75
455.294	374.75
455.514	416.75
455.734	404.75
455.955	371.75
456.175	371.75
456.395	333.75
456.616	345.75
456.836	342.75
457.056	341.75
457.276	341.75
457.497	365.75
457.717	341.75
457.937	360.75
458.157	360.75
458.377	367.75
458.598	364.75
458.818	414.75
459.038	452.75
459.258	452.75
459.478	421.75
459.698	386.75
459.918	393.75
460.138	416.75
460.358	394.75
460.578	397.75
460.798	401.75
461.018	398.75
461.238	397.75
461.458	403.75
461.678	394.75
461.898	400.75
462.118	405.75
462.338	420.75
462.558	413.75
462.777	410.75
462.997	430.75
463.217	434.75
463.437	442.75
463.657	413.75
463.876	432.75
464.096	447.75
464.316	425.75
464.536	429.75
464.755	430.75
464.975	423.75
465.195	443.75
465.414	462.75
465.634	421.75
465.854	411.75
466.073	404.75
466.293	383.75
466.512	392.75
466.732	383.75
466.951	384.75
467.171	380.75
467.391	372.75
467.61	366.75
467.829	388.75
468.049	380.75
468.268	382.75
468.488	381.75
468.707	370.75
468.927	379.75
469.146	374.75
469.365	389.75
469.585	372.75
469.804	382.75
470.023	378.75
470.243	390.75
470.462	387.75
470.681	374.75
470.901	390.75
471.12	387.75
471.339	392.75
471.558	381.75
471.777	391.75
471.997	389.75
472.216	372.75
472.435	401.75
472.654	391.75
472.873	394.75
473.092	377.75
473.311	393.75
473.53	385.75
473.749	356.75
473.968	409.75
474.187	462.75
474.406	492.75
474.625	424.75
474.844	402.75
475.063	409.75
475.282	402.75
475.501	402.75
475.72	377.75
475.939	400.75
476.158	395.75
476.377	392.75
476.596	396.75
476.814	403.75
477.033	400.75
477.252	396.75
477.471	397.75
477.69	409.75
477.908	407.75
478.127	416.75
478.346	422.75
478.564	418.75
478.783	428.75
479.002	440.75
479.22	428.75
479.439	436.75
479.658	447.75
479.876	443.75
480.095	440.75
480.313	470.75
480.532	466.75
480.751	470.75
480.969	458.75
481.188	495.75
481.406	506.75
481.624	475.75
481.843	464.75
482.061	455.75
482.28	450.75
482.498	432.75
482.717	430.75
482.935	429.75
483.153	449.75
483.372	428.75
483.59	446.75
483.808	439.75
484.027	449.75
484.245	457.75
484.463	432.75
484.681	450.75
484.9	447.75
485.118	460.75
485.336	472.75
485.554	461.75
485.772	442.75
485.99	440.75
486.209	451.75
486.427	447.75
486.645	457.75
486.863	479.75
487.081	476.75
487.299	478.75
487.517	460.75
487.735	465.75
487.953	447.75
488.171	478.75
488.389	477.75
488.607	475.75
488.825	471.75
489.043	469.75
489.261	474.75
489.479	487.75
489.696	458.75
489.914	476.75
490.132	469.75
490.35	483.75
490.568	476.75
490.786	487.75
491.003	504.75
491.221	518.75
491.439	532.75
491.657	511.75
491.874	528.75
492.092	508.75
492.31	518.75
492.527	510.75
492.745	528.75
492.963	528.75
493.18	526.75
493.398	518.75
493.615	532.75
493.833	520.75
494.05	529.75
494.268	533.75
494.485	534.75
494.703	542.75
494.92	532.75
495.138	513.75
495.355	536.75
495.573	536.75
495.79	533.75
496.008	554.75
496.225	534.75
496.442	525.75
496.66	532.75
496.877	550.75
497.094	539.75
497.312	536.75
497.529	560.75
497.746	567.75
497.963	587.75
498.181	605.75
498.398	605.75
498.615	605.75
498.832	624.75
499.049	651.75
499.267	661.75
499.484	664.75
499.701	678.75
499.918	708.75
500.135	744.75
500.352	744.75
500.569	804.75
500.786	791.75
501.003	773.75
501.22	752.75
501.437	724.75
501.654	719.75
501.871	701.75
