Data from 1960PennyLincolnUp.LampE6.200Scan.07172019.P1_HRD10591_13-06-08-001.txt Node
Date: Thu Jul 18 13:06:08 EDT 2019
User: cochatt
Spectrometer: HR+D1059
Trigger mode: 1
Integration Time (sec): 1.000000E-1
Scans to average: 1
Electric dark correction enabled: true
Nonlinearity correction enabled: false
Boxcar width: 0
XAxis mode: Wavelengths
Number of Pixels in Spectrum: 2048
>>>>>Begin Spectral Data<<<<<
223.165	-14
223.4	-14
223.635	-14
223.869	-16
224.104	-5
224.338	-18
224.573	-10
224.808	-12
225.042	-5
225.277	-10
225.511	-11
225.746	0
225.98	12
226.215	10
226.449	23
226.683	4
226.918	27
227.152	25
227.387	33
227.621	32
227.856	57
228.09	42
228.324	38
228.559	59
228.793	55
229.027	89
229.262	95
229.496	104
229.73	119
229.964	127
230.199	118
230.433	117
230.667	111
230.901	100
231.136	110
231.37	109
231.604	108
231.838	110
232.072	99
232.306	120
232.541	118
232.775	108
233.009	114
233.243	118
233.477	94
233.711	119
233.945	116
234.179	122
234.413	110
234.647	106
234.881	109
235.115	112
235.349	115
235.583	110
235.817	111
236.051	113
236.285	116
236.519	131
236.753	131
236.987	135
237.221	159
237.455	180
237.689	159
237.922	126
238.156	123
238.39	122
238.624	117
238.858	112
239.091	120
239.325	110
239.559	141
239.793	119
240.027	135
240.26	139
240.494	136
240.728	137
240.961	136
241.195	134
241.429	137
241.662	121
241.896	126
242.13	143
242.363	143
242.597	129
242.83	125
243.064	132
243.298	127
243.531	146
243.765	132
243.998	143
244.232	136
244.465	140
244.699	142
244.932	142
245.166	159
245.399	128
245.633	139
245.866	138
246.099	144
246.333	153
246.566	147
246.8	161
247.033	158
247.266	136
247.5	158
247.733	158
247.966	173
248.2	162
248.433	158
248.666	156
248.899	178
249.133	178
249.366	192
249.599	169
249.832	179
250.066	171
250.299	192
250.532	194
250.765	191
250.998	198
251.231	199
251.465	196
251.698	179
251.931	196
252.164	185
252.397	197
252.63	170
252.863	191
253.096	198
253.329	176
253.562	199
253.795	191
254.028	206
254.261	184
254.494	209
254.727	214
254.96	240
255.193	226
255.426	208
255.659	202
255.892	214
256.124	208
256.357	218
256.59	191
256.823	193
257.056	180
257.289	195
257.521	210
257.754	191
257.987	196
258.22	192
258.452	187
258.685	196
258.918	187
259.151	185
259.383	195
259.616	210
259.849	198
260.081	218
260.314	220
260.547	215
260.779	224
261.012	197
261.244	203
261.477	209
261.71	193
261.942	214
262.175	209
262.407	209
262.64	207
262.872	223
263.105	195
263.337	204
263.57	194
263.802	200
264.035	222
264.267	204
264.499	211
264.732	214
264.964	208
265.197	195
265.429	193
265.661	206
265.894	209
266.126	211
266.358	220
266.591	210
266.823	192
267.055	212
267.287	244
267.52	205
267.752	232
267.984	234
268.216	216
268.448	234
268.681	241
268.913	230
269.145	267
269.377	250
269.609	264
269.841	247
270.073	264
270.306	274
270.538	292
270.77	308
271.002	255
271.234	254
271.466	250
271.698	279
271.93	281
272.162	273
272.394	276
272.626	256
272.858	288
273.09	253
273.322	270
273.553	252
273.785	256
274.017	249
274.249	270
274.481	253
274.713	255
274.945	259
275.176	272
275.408	253
275.64	275
275.872	267
276.104	275
276.335	259
276.567	264
276.799	261
277.031	274
277.262	288
277.494	296
277.726	290
277.957	273
278.189	251
278.421	276
278.652	257
278.884	270
279.115	258
279.347	277
279.579	276
279.81	271
280.042	268
280.273	262
280.505	268
280.736	271
280.968	267
281.199	279
281.431	274
281.662	289
281.894	281
282.125	284
282.356	307
282.588	298
282.819	278
283.051	268
283.282	274
283.513	290
283.745	278
283.976	283
284.207	290
284.439	303
284.67	287
284.901	289
285.132	295
285.364	261
285.595	288
285.826	291
286.057	314
286.288	305
286.52	304
286.751	288
286.982	302
287.213	303
287.444	300
287.675	307
287.906	296
288.138	300
288.369	308
288.6	310
288.831	308
289.062	314
289.293	303
289.524	293
289.755	292
289.986	313
290.217	306
290.448	299
290.679	292
290.91	298
291.141	285
291.371	277
291.602	300
291.833	299
292.064	302
292.295	315
292.526	314
292.757	291
292.987	316
293.218	306
293.449	296
293.68	299
293.91	301
294.141	303
294.372	294
294.603	298
294.833	316
295.064	319
295.295	301
295.525	304
295.756	308
295.987	307
296.217	323
296.448	329
296.679	309
296.909	332
297.14	311
297.37	330
297.601	328
297.831	324
298.062	325
298.292	340
298.523	335
298.753	307
298.984	323
299.214	332
299.445	327
299.675	345
299.905	332
300.136	343
300.366	326
300.597	316
300.827	324
301.057	347
301.288	346
301.518	378
301.748	353
301.979	351
302.209	338
302.439	355
302.669	342
302.9	347
303.13	330
303.36	359
303.59	338
303.82	363
304.051	342
304.281	336
304.511	347
304.741	348
304.971	336
305.201	353
305.431	333
305.661	343
305.891	343
306.121	351
306.352	362
306.582	353
306.812	335
307.042	322
307.272	347
307.502	353
307.731	352
307.961	337
308.191	329
308.421	338
308.651	359
308.881	342
309.111	354
309.341	327
309.571	346
309.8	370
310.03	377
310.26	369
310.49	375
310.72	384
310.949	385
311.179	396
311.409	366
311.639	360
311.868	370
312.098	390
312.328	384
312.557	379
312.787	392
313.017	388
313.246	384
313.476	364
313.706	368
313.935	377
314.165	378
314.394	403
314.624	384
314.853	384
315.083	391
315.312	385
315.542	384
315.771	383
316.001	380
316.23	403
316.46	378
316.689	383
316.919	380
317.148	386
317.377	391
317.607	380
317.836	397
318.065	393
318.295	399
318.524	380
318.753	374
318.983	377
319.212	363
319.441	393
319.67	385
319.9	369
320.129	380
320.358	372
320.587	396
320.816	380
321.046	407
321.275	402
321.504	388
321.733	392
321.962	392
322.191	390
322.42	385
322.649	417
322.878	411
323.108	405
323.337	454
323.566	444
323.795	439
324.024	479
324.253	548
324.482	696
324.71	1040
324.939	1385
325.168	1173
325.397	633
325.626	526
325.855	463
326.084	455
326.313	450
326.542	461
326.77	489
326.999	535
327.228	704
327.457	958
327.686	1073
327.914	742
328.143	569
328.372	527
328.6	508
328.829	484
329.058	511
329.287	504
329.515	485
329.744	482
329.972	469
330.201	482
330.43	498
330.658	513
330.887	524
331.115	505
331.344	474
331.572	457
331.801	492
332.03	476
332.258	474
332.486	467
332.715	464
332.943	484
333.172	511
333.4	518
333.629	504
333.857	528
334.085	518
334.314	513
334.542	550
334.771	561
334.999	524
335.227	511
335.455	495
335.684	487
335.912	498
336.14	462
336.369	456
336.597	483
336.825	504
337.053	476
337.281	466
337.51	482
337.738	477
337.966	462
338.194	471
338.422	461
338.65	446
338.878	451
339.106	415
339.334	441
339.562	444
339.79	436
340.018	432
340.246	444
340.474	442
340.702	429
340.93	439
341.158	436
341.386	432
341.614	448
341.842	441
342.07	411
342.298	425
342.526	425
342.754	433
342.981	402
343.209	414
343.437	441
343.665	457
343.893	465
344.12	487
344.348	476
344.576	464
344.804	474
345.031	471
345.259	454
345.487	434
345.714	439
345.942	437
346.17	420
346.397	399
346.625	444
346.853	410
347.08	411
347.308	423
347.535	436
347.763	440
347.99	405
348.218	435
348.445	417
348.673	419
348.9	444
349.128	416
349.355	419
349.583	410
349.81	406
350.037	419
350.265	416
350.492	405
350.72	429
350.947	423
351.174	412
351.402	396
351.629	434
351.856	414
352.083	411
352.311	430
352.538	431
352.765	421
352.992	404
353.22	414
353.447	414
353.674	398
353.901	416
354.128	414
354.355	403
354.583	380
354.81	393
355.037	423
355.264	399
355.491	390
355.718	411
355.945	396
356.172	409
356.399	416
356.626	417
356.853	406
357.08	414
357.307	399
357.534	408
357.761	422
357.988	403
358.215	404
358.441	419
358.668	397
358.895	400
359.122	399
359.349	401
359.576	423
359.802	448
360.029	426
360.256	464
360.483	432
360.709	417
360.936	415
361.163	420
361.39	419
361.616	437
361.843	423
362.07	440
362.296	427
362.523	407
362.749	402
362.976	421
363.203	417
363.429	433
363.656	409
363.882	409
364.109	411
364.335	404
364.562	424
364.788	414
365.015	414
365.241	398
365.468	432
365.694	404
365.92	394
366.147	400
366.373	408
366.599	414
366.826	408
367.052	396
367.278	404
367.505	409
367.731	409
367.957	406
368.184	413
368.41	414
368.636	418
368.862	423
369.089	435
369.315	400
369.541	433
369.767	432
369.993	423
370.219	411
370.445	417
370.672	438
370.898	418
371.124	435
371.35	430
371.576	430
371.802	434
372.028	441
372.254	439
372.48	432
372.706	436
372.932	453
373.158	422
373.384	432
373.61	436
373.835	438
374.061	437
374.287	440
374.513	447
374.739	448
374.965	453
375.191	459
375.416	460
375.642	454
375.868	442
376.094	427
376.319	435
376.545	450
376.771	427
376.997	428
377.222	438
377.448	449
377.674	418
377.899	428
378.125	427
378.35	433
378.576	421
378.802	422
379.027	418
379.253	417
379.478	414
379.704	420
379.929	417
380.155	414
380.38	416
380.606	417
380.831	436
381.057	438
381.282	431
381.507	428
381.733	447
381.958	416
382.184	442
382.409	442
382.634	456
382.86	439
383.085	474
383.31	456
383.535	438
383.761	455
383.986	472
384.211	462
384.436	467
384.662	463
384.887	494
385.112	474
385.337	490
385.562	486
385.787	477
386.013	496
386.238	478
386.463	522
386.688	493
386.913	467
387.138	490
387.363	499
387.588	489
387.813	493
388.038	471
388.263	486
388.488	491
388.713	488
388.938	478
389.163	495
389.387	474
389.612	483
389.837	496
390.062	468
390.287	487
390.512	455
390.736	477
390.961	496
391.186	481
391.411	506
391.636	523
391.86	514
392.085	535
392.31	529
392.534	519
392.759	528
392.984	519
393.208	508
393.433	505
393.658	502
393.882	497
394.107	498
394.331	504
394.556	485
394.78	484
395.005	515
395.229	506
395.454	516
395.678	494
395.903	522
396.127	537
396.352	523
396.576	526
396.801	520
397.025	504
397.249	526
397.474	513
397.698	520
397.922	553
398.147	559
398.371	556
398.595	572
398.82	571
399.044	616
399.268	640
399.492	691
399.717	784
399.941	774
400.165	745
400.389	704
400.613	648
400.837	622
401.062	566
401.286	564
401.51	582
401.734	578
401.958	572
402.182	600
402.406	586
402.63	584
402.854	593
403.078	618
403.302	623
403.526	617
403.75	642
403.974	660
404.198	607
404.422	630
404.645	634
404.869	639
405.093	646
405.317	666
405.541	683
405.765	670
405.988	624
406.212	616
406.436	646
406.66	690
406.883	671
407.107	688
407.331	713
407.555	754
407.778	783
408.002	714
408.226	659
408.449	653
408.673	634
408.896	635
409.12	674
409.344	658
409.567	624
409.791	626
410.014	597
410.238	606
410.461	582
410.685	606
410.908	594
411.132	627
411.355	637
411.578	604
411.802	566
412.025	585
412.249	607
412.472	640
412.695	624
412.919	625
413.142	612
413.365	566
413.589	573
413.812	549
414.035	558
414.258	552
414.482	571
414.705	579
414.928	562
415.151	581
415.374	577
415.597	584
415.821	540
416.044	551
416.267	570
416.49	553
416.713	554
416.936	563
417.159	552
417.382	563
417.605	554
417.828	586
418.051	598
418.274	572
418.497	563
418.72	580
418.943	573
419.166	592
419.389	621
419.611	602
419.834	582
420.057	600
420.28	588
420.503	573
420.726	595
420.948	583
421.171	636
421.394	609
421.617	564
421.839	572
422.062	586
422.285	588
422.507	625
422.73	672
422.953	644
423.175	612
423.398	617
423.621	601
423.843	638
424.066	642
424.288	619
424.511	632
424.733	662
424.956	720
425.178	663
425.401	670
425.623	667
425.846	610
426.068	577
426.291	571
426.513	587
426.735	574
426.958	595
427.18	638
427.402	726
427.625	779
427.847	674
428.069	594
428.292	586
428.514	539
428.736	547
428.958	542
429.181	536
429.403	494
429.625	549
429.847	557
430.069	591
430.292	572
430.514	530
430.736	520
430.958	508
431.18	535
431.402	513
431.624	492
431.846	502
432.068	506
432.29	532
432.512	523
432.734	521
432.956	526
433.178	502
433.4	522
433.622	515
433.844	523
434.066	522
434.287	516
434.509	561
434.731	562
434.953	565
435.175	557
435.397	605
435.618	599
435.84	584
436.062	619
436.284	671
436.505	580
436.727	546
436.949	519
437.17	545
437.392	519
437.614	537
437.835	552
438.057	587
438.278	660
438.5	656
438.721	695
438.943	686
439.165	613
439.386	559
439.608	581
439.829	546
440.05	557
440.272	601
440.493	552
440.715	572
440.936	561
441.158	562
441.379	557
441.6	582
441.822	576
442.043	604
442.264	654
442.486	660
442.707	598
442.928	609
443.149	596
443.371	592
443.592	630
443.813	690
444.034	740
444.255	644
444.476	633
444.698	620
444.919	619
445.14	767
445.361	663
445.582	632
445.803	642
446.024	719
446.245	692
446.466	622
446.687	571
446.908	537
447.129	541
447.35	506
447.571	506
447.792	491
448.013	527
448.234	537
448.455	544
448.675	616
448.896	684
449.117	610
449.338	584
449.559	627
449.779	678
450	599
450.221	518
450.442	526
450.662	503
450.883	492
451.104	488
451.324	474
451.545	516
451.766	462
451.986	472
452.207	466
452.428	458
452.648	464
452.869	467
453.089	479
453.31	466
453.53	472
453.751	434
453.971	445
454.192	471
454.412	484
454.633	469
454.853	456
455.073	450
455.294	469
455.514	502
455.734	500
455.955	454
456.175	455
456.395	450
456.616	433
456.836	442
457.056	434
457.276	425
457.497	443
457.717	436
457.937	440
458.157	445
458.377	471
458.598	479
458.818	513
459.038	563
459.258	562
459.478	537
459.698	536
459.918	523
460.138	537
460.358	524
460.578	536
460.798	555
461.018	556
461.238	547
461.458	545
461.678	537
461.898	556
462.118	537
462.338	585
462.558	584
462.777	597
462.997	632
463.217	684
463.437	689
463.657	624
463.876	604
464.096	598
464.316	601
464.536	623
464.755	622
464.975	608
465.195	617
465.414	602
465.634	566
465.854	529
466.073	512
466.293	503
466.512	486
466.732	485
466.951	496
467.171	480
467.391	505
467.61	494
467.829	478
468.049	495
468.268	470
468.488	464
468.707	483
468.927	488
469.146	479
469.365	466
469.585	464
469.804	455
470.023	500
470.243	503
470.462	524
470.681	523
470.901	524
471.12	491
471.339	500
471.558	492
471.777	484
471.997	476
472.216	474
472.435	514
472.654	523
472.873	493
473.092	465
473.311	464
473.53	478
473.749	483
473.968	496
474.187	551
474.406	551
474.625	497
474.844	485
475.063	496
475.282	453
475.501	479
475.72	468
475.939	478
476.158	490
476.377	469
476.596	494
476.814	494
477.033	505
477.252	506
477.471	519
477.69	523
477.908	507
478.127	527
478.346	567
478.564	556
478.783	543
479.002	570
479.22	560
479.439	562
479.658	562
479.876	575
480.095	590
480.313	632
480.532	619
480.751	611
480.969	599
481.188	646
481.406	647
481.624	558
481.843	537
482.061	556
482.28	558
482.498	524
482.717	531
482.935	553
483.153	520
483.372	538
483.59	549
483.808	554
484.027	542
484.245	530
484.463	557
484.681	571
484.9	564
485.118	571
485.336	551
485.554	560
485.772	569
485.99	550
486.209	575
486.427	577
486.645	587
486.863	603
487.081	575
487.299	588
487.517	582
487.735	561
487.953	566
488.171	578
488.389	553
488.607	573
488.825	551
489.043	588
489.261	563
489.479	586
489.696	555
489.914	568
490.132	602
490.35	595
490.568	613
490.786	608
491.003	610
491.221	624
491.439	642
491.657	632
491.874	644
492.092	628
492.31	639
492.527	654
492.745	653
492.963	667
493.18	639
493.398	644
493.615	649
493.833	662
494.05	643
494.268	682
494.485	683
494.703	670
494.92	658
495.138	673
495.355	667
495.573	670
495.79	651
496.008	664
496.225	651
496.442	682
496.66	672
496.877	666
497.094	699
497.312	674
497.529	712
497.746	707
497.963	718
498.181	746
498.398	754
498.615	780
498.832	809
499.049	878
499.267	921
499.484	972
499.701	1000
499.918	1083
500.135	1155
500.352	1272
500.569	1307
500.786	1316
501.003	1223
501.22	1173
501.437	1079
501.654	1017
501.871	946
502.088	915
502.305	886
502.522	818
502.739	791
502.956	764
503.172	743
503.389	717
503.606	704
503.823	696
504.04	697
504.256	691
504.473	708
504.69	713
504.907	702
505.123	654
505.34	658
505.557	644
505.773	619
505.99	617
506.207	619
506.423	606
506.64	618
506.856	632
507.073	613
507.289	602
507.506	609
507.722	617
507.939	609
508.155	574
508.372	561
508.588	587
508.805	565
509.021	565
509.238	567
509.454	567
509.67	580
509.887	556
510.103	547
510.319	593
510.536	631
510.752	918
510.968	778
511.184	574
511.401	550
511.617	532
511.833	544
512.049	520
512.265	543
512.481	553
512.698	529
512.914	535
513.13	519
513.346	518
513.562	534
513.778	546
513.994	555
514.21	535
514.426	554
514.642	577
514.858	580
515.074	604
515.29	686
515.506	951
515.721	818
515.937	624
516.153	595
516.369	571
516.585	591
516.801	587
517.016	596
517.232	618
517.448	640
517.664	675
517.879	664
518.095	672
518.311	649
518.527	618
518.742	626
518.958	590
519.173	578
519.389	564
519.605	558
519.82	549
520.036	567
520.251	560
520.467	583
520.682	582
520.898	577
521.113	582
521.329	593
521.544	617
521.76	745
521.975	1180
522.19	1206
522.406	708
522.621	544
522.836	532
523.052	512
523.267	504
523.482	481
523.698	469
523.913	491
524.128	494
524.343	468
524.559	475
524.774	471
524.989	472
525.204	478
525.419	484
525.634	462
525.849	476
526.064	460
526.28	478
526.495	473
526.71	466
526.925	462
527.14	444
527.355	443
527.57	459
527.785	458
527.999	446
528.214	454
528.429	448
528.644	459
528.859	451
529.074	456
529.289	493
529.503	510
529.718	492
529.933	482
530.148	463
530.363	455
530.577	472
530.792	451
531.007	450
531.221	464
531.436	436
531.651	448
531.865	446
532.08	443
532.295	459
532.509	433
532.724	450
532.938	442
533.153	453
533.367	434
533.582	456
533.796	454
534.011	436
534.225	436
534.44	441
534.654	448
534.868	436
535.083	447
535.297	442
535.511	441
535.726	448
535.94	432
536.154	442
536.369	425
536.583	424
536.797	446
537.011	425
537.225	423
537.44	435
537.654	430
537.868	440
538.082	434
538.296	435
538.51	429
538.724	421
538.938	430
539.153	405
539.367	422
539.581	433
539.795	421
540.009	438
540.222	406
540.436	425
540.65	428
540.864	418
541.078	450
541.292	433
541.506	439
541.72	437
541.934	440
542.147	447
542.361	440
542.575	434
542.789	394
543.002	427
543.216	414
543.43	430
543.644	429
543.857	438
544.071	420
544.285	420
544.498	431
544.712	425
544.925	437
545.139	422
545.352	442
545.566	439
545.779	438
545.993	462
546.206	425
546.42	443
546.633	436
546.847	423
547.06	417
547.274	408
547.487	410
547.7	422
547.914	420
548.127	435
548.34	432
548.554	434
548.767	430
548.98	440
549.193	422
549.407	416
549.62	423
549.833	431
550.046	452
550.259	440
550.473	409
550.686	434
550.899	431
551.112	400
551.325	421
551.538	412
551.751	398
551.964	394
552.177	429
552.39	431
552.603	433
552.816	448
553.029	461
553.242	454
553.455	457
553.667	446
553.88	470
554.093	437
554.306	433
554.519	427
554.732	408
554.944	420
555.157	419
555.37	407
555.583	406
555.795	399
556.008	395
556.221	376
556.433	398
556.646	389
556.859	387
557.071	376
557.284	388
557.496	376
557.709	368
557.921	365
558.134	366
558.346	378
558.559	390
558.771	380
558.984	348
559.196	379
559.409	368
559.621	356
559.833	363
560.046	362
560.258	372
560.47	365
560.683	358
560.895	358
561.107	364
561.32	374
561.532	375
561.744	358
561.956	350
562.168	374
562.381	381
562.593	356
562.805	362
563.017	359
563.229	381
563.441	374
