Data from 1960PennyLincolnUp.LampE6.200Scan.07172019.P1_HRD10591_13-05-59-002.txt Node
Date: Thu Jul 18 13:05:59 EDT 2019
User: cochatt
Spectrometer: HR+D1059
Trigger mode: 1
Integration Time (sec): 1.000000E-1
Scans to average: 1
Electric dark correction enabled: true
Nonlinearity correction enabled: false
Boxcar width: 0
XAxis mode: Wavelengths
Number of Pixels in Spectrum: 2048
>>>>>Begin Spectral Data<<<<<
223.165	-18.56
223.4	-18.56
223.635	-18.56
223.869	-8.56
224.104	-23.56
224.338	-9.56
224.573	-12.56
224.808	-10.56
225.042	1.44
225.277	-1.56
225.511	-2.56
225.746	-15.56
225.98	-4.56
226.215	13.44
226.449	13.44
226.683	9.44
226.918	35.44
227.152	34.44
227.387	34.44
227.621	38.44
227.856	38.44
228.09	50.44
228.324	63.44
228.559	62.44
228.793	61.44
229.027	70.44
229.262	105.44
229.496	99.44
229.73	109.44
229.964	119.44
230.199	110.44
230.433	92.44
230.667	125.44
230.901	100.44
231.136	94.44
231.37	98.44
231.604	104.44
231.838	109.44
232.072	100.44
232.306	118.44
232.541	108.44
232.775	114.44
233.009	121.44
233.243	126.44
233.477	106.44
233.711	107.44
233.945	90.44
234.179	100.44
234.413	124.44
234.647	107.44
234.881	118.44
235.115	102.44
235.349	101.44
235.583	121.44
235.817	113.44
236.051	117.44
236.285	128.44
236.519	117.44
236.753	130.44
236.987	130.44
237.221	143.44
237.455	179.44
237.689	156.44
237.922	109.44
238.156	110.44
238.39	111.44
238.624	104.44
238.858	121.44
239.091	123.44
239.325	111.44
239.559	117.44
239.793	116.44
240.027	134.44
240.26	122.44
240.494	124.44
240.728	147.44
240.961	133.44
241.195	140.44
241.429	111.44
241.662	122.44
241.896	149.44
242.13	120.44
242.363	133.44
242.597	131.44
242.83	132.44
243.064	130.44
243.298	123.44
243.531	140.44
243.765	121.44
243.998	130.44
244.232	138.44
244.465	142.44
244.699	144.44
244.932	141.44
245.166	120.44
245.399	146.44
245.633	137.44
245.866	138.44
246.099	152.44
246.333	134.44
246.566	134.44
246.8	152.44
247.033	148.44
247.266	134.44
247.5	151.44
247.733	154.44
247.966	151.44
248.2	160.44
248.433	135.44
248.666	155.44
248.899	157.44
249.133	182.44
249.366	182.44
249.599	175.44
249.832	166.44
250.066	176.44
250.299	170.44
250.532	183.44
250.765	177.44
250.998	193.44
251.231	208.44
251.465	175.44
251.698	188.44
251.931	186.44
252.164	174.44
252.397	180.44
252.63	189.44
252.863	177.44
253.096	204.44
253.329	207.44
253.562	181.44
253.795	182.44
254.028	196.44
254.261	181.44
254.494	172.44
254.727	202.44
254.96	241.44
255.193	238.44
255.426	204.44
255.659	198.44
255.892	208.44
256.124	212.44
256.357	204.44
256.59	204.44
256.823	183.44
257.056	162.44
257.289	177.44
257.521	184.44
257.754	192.44
257.987	196.44
258.22	183.44
258.452	189.44
258.685	194.44
258.918	191.44
259.151	200.44
259.383	193.44
259.616	210.44
259.849	207.44
260.081	207.44
260.314	201.44
260.547	231.44
260.779	224.44
261.012	192.44
261.244	199.44
261.477	203.44
261.71	190.44
261.942	210.44
262.175	220.44
262.407	206.44
262.64	215.44
262.872	206.44
263.105	202.44
263.337	200.44
263.57	226.44
263.802	185.44
264.035	220.44
264.267	211.44
264.499	188.44
264.732	198.44
264.964	205.44
265.197	197.44
265.429	203.44
265.661	211.44
265.894	210.44
266.126	205.44
266.358	221.44
266.591	212.44
266.823	212.44
267.055	223.44
267.287	225.44
267.52	211.44
267.752	208.44
267.984	203.44
268.216	220.44
268.448	229.44
268.681	214.44
268.913	258.44
269.145	227.44
269.377	272.44
269.609	266.44
269.841	253.44
270.073	248.44
270.306	274.44
270.538	266.44
270.77	278.44
271.002	269.44
271.234	245.44
271.466	267.44
271.698	262.44
271.93	273.44
272.162	287.44
272.394	261.44
272.626	270.44
272.858	248.44
273.09	253.44
273.322	246.44
273.553	246.44
273.785	244.44
274.017	260.44
274.249	263.44
274.481	238.44
274.713	249.44
274.945	252.44
275.176	252.44
275.408	254.44
275.64	253.44
275.872	255.44
276.104	252.44
276.335	250.44
276.567	247.44
276.799	285.44
277.031	294.44
277.262	299.44
277.494	296.44
277.726	278.44
277.957	280.44
278.189	276.44
278.421	258.44
278.652	261.44
278.884	259.44
279.115	266.44
279.347	264.44
279.579	260.44
279.81	260.44
280.042	264.44
280.273	256.44
280.505	263.44
280.736	271.44
280.968	266.44
281.199	269.44
281.431	270.44
281.662	266.44
281.894	263.44
282.125	272.44
282.356	281.44
282.588	292.44
282.819	315.44
283.051	273.44
283.282	260.44
283.513	283.44
283.745	267.44
283.976	274.44
284.207	284.44
284.439	269.44
284.67	275.44
284.901	280.44
285.132	271.44
285.364	295.44
285.595	299.44
285.826	275.44
286.057	278.44
286.288	286.44
286.52	289.44
286.751	282.44
286.982	299.44
287.213	298.44
287.444	295.44
287.675	293.44
287.906	326.44
288.138	310.44
288.369	309.44
288.6	299.44
288.831	313.44
289.062	304.44
289.293	296.44
289.524	292.44
289.755	285.44
289.986	286.44
290.217	309.44
290.448	308.44
290.679	308.44
290.91	304.44
291.141	305.44
291.371	321.44
291.602	300.44
291.833	299.44
292.064	294.44
292.295	289.44
292.526	284.44
292.757	283.44
292.987	287.44
293.218	291.44
293.449	310.44
293.68	314.44
293.91	299.44
294.141	298.44
294.372	301.44
294.603	304.44
294.833	302.44
295.064	293.44
295.295	293.44
295.525	298.44
295.756	319.44
295.987	309.44
296.217	330.44
296.448	329.44
296.679	310.44
296.909	314.44
297.14	322.44
297.37	327.44
297.601	319.44
297.831	331.44
298.062	303.44
298.292	318.44
298.523	337.44
298.753	306.44
298.984	330.44
299.214	318.44
299.445	343.44
299.675	319.44
299.905	310.44
300.136	350.44
300.366	341.44
300.597	329.44
300.827	332.44
301.057	326.44
301.288	347.44
301.518	328.44
301.748	343.44
301.979	347.44
302.209	350.44
302.439	325.44
302.669	329.44
302.9	356.44
303.13	336.44
303.36	331.44
303.59	346.44
303.82	354.44
304.051	337.44
304.281	370.44
304.511	321.44
304.741	333.44
304.971	341.44
305.201	328.44
305.431	325.44
305.661	339.44
305.891	346.44
306.121	350.44
306.352	324.44
306.582	342.44
306.812	342.44
307.042	347.44
307.272	333.44
307.502	354.44
307.731	363.44
307.961	314.44
308.191	327.44
308.421	354.44
308.651	348.44
308.881	339.44
309.111	351.44
309.341	340.44
309.571	362.44
309.8	351.44
310.03	366.44
310.26	367.44
310.49	359.44
310.72	352.44
310.949	382.44
311.179	397.44
311.409	370.44
311.639	371.44
311.868	366.44
312.098	358.44
312.328	382.44
312.557	381.44
312.787	379.44
313.017	387.44
313.246	373.44
313.476	359.44
313.706	382.44
313.935	383.44
314.165	383.44
314.394	390.44
314.624	380.44
314.853	371.44
315.083	395.44
315.312	408.44
315.542	365.44
315.771	376.44
316.001	385.44
316.23	368.44
316.46	379.44
316.689	368.44
316.919	382.44
317.148	395.44
317.377	381.44
317.607	381.44
317.836	397.44
318.065	389.44
318.295	365.44
318.524	395.44
318.753	363.44
318.983	363.44
319.212	370.44
319.441	394.44
319.67	398.44
319.9	406.44
320.129	387.44
320.358	375.44
320.587	384.44
320.816	398.44
321.046	404.44
321.275	400.44
321.504	394.44
321.733	370.44
321.962	397.44
322.191	397.44
322.42	401.44
322.649	389.44
322.878	404.44
323.108	416.44
323.337	423.44
323.566	422.44
323.795	454.44
324.024	459.44
324.253	534.44
324.482	730.44
324.71	1030.44
324.939	1398.44
325.168	1202.44
325.397	625.44
325.626	494.44
325.855	467.44
326.084	424.44
326.313	448.44
326.542	451.44
326.77	476.44
326.999	537.44
327.228	692.44
327.457	938.44
327.686	1102.44
327.914	734.44
328.143	538.44
328.372	505.44
328.6	481.44
328.829	466.44
329.058	473.44
329.287	506.44
329.515	472.44
329.744	469.44
329.972	443.44
330.201	486.44
330.43	491.44
330.658	532.44
330.887	546.44
331.115	495.44
331.344	485.44
331.572	477.44
331.801	477.44
332.03	469.44
332.258	460.44
332.486	451.44
332.715	477.44
332.943	482.44
333.172	503.44
333.4	506.44
333.629	520.44
333.857	515.44
334.085	545.44
334.314	551.44
334.542	539.44
334.771	556.44
334.999	512.44
335.227	516.44
335.455	499.44
335.684	477.44
335.912	472.44
336.14	474.44
336.369	479.44
336.597	470.44
336.825	469.44
337.053	447.44
337.281	453.44
337.51	475.44
337.738	462.44
337.966	446.44
338.194	456.44
338.422	468.44
338.65	454.44
338.878	442.44
339.106	425.44
339.334	446.44
339.562	434.44
339.79	438.44
340.018	438.44
340.246	454.44
340.474	452.44
340.702	444.44
340.93	422.44
341.158	399.44
341.386	431.44
341.614	422.44
341.842	432.44
342.07	433.44
342.298	429.44
342.526	436.44
342.754	410.44
342.981	433.44
343.209	435.44
343.437	458.44
343.665	456.44
343.893	476.44
344.12	498.44
344.348	475.44
344.576	467.44
344.804	447.44
345.031	435.44
345.259	447.44
345.487	434.44
345.714	439.44
345.942	408.44
346.17	418.44
346.397	423.44
346.625	407.44
346.853	406.44
347.08	439.44
347.308	410.44
347.535	429.44
347.763	428.44
347.99	426.44
348.218	420.44
348.445	413.44
348.673	437.44
348.9	430.44
349.128	404.44
349.355	399.44
349.583	414.44
349.81	400.44
350.037	414.44
350.265	413.44
350.492	401.44
350.72	417.44
350.947	426.44
351.174	418.44
351.402	430.44
351.629	426.44
351.856	405.44
352.083	410.44
352.311	391.44
352.538	422.44
352.765	410.44
352.992	415.44
353.22	411.44
353.447	416.44
353.674	404.44
353.901	386.44
354.128	400.44
354.355	394.44
354.583	403.44
354.81	390.44
355.037	383.44
355.264	415.44
355.491	402.44
355.718	406.44
355.945	383.44
356.172	380.44
356.399	387.44
356.626	410.44
356.853	407.44
357.08	394.44
357.307	375.44
357.534	392.44
357.761	398.44
357.988	386.44
358.215	413.44
358.441	396.44
358.668	401.44
358.895	384.44
359.122	413.44
359.349	417.44
359.576	422.44
359.802	409.44
360.029	435.44
360.256	459.44
360.483	444.44
360.709	406.44
360.936	433.44
361.163	412.44
361.39	428.44
361.616	418.44
361.843	400.44
362.07	414.44
362.296	407.44
362.523	408.44
362.749	414.44
362.976	433.44
363.203	422.44
363.429	432.44
363.656	413.44
363.882	401.44
364.109	401.44
364.335	377.44
364.562	412.44
364.788	406.44
365.015	438.44
365.241	402.44
365.468	410.44
365.694	398.44
365.92	407.44
366.147	413.44
366.373	407.44
366.599	416.44
366.826	382.44
367.052	405.44
367.278	380.44
367.505	398.44
367.731	419.44
367.957	421.44
368.184	414.44
368.41	402.44
368.636	421.44
368.862	406.44
369.089	418.44
369.315	410.44
369.541	401.44
369.767	404.44
369.993	427.44
370.219	398.44
370.445	419.44
370.672	411.44
370.898	410.44
371.124	417.44
371.35	412.44
371.576	392.44
371.802	418.44
372.028	423.44
372.254	429.44
372.48	437.44
372.706	430.44
372.932	435.44
373.158	438.44
373.384	432.44
373.61	435.44
373.835	426.44
374.061	413.44
374.287	444.44
374.513	441.44
374.739	433.44
374.965	456.44
375.191	451.44
375.416	449.44
375.642	430.44
375.868	448.44
376.094	459.44
376.319	438.44
376.545	418.44
376.771	419.44
376.997	438.44
377.222	459.44
377.448	420.44
377.674	424.44
377.899	423.44
378.125	421.44
378.35	424.44
378.576	407.44
378.802	417.44
379.027	437.44
379.253	416.44
379.478	434.44
379.704	432.44
379.929	407.44
380.155	430.44
380.38	439.44
380.606	443.44
380.831	413.44
381.057	402.44
381.282	403.44
381.507	422.44
381.733	417.44
381.958	415.44
382.184	421.44
382.409	438.44
382.634	444.44
382.86	439.44
383.085	450.44
383.31	440.44
383.535	461.44
383.761	447.44
383.986	439.44
384.211	475.44
384.436	477.44
384.662	459.44
384.887	467.44
385.112	498.44
385.337	483.44
385.562	469.44
385.787	477.44
386.013	496.44
386.238	508.44
386.463	500.44
386.688	482.44
386.913	474.44
387.138	482.44
387.363	481.44
387.588	458.44
387.813	490.44
388.038	472.44
388.263	494.44
388.488	488.44
388.713	498.44
388.938	494.44
389.163	474.44
389.387	465.44
389.612	494.44
389.837	483.44
390.062	500.44
390.287	471.44
390.512	476.44
390.736	450.44
390.961	501.44
391.186	480.44
391.411	495.44
391.636	514.44
391.86	511.44
392.085	508.44
392.31	500.44
392.534	480.44
392.759	492.44
392.984	495.44
393.208	496.44
393.433	500.44
393.658	486.44
393.882	500.44
394.107	481.44
394.331	521.44
394.556	484.44
394.78	508.44
395.005	487.44
395.229	504.44
395.454	546.44
395.678	517.44
395.903	538.44
396.127	511.44
396.352	535.44
396.576	502.44
396.801	509.44
397.025	506.44
397.249	507.44
397.474	503.44
397.698	528.44
397.922	548.44
398.147	541.44
398.371	546.44
398.595	540.44
398.82	557.44
399.044	578.44
399.268	654.44
399.492	713.44
399.717	762.44
399.941	752.44
400.165	750.44
400.389	708.44
400.613	639.44
400.837	589.44
401.062	585.44
401.286	578.44
401.51	552.44
401.734	573.44
401.958	590.44
402.182	595.44
402.406	580.44
402.63	598.44
402.854	610.44
403.078	606.44
403.302	621.44
403.526	635.44
403.75	613.44
403.974	625.44
404.198	636.44
404.422	626.44
404.645	635.44
404.869	643.44
405.093	634.44
405.317	655.44
405.541	680.44
405.765	656.44
405.988	612.44
406.212	640.44
406.436	653.44
406.66	638.44
406.883	636.44
407.107	675.44
407.331	714.44
407.555	766.44
407.778	781.44
408.002	726.44
408.226	659.44
408.449	679.44
408.673	646.44
408.896	679.44
409.12	678.44
409.344	659.44
409.567	613.44
409.791	626.44
410.014	604.44
410.238	593.44
410.461	589.44
410.685	597.44
410.908	605.44
411.132	629.44
411.355	664.44
411.578	619.44
411.802	595.44
412.025	574.44
412.249	628.44
412.472	599.44
412.695	646.44
412.919	595.44
413.142	586.44
413.365	568.44
413.589	582.44
413.812	572.44
414.035	562.44
414.258	561.44
414.482	566.44
414.705	590.44
414.928	556.44
415.151	568.44
415.374	544.44
415.597	562.44
415.821	546.44
416.044	544.44
416.267	561.44
416.49	565.44
416.713	536.44
416.936	567.44
417.159	560.44
417.382	567.44
417.605	566.44
417.828	552.44
418.051	605.44
418.274	574.44
418.497	567.44
418.72	579.44
418.943	552.44
419.166	604.44
419.389	609.44
419.611	595.44
419.834	602.44
420.057	573.44
420.28	571.44
420.503	590.44
420.726	580.44
420.948	582.44
421.171	604.44
421.394	603.44
421.617	575.44
421.839	568.44
422.062	584.44
422.285	593.44
422.507	622.44
422.73	674.44
422.953	644.44
423.175	607.44
423.398	588.44
423.621	609.44
423.843	612.44
424.066	610.44
424.288	596.44
424.511	609.44
424.733	652.44
424.956	723.44
425.178	678.44
425.401	671.44
425.623	682.44
425.846	622.44
426.068	571.44
426.291	563.44
426.513	574.44
426.735	586.44
426.958	603.44
427.18	650.44
427.402	716.44
427.625	764.44
427.847	684.44
428.069	614.44
428.292	587.44
428.514	524.44
428.736	521.44
428.958	563.44
429.181	551.44
429.403	530.44
429.625	503.44
429.847	520.44
430.069	597.44
430.292	584.44
430.514	508.44
430.736	501.44
430.958	517.44
431.18	511.44
431.402	512.44
431.624	507.44
431.846	508.44
432.068	510.44
432.29	526.44
432.512	507.44
432.734	513.44
432.956	532.44
433.178	522.44
433.4	528.44
433.622	544.44
433.844	528.44
434.066	514.44
434.287	524.44
434.509	526.44
434.731	542.44
434.953	550.44
435.175	572.44
435.397	580.44
435.618	587.44
435.84	587.44
436.062	628.44
436.284	686.44
436.505	566.44
436.727	551.44
436.949	515.44
437.17	523.44
437.392	526.44
437.614	531.44
437.835	551.44
438.057	603.44
438.278	616.44
438.5	655.44
438.721	720.44
438.943	659.44
439.165	582.44
439.386	558.44
439.608	574.44
439.829	561.44
440.05	570.44
440.272	596.44
440.493	576.44
440.715	551.44
440.936	565.44
441.158	551.44
441.379	557.44
441.6	578.44
441.822	595.44
442.043	599.44
442.264	636.44
442.486	662.44
442.707	594.44
442.928	578.44
443.149	604.44
443.371	589.44
443.592	624.44
443.813	699.44
444.034	737.44
444.255	628.44
444.476	616.44
444.698	620.44
444.919	676.44
445.14	736.44
445.361	652.44
445.582	615.44
445.803	656.44
446.024	693.44
446.245	715.44
446.466	648.44
446.687	564.44
446.908	552.44
447.129	535.44
447.35	535.44
447.571	502.44
447.792	507.44
448.013	501.44
448.234	502.44
448.455	537.44
448.675	610.44
448.896	679.44
449.117	599.44
449.338	550.44
449.559	660.44
449.779	705.44
450	597.44
450.221	500.44
450.442	501.44
450.662	500.44
450.883	510.44
451.104	508.44
451.324	512.44
451.545	493.44
451.766	468.44
451.986	448.44
452.207	457.44
452.428	463.44
452.648	464.44
452.869	474.44
453.089	466.44
453.31	468.44
453.53	474.44
453.751	466.44
453.971	462.44
454.192	465.44
454.412	475.44
454.633	468.44
454.853	448.44
455.073	432.44
455.294	463.44
455.514	507.44
455.734	504.44
455.955	438.44
456.175	459.44
456.395	432.44
456.616	439.44
456.836	444.44
457.056	426.44
457.276	434.44
457.497	417.44
457.717	416.44
457.937	420.44
458.157	438.44
458.377	477.44
458.598	469.44
458.818	516.44
459.038	570.44
459.258	574.44
459.478	535.44
459.698	515.44
459.918	513.44
460.138	498.44
460.358	543.44
460.578	551.44
460.798	559.44
461.018	566.44
461.238	564.44
461.458	562.44
461.678	537.44
461.898	546.44
462.118	568.44
462.338	580.44
462.558	590.44
462.777	602.44
462.997	622.44
463.217	678.44
463.437	660.44
463.657	628.44
463.876	599.44
464.096	606.44
464.316	575.44
464.536	568.44
464.755	600.44
464.975	587.44
465.195	581.44
465.414	627.44
465.634	533.44
465.854	517.44
466.073	519.44
466.293	489.44
466.512	464.44
466.732	472.44
466.951	493.44
467.171	470.44
467.391	478.44
467.61	501.44
467.829	511.44
468.049	488.44
468.268	479.44
468.488	467.44
468.707	466.44
468.927	472.44
469.146	468.44
469.365	480.44
469.585	472.44
469.804	488.44
470.023	497.44
470.243	516.44
470.462	529.44
470.681	516.44
470.901	498.44
471.12	504.44
471.339	501.44
471.558	489.44
471.777	480.44
471.997	475.44
472.216	486.44
472.435	515.44
472.654	477.44
472.873	448.44
473.092	469.44
473.311	470.44
473.53	455.44
473.749	496.44
473.968	501.44
474.187	563.44
474.406	560.44
474.625	497.44
474.844	482.44
475.063	478.44
475.282	461.44
475.501	485.44
475.72	491.44
475.939	496.44
476.158	474.44
476.377	478.44
476.596	488.44
476.814	500.44
477.033	494.44
477.252	494.44
477.471	512.44
477.69	501.44
477.908	547.44
478.127	550.44
478.346	556.44
478.564	550.44
478.783	566.44
479.002	560.44
479.22	560.44
479.439	554.44
479.658	567.44
479.876	585.44
480.095	570.44
480.313	614.44
480.532	607.44
480.751	600.44
480.969	589.44
481.188	634.44
481.406	635.44
481.624	568.44
481.843	555.44
482.061	574.44
482.28	566.44
482.498	557.44
482.717	562.44
482.935	527.44
483.153	542.44
483.372	538.44
483.59	541.44
483.808	524.44
484.027	514.44
484.245	558.44
484.463	566.44
484.681	579.44
484.9	550.44
485.118	572.44
485.336	573.44
485.554	542.44
485.772	548.44
485.99	586.44
486.209	555.44
486.427	597.44
486.645	569.44
486.863	600.44
487.081	594.44
487.299	585.44
487.517	578.44
487.735	587.44
487.953	560.44
488.171	590.44
488.389	597.44
488.607	566.44
488.825	568.44
489.043	558.44
489.261	572.44
489.479	612.44
489.696	577.44
489.914	570.44
490.132	590.44
490.35	576.44
490.568	608.44
490.786	600.44
491.003	625.44
491.221	612.44
491.439	618.44
491.657	623.44
491.874	638.44
492.092	678.44
492.31	649.44
492.527	642.44
492.745	658.44
492.963	658.44
493.18	670.44
493.398	669.44
493.615	677.44
493.833	677.44
494.05	678.44
494.268	653.44
494.485	658.44
494.703	676.44
494.92	675.44
495.138	704.44
495.355	662.44
495.573	668.44
495.79	650.44
496.008	660.44
496.225	652.44
496.442	678.44
496.66	690.44
496.877	661.44
497.094	696.44
497.312	692.44
497.529	694.44
497.746	702.44
497.963	726.44
498.181	722.44
498.398	770.44
498.615	790.44
498.832	842.44
499.049	860.44
499.267	886.44
499.484	957.44
499.701	1011.44
499.918	1075.44
500.135	1207.44
500.352	1308.44
500.569	1326.44
500.786	1327.44
501.003	1245.44
501.22	1164.44
501.437	1085.44
501.654	1026.44
501.871	952.44
