Data from 1960PennyLincolnUp.LampE5.5.200Scan.07172019.P1.ChangedAngle_HRD10591_13-15-36-821.txt Node
Date: Thu Jul 18 13:15:36 EDT 2019
User: cochatt
Spectrometer: HR+D1059
Trigger mode: 1
Integration Time (sec): 1.000000E-1
Scans to average: 1
Electric dark correction enabled: true
Nonlinearity correction enabled: false
Boxcar width: 0
XAxis mode: Wavelengths
Number of Pixels in Spectrum: 2048
>>>>>Begin Spectral Data<<<<<
223.165	-11.62
223.4	-11.62
223.635	-11.62
223.869	-13.62
224.104	-14.62
224.338	-13.62
224.573	-2.62
224.808	-19.62
225.042	-7.62
225.277	-3.62
225.511	-10.62
225.746	-7.62
225.98	4.38
226.215	9.38
226.449	16.38
226.683	30.38
226.918	19.38
227.152	25.38
227.387	36.38
227.621	29.38
227.856	39.38
228.09	39.38
228.324	53.38
228.559	63.38
228.793	54.38
229.027	81.38
229.262	81.38
229.496	109.38
229.73	91.38
229.964	113.38
230.199	99.38
230.433	99.38
230.667	87.38
230.901	100.38
231.136	98.38
231.37	77.38
231.604	113.38
231.838	102.38
232.072	104.38
232.306	92.38
232.541	116.38
232.775	115.38
233.009	120.38
233.243	101.38
233.477	98.38
233.711	117.38
233.945	118.38
234.179	110.38
234.413	95.38
234.647	110.38
234.881	118.38
235.115	104.38
235.349	105.38
235.583	116.38
235.817	116.38
236.051	107.38
236.285	114.38
236.519	106.38
236.753	109.38
236.987	130.38
237.221	154.38
237.455	166.38
237.689	156.38
237.922	126.38
238.156	118.38
238.39	115.38
238.624	112.38
238.858	108.38
239.091	117.38
239.325	89.38
239.559	119.38
239.793	105.38
240.027	120.38
240.26	130.38
240.494	134.38
240.728	120.38
240.961	146.38
241.195	126.38
241.429	134.38
241.662	109.38
241.896	114.38
242.13	117.38
242.363	121.38
242.597	112.38
242.83	132.38
243.064	126.38
243.298	126.38
243.531	113.38
243.765	122.38
243.998	123.38
244.232	135.38
244.465	135.38
244.699	117.38
244.932	114.38
245.166	124.38
245.399	135.38
245.633	125.38
245.866	136.38
246.099	133.38
246.333	123.38
246.566	136.38
246.8	143.38
247.033	133.38
247.266	148.38
247.5	149.38
247.733	149.38
247.966	139.38
248.2	142.38
248.433	149.38
248.666	167.38
248.899	168.38
249.133	161.38
249.366	167.38
249.599	186.38
249.832	168.38
250.066	151.38
250.299	157.38
250.532	185.38
250.765	178.38
250.998	198.38
251.231	184.38
251.465	190.38
251.698	185.38
251.931	175.38
252.164	166.38
252.397	183.38
252.63	168.38
252.863	186.38
253.096	185.38
253.329	218.38
253.562	200.38
253.795	204.38
254.028	193.38
254.261	207.38
254.494	213.38
254.727	203.38
254.96	217.38
255.193	235.38
255.426	203.38
255.659	201.38
255.892	196.38
256.124	205.38
256.357	220.38
256.59	201.38
256.823	209.38
257.056	201.38
257.289	188.38
257.521	192.38
257.754	190.38
257.987	193.38
258.22	184.38
258.452	193.38
258.685	200.38
258.918	189.38
259.151	196.38
259.383	191.38
259.616	207.38
259.849	186.38
260.081	217.38
260.314	222.38
260.547	233.38
260.779	215.38
261.012	212.38
261.244	212.38
261.477	225.38
261.71	197.38
261.942	207.38
262.175	202.38
262.407	204.38
262.64	193.38
262.872	195.38
263.105	200.38
263.337	204.38
263.57	191.38
263.802	197.38
264.035	186.38
264.267	188.38
264.499	196.38
264.732	217.38
264.964	187.38
265.197	208.38
265.429	202.38
265.661	201.38
265.894	200.38
266.126	200.38
266.358	199.38
266.591	201.38
266.823	196.38
267.055	222.38
267.287	214.38
267.52	215.38
267.752	227.38
267.984	222.38
268.216	232.38
268.448	215.38
268.681	223.38
268.913	230.38
269.145	233.38
269.377	254.38
269.609	243.38
269.841	238.38
270.073	259.38
270.306	251.38
270.538	274.38
270.77	267.38
271.002	260.38
271.234	255.38
271.466	257.38
271.698	272.38
271.93	291.38
272.162	282.38
272.394	261.38
272.626	277.38
272.858	251.38
273.09	255.38
273.322	251.38
273.553	259.38
273.785	259.38
274.017	252.38
274.249	241.38
274.481	245.38
274.713	250.38
274.945	225.38
275.176	250.38
275.408	243.38
275.64	252.38
275.872	242.38
276.104	244.38
276.335	258.38
276.567	252.38
276.799	255.38
277.031	280.38
277.262	290.38
277.494	279.38
277.726	275.38
277.957	255.38
278.189	265.38
278.421	258.38
278.652	267.38
278.884	260.38
279.115	243.38
279.347	240.38
279.579	255.38
279.81	249.38
280.042	253.38
280.273	254.38
280.505	259.38
280.736	269.38
280.968	272.38
281.199	256.38
281.431	261.38
281.662	275.38
281.894	266.38
282.125	262.38
282.356	282.38
282.588	281.38
282.819	283.38
283.051	272.38
283.282	259.38
283.513	265.38
283.745	268.38
283.976	260.38
284.207	251.38
284.439	271.38
284.67	283.38
284.901	261.38
285.132	258.38
285.364	257.38
285.595	260.38
285.826	260.38
286.057	269.38
286.288	273.38
286.52	283.38
286.751	289.38
286.982	247.38
287.213	275.38
287.444	280.38
287.675	304.38
287.906	304.38
288.138	296.38
288.369	281.38
288.6	304.38
288.831	274.38
289.062	297.38
289.293	299.38
289.524	291.38
289.755	291.38
289.986	295.38
290.217	278.38
290.448	280.38
290.679	299.38
290.91	288.38
291.141	288.38
291.371	284.38
291.602	286.38
291.833	260.38
292.064	276.38
292.295	275.38
292.526	274.38
292.757	290.38
292.987	289.38
293.218	277.38
293.449	280.38
293.68	293.38
293.91	284.38
294.141	277.38
294.372	282.38
294.603	297.38
294.833	277.38
295.064	296.38
295.295	290.38
295.525	293.38
295.756	300.38
295.987	294.38
296.217	300.38
296.448	304.38
296.679	304.38
296.909	296.38
297.14	275.38
297.37	301.38
297.601	272.38
297.831	276.38
298.062	273.38
298.292	292.38
298.523	307.38
298.753	297.38
298.984	300.38
299.214	311.38
299.445	288.38
299.675	295.38
299.905	315.38
300.136	302.38
300.366	296.38
300.597	284.38
300.827	315.38
301.057	292.38
301.288	315.38
301.518	333.38
301.748	327.38
301.979	320.38
302.209	314.38
302.439	318.38
302.669	328.38
302.9	321.38
303.13	309.38
303.36	312.38
303.59	326.38
303.82	339.38
304.051	328.38
304.281	328.38
304.511	307.38
304.741	339.38
304.971	317.38
305.201	310.38
305.431	310.38
305.661	332.38
305.891	322.38
306.121	323.38
306.352	335.38
306.582	322.38
306.812	313.38
307.042	309.38
307.272	328.38
307.502	335.38
307.731	333.38
307.961	334.38
308.191	330.38
308.421	314.38
308.651	310.38
308.881	319.38
309.111	319.38
309.341	327.38
309.571	339.38
309.8	345.38
310.03	347.38
310.26	341.38
310.49	349.38
310.72	352.38
310.949	368.38
311.179	361.38
311.409	360.38
311.639	358.38
311.868	355.38
312.098	348.38
312.328	362.38
312.557	358.38
312.787	364.38
313.017	372.38
313.246	364.38
313.476	362.38
313.706	372.38
313.935	361.38
314.165	368.38
314.394	372.38
314.624	375.38
314.853	366.38
315.083	377.38
315.312	384.38
315.542	360.38
315.771	370.38
316.001	369.38
316.23	341.38
316.46	359.38
316.689	358.38
316.919	363.38
317.148	366.38
317.377	387.38
317.607	371.38
317.836	356.38
318.065	354.38
318.295	365.38
318.524	374.38
318.753	376.38
318.983	367.38
319.212	357.38
319.441	372.38
319.67	355.38
319.9	358.38
320.129	362.38
320.358	353.38
320.587	378.38
320.816	374.38
321.046	372.38
321.275	377.38
321.504	384.38
321.733	400.38
321.962	381.38
322.191	378.38
322.42	394.38
322.649	398.38
322.878	420.38
323.108	418.38
323.337	452.38
323.566	426.38
323.795	452.38
324.024	503.38
324.253	565.38
324.482	789.38
324.71	1127.38
324.939	1508.38
325.168	1329.38
325.397	710.38
325.626	546.38
325.855	471.38
326.084	445.38
326.313	444.38
326.542	459.38
326.77	485.38
326.999	552.38
327.228	707.38
327.457	1004.38
327.686	1134.38
327.914	820.38
328.143	569.38
328.372	522.38
328.6	520.38
328.829	490.38
329.058	465.38
329.287	489.38
329.515	469.38
329.744	468.38
329.972	444.38
330.201	456.38
330.43	479.38
330.658	488.38
330.887	514.38
331.115	510.38
331.344	460.38
331.572	452.38
331.801	450.38
332.03	433.38
332.258	432.38
332.486	421.38
332.715	414.38
332.943	421.38
333.172	420.38
333.4	421.38
333.629	411.38
333.857	442.38
334.085	459.38
334.314	460.38
334.542	477.38
334.771	478.38
334.999	474.38
335.227	440.38
335.455	420.38
335.684	434.38
335.912	446.38
336.14	436.38
336.369	428.38
336.597	420.38
336.825	440.38
337.053	432.38
337.281	420.38
337.51	432.38
337.738	410.38
337.966	368.38
338.194	410.38
338.422	427.38
338.65	426.38
338.878	405.38
339.106	401.38
339.334	405.38
339.562	393.38
339.79	411.38
340.018	374.38
340.246	382.38
340.474	398.38
340.702	402.38
340.93	390.38
341.158	398.38
341.386	404.38
341.614	382.38
341.842	407.38
342.07	410.38
342.298	421.38
342.526	386.38
342.754	391.38
342.981	404.38
343.209	386.38
343.437	395.38
343.665	407.38
343.893	402.38
344.12	410.38
344.348	416.38
344.576	411.38
344.804	413.38
345.031	424.38
345.259	432.38
345.487	405.38
345.714	418.38
345.942	397.38
346.17	407.38
346.397	401.38
346.625	402.38
346.853	392.38
347.08	376.38
347.308	358.38
347.535	383.38
347.763	368.38
347.99	372.38
348.218	390.38
348.445	406.38
348.673	380.38
348.9	384.38
349.128	382.38
349.355	382.38
349.583	376.38
349.81	376.38
350.037	360.38
350.265	375.38
350.492	362.38
350.72	364.38
350.947	364.38
351.174	374.38
351.402	397.38
351.629	368.38
351.856	388.38
352.083	392.38
352.311	407.38
352.538	378.38
352.765	385.38
352.992	371.38
353.22	357.38
353.447	359.38
353.674	354.38
353.901	357.38
354.128	361.38
354.355	369.38
354.583	363.38
354.81	366.38
355.037	359.38
355.264	366.38
355.491	374.38
355.718	346.38
355.945	332.38
356.172	337.38
356.399	354.38
356.626	362.38
356.853	359.38
357.08	345.38
357.307	358.38
357.534	341.38
357.761	343.38
357.988	358.38
358.215	362.38
358.441	353.38
358.668	347.38
358.895	363.38
359.122	369.38
359.349	358.38
359.576	363.38
359.802	370.38
360.029	410.38
360.256	393.38
360.483	390.38
360.709	377.38
360.936	361.38
361.163	380.38
361.39	371.38
361.616	364.38
361.843	376.38
362.07	364.38
362.296	367.38
362.523	368.38
362.749	387.38
362.976	362.38
363.203	348.38
363.429	366.38
363.656	385.38
363.882	372.38
364.109	365.38
364.335	340.38
364.562	364.38
364.788	354.38
365.015	344.38
365.241	351.38
365.468	356.38
365.694	368.38
365.92	363.38
366.147	340.38
366.373	348.38
366.599	366.38
366.826	352.38
367.052	338.38
367.278	354.38
367.505	374.38
367.731	373.38
367.957	360.38
368.184	360.38
368.41	341.38
368.636	368.38
368.862	358.38
369.089	363.38
369.315	370.38
369.541	347.38
369.767	353.38
369.993	364.38
370.219	334.38
370.445	365.38
370.672	344.38
370.898	346.38
371.124	361.38
371.35	352.38
371.576	349.38
371.802	361.38
372.028	344.38
372.254	355.38
372.48	360.38
372.706	356.38
372.932	361.38
373.158	339.38
373.384	364.38
373.61	368.38
373.835	350.38
374.061	340.38
374.287	352.38
374.513	340.38
374.739	370.38
374.965	368.38
375.191	361.38
375.416	337.38
375.642	342.38
375.868	342.38
376.094	352.38
376.319	364.38
376.545	344.38
376.771	354.38
376.997	358.38
377.222	357.38
377.448	323.38
377.674	336.38
377.899	338.38
378.125	336.38
378.35	343.38
378.576	337.38
378.802	363.38
379.027	367.38
379.253	348.38
379.478	358.38
379.704	348.38
379.929	329.38
380.155	344.38
380.38	346.38
380.606	346.38
380.831	347.38
381.057	363.38
381.282	342.38
381.507	348.38
381.733	350.38
381.958	320.38
382.184	349.38
382.409	350.38
382.634	364.38
382.86	352.38
383.085	361.38
383.31	351.38
383.535	364.38
383.761	365.38
383.986	381.38
384.211	367.38
384.436	362.38
384.662	357.38
384.887	390.38
385.112	367.38
385.337	365.38
385.562	365.38
385.787	369.38
386.013	384.38
386.238	377.38
386.463	357.38
386.688	370.38
386.913	361.38
387.138	382.38
387.363	363.38
387.588	372.38
387.813	367.38
388.038	379.38
388.263	381.38
388.488	363.38
388.713	376.38
388.938	366.38
389.163	353.38
389.387	391.38
389.612	404.38
389.837	369.38
390.062	374.38
390.287	365.38
390.512	380.38
390.736	352.38
390.961	388.38
391.186	369.38
391.411	372.38
391.636	366.38
391.86	395.38
392.085	387.38
392.31	392.38
392.534	397.38
392.759	380.38
392.984	364.38
393.208	378.38
393.433	379.38
393.658	376.38
393.882	379.38
394.107	369.38
394.331	374.38
394.556	376.38
394.78	379.38
395.005	383.38
395.229	383.38
395.454	396.38
395.678	402.38
395.903	398.38
396.127	396.38
396.352	382.38
396.576	381.38
396.801	389.38
397.025	371.38
397.249	404.38
397.474	403.38
397.698	403.38
397.922	381.38
398.147	414.38
398.371	406.38
398.595	402.38
398.82	412.38
399.044	420.38
399.268	456.38
399.492	467.38
399.717	497.38
399.941	532.38
400.165	506.38
400.389	488.38
400.613	480.38
400.837	424.38
401.062	425.38
401.286	422.38
401.51	418.38
401.734	422.38
401.958	428.38
402.182	418.38
402.406	433.38
402.63	432.38
402.854	417.38
403.078	442.38
403.302	418.38
403.526	409.38
403.75	439.38
403.974	420.38
404.198	421.38
404.422	421.38
404.645	430.38
404.869	445.38
405.093	443.38
405.317	468.38
405.541	505.38
405.765	463.38
405.988	426.38
406.212	469.38
406.436	456.38
406.66	467.38
406.883	471.38
407.107	482.38
407.331	514.38
407.555	561.38
407.778	549.38
408.002	508.38
408.226	485.38
408.449	484.38
408.673	466.38
408.896	472.38
409.12	520.38
409.344	468.38
409.567	454.38
409.791	451.38
410.014	432.38
410.238	410.38
410.461	424.38
410.685	405.38
410.908	439.38
411.132	460.38
411.355	487.38
411.578	467.38
411.802	451.38
412.025	417.38
412.249	438.38
412.472	439.38
412.695	473.38
412.919	469.38
413.142	445.38
413.365	411.38
413.589	415.38
413.812	415.38
414.035	428.38
414.258	391.38
414.482	399.38
414.705	412.38
414.928	402.38
415.151	389.38
415.374	425.38
415.597	400.38
415.821	376.38
416.044	388.38
416.267	400.38
416.49	407.38
416.713	417.38
416.936	390.38
417.159	386.38
417.382	392.38
417.605	407.38
417.828	411.38
418.051	404.38
418.274	418.38
418.497	400.38
418.72	398.38
418.943	398.38
419.166	408.38
419.389	411.38
419.611	425.38
419.834	427.38
420.057	392.38
420.28	408.38
420.503	412.38
420.726	389.38
420.948	420.38
421.171	466.38
421.394	441.38
421.617	422.38
421.839	412.38
422.062	396.38
422.285	433.38
422.507	467.38
422.73	501.38
422.953	474.38
423.175	471.38
423.398	444.38
423.621	438.38
423.843	419.38
424.066	437.38
424.288	418.38
424.511	471.38
424.733	482.38
424.956	510.38
425.178	509.38
425.401	520.38
425.623	514.38
425.846	444.38
426.068	430.38
426.291	428.38
426.513	422.38
426.735	441.38
426.958	468.38
427.18	533.38
427.402	618.38
427.625	640.38
427.847	573.38
428.069	500.38
428.292	438.38
428.514	410.38
428.736	431.38
428.958	416.38
429.181	421.38
429.403	391.38
429.625	406.38
429.847	402.38
430.069	456.38
430.292	474.38
430.514	416.38
430.736	404.38
430.958	413.38
431.18	381.38
431.402	412.38
431.624	395.38
431.846	369.38
432.068	379.38
432.29	377.38
432.512	375.38
432.734	387.38
432.956	399.38
433.178	385.38
433.4	402.38
433.622	380.38
433.844	393.38
434.066	389.38
434.287	390.38
434.509	392.38
434.731	393.38
434.953	422.38
435.175	431.38
435.397	450.38
435.618	436.38
435.84	466.38
436.062	524.38
436.284	571.38
436.505	495.38
436.727	429.38
436.949	412.38
437.17	420.38
437.392	408.38
437.614	416.38
437.835	455.38
438.057	468.38
438.278	543.38
438.5	567.38
438.721	605.38
438.943	572.38
439.165	464.38
439.386	438.38
439.608	433.38
439.829	432.38
440.05	448.38
440.272	478.38
440.493	451.38
440.715	400.38
440.936	397.38
441.158	403.38
441.379	392.38
441.6	401.38
441.822	411.38
442.043	454.38
442.264	491.38
442.486	534.38
442.707	442.38
442.928	434.38
443.149	428.38
443.371	452.38
443.592	496.38
443.813	552.38
444.034	591.38
444.255	497.38
444.476	442.38
444.698	444.38
444.919	443.38
445.14	521.38
445.361	474.38
445.582	460.38
445.803	504.38
446.024	582.38
446.245	572.38
446.466	524.38
446.687	461.38
446.908	438.38
447.129	420.38
447.35	396.38
447.571	388.38
447.792	391.38
448.013	398.38
448.234	418.38
448.455	454.38
448.675	528.38
448.896	591.38
449.117	520.38
449.338	499.38
449.559	555.38
449.779	596.38
450	504.38
450.221	431.38
450.442	405.38
450.662	389.38
450.883	389.38
451.104	385.38
451.324	370.38
451.545	360.38
451.766	385.38
451.986	367.38
452.207	332.38
452.428	348.38
452.648	357.38
452.869	368.38
453.089	364.38
453.31	362.38
453.53	372.38
453.751	352.38
453.971	346.38
454.192	384.38
454.412	349.38
454.633	348.38
454.853	346.38
455.073	342.38
455.294	377.38
455.514	414.38
455.734	412.38
455.955	358.38
456.175	345.38
456.395	337.38
456.616	346.38
456.836	341.38
457.056	346.38
457.276	329.38
457.497	339.38
457.717	349.38
457.937	337.38
458.157	330.38
458.377	346.38
458.598	362.38
458.818	390.38
459.038	458.38
459.258	461.38
459.478	403.38
459.698	379.38
459.918	390.38
460.138	383.38
460.358	385.38
460.578	394.38
460.798	420.38
461.018	385.38
461.238	394.38
461.458	394.38
461.678	380.38
461.898	418.38
462.118	419.38
462.338	379.38
462.558	410.38
462.777	404.38
462.997	411.38
463.217	428.38
463.437	447.38
463.657	444.38
463.876	409.38
464.096	413.38
464.316	406.38
464.536	425.38
464.755	414.38
464.975	415.38
465.195	429.38
465.414	457.38
465.634	428.38
465.854	400.38
466.073	378.38
466.293	392.38
466.512	379.38
466.732	382.38
466.951	364.38
467.171	377.38
467.391	377.38
467.61	358.38
467.829	371.38
468.049	385.38
468.268	356.38
468.488	358.38
468.707	361.38
468.927	347.38
469.146	336.38
469.365	357.38
469.585	354.38
469.804	386.38
470.023	365.38
470.243	381.38
470.462	366.38
470.681	395.38
470.901	373.38
471.12	372.38
471.339	386.38
471.558	381.38
471.777	388.38
471.997	356.38
472.216	375.38
472.435	393.38
472.654	379.38
472.873	360.38
473.092	360.38
473.311	374.38
473.53	377.38
473.749	371.38
473.968	412.38
474.187	464.38
474.406	478.38
474.625	408.38
474.844	387.38
475.063	375.38
475.282	378.38
475.501	393.38
475.72	357.38
475.939	379.38
476.158	390.38
476.377	368.38
476.596	371.38
476.814	373.38
477.033	381.38
477.252	402.38
477.471	395.38
477.69	411.38
477.908	413.38
478.127	410.38
478.346	409.38
478.564	396.38
478.783	410.38
479.002	414.38
479.22	416.38
479.439	439.38
479.658	430.38
479.876	456.38
480.095	428.38
480.313	460.38
480.532	456.38
480.751	438.38
480.969	456.38
481.188	485.38
481.406	518.38
481.624	469.38
481.843	452.38
482.061	426.38
482.28	432.38
482.498	435.38
482.717	415.38
482.935	430.38
483.153	458.38
483.372	421.38
483.59	438.38
483.808	430.38
484.027	406.38
484.245	435.38
484.463	422.38
484.681	432.38
484.9	446.38
485.118	457.38
485.336	443.38
485.554	425.38
485.772	428.38
485.99	440.38
486.209	453.38
486.427	447.38
486.645	438.38
486.863	460.38
487.081	471.38
487.299	462.38
487.517	449.38
487.735	453.38
487.953	459.38
488.171	471.38
488.389	454.38
488.607	459.38
488.825	467.38
489.043	447.38
489.261	452.38
489.479	460.38
489.696	451.38
489.914	465.38
490.132	449.38
490.35	457.38
490.568	465.38
490.786	482.38
491.003	481.38
491.221	496.38
491.439	518.38
491.657	512.38
491.874	499.38
492.092	502.38
492.31	512.38
492.527	506.38
492.745	507.38
492.963	515.38
493.18	514.38
493.398	515.38
493.615	534.38
493.833	538.38
494.05	530.38
494.268	520.38
494.485	530.38
494.703	529.38
494.92	507.38
495.138	518.38
495.355	517.38
495.573	541.38
495.79	546.38
496.008	542.38
496.225	522.38
496.442	519.38
496.66	527.38
496.877	537.38
497.094	506.38
497.312	524.38
497.529	552.38
497.746	578.38
497.963	570.38
498.181	570.38
498.398	574.38
498.615	608.38
498.832	628.38
499.049	605.38
499.267	653.38
499.484	642.38
499.701	653.38
499.918	697.38
500.135	705.38
500.352	759.38
500.569	761.38
500.786	757.38
501.003	752.38
501.22	705.38
501.437	715.38
501.654	674.38
501.871	674.38
