Data from 1960PennyLincolnUp.LampE5.5.200Scan.07172019.P1.ChangedAngle_HRD10591_13-14-46-821.txt Node
Date: Thu Jul 18 13:14:46 EDT 2019
User: cochatt
Spectrometer: HR+D1059
Trigger mode: 1
Integration Time (sec): 1.000000E-1
Scans to average: 1
Electric dark correction enabled: true
Nonlinearity correction enabled: false
Boxcar width: 0
XAxis mode: Wavelengths
Number of Pixels in Spectrum: 2048
>>>>>Begin Spectral Data<<<<<
223.165	-16.25
223.4	-16.25
223.635	-16.25
223.869	-13.25
224.104	-8.25
224.338	-6.25
224.573	-8.25
224.808	-12.25
225.042	-6.25
225.277	-12.25
225.511	1.75
225.746	4.75
225.98	-0.25
226.215	18.75
226.449	7.75
226.683	24.75
226.918	14.75
227.152	10.75
227.387	30.75
227.621	22.75
227.856	41.75
228.09	46.75
228.324	51.75
228.559	42.75
228.793	55.75
229.027	84.75
229.262	85.75
229.496	84.75
229.73	94.75
229.964	117.75
230.199	107.75
230.433	104.75
230.667	101.75
230.901	96.75
231.136	99.75
231.37	90.75
231.604	95.75
231.838	109.75
232.072	104.75
232.306	104.75
232.541	92.75
232.775	109.75
233.009	101.75
233.243	102.75
233.477	106.75
233.711	103.75
233.945	79.75
234.179	110.75
234.413	103.75
234.647	112.75
234.881	100.75
235.115	108.75
235.349	120.75
235.583	106.75
235.817	112.75
236.051	101.75
236.285	107.75
236.519	106.75
236.753	126.75
236.987	139.75
237.221	141.75
237.455	160.75
237.689	141.75
237.922	123.75
238.156	114.75
238.39	119.75
238.624	103.75
238.858	90.75
239.091	101.75
239.325	99.75
239.559	101.75
239.793	109.75
240.027	113.75
240.26	118.75
240.494	128.75
240.728	121.75
240.961	133.75
241.195	148.75
241.429	128.75
241.662	121.75
241.896	112.75
242.13	109.75
242.363	126.75
242.597	119.75
242.83	129.75
243.064	111.75
243.298	124.75
243.531	111.75
243.765	117.75
243.998	114.75
244.232	121.75
244.465	141.75
244.699	134.75
244.932	129.75
245.166	128.75
245.399	137.75
245.633	142.75
245.866	128.75
246.099	127.75
246.333	120.75
246.566	132.75
246.8	113.75
247.033	139.75
247.266	127.75
247.5	139.75
247.733	147.75
247.966	150.75
248.2	163.75
248.433	155.75
248.666	151.75
248.899	155.75
249.133	164.75
249.366	169.75
249.599	148.75
249.832	143.75
250.066	151.75
250.299	150.75
250.532	142.75
250.765	166.75
250.998	179.75
251.231	188.75
251.465	182.75
251.698	186.75
251.931	173.75
252.164	170.75
252.397	177.75
252.63	175.75
252.863	168.75
253.096	188.75
253.329	190.75
253.562	192.75
253.795	178.75
254.028	185.75
254.261	175.75
254.494	172.75
254.727	213.75
254.96	217.75
255.193	212.75
255.426	214.75
255.659	181.75
255.892	182.75
256.124	191.75
256.357	190.75
256.59	197.75
256.823	192.75
257.056	172.75
257.289	193.75
257.521	184.75
257.754	182.75
257.987	183.75
258.22	189.75
258.452	189.75
258.685	181.75
258.918	187.75
259.151	196.75
259.383	186.75
259.616	198.75
259.849	199.75
260.081	198.75
260.314	211.75
260.547	212.75
260.779	212.75
261.012	189.75
261.244	199.75
261.477	197.75
261.71	200.75
261.942	214.75
262.175	198.75
262.407	184.75
262.64	193.75
262.872	191.75
263.105	189.75
263.337	180.75
263.57	177.75
263.802	195.75
264.035	203.75
264.267	202.75
264.499	203.75
264.732	211.75
264.964	180.75
265.197	193.75
265.429	191.75
265.661	196.75
265.894	199.75
266.126	206.75
266.358	184.75
266.591	189.75
266.823	214.75
267.055	222.75
267.287	206.75
267.52	204.75
267.752	209.75
267.984	213.75
268.216	215.75
268.448	204.75
268.681	206.75
268.913	213.75
269.145	221.75
269.377	232.75
269.609	218.75
269.841	234.75
270.073	229.75
270.306	255.75
270.538	256.75
270.77	259.75
271.002	266.75
271.234	260.75
271.466	251.75
271.698	263.75
271.93	262.75
272.162	265.75
272.394	263.75
272.626	268.75
272.858	235.75
273.09	249.75
273.322	252.75
273.553	247.75
273.785	246.75
274.017	242.75
274.249	231.75
274.481	245.75
274.713	247.75
274.945	242.75
275.176	251.75
275.408	242.75
275.64	236.75
275.872	242.75
276.104	255.75
276.335	247.75
276.567	251.75
276.799	257.75
277.031	256.75
277.262	262.75
277.494	249.75
277.726	281.75
277.957	278.75
278.189	262.75
278.421	247.75
278.652	233.75
278.884	249.75
279.115	237.75
279.347	238.75
279.579	257.75
279.81	249.75
280.042	253.75
280.273	242.75
280.505	249.75
280.736	243.75
280.968	235.75
281.199	232.75
281.431	239.75
281.662	246.75
281.894	257.75
282.125	253.75
282.356	253.75
282.588	262.75
282.819	274.75
283.051	273.75
283.282	266.75
283.513	247.75
283.745	255.75
283.976	276.75
284.207	261.75
284.439	269.75
284.67	267.75
284.901	270.75
285.132	261.75
285.364	261.75
285.595	267.75
285.826	255.75
286.057	276.75
286.288	276.75
286.52	255.75
286.751	275.75
286.982	286.75
287.213	267.75
287.444	260.75
287.675	271.75
287.906	263.75
288.138	290.75
288.369	267.75
288.6	275.75
288.831	297.75
289.062	288.75
289.293	272.75
289.524	285.75
289.755	263.75
289.986	276.75
290.217	260.75
290.448	273.75
290.679	273.75
290.91	261.75
291.141	259.75
291.371	269.75
291.602	265.75
291.833	271.75
292.064	273.75
292.295	269.75
292.526	275.75
292.757	275.75
292.987	278.75
293.218	273.75
293.449	259.75
293.68	270.75
293.91	281.75
294.141	282.75
294.372	276.75
294.603	291.75
294.833	263.75
295.064	286.75
295.295	265.75
295.525	266.75
295.756	275.75
295.987	279.75
296.217	298.75
296.448	310.75
296.679	277.75
296.909	302.75
297.14	270.75
297.37	312.75
297.601	282.75
297.831	271.75
298.062	287.75
298.292	281.75
298.523	293.75
298.753	289.75
298.984	293.75
299.214	298.75
299.445	273.75
299.675	293.75
299.905	286.75
300.136	295.75
300.366	294.75
300.597	306.75
300.827	311.75
301.057	311.75
301.288	305.75
301.518	300.75
301.748	306.75
301.979	317.75
302.209	309.75
302.439	302.75
302.669	293.75
302.9	310.75
303.13	307.75
303.36	315.75
303.59	301.75
303.82	310.75
304.051	308.75
304.281	290.75
304.511	310.75
304.741	298.75
304.971	308.75
305.201	301.75
305.431	297.75
305.661	309.75
305.891	314.75
306.121	299.75
306.352	297.75
306.582	314.75
306.812	306.75
307.042	315.75
307.272	330.75
307.502	314.75
307.731	324.75
307.961	315.75
308.191	328.75
308.421	307.75
308.651	306.75
308.881	316.75
309.111	310.75
309.341	317.75
309.571	314.75
309.8	346.75
310.03	335.75
310.26	338.75
310.49	331.75
310.72	327.75
310.949	342.75
311.179	342.75
311.409	353.75
311.639	348.75
311.868	341.75
312.098	356.75
312.328	330.75
312.557	361.75
312.787	358.75
313.017	359.75
313.246	356.75
313.476	327.75
313.706	353.75
313.935	348.75
314.165	356.75
314.394	369.75
314.624	350.75
314.853	344.75
315.083	354.75
315.312	348.75
315.542	343.75
315.771	347.75
316.001	353.75
316.23	353.75
316.46	335.75
316.689	353.75
316.919	350.75
317.148	337.75
317.377	368.75
317.607	363.75
317.836	345.75
318.065	350.75
318.295	328.75
318.524	353.75
318.753	343.75
318.983	353.75
319.212	348.75
319.441	348.75
319.67	351.75
319.9	348.75
320.129	367.75
320.358	375.75
320.587	355.75
320.816	349.75
321.046	350.75
321.275	365.75
321.504	357.75
321.733	353.75
321.962	351.75
322.191	361.75
322.42	377.75
322.649	383.75
322.878	371.75
323.108	380.75
323.337	414.75
323.566	397.75
323.795	426.75
324.024	440.75
324.253	529.75
324.482	677.75
324.71	982.75
324.939	1307.75
325.168	1109.75
325.397	644.75
325.626	480.75
325.855	455.75
326.084	414.75
326.313	406.75
326.542	419.75
326.77	445.75
326.999	508.75
327.228	644.75
327.457	876.75
327.686	1011.75
327.914	709.75
328.143	533.75
328.372	458.75
328.6	436.75
328.829	470.75
329.058	451.75
329.287	477.75
329.515	434.75
329.744	430.75
329.972	422.75
330.201	434.75
330.43	437.75
330.658	467.75
330.887	457.75
331.115	450.75
331.344	430.75
331.572	419.75
331.801	403.75
332.03	428.75
332.258	407.75
332.486	396.75
332.715	397.75
332.943	400.75
333.172	393.75
333.4	412.75
333.629	420.75
333.857	411.75
334.085	419.75
334.314	427.75
334.542	431.75
334.771	468.75
334.999	419.75
335.227	407.75
335.455	387.75
335.684	419.75
335.912	407.75
336.14	400.75
336.369	394.75
336.597	425.75
336.825	421.75
337.053	414.75
337.281	399.75
337.51	404.75
337.738	391.75
337.966	392.75
338.194	387.75
338.422	384.75
338.65	406.75
338.878	395.75
339.106	375.75
339.334	385.75
339.562	383.75
339.79	366.75
340.018	365.75
340.246	393.75
340.474	385.75
340.702	382.75
340.93	399.75
341.158	382.75
341.386	369.75
341.614	387.75
341.842	395.75
342.07	369.75
342.298	377.75
342.526	390.75
342.754	365.75
342.981	375.75
343.209	380.75
343.437	361.75
343.665	400.75
343.893	407.75
344.12	396.75
344.348	396.75
344.576	381.75
344.804	399.75
345.031	387.75
345.259	407.75
345.487	382.75
345.714	381.75
345.942	373.75
346.17	376.75
346.397	378.75
346.625	364.75
346.853	364.75
347.08	353.75
347.308	360.75
347.535	369.75
347.763	341.75
347.99	391.75
348.218	359.75
348.445	364.75
348.673	382.75
348.9	357.75
349.128	357.75
349.355	355.75
349.583	356.75
349.81	356.75
350.037	375.75
350.265	361.75
350.492	357.75
350.72	356.75
350.947	368.75
351.174	365.75
351.402	350.75
351.629	365.75
351.856	360.75
352.083	358.75
352.311	373.75
352.538	374.75
352.765	357.75
352.992	361.75
353.22	344.75
353.447	361.75
353.674	359.75
353.901	360.75
354.128	361.75
354.355	343.75
354.583	343.75
354.81	342.75
355.037	357.75
355.264	339.75
355.491	336.75
355.718	343.75
355.945	335.75
356.172	346.75
356.399	337.75
356.626	339.75
356.853	334.75
357.08	364.75
357.307	317.75
357.534	334.75
357.761	335.75
357.988	330.75
358.215	337.75
358.441	358.75
358.668	348.75
358.895	344.75
359.122	349.75
359.349	335.75
359.576	362.75
359.802	373.75
360.029	387.75
360.256	382.75
360.483	376.75
360.709	345.75
360.936	342.75
361.163	348.75
361.39	357.75
361.616	359.75
361.843	349.75
362.07	356.75
362.296	345.75
362.523	355.75
362.749	363.75
362.976	356.75
363.203	331.75
363.429	329.75
363.656	337.75
363.882	340.75
364.109	353.75
364.335	346.75
364.562	333.75
364.788	349.75
365.015	347.75
365.241	349.75
365.468	343.75
365.694	346.75
365.92	328.75
366.147	335.75
366.373	348.75
366.599	329.75
366.826	337.75
367.052	318.75
367.278	341.75
367.505	364.75
367.731	344.75
367.957	337.75
368.184	350.75
368.41	342.75
368.636	345.75
368.862	361.75
369.089	348.75
369.315	340.75
369.541	322.75
369.767	327.75
369.993	351.75
370.219	342.75
370.445	365.75
370.672	348.75
370.898	332.75
371.124	320.75
371.35	363.75
371.576	343.75
371.802	359.75
372.028	334.75
372.254	353.75
372.48	349.75
372.706	349.75
372.932	339.75
373.158	359.75
373.384	353.75
373.61	365.75
373.835	339.75
374.061	346.75
374.287	357.75
374.513	346.75
374.739	345.75
374.965	337.75
375.191	358.75
375.416	350.75
375.642	353.75
375.868	361.75
376.094	354.75
376.319	312.75
376.545	331.75
376.771	331.75
376.997	339.75
377.222	335.75
377.448	338.75
377.674	339.75
377.899	327.75
378.125	331.75
378.35	352.75
378.576	310.75
378.802	328.75
379.027	339.75
379.253	344.75
379.478	341.75
379.704	323.75
379.929	335.75
380.155	337.75
380.38	326.75
380.606	317.75
380.831	329.75
381.057	342.75
381.282	334.75
381.507	336.75
381.733	325.75
381.958	341.75
382.184	364.75
382.409	338.75
382.634	337.75
382.86	333.75
383.085	346.75
383.31	345.75
383.535	355.75
383.761	361.75
383.986	359.75
384.211	372.75
384.436	361.75
384.662	373.75
384.887	374.75
385.112	362.75
385.337	366.75
385.562	366.75
385.787	379.75
386.013	378.75
386.238	346.75
386.463	357.75
386.688	357.75
386.913	365.75
387.138	365.75
387.363	360.75
387.588	373.75
387.813	346.75
388.038	377.75
388.263	361.75
388.488	364.75
388.713	365.75
388.938	356.75
389.163	365.75
389.387	358.75
389.612	356.75
389.837	360.75
390.062	354.75
390.287	373.75
390.512	371.75
390.736	374.75
390.961	365.75
391.186	358.75
391.411	348.75
391.636	370.75
391.86	390.75
392.085	371.75
392.31	377.75
392.534	371.75
392.759	375.75
392.984	365.75
393.208	363.75
393.433	390.75
393.658	369.75
393.882	374.75
394.107	363.75
394.331	365.75
394.556	370.75
394.78	373.75
395.005	366.75
395.229	351.75
395.454	367.75
395.678	380.75
395.903	395.75
396.127	398.75
396.352	396.75
396.576	371.75
396.801	373.75
397.025	397.75
397.249	381.75
397.474	366.75
397.698	391.75
397.922	405.75
398.147	391.75
398.371	407.75
398.595	401.75
398.82	395.75
399.044	404.75
399.268	423.75
399.492	451.75
399.717	468.75
399.941	460.75
400.165	482.75
400.389	479.75
400.613	447.75
400.837	427.75
401.062	420.75
401.286	427.75
401.51	401.75
401.734	395.75
401.958	399.75
402.182	408.75
402.406	410.75
402.63	427.75
402.854	431.75
403.078	395.75
403.302	396.75
403.526	412.75
403.75	421.75
403.974	419.75
404.198	412.75
404.422	405.75
404.645	416.75
404.869	446.75
405.093	460.75
405.317	471.75
405.541	493.75
405.765	459.75
405.988	414.75
406.212	460.75
406.436	434.75
406.66	446.75
406.883	448.75
407.107	453.75
407.331	479.75
407.555	524.75
407.778	506.75
408.002	501.75
408.226	467.75
408.449	481.75
408.673	452.75
408.896	459.75
409.12	497.75
409.344	476.75
409.567	442.75
409.791	444.75
410.014	417.75
410.238	394.75
410.461	428.75
410.685	437.75
410.908	428.75
411.132	467.75
411.355	466.75
411.578	423.75
411.802	397.75
412.025	396.75
412.249	429.75
412.472	438.75
412.695	452.75
412.919	467.75
413.142	434.75
413.365	424.75
413.589	403.75
413.812	403.75
414.035	407.75
414.258	397.75
414.482	381.75
414.705	418.75
414.928	402.75
415.151	387.75
415.374	407.75
415.597	393.75
415.821	389.75
416.044	408.75
416.267	398.75
416.49	385.75
416.713	393.75
416.936	388.75
417.159	387.75
417.382	397.75
417.605	381.75
417.828	397.75
418.051	424.75
418.274	406.75
418.497	393.75
418.72	394.75
418.943	384.75
419.166	402.75
419.389	420.75
419.611	440.75
419.834	398.75
420.057	401.75
420.28	400.75
420.503	408.75
420.726	394.75
420.948	402.75
421.171	417.75
421.394	455.75
421.617	409.75
421.839	405.75
422.062	404.75
422.285	407.75
422.507	441.75
422.73	477.75
422.953	455.75
423.175	445.75
423.398	409.75
423.621	407.75
423.843	426.75
424.066	417.75
424.288	421.75
424.511	434.75
424.733	468.75
424.956	505.75
425.178	503.75
425.401	483.75
425.623	490.75
425.846	442.75
426.068	431.75
426.291	407.75
426.513	405.75
426.735	433.75
426.958	441.75
427.18	509.75
427.402	559.75
427.625	637.75
427.847	537.75
428.069	475.75
428.292	457.75
428.514	414.75
428.736	404.75
428.958	402.75
429.181	391.75
429.403	381.75
429.625	398.75
429.847	401.75
430.069	431.75
430.292	435.75
430.514	400.75
430.736	399.75
430.958	391.75
431.18	377.75
431.402	375.75
431.624	368.75
431.846	383.75
432.068	363.75
432.29	367.75
432.512	386.75
432.734	377.75
432.956	363.75
433.178	367.75
433.4	376.75
433.622	383.75
433.844	391.75
434.066	379.75
434.287	373.75
434.509	388.75
434.731	371.75
434.953	397.75
435.175	387.75
435.397	398.75
435.618	420.75
435.84	450.75
436.062	503.75
436.284	529.75
436.505	429.75
436.727	417.75
436.949	403.75
437.17	390.75
437.392	384.75
437.614	394.75
437.835	412.75
438.057	463.75
438.278	535.75
438.5	505.75
438.721	571.75
438.943	549.75
439.165	444.75
439.386	415.75
439.608	428.75
439.829	401.75
440.05	415.75
440.272	457.75
440.493	415.75
440.715	396.75
440.936	374.75
441.158	395.75
441.379	390.75
441.6	401.75
441.822	423.75
442.043	430.75
442.264	476.75
442.486	494.75
442.707	436.75
442.928	415.75
443.149	435.75
443.371	443.75
443.592	458.75
443.813	521.75
444.034	547.75
444.255	474.75
444.476	415.75
444.698	444.75
444.919	430.75
445.14	518.75
445.361	468.75
445.582	436.75
445.803	474.75
446.024	525.75
446.245	521.75
446.466	475.75
446.687	418.75
446.908	405.75
447.129	379.75
447.35	369.75
447.571	374.75
447.792	377.75
448.013	379.75
448.234	395.75
448.455	421.75
448.675	475.75
448.896	536.75
449.117	474.75
449.338	458.75
449.559	534.75
449.779	576.75
450	479.75
450.221	406.75
450.442	372.75
450.662	363.75
450.883	373.75
451.104	359.75
451.324	364.75
451.545	359.75
451.766	357.75
451.986	348.75
452.207	342.75
452.428	340.75
452.648	345.75
452.869	362.75
453.089	344.75
453.31	351.75
453.53	353.75
453.751	352.75
453.971	349.75
454.192	345.75
454.412	345.75
454.633	353.75
454.853	339.75
455.073	340.75
455.294	364.75
455.514	394.75
455.734	378.75
455.955	335.75
456.175	331.75
456.395	332.75
456.616	322.75
456.836	340.75
457.056	318.75
457.276	323.75
457.497	335.75
457.717	332.75
457.937	323.75
458.157	333.75
458.377	343.75
458.598	344.75
458.818	387.75
459.038	419.75
459.258	423.75
459.478	375.75
459.698	353.75
459.918	356.75
460.138	360.75
460.358	378.75
460.578	370.75
460.798	383.75
461.018	380.75
461.238	372.75
461.458	375.75
461.678	385.75
461.898	377.75
462.118	382.75
462.338	381.75
462.558	382.75
462.777	398.75
462.997	409.75
463.217	428.75
463.437	427.75
463.657	426.75
463.876	391.75
464.096	392.75
464.316	406.75
464.536	415.75
464.755	404.75
464.975	410.75
465.195	421.75
465.414	429.75
465.634	398.75
465.854	376.75
466.073	367.75
466.293	361.75
466.512	354.75
466.732	347.75
466.951	357.75
467.171	347.75
467.391	355.75
467.61	365.75
467.829	358.75
468.049	376.75
468.268	365.75
468.488	361.75
468.707	358.75
468.927	332.75
469.146	359.75
469.365	348.75
469.585	337.75
469.804	352.75
470.023	347.75
470.243	357.75
470.462	357.75
470.681	355.75
470.901	358.75
471.12	374.75
471.339	371.75
471.558	357.75
471.777	359.75
471.997	363.75
472.216	362.75
472.435	364.75
472.654	348.75
472.873	375.75
473.092	347.75
473.311	362.75
473.53	367.75
473.749	370.75
473.968	396.75
474.187	453.75
474.406	452.75
474.625	385.75
474.844	367.75
475.063	374.75
475.282	365.75
475.501	364.75
475.72	354.75
475.939	357.75
476.158	366.75
476.377	362.75
476.596	358.75
476.814	373.75
477.033	381.75
477.252	382.75
477.471	361.75
477.69	391.75
477.908	389.75
478.127	395.75
478.346	385.75
478.564	393.75
478.783	383.75
479.002	397.75
479.22	405.75
479.439	394.75
479.658	411.75
479.876	423.75
480.095	433.75
480.313	444.75
480.532	425.75
480.751	442.75
480.969	437.75
481.188	486.75
481.406	489.75
481.624	449.75
481.843	425.75
482.061	418.75
482.28	418.75
482.498	398.75
482.717	421.75
482.935	403.75
483.153	399.75
483.372	397.75
483.59	414.75
483.808	395.75
484.027	425.75
484.245	411.75
484.463	412.75
484.681	424.75
484.9	424.75
485.118	437.75
485.336	423.75
485.554	421.75
485.772	414.75
485.99	390.75
486.209	425.75
486.427	427.75
486.645	433.75
486.863	428.75
487.081	446.75
487.299	449.75
487.517	439.75
487.735	434.75
487.953	423.75
488.171	436.75
488.389	438.75
488.607	423.75
488.825	442.75
489.043	434.75
489.261	468.75
489.479	434.75
489.696	431.75
489.914	444.75
490.132	434.75
490.35	442.75
490.568	491.75
490.786	459.75
491.003	499.75
491.221	468.75
491.439	470.75
491.657	443.75
491.874	466.75
492.092	488.75
492.31	483.75
492.527	483.75
492.745	485.75
492.963	486.75
493.18	495.75
493.398	490.75
493.615	486.75
493.833	483.75
494.05	476.75
494.268	520.75
494.485	476.75
494.703	502.75
494.92	502.75
495.138	505.75
495.355	505.75
495.573	512.75
495.79	519.75
496.008	505.75
496.225	522.75
496.442	519.75
496.66	509.75
496.877	515.75
497.094	527.75
497.312	519.75
497.529	506.75
497.746	568.75
497.963	555.75
498.181	568.75
498.398	551.75
498.615	568.75
498.832	593.75
499.049	567.75
499.267	599.75
499.484	638.75
499.701	657.75
499.918	668.75
500.135	706.75
500.352	715.75
500.569	719.75
500.786	762.75
501.003	731.75
501.22	708.75
501.437	690.75
501.654	665.75
501.871	659.75
502.088	627.75
