Data from 1960PennyLincolnUp.LampE6.200Scan.07172019.P1_HRD10591_13-05-03-002.txt Node
Date: Thu Jul 18 13:05:03 EDT 2019
User: cochatt
Spectrometer: HR+D1059
Trigger mode: 1
Integration Time (sec): 1.000000E-1
Scans to average: 1
Electric dark correction enabled: true
Nonlinearity correction enabled: false
Boxcar width: 0
XAxis mode: Wavelengths
Number of Pixels in Spectrum: 2048
>>>>>Begin Spectral Data<<<<<
223.165	-10.25
223.4	-10.25
223.635	-10.25
223.869	-7.25
224.104	-14.25
224.338	-10.25
224.573	-14.25
224.808	-16.25
225.042	-13.25
225.277	-7.25
225.511	-2.25
225.746	-0.25
225.98	3.75
226.215	15.75
226.449	15.75
226.683	8.75
226.918	22.75
227.152	28.75
227.387	32.75
227.621	45.75
227.856	58.75
228.09	49.75
228.324	36.75
228.559	60.75
228.793	77.75
229.027	85.75
229.262	94.75
229.496	110.75
229.73	82.75
229.964	122.75
230.199	111.75
230.433	101.75
230.667	108.75
230.901	90.75
231.136	94.75
231.37	83.75
231.604	110.75
231.838	96.75
232.072	97.75
232.306	113.75
232.541	110.75
232.775	102.75
233.009	110.75
233.243	100.75
233.477	100.75
233.711	114.75
233.945	128.75
234.179	115.75
234.413	128.75
234.647	114.75
234.881	109.75
235.115	106.75
235.349	112.75
235.583	105.75
235.817	113.75
236.051	108.75
236.285	129.75
236.519	110.75
236.753	104.75
236.987	123.75
237.221	145.75
237.455	158.75
237.689	130.75
237.922	113.75
238.156	98.75
238.39	111.75
238.624	132.75
238.858	112.75
239.091	127.75
239.325	126.75
239.559	120.75
239.793	132.75
240.027	119.75
240.26	120.75
240.494	130.75
240.728	131.75
240.961	131.75
241.195	112.75
241.429	130.75
241.662	128.75
241.896	114.75
242.13	119.75
242.363	128.75
242.597	117.75
242.83	126.75
243.064	134.75
243.298	133.75
243.531	158.75
243.765	136.75
243.998	124.75
244.232	139.75
244.465	144.75
244.699	120.75
244.932	133.75
245.166	144.75
245.399	126.75
245.633	144.75
245.866	140.75
246.099	153.75
246.333	150.75
246.566	144.75
246.8	130.75
247.033	137.75
247.266	135.75
247.5	133.75
247.733	141.75
247.966	146.75
248.2	151.75
248.433	158.75
248.666	168.75
248.899	150.75
249.133	169.75
249.366	181.75
249.599	153.75
249.832	161.75
250.066	149.75
250.299	164.75
250.532	165.75
250.765	169.75
250.998	170.75
251.231	171.75
251.465	179.75
251.698	185.75
251.931	167.75
252.164	158.75
252.397	166.75
252.63	174.75
252.863	186.75
253.096	167.75
253.329	188.75
253.562	177.75
253.795	174.75
254.028	159.75
254.261	181.75
254.494	185.75
254.727	192.75
254.96	178.75
255.193	193.75
255.426	184.75
255.659	183.75
255.892	193.75
256.124	211.75
256.357	184.75
256.59	168.75
256.823	176.75
257.056	186.75
257.289	177.75
257.521	191.75
257.754	182.75
257.987	185.75
258.22	192.75
258.452	182.75
258.685	182.75
258.918	193.75
259.151	175.75
259.383	179.75
259.616	191.75
259.849	200.75
260.081	197.75
260.314	212.75
260.547	204.75
260.779	205.75
261.012	194.75
261.244	201.75
261.477	203.75
261.71	183.75
261.942	178.75
262.175	199.75
262.407	186.75
262.64	185.75
262.872	186.75
263.105	198.75
263.337	188.75
263.57	194.75
263.802	197.75
264.035	184.75
264.267	198.75
264.499	197.75
264.732	193.75
264.964	192.75
265.197	192.75
265.429	215.75
265.661	193.75
265.894	197.75
266.126	220.75
266.358	195.75
266.591	195.75
266.823	220.75
267.055	206.75
267.287	191.75
267.52	204.75
267.752	195.75
267.984	216.75
268.216	210.75
268.448	209.75
268.681	211.75
268.913	223.75
269.145	206.75
269.377	220.75
269.609	224.75
269.841	234.75
270.073	224.75
270.306	246.75
270.538	239.75
270.77	257.75
271.002	255.75
271.234	225.75
271.466	240.75
271.698	236.75
271.93	251.75
272.162	237.75
272.394	236.75
272.626	253.75
272.858	246.75
273.09	250.75
273.322	249.75
273.553	231.75
273.785	240.75
274.017	227.75
274.249	230.75
274.481	222.75
274.713	242.75
274.945	216.75
275.176	248.75
275.408	254.75
275.64	237.75
275.872	246.75
276.104	255.75
276.335	224.75
276.567	239.75
276.799	254.75
277.031	248.75
277.262	276.75
277.494	280.75
277.726	261.75
277.957	252.75
278.189	256.75
278.421	244.75
278.652	244.75
278.884	258.75
279.115	257.75
279.347	260.75
279.579	254.75
279.81	250.75
280.042	262.75
280.273	260.75
280.505	256.75
280.736	252.75
280.968	270.75
281.199	276.75
281.431	242.75
281.662	257.75
281.894	255.75
282.125	257.75
282.356	260.75
282.588	293.75
282.819	268.75
283.051	273.75
283.282	247.75
283.513	277.75
283.745	259.75
283.976	267.75
284.207	266.75
284.439	268.75
284.67	272.75
284.901	263.75
285.132	287.75
285.364	263.75
285.595	271.75
285.826	268.75
286.057	265.75
286.288	276.75
286.52	280.75
286.751	280.75
286.982	268.75
287.213	286.75
287.444	270.75
287.675	289.75
287.906	279.75
288.138	295.75
288.369	295.75
288.6	300.75
288.831	296.75
289.062	294.75
289.293	309.75
289.524	279.75
289.755	297.75
289.986	291.75
290.217	285.75
290.448	269.75
290.679	286.75
290.91	285.75
291.141	296.75
291.371	293.75
291.602	289.75
291.833	269.75
292.064	263.75
292.295	304.75
292.526	294.75
292.757	275.75
292.987	291.75
293.218	292.75
293.449	285.75
293.68	304.75
293.91	297.75
294.141	304.75
294.372	307.75
294.603	287.75
294.833	300.75
295.064	308.75
295.295	300.75
295.525	271.75
295.756	306.75
295.987	311.75
296.217	309.75
296.448	319.75
296.679	292.75
296.909	309.75
297.14	295.75
297.37	314.75
297.601	297.75
297.831	304.75
298.062	321.75
298.292	306.75
298.523	311.75
298.753	320.75
298.984	311.75
299.214	304.75
299.445	307.75
299.675	323.75
299.905	313.75
300.136	298.75
300.366	315.75
300.597	321.75
300.827	324.75
301.057	323.75
301.288	317.75
301.518	339.75
301.748	341.75
301.979	337.75
302.209	330.75
302.439	333.75
302.669	317.75
302.9	335.75
303.13	327.75
303.36	346.75
303.59	338.75
303.82	320.75
304.051	325.75
304.281	314.75
304.511	319.75
304.741	322.75
304.971	313.75
305.201	323.75
305.431	328.75
305.661	334.75
305.891	317.75
306.121	328.75
306.352	333.75
306.582	322.75
306.812	328.75
307.042	328.75
307.272	323.75
307.502	326.75
307.731	314.75
307.961	318.75
308.191	322.75
308.421	330.75
308.651	317.75
308.881	329.75
309.111	326.75
309.341	343.75
309.571	353.75
309.8	329.75
310.03	342.75
310.26	341.75
310.49	341.75
310.72	347.75
310.949	354.75
311.179	357.75
311.409	337.75
311.639	360.75
311.868	356.75
312.098	356.75
312.328	365.75
312.557	361.75
312.787	373.75
313.017	370.75
313.246	352.75
313.476	328.75
313.706	354.75
313.935	366.75
314.165	370.75
314.394	366.75
314.624	370.75
314.853	356.75
315.083	357.75
315.312	362.75
315.542	363.75
315.771	356.75
316.001	354.75
316.23	353.75
316.46	360.75
316.689	358.75
316.919	354.75
317.148	370.75
317.377	365.75
317.607	367.75
317.836	355.75
318.065	352.75
318.295	368.75
318.524	354.75
318.753	346.75
318.983	351.75
319.212	362.75
319.441	372.75
319.67	362.75
319.9	360.75
320.129	357.75
320.358	370.75
320.587	367.75
320.816	367.75
321.046	383.75
321.275	376.75
321.504	381.75
321.733	370.75
321.962	398.75
322.191	379.75
322.42	379.75
322.649	391.75
322.878	404.75
323.108	398.75
323.337	411.75
323.566	386.75
323.795	435.75
324.024	431.75
324.253	490.75
324.482	647.75
324.71	888.75
324.939	1212.75
325.168	1012.75
325.397	560.75
325.626	461.75
325.855	431.75
326.084	412.75
326.313	434.75
326.542	428.75
326.77	445.75
326.999	510.75
327.228	630.75
327.457	851.75
327.686	940.75
327.914	676.75
328.143	510.75
328.372	481.75
328.6	437.75
328.829	441.75
329.058	466.75
329.287	443.75
329.515	446.75
329.744	430.75
329.972	422.75
330.201	464.75
330.43	451.75
330.658	456.75
330.887	493.75
331.115	484.75
331.344	447.75
331.572	429.75
331.801	454.75
332.03	438.75
332.258	430.75
332.486	438.75
332.715	447.75
332.943	458.75
333.172	479.75
333.4	478.75
333.629	497.75
333.857	496.75
334.085	499.75
334.314	505.75
334.542	507.75
334.771	522.75
334.999	506.75
335.227	474.75
335.455	472.75
335.684	461.75
335.912	462.75
336.14	466.75
336.369	448.75
336.597	445.75
336.825	448.75
337.053	427.75
337.281	453.75
337.51	443.75
337.738	434.75
337.966	444.75
338.194	422.75
338.422	421.75
338.65	456.75
338.878	426.75
339.106	455.75
339.334	443.75
339.562	427.75
339.79	404.75
340.018	425.75
340.246	422.75
340.474	428.75
340.702	395.75
340.93	414.75
341.158	420.75
341.386	432.75
341.614	432.75
341.842	405.75
342.07	417.75
342.298	405.75
342.526	416.75
342.754	425.75
342.981	419.75
343.209	409.75
343.437	433.75
343.665	434.75
343.893	446.75
344.12	476.75
344.348	460.75
344.576	455.75
344.804	434.75
345.031	412.75
345.259	425.75
345.487	414.75
345.714	409.75
345.942	383.75
346.17	383.75
346.397	401.75
346.625	417.75
346.853	381.75
347.08	400.75
347.308	386.75
347.535	406.75
347.763	406.75
347.99	417.75
348.218	432.75
348.445	380.75
348.673	407.75
348.9	384.75
349.128	398.75
349.355	401.75
349.583	398.75
349.81	399.75
350.037	396.75
350.265	404.75
350.492	399.75
350.72	370.75
350.947	380.75
351.174	387.75
351.402	396.75
351.629	389.75
351.856	393.75
352.083	394.75
352.311	404.75
352.538	371.75
352.765	384.75
352.992	405.75
353.22	379.75
353.447	400.75
353.674	373.75
353.901	375.75
354.128	379.75
354.355	382.75
354.583	393.75
354.81	372.75
355.037	385.75
355.264	381.75
355.491	395.75
355.718	392.75
355.945	382.75
356.172	391.75
356.399	394.75
356.626	378.75
356.853	368.75
357.08	397.75
357.307	370.75
357.534	370.75
357.761	385.75
357.988	392.75
358.215	390.75
358.441	401.75
358.668	390.75
358.895	388.75
359.122	397.75
359.349	400.75
359.576	407.75
359.802	408.75
360.029	432.75
360.256	415.75
360.483	392.75
360.709	419.75
360.936	396.75
361.163	388.75
361.39	379.75
361.616	406.75
361.843	395.75
362.07	376.75
362.296	388.75
362.523	423.75
362.749	397.75
362.976	380.75
363.203	397.75
363.429	386.75
363.656	393.75
363.882	385.75
364.109	389.75
364.335	396.75
364.562	379.75
364.788	387.75
365.015	390.75
365.241	398.75
365.468	387.75
365.694	384.75
365.92	392.75
366.147	376.75
366.373	393.75
366.599	379.75
366.826	383.75
367.052	379.75
367.278	369.75
367.505	384.75
367.731	407.75
367.957	394.75
368.184	397.75
368.41	384.75
368.636	392.75
368.862	375.75
369.089	394.75
369.315	404.75
369.541	386.75
369.767	400.75
369.993	405.75
370.219	396.75
370.445	398.75
370.672	409.75
370.898	404.75
371.124	398.75
371.35	397.75
371.576	415.75
371.802	421.75
372.028	422.75
372.254	414.75
372.48	412.75
372.706	421.75
372.932	418.75
373.158	420.75
373.384	436.75
373.61	407.75
373.835	420.75
374.061	403.75
374.287	417.75
374.513	420.75
374.739	448.75
374.965	434.75
375.191	433.75
375.416	450.75
375.642	446.75
375.868	420.75
376.094	429.75
376.319	422.75
376.545	412.75
376.771	395.75
376.997	407.75
377.222	425.75
377.448	398.75
377.674	402.75
377.899	415.75
378.125	399.75
378.35	394.75
378.576	393.75
378.802	382.75
379.027	400.75
379.253	415.75
379.478	416.75
379.704	426.75
379.929	410.75
380.155	413.75
380.38	392.75
380.606	402.75
380.831	419.75
381.057	414.75
381.282	396.75
381.507	403.75
381.733	408.75
381.958	419.75
382.184	423.75
382.409	421.75
382.634	430.75
382.86	440.75
383.085	407.75
383.31	439.75
383.535	452.75
383.761	440.75
383.986	445.75
384.211	454.75
384.436	457.75
384.662	452.75
384.887	480.75
385.112	477.75
385.337	459.75
385.562	480.75
385.787	480.75
386.013	484.75
386.238	474.75
386.463	469.75
386.688	475.75
386.913	488.75
387.138	469.75
387.363	494.75
387.588	469.75
387.813	488.75
388.038	475.75
388.263	479.75
388.488	476.75
388.713	461.75
388.938	478.75
389.163	459.75
389.387	472.75
389.612	460.75
389.837	483.75
390.062	475.75
390.287	456.75
390.512	462.75
390.736	462.75
390.961	477.75
391.186	485.75
391.411	477.75
391.636	512.75
391.86	504.75
392.085	497.75
392.31	510.75
392.534	525.75
392.759	499.75
392.984	498.75
393.208	506.75
393.433	548.75
393.658	558.75
393.882	512.75
394.107	493.75
394.331	464.75
394.556	512.75
394.78	478.75
395.005	490.75
395.229	480.75
395.454	513.75
395.678	512.75
395.903	510.75
396.127	534.75
396.352	528.75
396.576	516.75
396.801	515.75
397.025	550.75
397.249	533.75
397.474	517.75
397.698	496.75
397.922	518.75
398.147	546.75
398.371	526.75
398.595	529.75
398.82	553.75
399.044	584.75
399.268	613.75
399.492	682.75
399.717	746.75
399.941	743.75
400.165	689.75
400.389	677.75
400.613	621.75
400.837	580.75
401.062	570.75
401.286	558.75
401.51	564.75
401.734	554.75
401.958	568.75
402.182	563.75
402.406	569.75
402.63	580.75
402.854	570.75
403.078	596.75
403.302	611.75
403.526	608.75
403.75	600.75
403.974	602.75
404.198	613.75
404.422	610.75
404.645	644.75
404.869	608.75
405.093	624.75
405.317	646.75
405.541	674.75
405.765	618.75
405.988	625.75
406.212	611.75
406.436	618.75
406.66	649.75
406.883	609.75
407.107	643.75
407.331	692.75
407.555	736.75
407.778	713.75
408.002	704.75
408.226	651.75
408.449	632.75
408.673	624.75
408.896	629.75
409.12	641.75
409.344	611.75
409.567	575.75
409.791	578.75
410.014	594.75
410.238	564.75
410.461	576.75
410.685	584.75
410.908	620.75
411.132	582.75
411.355	607.75
411.578	591.75
411.802	584.75
412.025	570.75
412.249	589.75
412.472	598.75
412.695	621.75
412.919	615.75
413.142	565.75
413.365	561.75
413.589	559.75
413.812	560.75
414.035	543.75
414.258	559.75
414.482	551.75
414.705	550.75
414.928	558.75
415.151	551.75
415.374	557.75
415.597	569.75
415.821	545.75
416.044	526.75
416.267	544.75
416.49	537.75
416.713	530.75
416.936	556.75
417.159	514.75
417.382	528.75
417.605	524.75
417.828	547.75
418.051	561.75
418.274	535.75
418.497	560.75
418.72	567.75
418.943	560.75
419.166	560.75
419.389	598.75
419.611	588.75
419.834	573.75
420.057	568.75
420.28	576.75
420.503	565.75
420.726	546.75
420.948	559.75
421.171	557.75
421.394	582.75
421.617	556.75
421.839	534.75
422.062	535.75
422.285	549.75
422.507	597.75
422.73	665.75
422.953	622.75
423.175	583.75
423.398	579.75
423.621	556.75
423.843	605.75
424.066	574.75
424.288	598.75
424.511	609.75
424.733	626.75
424.956	649.75
425.178	645.75
425.401	623.75
425.623	638.75
425.846	585.75
426.068	547.75
426.291	542.75
426.513	584.75
426.735	554.75
426.958	552.75
427.18	609.75
427.402	673.75
427.625	721.75
427.847	639.75
428.069	586.75
428.292	550.75
428.514	524.75
428.736	548.75
428.958	490.75
429.181	494.75
429.403	483.75
429.625	507.75
429.847	497.75
430.069	546.75
430.292	549.75
430.514	526.75
430.736	488.75
430.958	506.75
431.18	482.75
431.402	476.75
431.624	513.75
431.846	522.75
432.068	503.75
432.29	508.75
432.512	494.75
432.734	510.75
432.956	512.75
433.178	511.75
433.4	517.75
433.622	527.75
433.844	520.75
434.066	514.75
434.287	514.75
434.509	515.75
434.731	524.75
434.953	537.75
435.175	544.75
435.397	564.75
435.618	546.75
435.84	551.75
436.062	615.75
436.284	634.75
436.505	538.75
436.727	514.75
436.949	509.75
437.17	514.75
437.392	492.75
437.614	511.75
437.835	525.75
438.057	565.75
438.278	607.75
438.5	615.75
438.721	621.75
438.943	626.75
439.165	545.75
439.386	546.75
439.608	531.75
439.829	536.75
440.05	530.75
440.272	558.75
440.493	540.75
440.715	511.75
440.936	506.75
441.158	523.75
441.379	526.75
441.6	546.75
441.822	544.75
442.043	568.75
442.264	616.75
442.486	637.75
442.707	574.75
442.928	526.75
443.149	543.75
443.371	574.75
443.592	595.75
443.813	650.75
444.034	652.75
444.255	612.75
444.476	621.75
444.698	601.75
444.919	612.75
445.14	690.75
445.361	652.75
445.582	573.75
445.803	614.75
446.024	628.75
446.245	622.75
446.466	609.75
446.687	536.75
446.908	503.75
447.129	489.75
447.35	481.75
447.571	479.75
447.792	470.75
448.013	481.75
448.234	497.75
448.455	506.75
448.675	573.75
448.896	616.75
449.117	576.75
449.338	528.75
449.559	585.75
449.779	631.75
450	544.75
450.221	505.75
450.442	473.75
450.662	478.75
450.883	473.75
451.104	494.75
451.324	448.75
451.545	465.75
451.766	450.75
451.986	432.75
452.207	442.75
452.428	463.75
452.648	452.75
452.869	437.75
453.089	452.75
453.31	469.75
453.53	461.75
453.751	433.75
453.971	437.75
454.192	447.75
454.412	435.75
454.633	447.75
454.853	434.75
455.073	424.75
455.294	432.75
455.514	472.75
455.734	484.75
455.955	438.75
456.175	430.75
456.395	419.75
456.616	420.75
456.836	416.75
457.056	437.75
457.276	433.75
457.497	439.75
457.717	418.75
457.937	430.75
458.157	439.75
458.377	438.75
458.598	454.75
458.818	476.75
459.038	503.75
459.258	554.75
459.478	517.75
459.698	510.75
459.918	499.75
460.138	525.75
460.358	544.75
460.578	553.75
460.798	535.75
461.018	552.75
461.238	551.75
461.458	522.75
461.678	542.75
461.898	551.75
462.118	520.75
462.338	580.75
462.558	584.75
462.777	575.75
462.997	621.75
463.217	656.75
463.437	652.75
463.657	655.75
463.876	582.75
464.096	612.75
464.316	573.75
464.536	622.75
464.755	601.75
464.975	590.75
465.195	601.75
465.414	574.75
465.634	542.75
465.854	509.75
466.073	505.75
466.293	501.75
466.512	483.75
466.732	485.75
466.951	470.75
467.171	451.75
467.391	478.75
467.61	466.75
467.829	471.75
468.049	480.75
468.268	449.75
468.488	468.75
468.707	453.75
468.927	454.75
469.146	438.75
469.365	456.75
469.585	469.75
469.804	476.75
470.023	482.75
470.243	501.75
470.462	502.75
470.681	514.75
470.901	488.75
471.12	478.75
471.339	495.75
471.558	467.75
471.777	484.75
471.997	473.75
472.216	469.75
472.435	484.75
472.654	470.75
472.873	450.75
473.092	451.75
473.311	439.75
473.53	446.75
473.749	451.75
473.968	466.75
474.187	522.75
474.406	522.75
474.625	497.75
474.844	445.75
475.063	470.75
475.282	453.75
475.501	462.75
475.72	471.75
475.939	453.75
476.158	465.75
476.377	468.75
476.596	456.75
476.814	470.75
477.033	473.75
477.252	481.75
477.471	518.75
477.69	500.75
477.908	521.75
478.127	543.75
478.346	520.75
478.564	530.75
478.783	557.75
479.002	554.75
479.22	546.75
479.439	556.75
479.658	574.75
479.876	560.75
480.095	564.75
480.313	604.75
480.532	597.75
480.751	590.75
480.969	559.75
481.188	618.75
481.406	594.75
481.624	561.75
481.843	555.75
482.061	539.75
482.28	553.75
482.498	518.75
482.717	521.75
482.935	536.75
483.153	521.75
483.372	540.75
483.59	548.75
483.808	524.75
484.027	553.75
484.245	535.75
484.463	542.75
484.681	553.75
484.9	544.75
485.118	563.75
485.336	579.75
485.554	569.75
485.772	557.75
485.99	579.75
486.209	561.75
486.427	558.75
486.645	582.75
486.863	588.75
487.081	572.75
487.299	568.75
487.517	575.75
487.735	562.75
487.953	568.75
488.171	593.75
488.389	563.75
488.607	571.75
488.825	558.75
489.043	556.75
489.261	565.75
489.479	574.75
489.696	585.75
489.914	572.75
490.132	548.75
490.35	593.75
490.568	579.75
490.786	587.75
491.003	571.75
491.221	617.75
491.439	626.75
491.657	616.75
491.874	612.75
492.092	609.75
492.31	617.75
492.527	615.75
492.745	617.75
492.963	633.75
493.18	618.75
493.398	610.75
493.615	631.75
493.833	642.75
494.05	648.75
494.268	644.75
494.485	626.75
494.703	630.75
494.92	633.75
495.138	620.75
495.355	639.75
495.573	648.75
495.79	622.75
496.008	649.75
496.225	625.75
496.442	639.75
496.66	647.75
496.877	622.75
497.094	674.75
497.312	693.75
497.529	678.75
497.746	682.75
497.963	696.75
498.181	709.75
498.398	730.75
498.615	768.75
498.832	793.75
499.049	806.75
499.267	873.75
499.484	928.75
499.701	977.75
499.918	1076.75
500.135	1138.75
500.352	1276.75
500.569	1309.75
500.786	1292.75
501.003	1214.75
501.22	1154.75
501.437	1087.75
501.654	973.75
501.871	922.75
502.088	866.75
