Data from 1960PennyLincolnUp.LampE5.5.200Scan.07172019.P1.ChangedAngle_HRD10591_13-14-13-821.txt Node
Date: Thu Jul 18 13:14:13 EDT 2019
User: cochatt
Spectrometer: HR+D1059
Trigger mode: 1
Integration Time (sec): 1.000000E-1
Scans to average: 1
Electric dark correction enabled: true
Nonlinearity correction enabled: false
Boxcar width: 0
XAxis mode: Wavelengths
Number of Pixels in Spectrum: 2048
>>>>>Begin Spectral Data<<<<<
223.165	-23.12
223.4	-23.12
223.635	-23.12
223.869	-15.12
224.104	-16.12
224.338	-18.12
224.573	-8.12
224.808	-18.12
225.042	-9.12
225.277	-10.12
225.511	-4.12
225.746	-3.12
225.98	20.88
226.215	25.88
226.449	19.88
226.683	21.88
226.918	9.88
227.152	26.88
227.387	36.88
227.621	33.88
227.856	33.88
228.09	34.88
228.324	47.88
228.559	55.88
228.793	54.88
229.027	81.88
229.262	80.88
229.496	98.88
229.73	109.88
229.964	107.88
230.199	89.88
230.433	89.88
230.667	99.88
230.901	90.88
231.136	85.88
231.37	88.88
231.604	101.88
231.838	87.88
232.072	106.88
232.306	113.88
232.541	89.88
232.775	98.88
233.009	101.88
233.243	109.88
233.477	91.88
233.711	96.88
233.945	95.88
234.179	116.88
234.413	87.88
234.647	88.88
234.881	100.88
235.115	101.88
235.349	99.88
235.583	99.88
235.817	103.88
236.051	123.88
236.285	117.88
236.519	120.88
236.753	120.88
236.987	121.88
237.221	119.88
237.455	145.88
237.689	125.88
237.922	105.88
238.156	111.88
238.39	113.88
238.624	106.88
238.858	113.88
239.091	102.88
239.325	111.88
239.559	100.88
239.793	109.88
240.027	118.88
240.26	115.88
240.494	128.88
240.728	127.88
240.961	124.88
241.195	131.88
241.429	108.88
241.662	113.88
241.896	113.88
242.13	113.88
242.363	122.88
242.597	131.88
242.83	101.88
243.064	118.88
243.298	133.88
243.531	106.88
243.765	120.88
243.998	119.88
244.232	133.88
244.465	138.88
244.699	118.88
244.932	128.88
245.166	144.88
245.399	132.88
245.633	136.88
245.866	133.88
246.099	135.88
246.333	114.88
246.566	132.88
246.8	148.88
247.033	140.88
247.266	125.88
247.5	127.88
247.733	136.88
247.966	133.88
248.2	142.88
248.433	152.88
248.666	149.88
248.899	142.88
249.133	150.88
249.366	154.88
249.599	158.88
249.832	142.88
250.066	163.88
250.299	156.88
250.532	150.88
250.765	161.88
250.998	187.88
251.231	152.88
251.465	167.88
251.698	180.88
251.931	160.88
252.164	167.88
252.397	175.88
252.63	163.88
252.863	160.88
253.096	179.88
253.329	169.88
253.562	165.88
253.795	171.88
254.028	170.88
254.261	183.88
254.494	183.88
254.727	194.88
254.96	201.88
255.193	202.88
255.426	200.88
255.659	191.88
255.892	199.88
256.124	184.88
256.357	175.88
256.59	199.88
256.823	170.88
257.056	182.88
257.289	171.88
257.521	173.88
257.754	174.88
257.987	180.88
258.22	178.88
258.452	168.88
258.685	187.88
258.918	171.88
259.151	178.88
259.383	187.88
259.616	184.88
259.849	193.88
260.081	203.88
260.314	207.88
260.547	201.88
260.779	200.88
261.012	210.88
261.244	200.88
261.477	204.88
261.71	173.88
261.942	180.88
262.175	184.88
262.407	195.88
262.64	193.88
262.872	187.88
263.105	197.88
263.337	185.88
263.57	195.88
263.802	188.88
264.035	186.88
264.267	200.88
264.499	192.88
264.732	193.88
264.964	184.88
265.197	183.88
265.429	200.88
265.661	175.88
265.894	185.88
266.126	182.88
266.358	185.88
266.591	191.88
266.823	202.88
267.055	210.88
267.287	199.88
267.52	192.88
267.752	203.88
267.984	215.88
268.216	206.88
268.448	189.88
268.681	209.88
268.913	192.88
269.145	220.88
269.377	224.88
269.609	228.88
269.841	224.88
270.073	224.88
270.306	232.88
270.538	262.88
270.77	253.88
271.002	213.88
271.234	235.88
271.466	245.88
271.698	246.88
271.93	247.88
272.162	250.88
272.394	247.88
272.626	245.88
272.858	250.88
273.09	233.88
273.322	209.88
273.553	233.88
273.785	233.88
274.017	216.88
274.249	221.88
274.481	218.88
274.713	231.88
274.945	222.88
275.176	233.88
275.408	224.88
275.64	243.88
275.872	225.88
276.104	230.88
276.335	227.88
276.567	227.88
276.799	255.88
277.031	247.88
277.262	264.88
277.494	267.88
277.726	260.88
277.957	229.88
278.189	253.88
278.421	255.88
278.652	253.88
278.884	241.88
279.115	231.88
279.347	243.88
279.579	251.88
279.81	251.88
280.042	239.88
280.273	251.88
280.505	219.88
280.736	248.88
280.968	239.88
281.199	247.88
281.431	229.88
281.662	237.88
281.894	244.88
282.125	244.88
282.356	252.88
282.588	260.88
282.819	259.88
283.051	272.88
283.282	253.88
283.513	254.88
283.745	257.88
283.976	249.88
284.207	259.88
284.439	271.88
284.67	249.88
284.901	243.88
285.132	242.88
285.364	259.88
285.595	239.88
285.826	257.88
286.057	260.88
286.288	262.88
286.52	266.88
286.751	245.88
286.982	263.88
287.213	234.88
287.444	274.88
287.675	264.88
287.906	258.88
288.138	269.88
288.369	250.88
288.6	254.88
288.831	261.88
289.062	269.88
289.293	254.88
289.524	257.88
289.755	274.88
289.986	276.88
290.217	266.88
290.448	273.88
290.679	275.88
290.91	241.88
291.141	263.88
291.371	264.88
291.602	272.88
291.833	268.88
292.064	260.88
292.295	266.88
292.526	268.88
292.757	264.88
292.987	247.88
293.218	259.88
293.449	271.88
293.68	275.88
293.91	276.88
294.141	277.88
294.372	241.88
294.603	278.88
294.833	278.88
295.064	277.88
295.295	272.88
295.525	274.88
295.756	278.88
295.987	279.88
296.217	285.88
296.448	274.88
296.679	290.88
296.909	269.88
297.14	270.88
297.37	266.88
297.601	277.88
297.831	281.88
298.062	275.88
298.292	279.88
298.523	295.88
298.753	303.88
298.984	277.88
299.214	273.88
299.445	298.88
299.675	274.88
299.905	274.88
300.136	306.88
300.366	261.88
300.597	308.88
300.827	277.88
301.057	291.88
301.288	282.88
301.518	299.88
301.748	295.88
301.979	301.88
302.209	306.88
302.439	284.88
302.669	285.88
302.9	300.88
303.13	287.88
303.36	306.88
303.59	288.88
303.82	305.88
304.051	291.88
304.281	304.88
304.511	288.88
304.741	309.88
304.971	303.88
305.201	294.88
305.431	295.88
305.661	301.88
305.891	315.88
306.121	313.88
306.352	267.88
306.582	309.88
306.812	304.88
307.042	295.88
307.272	291.88
307.502	304.88
307.731	315.88
307.961	287.88
308.191	300.88
308.421	292.88
308.651	312.88
308.881	309.88
309.111	314.88
309.341	300.88
309.571	315.88
309.8	321.88
310.03	323.88
310.26	337.88
310.49	324.88
310.72	317.88
310.949	316.88
311.179	333.88
311.409	320.88
311.639	341.88
311.868	316.88
312.098	329.88
312.328	331.88
312.557	323.88
312.787	333.88
313.017	331.88
313.246	330.88
313.476	333.88
313.706	316.88
313.935	345.88
314.165	343.88
314.394	331.88
314.624	341.88
314.853	346.88
315.083	319.88
315.312	333.88
315.542	319.88
315.771	319.88
316.001	331.88
316.23	336.88
316.46	331.88
316.689	348.88
316.919	335.88
317.148	335.88
317.377	341.88
317.607	354.88
317.836	328.88
318.065	337.88
318.295	338.88
318.524	342.88
318.753	356.88
318.983	340.88
319.212	340.88
319.441	357.88
319.67	343.88
319.9	321.88
320.129	335.88
320.358	337.88
320.587	352.88
320.816	348.88
321.046	361.88
321.275	351.88
321.504	345.88
321.733	340.88
321.962	329.88
322.191	339.88
322.42	345.88
322.649	391.88
322.878	367.88
323.108	364.88
323.337	375.88
323.566	381.88
323.795	415.88
324.024	410.88
324.253	472.88
324.482	637.88
324.71	851.88
324.939	1159.88
325.168	982.88
325.397	572.88
325.626	442.88
325.855	396.88
326.084	386.88
326.313	365.88
326.542	405.88
326.77	420.88
326.999	457.88
327.228	602.88
327.457	746.88
327.686	891.88
327.914	640.88
328.143	482.88
328.372	433.88
328.6	422.88
328.829	400.88
329.058	420.88
329.287	425.88
329.515	409.88
329.744	383.88
329.972	408.88
330.201	406.88
330.43	420.88
330.658	421.88
330.887	438.88
331.115	437.88
331.344	403.88
331.572	400.88
331.801	391.88
332.03	406.88
332.258	392.88
332.486	389.88
332.715	394.88
332.943	405.88
333.172	419.88
333.4	410.88
333.629	400.88
333.857	403.88
334.085	410.88
334.314	426.88
334.542	417.88
334.771	420.88
334.999	397.88
335.227	392.88
335.455	394.88
335.684	410.88
335.912	421.88
336.14	377.88
336.369	387.88
336.597	405.88
336.825	411.88
337.053	389.88
337.281	389.88
337.51	400.88
337.738	379.88
337.966	374.88
338.194	385.88
338.422	379.88
338.65	380.88
338.878	378.88
339.106	386.88
339.334	395.88
339.562	368.88
339.79	371.88
340.018	375.88
340.246	362.88
340.474	381.88
340.702	377.88
340.93	370.88
341.158	384.88
341.386	371.88
341.614	381.88
341.842	367.88
342.07	366.88
342.298	381.88
342.526	352.88
342.754	360.88
342.981	371.88
343.209	375.88
343.437	358.88
343.665	401.88
343.893	377.88
344.12	387.88
344.348	391.88
344.576	373.88
344.804	385.88
345.031	378.88
345.259	371.88
345.487	374.88
345.714	369.88
345.942	353.88
346.17	374.88
346.397	364.88
346.625	358.88
346.853	356.88
347.08	355.88
347.308	378.88
347.535	346.88
347.763	351.88
347.99	347.88
348.218	351.88
348.445	355.88
348.673	348.88
348.9	375.88
349.128	363.88
349.355	336.88
349.583	359.88
349.81	357.88
350.037	360.88
350.265	332.88
350.492	338.88
350.72	347.88
350.947	341.88
351.174	350.88
351.402	345.88
351.629	354.88
351.856	335.88
352.083	334.88
352.311	339.88
352.538	339.88
352.765	346.88
352.992	344.88
353.22	340.88
353.447	340.88
353.674	315.88
353.901	327.88
354.128	334.88
354.355	334.88
354.583	313.88
354.81	327.88
355.037	340.88
355.264	342.88
355.491	335.88
355.718	342.88
355.945	316.88
356.172	340.88
356.399	330.88
356.626	331.88
356.853	341.88
357.08	348.88
357.307	321.88
357.534	333.88
357.761	327.88
357.988	354.88
358.215	345.88
358.441	353.88
358.668	333.88
358.895	335.88
359.122	339.88
359.349	330.88
359.576	347.88
359.802	325.88
360.029	347.88
360.256	367.88
360.483	354.88
360.709	347.88
360.936	356.88
361.163	348.88
361.39	351.88
361.616	349.88
361.843	346.88
362.07	343.88
362.296	354.88
362.523	324.88
362.749	338.88
362.976	338.88
363.203	331.88
363.429	333.88
363.656	332.88
363.882	326.88
364.109	335.88
364.335	340.88
364.562	330.88
364.788	327.88
365.015	338.88
365.241	328.88
365.468	336.88
365.694	348.88
365.92	332.88
366.147	329.88
366.373	329.88
366.599	335.88
366.826	323.88
367.052	341.88
367.278	339.88
367.505	332.88
367.731	343.88
367.957	340.88
368.184	331.88
368.41	337.88
368.636	353.88
368.862	347.88
369.089	351.88
369.315	339.88
369.541	316.88
369.767	338.88
369.993	336.88
370.219	348.88
370.445	347.88
370.672	340.88
370.898	333.88
371.124	340.88
371.35	349.88
371.576	324.88
371.802	346.88
372.028	330.88
372.254	345.88
372.48	346.88
372.706	338.88
372.932	324.88
373.158	332.88
373.384	347.88
373.61	348.88
373.835	355.88
374.061	359.88
374.287	338.88
374.513	344.88
374.739	320.88
374.965	342.88
375.191	351.88
375.416	340.88
375.642	339.88
375.868	343.88
376.094	321.88
376.319	331.88
376.545	323.88
376.771	323.88
376.997	333.88
377.222	326.88
377.448	330.88
377.674	342.88
377.899	325.88
378.125	317.88
378.35	355.88
378.576	321.88
378.802	315.88
379.027	347.88
379.253	335.88
379.478	315.88
379.704	332.88
379.929	336.88
380.155	325.88
380.38	343.88
380.606	327.88
380.831	321.88
381.057	330.88
381.282	333.88
381.507	335.88
381.733	339.88
381.958	347.88
382.184	323.88
382.409	351.88
382.634	359.88
382.86	327.88
383.085	338.88
383.31	352.88
383.535	325.88
383.761	351.88
383.986	330.88
384.211	336.88
384.436	360.88
384.662	345.88
384.887	357.88
385.112	356.88
385.337	379.88
385.562	367.88
385.787	370.88
386.013	373.88
386.238	390.88
386.463	379.88
386.688	363.88
386.913	365.88
387.138	362.88
387.363	340.88
387.588	357.88
387.813	355.88
388.038	368.88
388.263	369.88
388.488	378.88
388.713	352.88
388.938	363.88
389.163	343.88
389.387	363.88
389.612	353.88
389.837	371.88
390.062	345.88
390.287	341.88
390.512	347.88
390.736	337.88
390.961	361.88
391.186	362.88
391.411	379.88
391.636	374.88
391.86	359.88
392.085	364.88
392.31	367.88
392.534	369.88
392.759	375.88
392.984	365.88
393.208	356.88
393.433	362.88
393.658	391.88
393.882	364.88
394.107	350.88
394.331	373.88
394.556	359.88
394.78	374.88
395.005	370.88
395.229	369.88
395.454	370.88
395.678	353.88
395.903	370.88
396.127	386.88
396.352	394.88
396.576	387.88
396.801	371.88
397.025	373.88
397.249	368.88
397.474	380.88
397.698	375.88
397.922	392.88
398.147	364.88
398.371	384.88
398.595	405.88
398.82	390.88
399.044	432.88
399.268	431.88
399.492	450.88
399.717	450.88
399.941	483.88
400.165	489.88
400.389	471.88
400.613	450.88
400.837	420.88
401.062	406.88
401.286	431.88
401.51	398.88
401.734	405.88
401.958	444.88
402.182	401.88
402.406	403.88
402.63	406.88
402.854	401.88
403.078	421.88
403.302	405.88
403.526	403.88
403.75	388.88
403.974	415.88
404.198	413.88
404.422	398.88
404.645	429.88
404.869	418.88
405.093	412.88
405.317	441.88
405.541	462.88
405.765	445.88
405.988	439.88
406.212	423.88
406.436	433.88
406.66	462.88
406.883	403.88
407.107	443.88
407.331	461.88
407.555	496.88
407.778	512.88
408.002	451.88
408.226	437.88
408.449	476.88
408.673	419.88
408.896	456.88
409.12	460.88
409.344	451.88
409.567	416.88
409.791	408.88
410.014	415.88
410.238	423.88
410.461	423.88
410.685	392.88
410.908	393.88
411.132	406.88
411.355	444.88
411.578	427.88
411.802	415.88
412.025	408.88
412.249	406.88
412.472	420.88
412.695	429.88
412.919	425.88
413.142	395.88
413.365	411.88
413.589	400.88
413.812	404.88
414.035	416.88
414.258	381.88
414.482	386.88
414.705	355.88
414.928	361.88
415.151	374.88
415.374	371.88
415.597	368.88
415.821	396.88
416.044	370.88
416.267	391.88
416.49	395.88
416.713	385.88
416.936	360.88
417.159	363.88
417.382	382.88
417.605	367.88
417.828	384.88
418.051	368.88
418.274	378.88
418.497	381.88
418.72	374.88
418.943	391.88
419.166	393.88
419.389	406.88
419.611	396.88
419.834	391.88
420.057	405.88
420.28	399.88
420.503	386.88
420.726	392.88
420.948	391.88
421.171	399.88
421.394	431.88
421.617	391.88
421.839	383.88
422.062	381.88
422.285	406.88
422.507	427.88
422.73	497.88
422.953	449.88
423.175	404.88
423.398	393.88
423.621	394.88
423.843	421.88
424.066	406.88
424.288	392.88
424.511	426.88
424.733	444.88
424.956	483.88
425.178	467.88
425.401	456.88
425.623	477.88
425.846	415.88
426.068	403.88
426.291	421.88
426.513	383.88
426.735	389.88
426.958	435.88
427.18	458.88
427.402	548.88
427.625	604.88
427.847	514.88
428.069	466.88
428.292	410.88
428.514	397.88
428.736	384.88
428.958	396.88
429.181	379.88
429.403	379.88
429.625	395.88
429.847	400.88
430.069	408.88
430.292	432.88
430.514	388.88
430.736	377.88
430.958	392.88
431.18	368.88
431.402	371.88
431.624	384.88
431.846	359.88
432.068	371.88
432.29	336.88
432.512	357.88
432.734	361.88
432.956	369.88
433.178	363.88
433.4	358.88
433.622	358.88
433.844	370.88
434.066	351.88
434.287	376.88
434.509	372.88
434.731	379.88
434.953	371.88
435.175	392.88
435.397	399.88
435.618	399.88
435.84	406.88
436.062	485.88
436.284	497.88
436.505	415.88
436.727	400.88
436.949	397.88
437.17	371.88
437.392	364.88
437.614	375.88
437.835	395.88
438.057	433.88
438.278	487.88
438.5	505.88
438.721	516.88
438.943	493.88
439.165	409.88
439.386	399.88
439.608	373.88
439.829	397.88
440.05	417.88
440.272	409.88
440.493	389.88
440.715	380.88
440.936	368.88
441.158	395.88
441.379	383.88
441.6	402.88
441.822	380.88
442.043	402.88
442.264	439.88
442.486	470.88
442.707	423.88
442.928	397.88
443.149	416.88
443.371	402.88
443.592	424.88
443.813	489.88
444.034	524.88
444.255	434.88
444.476	438.88
444.698	400.88
444.919	425.88
445.14	548.88
445.361	469.88
445.582	397.88
445.803	460.88
446.024	500.88
446.245	501.88
446.466	454.88
446.687	399.88
446.908	395.88
447.129	386.88
447.35	375.88
447.571	385.88
447.792	371.88
448.013	365.88
448.234	376.88
448.455	373.88
448.675	459.88
448.896	519.88
449.117	457.88
449.338	432.88
449.559	497.88
449.779	525.88
450	438.88
450.221	371.88
450.442	376.88
450.662	375.88
450.883	354.88
451.104	332.88
451.324	354.88
451.545	346.88
451.766	343.88
451.986	338.88
452.207	342.88
452.428	333.88
452.648	332.88
452.869	341.88
453.089	331.88
453.31	328.88
453.53	341.88
453.751	338.88
453.971	343.88
454.192	331.88
454.412	320.88
454.633	312.88
454.853	346.88
455.073	336.88
455.294	353.88
455.514	361.88
455.734	366.88
455.955	347.88
456.175	322.88
456.395	324.88
456.616	321.88
456.836	317.88
457.056	319.88
457.276	321.88
457.497	321.88
457.717	328.88
457.937	324.88
458.157	321.88
458.377	328.88
458.598	341.88
458.818	376.88
459.038	391.88
459.258	400.88
459.478	363.88
459.698	351.88
459.918	369.88
460.138	341.88
460.358	348.88
460.578	354.88
460.798	371.88
461.018	381.88
461.238	376.88
461.458	386.88
461.678	369.88
461.898	365.88
462.118	364.88
462.338	384.88
462.558	371.88
462.777	398.88
462.997	397.88
463.217	404.88
463.437	425.88
463.657	400.88
463.876	391.88
464.096	401.88
464.316	417.88
464.536	384.88
464.755	400.88
464.975	394.88
465.195	409.88
465.414	413.88
465.634	386.88
465.854	369.88
466.073	366.88
466.293	379.88
466.512	346.88
466.732	345.88
466.951	349.88
467.171	344.88
467.391	346.88
467.61	348.88
467.829	354.88
468.049	358.88
468.268	350.88
468.488	348.88
468.707	336.88
468.927	333.88
469.146	338.88
469.365	351.88
469.585	319.88
469.804	338.88
470.023	359.88
470.243	353.88
470.462	368.88
470.681	366.88
470.901	351.88
471.12	356.88
471.339	339.88
471.558	362.88
471.777	354.88
471.997	333.88
472.216	359.88
472.435	355.88
472.654	346.88
472.873	356.88
473.092	327.88
473.311	345.88
473.53	351.88
473.749	364.88
473.968	393.88
474.187	431.88
474.406	422.88
474.625	358.88
474.844	364.88
475.063	340.88
475.282	351.88
475.501	369.88
475.72	359.88
475.939	362.88
476.158	374.88
476.377	365.88
476.596	357.88
476.814	371.88
477.033	378.88
477.252	369.88
477.471	381.88
477.69	408.88
477.908	385.88
478.127	379.88
478.346	366.88
478.564	393.88
478.783	387.88
479.002	397.88
479.22	410.88
479.439	412.88
479.658	399.88
479.876	416.88
480.095	408.88
480.313	439.88
480.532	446.88
480.751	413.88
480.969	459.88
481.188	454.88
481.406	458.88
481.624	435.88
481.843	410.88
482.061	393.88
482.28	408.88
482.498	413.88
482.717	403.88
482.935	389.88
483.153	419.88
483.372	386.88
483.59	391.88
483.808	397.88
484.027	406.88
484.245	410.88
484.463	408.88
484.681	392.88
484.9	420.88
485.118	428.88
485.336	430.88
485.554	436.88
485.772	426.88
485.99	415.88
486.209	423.88
486.427	431.88
486.645	442.88
486.863	418.88
487.081	429.88
487.299	417.88
487.517	426.88
487.735	430.88
487.953	443.88
488.171	438.88
488.389	437.88
488.607	456.88
488.825	443.88
489.043	425.88
489.261	433.88
489.479	431.88
489.696	415.88
489.914	454.88
490.132	434.88
490.35	451.88
490.568	446.88
490.786	467.88
491.003	432.88
491.221	460.88
491.439	461.88
491.657	453.88
491.874	469.88
492.092	468.88
492.31	457.88
492.527	444.88
492.745	477.88
492.963	473.88
493.18	466.88
493.398	468.88
493.615	476.88
493.833	482.88
494.05	466.88
494.268	471.88
494.485	482.88
494.703	482.88
494.92	504.88
495.138	502.88
495.355	469.88
495.573	490.88
495.79	500.88
496.008	483.88
496.225	488.88
496.442	507.88
496.66	496.88
496.877	504.88
497.094	488.88
497.312	510.88
497.529	489.88
497.746	532.88
497.963	531.88
498.181	525.88
498.398	555.88
498.615	537.88
498.832	568.88
499.049	579.88
499.267	580.88
499.484	621.88
499.701	651.88
499.918	665.88
500.135	694.88
500.352	703.88
500.569	726.88
500.786	752.88
501.003	735.88
501.22	676.88
501.437	669.88
501.654	651.88
501.871	625.88
502.088	602.88
