Data from 1960PennyLincolnUp.LampE6.200Scan.07172019.P1_HRD10591_13-06-23-001.txt Node
Date: Thu Jul 18 13:06:23 EDT 2019
User: cochatt
Spectrometer: HR+D1059
Trigger mode: 1
Integration Time (sec): 1.000000E-1
Scans to average: 1
Electric dark correction enabled: true
Nonlinearity correction enabled: false
Boxcar width: 0
XAxis mode: Wavelengths
Number of Pixels in Spectrum: 2048
>>>>>Begin Spectral Data<<<<<
223.165	-17.69
223.4	-17.69
223.635	-17.69
223.869	-4.69
224.104	-14.69
224.338	-12.69
224.573	-18.69
224.808	-16.69
225.042	-14.69
225.277	-16.69
225.511	-1.69
225.746	8.31
225.98	-2.69
226.215	10.31
226.449	17.31
226.683	30.31
226.918	26.31
227.152	28.31
227.387	15.31
227.621	32.31
227.856	43.31
228.09	28.31
228.324	32.31
228.559	50.31
228.793	61.31
229.027	68.31
229.262	99.31
229.496	102.31
229.73	101.31
229.964	111.31
230.199	103.31
230.433	93.31
230.667	103.31
230.901	98.31
231.136	104.31
231.37	116.31
231.604	121.31
231.838	106.31
232.072	108.31
232.306	104.31
232.541	110.31
232.775	97.31
233.009	119.31
233.243	116.31
233.477	104.31
233.711	103.31
233.945	100.31
234.179	95.31
234.413	112.31
234.647	113.31
234.881	122.31
235.115	112.31
235.349	119.31
235.583	91.31
235.817	110.31
236.051	116.31
236.285	133.31
236.519	119.31
236.753	107.31
236.987	120.31
237.221	148.31
237.455	152.31
237.689	147.31
237.922	124.31
238.156	106.31
238.39	115.31
238.624	114.31
238.858	115.31
239.091	113.31
239.325	118.31
239.559	114.31
239.793	114.31
240.027	116.31
240.26	120.31
240.494	131.31
240.728	131.31
240.961	132.31
241.195	132.31
241.429	144.31
241.662	119.31
241.896	128.31
242.13	128.31
242.363	111.31
242.597	129.31
242.83	134.31
243.064	129.31
243.298	127.31
243.531	127.31
243.765	133.31
243.998	132.31
244.232	126.31
244.465	136.31
244.699	132.31
244.932	136.31
245.166	127.31
245.399	131.31
245.633	129.31
245.866	129.31
246.099	144.31
246.333	140.31
246.566	136.31
246.8	143.31
247.033	134.31
247.266	135.31
247.5	144.31
247.733	156.31
247.966	150.31
248.2	158.31
248.433	140.31
248.666	155.31
248.899	164.31
249.133	154.31
249.366	182.31
249.599	170.31
249.832	164.31
250.066	157.31
250.299	178.31
250.532	179.31
250.765	190.31
250.998	202.31
251.231	194.31
251.465	191.31
251.698	177.31
251.931	182.31
252.164	171.31
252.397	178.31
252.63	161.31
252.863	172.31
253.096	200.31
253.329	195.31
253.562	189.31
253.795	200.31
254.028	186.31
254.261	187.31
254.494	183.31
254.727	209.31
254.96	226.31
255.193	221.31
255.426	191.31
255.659	191.31
255.892	184.31
256.124	226.31
256.357	212.31
256.59	197.31
256.823	187.31
257.056	183.31
257.289	196.31
257.521	184.31
257.754	183.31
257.987	185.31
258.22	195.31
258.452	190.31
258.685	190.31
258.918	171.31
259.151	185.31
259.383	188.31
259.616	207.31
259.849	194.31
260.081	202.31
260.314	212.31
260.547	210.31
260.779	205.31
261.012	213.31
261.244	185.31
261.477	196.31
261.71	189.31
261.942	202.31
262.175	211.31
262.407	194.31
262.64	205.31
262.872	190.31
263.105	186.31
263.337	190.31
263.57	199.31
263.802	213.31
264.035	199.31
264.267	191.31
264.499	199.31
264.732	207.31
264.964	208.31
265.197	195.31
265.429	192.31
265.661	190.31
265.894	219.31
266.126	195.31
266.358	210.31
266.591	199.31
266.823	201.31
267.055	210.31
267.287	236.31
267.52	224.31
267.752	214.31
267.984	215.31
268.216	221.31
268.448	221.31
268.681	215.31
268.913	230.31
269.145	245.31
269.377	232.31
269.609	242.31
269.841	230.31
270.073	249.31
270.306	251.31
270.538	264.31
270.77	270.31
271.002	271.31
271.234	252.31
271.466	279.31
271.698	267.31
271.93	266.31
272.162	261.31
272.394	294.31
272.626	256.31
272.858	251.31
273.09	245.31
273.322	262.31
273.553	247.31
273.785	254.31
274.017	240.31
274.249	254.31
274.481	253.31
274.713	238.31
274.945	250.31
275.176	218.31
275.408	255.31
275.64	259.31
275.872	248.31
276.104	238.31
276.335	251.31
276.567	250.31
276.799	269.31
277.031	263.31
277.262	271.31
277.494	290.31
277.726	283.31
277.957	287.31
278.189	253.31
278.421	256.31
278.652	258.31
278.884	254.31
279.115	250.31
279.347	262.31
279.579	269.31
279.81	260.31
280.042	261.31
280.273	255.31
280.505	247.31
280.736	229.31
280.968	267.31
281.199	228.31
281.431	268.31
281.662	259.31
281.894	258.31
282.125	277.31
282.356	286.31
282.588	258.31
282.819	283.31
283.051	271.31
283.282	263.31
283.513	282.31
283.745	270.31
283.976	289.31
284.207	283.31
284.439	282.31
284.67	264.31
284.901	279.31
285.132	271.31
285.364	275.31
285.595	272.31
285.826	262.31
286.057	252.31
286.288	282.31
286.52	294.31
286.751	278.31
286.982	273.31
287.213	286.31
287.444	273.31
287.675	294.31
287.906	288.31
288.138	305.31
288.369	308.31
288.6	294.31
288.831	292.31
289.062	305.31
289.293	290.31
289.524	286.31
289.755	278.31
289.986	298.31
290.217	294.31
290.448	287.31
290.679	282.31
290.91	314.31
291.141	291.31
291.371	300.31
291.602	278.31
291.833	289.31
292.064	285.31
292.295	299.31
292.526	298.31
292.757	293.31
292.987	297.31
293.218	295.31
293.449	281.31
293.68	314.31
293.91	300.31
294.141	304.31
294.372	288.31
294.603	293.31
294.833	287.31
295.064	282.31
295.295	306.31
295.525	288.31
295.756	311.31
295.987	317.31
296.217	332.31
296.448	337.31
296.679	316.31
296.909	301.31
297.14	313.31
297.37	314.31
297.601	325.31
297.831	298.31
298.062	308.31
298.292	315.31
298.523	311.31
298.753	310.31
298.984	302.31
299.214	307.31
299.445	317.31
299.675	318.31
299.905	315.31
300.136	326.31
300.366	317.31
300.597	322.31
300.827	329.31
301.057	326.31
301.288	322.31
301.518	334.31
301.748	323.31
301.979	339.31
302.209	339.31
302.439	348.31
302.669	338.31
302.9	318.31
303.13	306.31
303.36	351.31
303.59	334.31
303.82	346.31
304.051	352.31
304.281	349.31
304.511	346.31
304.741	346.31
304.971	315.31
305.201	322.31
305.431	343.31
305.661	351.31
305.891	335.31
306.121	338.31
306.352	323.31
306.582	343.31
306.812	340.31
307.042	339.31
307.272	331.31
307.502	329.31
307.731	325.31
307.961	332.31
308.191	343.31
308.421	339.31
308.651	317.31
308.881	326.31
309.111	319.31
309.341	336.31
309.571	338.31
309.8	349.31
310.03	356.31
310.26	354.31
310.49	342.31
310.72	348.31
310.949	375.31
311.179	352.31
311.409	343.31
311.639	355.31
311.868	338.31
312.098	345.31
312.328	366.31
312.557	356.31
312.787	382.31
313.017	372.31
313.246	364.31
313.476	352.31
313.706	362.31
313.935	383.31
314.165	370.31
314.394	382.31
314.624	373.31
314.853	371.31
315.083	381.31
315.312	369.31
315.542	374.31
315.771	362.31
316.001	357.31
316.23	380.31
316.46	367.31
316.689	368.31
316.919	375.31
317.148	365.31
317.377	385.31
317.607	369.31
317.836	382.31
318.065	368.31
318.295	359.31
318.524	364.31
318.753	358.31
318.983	364.31
319.212	360.31
319.441	361.31
319.67	374.31
319.9	376.31
320.129	363.31
320.358	380.31
320.587	382.31
320.816	369.31
321.046	367.31
321.275	367.31
321.504	382.31
321.733	390.31
321.962	380.31
322.191	382.31
322.42	402.31
322.649	394.31
322.878	396.31
323.108	420.31
323.337	430.31
323.566	421.31
323.795	434.31
324.024	462.31
324.253	534.31
324.482	663.31
324.71	927.31
324.939	1261.31
325.168	1064.31
325.397	602.31
325.626	478.31
325.855	431.31
326.084	414.31
326.313	400.31
326.542	430.31
326.77	459.31
326.999	492.31
327.228	646.31
327.457	924.31
327.686	1012.31
327.914	678.31
328.143	504.31
328.372	466.31
328.6	461.31
328.829	464.31
329.058	469.31
329.287	457.31
329.515	463.31
329.744	418.31
329.972	432.31
330.201	463.31
330.43	481.31
330.658	500.31
330.887	502.31
331.115	500.31
331.344	481.31
331.572	447.31
331.801	459.31
332.03	467.31
332.258	468.31
332.486	478.31
332.715	471.31
332.943	487.31
333.172	490.31
333.4	472.31
333.629	518.31
333.857	513.31
334.085	518.31
334.314	534.31
334.542	539.31
334.771	535.31
334.999	511.31
335.227	502.31
335.455	467.31
335.684	473.31
335.912	456.31
336.14	460.31
336.369	463.31
336.597	469.31
336.825	452.31
337.053	468.31
337.281	445.31
337.51	456.31
337.738	455.31
337.966	449.31
338.194	444.31
338.422	448.31
338.65	445.31
338.878	434.31
339.106	442.31
339.334	428.31
339.562	427.31
339.79	419.31
340.018	428.31
340.246	443.31
340.474	427.31
340.702	425.31
340.93	412.31
341.158	404.31
341.386	410.31
341.614	422.31
341.842	402.31
342.07	404.31
342.298	419.31
342.526	429.31
342.754	412.31
342.981	408.31
343.209	418.31
343.437	444.31
343.665	462.31
343.893	456.31
344.12	471.31
344.348	463.31
344.576	457.31
344.804	444.31
345.031	430.31
345.259	447.31
345.487	428.31
345.714	413.31
345.942	377.31
346.17	410.31
346.397	396.31
346.625	390.31
346.853	388.31
347.08	404.31
347.308	406.31
347.535	390.31
347.763	395.31
347.99	427.31
348.218	413.31
348.445	413.31
348.673	407.31
348.9	394.31
349.128	413.31
349.355	414.31
349.583	393.31
349.81	386.31
350.037	404.31
350.265	383.31
350.492	397.31
350.72	414.31
350.947	398.31
351.174	405.31
351.402	412.31
351.629	412.31
351.856	409.31
352.083	389.31
352.311	412.31
352.538	405.31
352.765	405.31
352.992	379.31
353.22	401.31
353.447	403.31
353.674	413.31
353.901	390.31
354.128	396.31
354.355	384.31
354.583	383.31
354.81	395.31
355.037	381.31
355.264	398.31
355.491	381.31
355.718	394.31
355.945	383.31
356.172	388.31
356.399	370.31
356.626	416.31
356.853	390.31
357.08	382.31
357.307	394.31
357.534	415.31
357.761	384.31
357.988	370.31
358.215	375.31
358.441	391.31
358.668	391.31
358.895	405.31
359.122	388.31
359.349	403.31
359.576	376.31
359.802	410.31
360.029	439.31
360.256	418.31
360.483	417.31
360.709	390.31
360.936	409.31
361.163	416.31
361.39	413.31
361.616	397.31
361.843	392.31
362.07	391.31
362.296	390.31
362.523	405.31
362.749	393.31
362.976	398.31
363.203	406.31
363.429	383.31
363.656	391.31
363.882	389.31
364.109	391.31
364.335	402.31
364.562	391.31
364.788	406.31
365.015	411.31
365.241	380.31
365.468	389.31
365.694	400.31
365.92	396.31
366.147	370.31
366.373	399.31
366.599	412.31
366.826	389.31
367.052	376.31
367.278	400.31
367.505	404.31
367.731	367.31
367.957	400.31
368.184	387.31
368.41	411.31
368.636	411.31
368.862	413.31
369.089	415.31
369.315	415.31
369.541	398.31
369.767	404.31
369.993	407.31
370.219	430.31
370.445	416.31
370.672	420.31
370.898	391.31
371.124	402.31
371.35	430.31
371.576	402.31
371.802	400.31
372.028	398.31
372.254	401.31
372.48	415.31
372.706	426.31
372.932	435.31
373.158	424.31
373.384	418.31
373.61	426.31
373.835	440.31
374.061	421.31
374.287	432.31
374.513	419.31
374.739	451.31
374.965	441.31
375.191	439.31
375.416	462.31
375.642	448.31
375.868	439.31
376.094	429.31
376.319	431.31
376.545	428.31
376.771	430.31
376.997	427.31
377.222	400.31
377.448	421.31
377.674	404.31
377.899	407.31
378.125	419.31
378.35	415.31
378.576	414.31
378.802	392.31
379.027	417.31
379.253	394.31
379.478	415.31
379.704	420.31
379.929	403.31
380.155	411.31
380.38	410.31
380.606	394.31
380.831	414.31
381.057	437.31
381.282	418.31
381.507	429.31
381.733	414.31
381.958	439.31
382.184	402.31
382.409	439.31
382.634	446.31
382.86	431.31
383.085	439.31
383.31	435.31
383.535	425.31
383.761	429.31
383.986	435.31
384.211	466.31
384.436	461.31
384.662	455.31
384.887	459.31
385.112	458.31
385.337	469.31
385.562	479.31
385.787	466.31
386.013	479.31
386.238	477.31
386.463	465.31
386.688	488.31
386.913	469.31
387.138	446.31
387.363	446.31
387.588	453.31
387.813	472.31
388.038	464.31
388.263	484.31
388.488	470.31
388.713	492.31
388.938	462.31
389.163	463.31
389.387	460.31
389.612	459.31
389.837	463.31
390.062	427.31
390.287	458.31
390.512	457.31
390.736	453.31
390.961	479.31
391.186	474.31
391.411	484.31
391.636	477.31
391.86	514.31
392.085	506.31
392.31	508.31
392.534	496.31
392.759	484.31
392.984	492.31
393.208	489.31
393.433	491.31
393.658	480.31
393.882	483.31
394.107	488.31
394.331	487.31
394.556	480.31
394.78	492.31
395.005	491.31
395.229	478.31
395.454	493.31
395.678	515.31
395.903	508.31
396.127	518.31
396.352	519.31
396.576	502.31
396.801	484.31
397.025	519.31
397.249	516.31
397.474	515.31
397.698	527.31
397.922	522.31
398.147	517.31
398.371	534.31
398.595	540.31
398.82	532.31
399.044	568.31
399.268	604.31
399.492	672.31
399.717	757.31
399.941	739.31
400.165	718.31
400.389	684.31
400.613	591.31
400.837	595.31
401.062	566.31
401.286	551.31
401.51	563.31
401.734	547.31
401.958	521.31
402.182	560.31
402.406	575.31
402.63	567.31
402.854	595.31
403.078	597.31
403.302	605.31
403.526	623.31
403.75	602.31
403.974	612.31
404.198	613.31
404.422	622.31
404.645	612.31
404.869	618.31
405.093	641.31
405.317	648.31
405.541	686.31
405.765	616.31
405.988	611.31
406.212	589.31
406.436	608.31
406.66	631.31
406.883	618.31
407.107	661.31
407.331	696.31
407.555	712.31
407.778	723.31
408.002	718.31
408.226	653.31
408.449	670.31
408.673	613.31
408.896	647.31
409.12	669.31
409.344	634.31
409.567	596.31
409.791	595.31
410.014	607.31
410.238	605.31
410.461	564.31
410.685	587.31
410.908	594.31
411.132	611.31
411.355	636.31
411.578	589.31
411.802	573.31
412.025	575.31
412.249	589.31
412.472	610.31
412.695	604.31
412.919	588.31
413.142	576.31
413.365	579.31
413.589	550.31
413.812	541.31
414.035	530.31
414.258	554.31
414.482	542.31
414.705	524.31
414.928	552.31
415.151	543.31
415.374	558.31
415.597	539.31
415.821	544.31
416.044	539.31
416.267	550.31
416.49	547.31
416.713	530.31
416.936	556.31
417.159	552.31
417.382	531.31
417.605	543.31
417.828	540.31
418.051	561.31
418.274	572.31
418.497	545.31
418.72	538.31
418.943	562.31
419.166	569.31
419.389	592.31
419.611	597.31
419.834	585.31
420.057	575.31
420.28	588.31
420.503	548.31
420.726	562.31
420.948	574.31
421.171	605.31
421.394	585.31
421.617	552.31
421.839	582.31
422.062	563.31
422.285	558.31
422.507	588.31
422.73	646.31
422.953	636.31
423.175	577.31
423.398	569.31
423.621	589.31
423.843	618.31
424.066	588.31
424.288	600.31
424.511	595.31
424.733	652.31
424.956	664.31
425.178	633.31
425.401	640.31
425.623	642.31
425.846	579.31
426.068	565.31
426.291	558.31
426.513	544.31
426.735	563.31
426.958	584.31
427.18	645.31
427.402	694.31
427.625	753.31
427.847	661.31
428.069	599.31
428.292	552.31
428.514	518.31
428.736	520.31
428.958	516.31
429.181	506.31
429.403	504.31
429.625	517.31
429.847	532.31
430.069	574.31
430.292	590.31
430.514	500.31
430.736	498.31
430.958	512.31
431.18	494.31
431.402	505.31
431.624	503.31
431.846	497.31
432.068	513.31
432.29	518.31
432.512	479.31
432.734	519.31
432.956	501.31
433.178	516.31
433.4	520.31
433.622	496.31
433.844	493.31
434.066	512.31
434.287	497.31
434.509	510.31
434.731	551.31
434.953	549.31
435.175	555.31
435.397	578.31
435.618	548.31
435.84	574.31
436.062	622.31
436.284	636.31
436.505	570.31
436.727	559.31
436.949	510.31
437.17	511.31
437.392	506.31
437.614	527.31
437.835	531.31
438.057	594.31
438.278	634.31
438.5	644.31
438.721	656.31
438.943	678.31
439.165	565.31
439.386	532.31
439.608	529.31
439.829	518.31
440.05	532.31
440.272	583.31
440.493	546.31
440.715	541.31
440.936	506.31
441.158	509.31
441.379	526.31
441.6	557.31
441.822	572.31
442.043	611.31
442.264	629.31
442.486	653.31
442.707	578.31
442.928	554.31
443.149	571.31
443.371	597.31
443.592	640.31
443.813	644.31
444.034	713.31
444.255	640.31
444.476	608.31
444.698	607.31
444.919	629.31
445.14	725.31
445.361	639.31
445.582	595.31
445.803	620.31
446.024	651.31
446.245	645.31
446.466	612.31
446.687	560.31
446.908	553.31
447.129	507.31
447.35	505.31
447.571	498.31
447.792	497.31
448.013	501.31
448.234	502.31
448.455	536.31
448.675	586.31
448.896	676.31
449.117	558.31
449.338	542.31
449.559	624.31
449.779	674.31
450	565.31
450.221	504.31
450.442	474.31
450.662	474.31
450.883	493.31
451.104	492.31
451.324	501.31
451.545	469.31
451.766	446.31
451.986	450.31
452.207	445.31
452.428	457.31
452.648	480.31
452.869	462.31
453.089	451.31
453.31	464.31
453.53	435.31
453.751	443.31
453.971	459.31
454.192	443.31
454.412	437.31
454.633	460.31
454.853	440.31
455.073	427.31
455.294	462.31
455.514	465.31
455.734	491.31
455.955	444.31
456.175	446.31
456.395	438.31
456.616	427.31
456.836	430.31
457.056	422.31
457.276	426.31
457.497	434.31
457.717	410.31
457.937	454.31
458.157	428.31
458.377	435.31
458.598	462.31
458.818	495.31
459.038	517.31
459.258	552.31
459.478	516.31
459.698	501.31
459.918	488.31
460.138	530.31
460.358	512.31
460.578	551.31
460.798	536.31
461.018	529.31
461.238	535.31
461.458	537.31
461.678	524.31
461.898	542.31
462.118	543.31
462.338	550.31
462.558	580.31
462.777	578.31
462.997	630.31
463.217	664.31
463.437	656.31
463.657	590.31
463.876	599.31
464.096	604.31
464.316	580.31
464.536	604.31
464.755	582.31
464.975	572.31
465.195	593.31
465.414	604.31
465.634	548.31
465.854	526.31
466.073	498.31
466.293	475.31
466.512	485.31
466.732	474.31
466.951	462.31
467.171	474.31
467.391	463.31
467.61	474.31
467.829	487.31
468.049	477.31
468.268	480.31
468.488	464.31
468.707	456.31
468.927	455.31
469.146	440.31
469.365	467.31
469.585	462.31
469.804	454.31
470.023	474.31
470.243	493.31
470.462	475.31
470.681	491.31
470.901	497.31
471.12	478.31
471.339	456.31
471.558	480.31
471.777	477.31
471.997	449.31
472.216	465.31
472.435	488.31
472.654	469.31
472.873	467.31
473.092	441.31
473.311	444.31
473.53	463.31
473.749	466.31
473.968	480.31
474.187	550.31
474.406	534.31
474.625	472.31
474.844	469.31
475.063	441.31
475.282	444.31
475.501	440.31
475.72	456.31
475.939	475.31
476.158	466.31
476.377	494.31
476.596	478.31
476.814	475.31
477.033	475.31
477.252	454.31
477.471	492.31
477.69	492.31
477.908	526.31
478.127	510.31
478.346	529.31
478.564	514.31
478.783	540.31
479.002	529.31
479.22	525.31
479.439	548.31
479.658	546.31
479.876	558.31
480.095	564.31
480.313	582.31
480.532	577.31
480.751	596.31
480.969	591.31
481.188	614.31
481.406	610.31
481.624	572.31
481.843	530.31
482.061	548.31
482.28	534.31
482.498	531.31
482.717	508.31
482.935	534.31
483.153	540.31
483.372	515.31
483.59	522.31
483.808	518.31
484.027	530.31
484.245	547.31
484.463	539.31
484.681	530.31
484.9	560.31
485.118	543.31
485.336	529.31
485.554	540.31
485.772	538.31
485.99	555.31
486.209	548.31
486.427	546.31
486.645	561.31
486.863	594.31
487.081	588.31
487.299	558.31
487.517	568.31
487.735	568.31
487.953	579.31
488.171	567.31
488.389	560.31
488.607	567.31
488.825	541.31
489.043	527.31
489.261	571.31
489.479	581.31
489.696	547.31
489.914	565.31
490.132	584.31
490.35	567.31
490.568	569.31
490.786	597.31
491.003	597.31
491.221	587.31
491.439	628.31
491.657	614.31
491.874	635.31
492.092	614.31
492.31	604.31
492.527	635.31
492.745	624.31
492.963	662.31
493.18	652.31
493.398	658.31
493.615	658.31
493.833	633.31
494.05	670.31
494.268	647.31
494.485	631.31
494.703	657.31
494.92	632.31
495.138	641.31
495.355	635.31
495.573	632.31
495.79	637.31
496.008	647.31
496.225	629.31
496.442	633.31
496.66	659.31
496.877	689.31
497.094	682.31
497.312	675.31
497.529	670.31
497.746	695.31
497.963	708.31
498.181	708.31
498.398	742.31
498.615	764.31
498.832	785.31
499.049	838.31
499.267	853.31
499.484	932.31
499.701	961.31
499.918	1025.31
500.135	1118.31
500.352	1266.31
500.569	1283.31
500.786	1259.31
501.003	1198.31
501.22	1148.31
501.437	1026.31
501.654	999.31
501.871	933.31
