Data from 1960PennyLincolnUp.LampE5.5.200Scan.07172019.P1.ChangedAngle_HRD10591_13-14-34-820.txt Node
Date: Thu Jul 18 13:14:34 EDT 2019
User: cochatt
Spectrometer: HR+D1059
Trigger mode: 1
Integration Time (sec): 1.000000E-1
Scans to average: 1
Electric dark correction enabled: true
Nonlinearity correction enabled: false
Boxcar width: 0
XAxis mode: Wavelengths
Number of Pixels in Spectrum: 2048
>>>>>Begin Spectral Data<<<<<
223.165	-21.88
223.4	-21.88
223.635	-21.88
223.869	-13.88
224.104	-25.88
224.338	-20.88
224.573	-11.88
224.808	-8.88
225.042	-3.88
225.277	-7.88
225.511	0.12
225.746	-5.88
225.98	8.12
226.215	16.12
226.449	13.12
226.683	21.12
226.918	44.12
227.152	18.12
227.387	54.12
227.621	36.12
227.856	43.12
228.09	53.12
228.324	46.12
228.559	54.12
228.793	76.12
229.027	70.12
229.262	78.12
229.496	96.12
229.73	106.12
229.964	120.12
230.199	118.12
230.433	115.12
230.667	100.12
230.901	102.12
231.136	106.12
231.37	102.12
231.604	112.12
231.838	112.12
232.072	99.12
232.306	102.12
232.541	113.12
232.775	106.12
233.009	103.12
233.243	103.12
233.477	123.12
233.711	109.12
233.945	114.12
234.179	118.12
234.413	107.12
234.647	106.12
234.881	108.12
235.115	110.12
235.349	100.12
235.583	114.12
235.817	110.12
236.051	112.12
236.285	129.12
236.519	131.12
236.753	116.12
236.987	120.12
237.221	139.12
237.455	157.12
237.689	152.12
237.922	122.12
238.156	115.12
238.39	104.12
238.624	102.12
238.858	126.12
239.091	124.12
239.325	120.12
239.559	137.12
239.793	108.12
240.027	108.12
240.26	126.12
240.494	125.12
240.728	143.12
240.961	122.12
241.195	131.12
241.429	124.12
241.662	136.12
241.896	122.12
242.13	132.12
242.363	124.12
242.597	133.12
242.83	128.12
243.064	118.12
243.298	124.12
243.531	131.12
243.765	129.12
243.998	124.12
244.232	129.12
244.465	120.12
244.699	139.12
244.932	141.12
245.166	135.12
245.399	126.12
245.633	127.12
245.866	140.12
246.099	122.12
246.333	132.12
246.566	134.12
246.8	140.12
247.033	151.12
247.266	162.12
247.5	155.12
247.733	150.12
247.966	147.12
248.2	153.12
248.433	159.12
248.666	167.12
248.899	156.12
249.133	168.12
249.366	164.12
249.599	180.12
249.832	162.12
250.066	148.12
250.299	159.12
250.532	154.12
250.765	183.12
250.998	184.12
251.231	188.12
251.465	187.12
251.698	188.12
251.931	180.12
252.164	177.12
252.397	187.12
252.63	174.12
252.863	188.12
253.096	184.12
253.329	187.12
253.562	178.12
253.795	186.12
254.028	195.12
254.261	200.12
254.494	186.12
254.727	214.12
254.96	246.12
255.193	221.12
255.426	210.12
255.659	199.12
255.892	188.12
256.124	196.12
256.357	198.12
256.59	201.12
256.823	194.12
257.056	204.12
257.289	203.12
257.521	190.12
257.754	180.12
257.987	207.12
258.22	170.12
258.452	198.12
258.685	197.12
258.918	204.12
259.151	199.12
259.383	199.12
259.616	198.12
259.849	205.12
260.081	189.12
260.314	208.12
260.547	203.12
260.779	208.12
261.012	223.12
261.244	202.12
261.477	203.12
261.71	197.12
261.942	197.12
262.175	215.12
262.407	218.12
262.64	205.12
262.872	191.12
263.105	214.12
263.337	190.12
263.57	200.12
263.802	192.12
264.035	213.12
264.267	190.12
264.499	203.12
264.732	201.12
264.964	222.12
265.197	202.12
265.429	212.12
265.661	205.12
265.894	200.12
266.126	205.12
266.358	204.12
266.591	201.12
266.823	206.12
267.055	218.12
267.287	225.12
267.52	228.12
267.752	216.12
267.984	213.12
268.216	216.12
268.448	234.12
268.681	222.12
268.913	238.12
269.145	228.12
269.377	234.12
269.609	252.12
269.841	233.12
270.073	239.12
270.306	270.12
270.538	259.12
270.77	262.12
271.002	251.12
271.234	256.12
271.466	262.12
271.698	261.12
271.93	274.12
272.162	265.12
272.394	281.12
272.626	268.12
272.858	248.12
273.09	247.12
273.322	251.12
273.553	266.12
273.785	266.12
274.017	254.12
274.249	236.12
274.481	244.12
274.713	260.12
274.945	244.12
275.176	252.12
275.408	271.12
275.64	242.12
275.872	258.12
276.104	244.12
276.335	242.12
276.567	244.12
276.799	271.12
277.031	279.12
277.262	286.12
277.494	276.12
277.726	270.12
277.957	266.12
278.189	243.12
278.421	268.12
278.652	248.12
278.884	255.12
279.115	262.12
279.347	267.12
279.579	244.12
279.81	259.12
280.042	268.12
280.273	247.12
280.505	264.12
280.736	261.12
280.968	266.12
281.199	268.12
281.431	257.12
281.662	262.12
281.894	259.12
282.125	262.12
282.356	286.12
282.588	288.12
282.819	281.12
283.051	254.12
283.282	261.12
283.513	269.12
283.745	256.12
283.976	271.12
284.207	274.12
284.439	269.12
284.67	265.12
284.901	279.12
285.132	281.12
285.364	271.12
285.595	273.12
285.826	296.12
286.057	261.12
286.288	270.12
286.52	280.12
286.751	292.12
286.982	255.12
287.213	273.12
287.444	272.12
287.675	275.12
287.906	283.12
288.138	293.12
288.369	283.12
288.6	290.12
288.831	308.12
289.062	292.12
289.293	285.12
289.524	287.12
289.755	293.12
289.986	269.12
290.217	301.12
290.448	295.12
290.679	278.12
290.91	266.12
291.141	279.12
291.371	280.12
291.602	283.12
291.833	295.12
292.064	270.12
292.295	282.12
292.526	290.12
292.757	277.12
292.987	281.12
293.218	287.12
293.449	294.12
293.68	271.12
293.91	279.12
294.141	291.12
294.372	283.12
294.603	281.12
294.833	270.12
295.064	296.12
295.295	302.12
295.525	287.12
295.756	283.12
295.987	295.12
296.217	304.12
296.448	297.12
296.679	284.12
296.909	298.12
297.14	279.12
297.37	298.12
297.601	294.12
297.831	307.12
298.062	301.12
298.292	296.12
298.523	306.12
298.753	309.12
298.984	290.12
299.214	297.12
299.445	312.12
299.675	291.12
299.905	290.12
300.136	297.12
300.366	316.12
300.597	299.12
300.827	308.12
301.057	304.12
301.288	324.12
301.518	306.12
301.748	308.12
301.979	320.12
302.209	310.12
302.439	311.12
302.669	311.12
302.9	295.12
303.13	331.12
303.36	316.12
303.59	320.12
303.82	323.12
304.051	325.12
304.281	331.12
304.511	321.12
304.741	307.12
304.971	319.12
305.201	312.12
305.431	328.12
305.661	318.12
305.891	314.12
306.121	326.12
306.352	331.12
306.582	335.12
306.812	310.12
307.042	314.12
307.272	319.12
307.502	311.12
307.731	327.12
307.961	351.12
308.191	332.12
308.421	338.12
308.651	334.12
308.881	336.12
309.111	321.12
309.341	320.12
309.571	323.12
309.8	342.12
310.03	335.12
310.26	343.12
310.49	356.12
310.72	356.12
310.949	346.12
311.179	358.12
311.409	346.12
311.639	354.12
311.868	361.12
312.098	368.12
312.328	351.12
312.557	380.12
312.787	370.12
313.017	384.12
313.246	374.12
313.476	331.12
313.706	349.12
313.935	342.12
314.165	362.12
314.394	348.12
314.624	370.12
314.853	361.12
315.083	355.12
315.312	356.12
315.542	357.12
315.771	351.12
316.001	342.12
316.23	347.12
316.46	345.12
316.689	343.12
316.919	375.12
317.148	362.12
317.377	360.12
317.607	374.12
317.836	365.12
318.065	364.12
318.295	341.12
318.524	359.12
318.753	351.12
318.983	370.12
319.212	360.12
319.441	362.12
319.67	367.12
319.9	360.12
320.129	355.12
320.358	349.12
320.587	370.12
320.816	382.12
321.046	358.12
321.275	379.12
321.504	378.12
321.733	373.12
321.962	377.12
322.191	374.12
322.42	389.12
322.649	385.12
322.878	374.12
323.108	407.12
323.337	414.12
323.566	418.12
323.795	444.12
324.024	466.12
324.253	537.12
324.482	724.12
324.71	997.12
324.939	1328.12
325.168	1130.12
325.397	647.12
325.626	485.12
325.855	447.12
326.084	438.12
326.313	436.12
326.542	449.12
326.77	446.12
326.999	512.12
327.228	653.12
327.457	909.12
327.686	1030.12
327.914	694.12
328.143	530.12
328.372	464.12
328.6	473.12
328.829	464.12
329.058	454.12
329.287	451.12
329.515	444.12
329.744	421.12
329.972	440.12
330.201	437.12
330.43	460.12
330.658	461.12
330.887	472.12
331.115	482.12
331.344	461.12
331.572	428.12
331.801	425.12
332.03	432.12
332.258	421.12
332.486	424.12
332.715	409.12
332.943	437.12
333.172	433.12
333.4	414.12
333.629	429.12
333.857	454.12
334.085	450.12
334.314	463.12
334.542	459.12
334.771	474.12
334.999	438.12
335.227	446.12
335.455	436.12
335.684	447.12
335.912	442.12
336.14	431.12
336.369	434.12
336.597	450.12
336.825	426.12
337.053	423.12
337.281	394.12
337.51	409.12
337.738	406.12
337.966	399.12
338.194	411.12
338.422	399.12
338.65	391.12
338.878	396.12
339.106	402.12
339.334	414.12
339.562	411.12
339.79	425.12
340.018	396.12
340.246	386.12
340.474	407.12
340.702	393.12
340.93	403.12
341.158	401.12
341.386	387.12
341.614	402.12
341.842	402.12
342.07	398.12
342.298	394.12
342.526	402.12
342.754	381.12
342.981	391.12
343.209	402.12
343.437	395.12
343.665	429.12
343.893	410.12
344.12	410.12
344.348	405.12
344.576	402.12
344.804	398.12
345.031	401.12
345.259	407.12
345.487	410.12
345.714	394.12
345.942	388.12
346.17	390.12
346.397	406.12
346.625	385.12
346.853	395.12
347.08	378.12
347.308	378.12
347.535	376.12
347.763	398.12
347.99	380.12
348.218	372.12
348.445	395.12
348.673	398.12
348.9	373.12
349.128	375.12
349.355	366.12
349.583	371.12
349.81	359.12
350.037	354.12
350.265	374.12
350.492	384.12
350.72	383.12
350.947	370.12
351.174	380.12
351.402	366.12
351.629	360.12
351.856	363.12
352.083	381.12
352.311	396.12
352.538	372.12
352.765	366.12
352.992	372.12
353.22	376.12
353.447	365.12
353.674	379.12
353.901	379.12
354.128	368.12
354.355	366.12
354.583	367.12
354.81	374.12
355.037	350.12
355.264	351.12
355.491	382.12
355.718	362.12
355.945	365.12
356.172	351.12
356.399	354.12
356.626	364.12
356.853	358.12
357.08	385.12
357.307	365.12
357.534	363.12
357.761	366.12
357.988	361.12
358.215	351.12
358.441	332.12
358.668	342.12
358.895	366.12
359.122	366.12
359.349	355.12
359.576	359.12
359.802	373.12
360.029	396.12
360.256	374.12
360.483	378.12
360.709	378.12
360.936	371.12
361.163	367.12
361.39	370.12
361.616	380.12
361.843	373.12
362.07	376.12
362.296	343.12
362.523	356.12
362.749	373.12
362.976	358.12
363.203	368.12
363.429	367.12
363.656	356.12
363.882	364.12
364.109	364.12
364.335	373.12
364.562	363.12
364.788	354.12
365.015	351.12
365.241	349.12
365.468	351.12
365.694	360.12
365.92	356.12
366.147	350.12
366.373	359.12
366.599	367.12
366.826	348.12
367.052	366.12
367.278	358.12
367.505	362.12
367.731	359.12
367.957	361.12
368.184	362.12
368.41	375.12
368.636	366.12
368.862	364.12
369.089	357.12
369.315	356.12
369.541	344.12
369.767	367.12
369.993	366.12
370.219	341.12
370.445	354.12
370.672	362.12
370.898	334.12
371.124	344.12
371.35	379.12
371.576	352.12
371.802	372.12
372.028	366.12
372.254	368.12
372.48	362.12
372.706	363.12
372.932	375.12
373.158	364.12
373.384	370.12
373.61	367.12
373.835	361.12
374.061	365.12
374.287	370.12
374.513	360.12
374.739	379.12
374.965	367.12
375.191	350.12
375.416	370.12
375.642	351.12
375.868	360.12
376.094	344.12
376.319	334.12
376.545	351.12
376.771	364.12
376.997	348.12
377.222	361.12
377.448	355.12
377.674	349.12
377.899	347.12
378.125	345.12
378.35	351.12
378.576	342.12
378.802	343.12
379.027	344.12
379.253	369.12
379.478	351.12
379.704	368.12
379.929	347.12
380.155	352.12
380.38	357.12
380.606	354.12
380.831	367.12
381.057	357.12
381.282	356.12
381.507	362.12
381.733	361.12
381.958	361.12
382.184	344.12
382.409	347.12
382.634	358.12
382.86	350.12
383.085	357.12
383.31	368.12
383.535	371.12
383.761	368.12
383.986	360.12
384.211	367.12
384.436	352.12
384.662	380.12
384.887	377.12
385.112	372.12
385.337	370.12
385.562	371.12
385.787	380.12
386.013	393.12
386.238	364.12
386.463	384.12
386.688	392.12
386.913	386.12
387.138	360.12
387.363	382.12
387.588	378.12
387.813	387.12
388.038	387.12
388.263	366.12
388.488	396.12
388.713	372.12
388.938	378.12
389.163	379.12
389.387	395.12
389.612	382.12
389.837	387.12
390.062	385.12
390.287	379.12
390.512	382.12
390.736	379.12
390.961	392.12
391.186	374.12
391.411	387.12
391.636	398.12
391.86	380.12
392.085	372.12
392.31	401.12
392.534	400.12
392.759	403.12
392.984	397.12
393.208	385.12
393.433	385.12
393.658	382.12
393.882	390.12
394.107	370.12
394.331	382.12
394.556	390.12
394.78	390.12
395.005	384.12
395.229	374.12
395.454	412.12
395.678	399.12
395.903	424.12
396.127	426.12
396.352	404.12
396.576	399.12
396.801	380.12
397.025	396.12
397.249	413.12
397.474	397.12
397.698	398.12
397.922	426.12
398.147	415.12
398.371	391.12
398.595	427.12
398.82	424.12
399.044	448.12
399.268	442.12
399.492	483.12
399.717	492.12
399.941	497.12
400.165	518.12
400.389	527.12
400.613	469.12
400.837	442.12
401.062	438.12
401.286	427.12
401.51	441.12
401.734	418.12
401.958	429.12
402.182	430.12
402.406	435.12
402.63	433.12
402.854	431.12
403.078	440.12
403.302	418.12
403.526	427.12
403.75	429.12
403.974	429.12
404.198	415.12
404.422	448.12
404.645	430.12
404.869	444.12
405.093	458.12
405.317	485.12
405.541	492.12
405.765	448.12
405.988	458.12
406.212	430.12
406.436	465.12
406.66	496.12
406.883	456.12
407.107	473.12
407.331	513.12
407.555	535.12
407.778	572.12
408.002	498.12
408.226	486.12
408.449	483.12
408.673	475.12
408.896	475.12
409.12	516.12
409.344	485.12
409.567	464.12
409.791	463.12
410.014	445.12
410.238	437.12
410.461	437.12
410.685	416.12
410.908	434.12
411.132	460.12
411.355	470.12
411.578	471.12
411.802	432.12
412.025	439.12
412.249	437.12
412.472	467.12
412.695	476.12
412.919	456.12
413.142	442.12
413.365	414.12
413.589	399.12
413.812	407.12
414.035	407.12
414.258	416.12
414.482	416.12
414.705	414.12
414.928	415.12
415.151	402.12
415.374	415.12
415.597	421.12
415.821	384.12
416.044	407.12
416.267	393.12
416.49	384.12
416.713	406.12
416.936	397.12
417.159	406.12
417.382	427.12
417.605	399.12
417.828	411.12
418.051	437.12
418.274	406.12
418.497	397.12
418.72	413.12
418.943	400.12
419.166	409.12
419.389	439.12
419.611	416.12
419.834	399.12
420.057	406.12
420.28	421.12
420.503	415.12
420.726	406.12
420.948	450.12
421.171	436.12
421.394	478.12
421.617	421.12
421.839	429.12
422.062	408.12
422.285	418.12
422.507	476.12
422.73	503.12
422.953	477.12
423.175	444.12
423.398	423.12
423.621	425.12
423.843	444.12
424.066	427.12
424.288	414.12
424.511	438.12
424.733	496.12
424.956	530.12
425.178	510.12
425.401	533.12
425.623	520.12
425.846	459.12
426.068	420.12
426.291	420.12
426.513	402.12
426.735	465.12
426.958	468.12
427.18	504.12
427.402	597.12
427.625	618.12
427.847	553.12
428.069	498.12
428.292	438.12
428.514	432.12
428.736	399.12
428.958	416.12
429.181	399.12
429.403	404.12
429.625	424.12
429.847	427.12
430.069	459.12
430.292	455.12
430.514	409.12
430.736	394.12
430.958	391.12
431.18	384.12
431.402	392.12
431.624	384.12
431.846	360.12
432.068	384.12
432.29	377.12
432.512	384.12
432.734	391.12
432.956	383.12
433.178	409.12
433.4	421.12
433.622	390.12
433.844	380.12
434.066	377.12
434.287	393.12
434.509	405.12
434.731	413.12
434.953	402.12
435.175	420.12
435.397	414.12
435.618	405.12
435.84	447.12
436.062	502.12
436.284	563.12
436.505	492.12
436.727	441.12
436.949	412.12
437.17	387.12
437.392	404.12
437.614	401.12
437.835	446.12
438.057	479.12
438.278	540.12
438.5	571.12
438.721	573.12
438.943	556.12
439.165	449.12
439.386	441.12
439.608	438.12
439.829	421.12
440.05	438.12
440.272	463.12
440.493	446.12
440.715	422.12
440.936	418.12
441.158	388.12
441.379	409.12
441.6	396.12
441.822	425.12
442.043	448.12
442.264	509.12
442.486	528.12
442.707	463.12
442.928	444.12
443.149	431.12
443.371	439.12
443.592	485.12
443.813	539.12
444.034	560.12
444.255	510.12
444.476	461.12
444.698	429.12
444.919	439.12
445.14	548.12
445.361	489.12
445.582	462.12
445.803	483.12
446.024	541.12
446.245	540.12
446.466	489.12
446.687	439.12
446.908	449.12
447.129	402.12
447.35	418.12
447.571	405.12
447.792	386.12
448.013	404.12
448.234	396.12
448.455	446.12
448.675	503.12
448.896	580.12
449.117	490.12
449.338	500.12
449.559	558.12
449.779	605.12
450	498.12
450.221	437.12
450.442	415.12
450.662	404.12
450.883	400.12
451.104	397.12
451.324	400.12
451.545	375.12
451.766	367.12
451.986	355.12
452.207	348.12
452.428	348.12
452.648	356.12
452.869	345.12
453.089	364.12
453.31	360.12
453.53	374.12
453.751	360.12
453.971	356.12
454.192	338.12
454.412	349.12
454.633	357.12
454.853	351.12
455.073	358.12
455.294	364.12
455.514	403.12
455.734	396.12
455.955	365.12
456.175	344.12
456.395	340.12
456.616	356.12
456.836	336.12
457.056	347.12
457.276	363.12
457.497	345.12
457.717	331.12
457.937	356.12
458.157	348.12
458.377	354.12
458.598	381.12
458.818	403.12
459.038	424.12
459.258	424.12
459.478	399.12
459.698	366.12
459.918	360.12
460.138	395.12
460.358	387.12
460.578	396.12
460.798	396.12
461.018	381.12
461.238	392.12
461.458	405.12
461.678	383.12
461.898	389.12
462.118	410.12
462.338	416.12
462.558	405.12
462.777	423.12
462.997	418.12
463.217	454.12
463.437	436.12
463.657	424.12
463.876	422.12
464.096	423.12
464.316	426.12
464.536	431.12
464.755	438.12
464.975	403.12
465.195	432.12
465.414	446.12
465.634	396.12
465.854	397.12
466.073	399.12
466.293	384.12
466.512	391.12
466.732	368.12
466.951	363.12
467.171	378.12
467.391	365.12
467.61	382.12
467.829	372.12
468.049	371.12
468.268	379.12
468.488	383.12
468.707	367.12
468.927	356.12
469.146	374.12
469.365	347.12
469.585	358.12
469.804	378.12
470.023	395.12
470.243	368.12
470.462	365.12
470.681	382.12
470.901	371.12
471.12	372.12
471.339	370.12
471.558	356.12
471.777	375.12
471.997	361.12
472.216	380.12
472.435	390.12
472.654	378.12
472.873	389.12
473.092	378.12
473.311	354.12
473.53	357.12
473.749	377.12
473.968	381.12
474.187	443.12
474.406	462.12
474.625	392.12
474.844	379.12
475.063	364.12
475.282	368.12
475.501	368.12
475.72	373.12
475.939	369.12
476.158	397.12
476.377	378.12
476.596	394.12
476.814	387.12
477.033	395.12
477.252	393.12
477.471	411.12
477.69	385.12
477.908	401.12
478.127	408.12
478.346	406.12
478.564	412.12
478.783	410.12
479.002	406.12
479.22	439.12
479.439	440.12
479.658	431.12
479.876	461.12
480.095	459.12
480.313	448.12
480.532	482.12
480.751	466.12
480.969	453.12
481.188	475.12
481.406	484.12
481.624	452.12
481.843	447.12
482.061	429.12
482.28	446.12
482.498	426.12
482.717	431.12
482.935	434.12
483.153	439.12
483.372	422.12
483.59	427.12
483.808	439.12
484.027	455.12
484.245	439.12
484.463	440.12
484.681	449.12
484.9	465.12
485.118	445.12
485.336	451.12
485.554	447.12
485.772	442.12
485.99	453.12
486.209	457.12
486.427	443.12
486.645	457.12
486.863	457.12
487.081	449.12
487.299	466.12
487.517	456.12
487.735	452.12
487.953	451.12
488.171	449.12
488.389	443.12
488.607	447.12
488.825	455.12
489.043	450.12
489.261	466.12
489.479	465.12
489.696	462.12
489.914	465.12
490.132	467.12
490.35	475.12
490.568	474.12
490.786	490.12
491.003	457.12
491.221	503.12
491.439	500.12
491.657	517.12
491.874	495.12
492.092	490.12
492.31	504.12
492.527	513.12
492.745	504.12
492.963	489.12
493.18	523.12
493.398	499.12
493.615	516.12
493.833	519.12
494.05	514.12
494.268	532.12
494.485	532.12
494.703	527.12
494.92	521.12
495.138	517.12
495.355	539.12
495.573	522.12
495.79	532.12
496.008	532.12
496.225	521.12
496.442	510.12
496.66	540.12
496.877	566.12
497.094	562.12
497.312	535.12
497.529	560.12
497.746	534.12
497.963	573.12
498.181	563.12
498.398	563.12
498.615	590.12
498.832	624.12
499.049	621.12
499.267	650.12
499.484	664.12
499.701	676.12
499.918	725.12
500.135	742.12
500.352	752.12
500.569	768.12
500.786	770.12
501.003	758.12
501.22	741.12
501.437	690.12
501.654	703.12
501.871	681.12
