Data from 1960PennyLincolnUp.LampE6.200Scan.07172019.P1_HRD10591_13-05-14-001.txt Node
Date: Thu Jul 18 13:05:14 EDT 2019
User: cochatt
Spectrometer: HR+D1059
Trigger mode: 1
Integration Time (sec): 1.000000E-1
Scans to average: 1
Electric dark correction enabled: true
Nonlinearity correction enabled: false
Boxcar width: 0
XAxis mode: Wavelengths
Number of Pixels in Spectrum: 2048
>>>>>Begin Spectral Data<<<<<
223.165	-4.62
223.4	-4.62
223.635	-4.62
223.869	-22.62
224.104	-20.62
224.338	-10.62
224.573	-16.62
224.808	-13.62
225.042	-9.62
225.277	-18.62
225.511	2.38
225.746	3.38
225.98	14.38
226.215	2.38
226.449	21.38
226.683	16.38
226.918	32.38
227.152	24.38
227.387	42.38
227.621	43.38
227.856	50.38
228.09	54.38
228.324	46.38
228.559	54.38
228.793	61.38
229.027	96.38
229.262	95.38
229.496	98.38
229.73	107.38
229.964	119.38
230.199	117.38
230.433	103.38
230.667	95.38
230.901	116.38
231.136	107.38
231.37	117.38
231.604	88.38
231.838	115.38
232.072	104.38
232.306	107.38
232.541	110.38
232.775	140.38
233.009	111.38
233.243	107.38
233.477	113.38
233.711	122.38
233.945	114.38
234.179	106.38
234.413	117.38
234.647	123.38
234.881	108.38
235.115	110.38
235.349	109.38
235.583	131.38
235.817	112.38
236.051	109.38
236.285	115.38
236.519	123.38
236.753	123.38
236.987	129.38
237.221	131.38
237.455	154.38
237.689	132.38
237.922	123.38
238.156	125.38
238.39	123.38
238.624	117.38
238.858	136.38
239.091	120.38
239.325	120.38
239.559	100.38
239.793	135.38
240.027	129.38
240.26	136.38
240.494	135.38
240.728	133.38
240.961	143.38
241.195	141.38
241.429	124.38
241.662	123.38
241.896	128.38
242.13	132.38
242.363	131.38
242.597	120.38
242.83	140.38
243.064	135.38
243.298	123.38
243.531	117.38
243.765	119.38
243.998	131.38
244.232	137.38
244.465	136.38
244.699	147.38
244.932	147.38
245.166	133.38
245.399	150.38
245.633	137.38
245.866	142.38
246.099	161.38
246.333	145.38
246.566	145.38
246.8	136.38
247.033	133.38
247.266	163.38
247.5	156.38
247.733	159.38
247.966	149.38
248.2	154.38
248.433	156.38
248.666	158.38
248.899	163.38
249.133	152.38
249.366	173.38
249.599	170.38
249.832	162.38
250.066	160.38
250.299	154.38
250.532	168.38
250.765	162.38
250.998	199.38
251.231	201.38
251.465	172.38
251.698	165.38
251.931	165.38
252.164	178.38
252.397	179.38
252.63	178.38
252.863	167.38
253.096	188.38
253.329	198.38
253.562	187.38
253.795	177.38
254.028	189.38
254.261	182.38
254.494	190.38
254.727	219.38
254.96	224.38
255.193	200.38
255.426	197.38
255.659	202.38
255.892	199.38
256.124	194.38
256.357	215.38
256.59	187.38
256.823	194.38
257.056	189.38
257.289	199.38
257.521	192.38
257.754	187.38
257.987	195.38
258.22	172.38
258.452	184.38
258.685	168.38
258.918	182.38
259.151	183.38
259.383	199.38
259.616	193.38
259.849	194.38
260.081	223.38
260.314	206.38
260.547	205.38
260.779	209.38
261.012	196.38
261.244	184.38
261.477	201.38
261.71	205.38
261.942	208.38
262.175	203.38
262.407	193.38
262.64	191.38
262.872	209.38
263.105	193.38
263.337	192.38
263.57	187.38
263.802	202.38
264.035	188.38
264.267	198.38
264.499	188.38
264.732	216.38
264.964	182.38
265.197	191.38
265.429	197.38
265.661	201.38
265.894	196.38
266.126	204.38
266.358	207.38
266.591	199.38
266.823	215.38
267.055	209.38
267.287	213.38
267.52	223.38
267.752	203.38
267.984	233.38
268.216	212.38
268.448	219.38
268.681	229.38
268.913	216.38
269.145	229.38
269.377	229.38
269.609	216.38
269.841	233.38
270.073	227.38
270.306	236.38
270.538	247.38
270.77	260.38
271.002	246.38
271.234	240.38
271.466	240.38
271.698	253.38
271.93	266.38
272.162	250.38
272.394	261.38
272.626	253.38
272.858	255.38
273.09	240.38
273.322	261.38
273.553	235.38
273.785	226.38
274.017	236.38
274.249	260.38
274.481	251.38
274.713	245.38
274.945	253.38
275.176	251.38
275.408	252.38
275.64	244.38
275.872	262.38
276.104	248.38
276.335	234.38
276.567	247.38
276.799	243.38
277.031	266.38
277.262	257.38
277.494	266.38
277.726	266.38
277.957	262.38
278.189	260.38
278.421	258.38
278.652	257.38
278.884	252.38
279.115	254.38
279.347	249.38
279.579	252.38
279.81	276.38
280.042	261.38
280.273	261.38
280.505	262.38
280.736	272.38
280.968	253.38
281.199	271.38
281.431	250.38
281.662	254.38
281.894	275.38
282.125	265.38
282.356	276.38
282.588	287.38
282.819	289.38
283.051	258.38
283.282	261.38
283.513	281.38
283.745	287.38
283.976	254.38
284.207	281.38
284.439	297.38
284.67	285.38
284.901	287.38
285.132	286.38
285.364	265.38
285.595	274.38
285.826	291.38
286.057	305.38
286.288	296.38
286.52	300.38
286.751	287.38
286.982	299.38
287.213	276.38
287.444	288.38
287.675	300.38
287.906	289.38
288.138	320.38
288.369	304.38
288.6	295.38
288.831	302.38
289.062	279.38
289.293	287.38
289.524	285.38
289.755	301.38
289.986	281.38
290.217	273.38
290.448	302.38
290.679	288.38
290.91	297.38
291.141	296.38
291.371	298.38
291.602	298.38
291.833	291.38
292.064	271.38
292.295	289.38
292.526	297.38
292.757	285.38
292.987	292.38
293.218	290.38
293.449	300.38
293.68	285.38
293.91	308.38
294.141	303.38
294.372	280.38
294.603	300.38
294.833	291.38
295.064	312.38
295.295	293.38
295.525	303.38
295.756	283.38
295.987	307.38
296.217	311.38
296.448	316.38
296.679	303.38
296.909	311.38
297.14	327.38
297.37	301.38
297.601	303.38
297.831	304.38
298.062	328.38
298.292	332.38
298.523	333.38
298.753	328.38
298.984	317.38
299.214	311.38
299.445	315.38
299.675	316.38
299.905	307.38
300.136	305.38
300.366	312.38
300.597	323.38
300.827	313.38
301.057	339.38
301.288	353.38
301.518	353.38
301.748	331.38
301.979	317.38
302.209	334.38
302.439	338.38
302.669	325.38
302.9	328.38
303.13	318.38
303.36	332.38
303.59	341.38
303.82	322.38
304.051	335.38
304.281	336.38
304.511	328.38
304.741	316.38
304.971	328.38
305.201	341.38
305.431	334.38
305.661	339.38
305.891	303.38
306.121	330.38
306.352	330.38
306.582	324.38
306.812	356.38
307.042	339.38
307.272	335.38
307.502	328.38
307.731	349.38
307.961	345.38
308.191	346.38
308.421	323.38
308.651	332.38
308.881	334.38
309.111	343.38
309.341	339.38
309.571	347.38
309.8	324.38
310.03	329.38
310.26	343.38
310.49	337.38
310.72	369.38
310.949	371.38
311.179	352.38
311.409	367.38
311.639	354.38
311.868	344.38
312.098	340.38
312.328	346.38
312.557	381.38
312.787	378.38
313.017	367.38
313.246	375.38
313.476	359.38
313.706	355.38
313.935	359.38
314.165	372.38
314.394	365.38
314.624	364.38
314.853	378.38
315.083	344.38
315.312	347.38
315.542	357.38
315.771	375.38
316.001	368.38
316.23	355.38
316.46	353.38
316.689	379.38
316.919	367.38
317.148	361.38
317.377	367.38
317.607	362.38
317.836	359.38
318.065	367.38
318.295	351.38
318.524	370.38
318.753	370.38
318.983	357.38
319.212	367.38
319.441	369.38
319.67	371.38
319.9	357.38
320.129	364.38
320.358	376.38
320.587	366.38
320.816	348.38
321.046	389.38
321.275	367.38
321.504	373.38
321.733	377.38
321.962	358.38
322.191	377.38
322.42	381.38
322.649	389.38
322.878	392.38
323.108	389.38
323.337	375.38
323.566	407.38
323.795	421.38
324.024	440.38
324.253	476.38
324.482	583.38
324.71	805.38
324.939	1063.38
325.168	918.38
325.397	551.38
325.626	437.38
325.855	419.38
326.084	432.38
326.313	399.38
326.542	391.38
326.77	439.38
326.999	486.38
327.228	591.38
327.457	788.38
327.686	865.38
327.914	621.38
328.143	483.38
328.372	467.38
328.6	432.38
328.829	438.38
329.058	463.38
329.287	431.38
329.515	436.38
329.744	425.38
329.972	439.38
330.201	453.38
330.43	473.38
330.658	453.38
330.887	470.38
331.115	463.38
331.344	457.38
331.572	433.38
331.801	442.38
332.03	460.38
332.258	445.38
332.486	441.38
332.715	469.38
332.943	482.38
333.172	504.38
333.4	485.38
333.629	505.38
333.857	499.38
334.085	484.38
334.314	494.38
334.542	539.38
334.771	522.38
334.999	487.38
335.227	475.38
335.455	461.38
335.684	464.38
335.912	464.38
336.14	467.38
336.369	464.38
336.597	443.38
336.825	453.38
337.053	427.38
337.281	445.38
337.51	460.38
337.738	444.38
337.966	429.38
338.194	428.38
338.422	443.38
338.65	434.38
338.878	433.38
339.106	396.38
339.334	447.38
339.562	410.38
339.79	413.38
340.018	428.38
340.246	399.38
340.474	411.38
340.702	408.38
340.93	425.38
341.158	423.38
341.386	429.38
341.614	432.38
341.842	429.38
342.07	399.38
342.298	426.38
342.526	427.38
342.754	422.38
342.981	424.38
343.209	425.38
343.437	420.38
343.665	480.38
343.893	452.38
344.12	462.38
344.348	455.38
344.576	448.38
344.804	442.38
345.031	425.38
345.259	444.38
345.487	426.38
345.714	423.38
345.942	401.38
346.17	417.38
346.397	415.38
346.625	418.38
346.853	396.38
347.08	381.38
347.308	399.38
347.535	403.38
347.763	391.38
347.99	401.38
348.218	410.38
348.445	416.38
348.673	415.38
348.9	396.38
349.128	409.38
349.355	391.38
349.583	410.38
349.81	400.38
350.037	406.38
350.265	416.38
350.492	399.38
350.72	385.38
350.947	404.38
351.174	391.38
351.402	405.38
351.629	401.38
351.856	397.38
352.083	387.38
352.311	386.38
352.538	381.38
352.765	391.38
352.992	402.38
353.22	394.38
353.447	390.38
353.674	413.38
353.901	405.38
354.128	394.38
354.355	395.38
354.583	400.38
354.81	385.38
355.037	369.38
355.264	378.38
355.491	401.38
355.718	388.38
355.945	392.38
356.172	388.38
356.399	380.38
356.626	389.38
356.853	391.38
357.08	403.38
357.307	385.38
357.534	401.38
357.761	369.38
357.988	390.38
358.215	395.38
358.441	414.38
358.668	409.38
358.895	391.38
359.122	375.38
359.349	392.38
359.576	408.38
359.802	387.38
360.029	409.38
360.256	419.38
360.483	408.38
360.709	396.38
360.936	404.38
361.163	417.38
361.39	397.38
361.616	392.38
361.843	402.38
362.07	398.38
362.296	386.38
362.523	410.38
362.749	406.38
362.976	399.38
363.203	390.38
363.429	392.38
363.656	389.38
363.882	397.38
364.109	377.38
364.335	393.38
364.562	395.38
364.788	385.38
365.015	369.38
365.241	394.38
365.468	395.38
365.694	400.38
365.92	395.38
366.147	396.38
366.373	400.38
366.599	387.38
366.826	398.38
367.052	381.38
367.278	390.38
367.505	388.38
367.731	386.38
367.957	401.38
368.184	387.38
368.41	378.38
368.636	400.38
368.862	403.38
369.089	395.38
369.315	407.38
369.541	417.38
369.767	410.38
369.993	394.38
370.219	412.38
370.445	394.38
370.672	401.38
370.898	402.38
371.124	420.38
371.35	419.38
371.576	408.38
371.802	408.38
372.028	394.38
372.254	404.38
372.48	422.38
372.706	427.38
372.932	419.38
373.158	408.38
373.384	429.38
373.61	419.38
373.835	410.38
374.061	424.38
374.287	418.38
374.513	408.38
374.739	421.38
374.965	460.38
375.191	428.38
375.416	436.38
375.642	429.38
375.868	410.38
376.094	411.38
376.319	404.38
376.545	404.38
376.771	411.38
376.997	410.38
377.222	414.38
377.448	399.38
377.674	420.38
377.899	407.38
378.125	392.38
378.35	396.38
378.576	380.38
378.802	411.38
379.027	391.38
379.253	408.38
379.478	410.38
379.704	414.38
379.929	401.38
380.155	403.38
380.38	383.38
380.606	415.38
380.831	401.38
381.057	420.38
381.282	394.38
381.507	392.38
381.733	400.38
381.958	417.38
382.184	419.38
382.409	419.38
382.634	411.38
382.86	419.38
383.085	445.38
383.31	443.38
383.535	443.38
383.761	451.38
383.986	447.38
384.211	444.38
384.436	461.38
384.662	481.38
384.887	451.38
385.112	450.38
385.337	451.38
385.562	475.38
385.787	473.38
386.013	501.38
386.238	476.38
386.463	496.38
386.688	475.38
386.913	474.38
387.138	466.38
387.363	471.38
387.588	444.38
387.813	460.38
388.038	474.38
388.263	479.38
388.488	465.38
388.713	478.38
388.938	446.38
389.163	482.38
389.387	438.38
389.612	456.38
389.837	449.38
390.062	469.38
390.287	443.38
390.512	454.38
390.736	467.38
390.961	447.38
391.186	475.38
391.411	470.38
391.636	485.38
391.86	493.38
392.085	519.38
392.31	527.38
392.534	494.38
392.759	508.38
392.984	471.38
393.208	505.38
393.433	484.38
393.658	517.38
393.882	499.38
394.107	491.38
394.331	491.38
394.556	489.38
394.78	479.38
395.005	482.38
395.229	495.38
395.454	473.38
395.678	516.38
395.903	515.38
396.127	501.38
396.352	504.38
396.576	499.38
396.801	512.38
397.025	517.38
397.249	540.38
397.474	519.38
397.698	480.38
397.922	527.38
398.147	507.38
398.371	560.38
398.595	525.38
398.82	559.38
399.044	579.38
399.268	617.38
399.492	660.38
399.717	725.38
399.941	766.38
400.165	715.38
400.389	660.38
400.613	626.38
400.837	578.38
401.062	579.38
401.286	534.38
401.51	550.38
401.734	539.38
401.958	541.38
402.182	548.38
402.406	577.38
402.63	576.38
402.854	582.38
403.078	587.38
403.302	594.38
403.526	597.38
403.75	596.38
403.974	600.38
404.198	609.38
404.422	610.38
404.645	611.38
404.869	605.38
405.093	629.38
405.317	639.38
405.541	643.38
405.765	631.38
405.988	620.38
406.212	608.38
406.436	618.38
406.66	649.38
406.883	628.38
407.107	651.38
407.331	695.38
407.555	735.38
407.778	716.38
408.002	680.38
408.226	669.38
408.449	617.38
408.673	620.38
408.896	640.38
409.12	637.38
409.344	631.38
409.567	580.38
409.791	591.38
410.014	591.38
410.238	574.38
410.461	581.38
410.685	570.38
410.908	623.38
411.132	601.38
411.355	611.38
411.578	594.38
411.802	570.38
412.025	572.38
412.249	598.38
412.472	602.38
412.695	621.38
412.919	577.38
413.142	595.38
413.365	539.38
413.589	556.38
413.812	550.38
414.035	552.38
414.258	547.38
414.482	549.38
414.705	554.38
414.928	554.38
415.151	537.38
415.374	543.38
415.597	537.38
415.821	556.38
416.044	538.38
416.267	521.38
416.49	530.38
416.713	536.38
416.936	532.38
417.159	527.38
417.382	563.38
417.605	541.38
417.828	552.38
418.051	556.38
418.274	553.38
418.497	556.38
418.72	567.38
418.943	569.38
419.166	579.38
419.389	624.38
419.611	579.38
419.834	585.38
420.057	585.38
420.28	582.38
420.503	569.38
420.726	564.38
420.948	578.38
421.171	579.38
421.394	576.38
421.617	554.38
421.839	549.38
422.062	563.38
422.285	568.38
422.507	584.38
422.73	641.38
422.953	630.38
423.175	575.38
423.398	583.38
423.621	551.38
423.843	570.38
424.066	587.38
424.288	589.38
424.511	598.38
424.733	629.38
424.956	671.38
425.178	638.38
425.401	629.38
425.623	636.38
425.846	581.38
426.068	586.38
426.291	551.38
426.513	543.38
426.735	553.38
426.958	560.38
427.18	610.38
427.402	679.38
427.625	701.38
427.847	616.38
428.069	570.38
428.292	563.38
428.514	514.38
428.736	517.38
428.958	515.38
429.181	511.38
429.403	511.38
429.625	517.38
429.847	508.38
430.069	533.38
430.292	563.38
430.514	525.38
430.736	501.38
430.958	501.38
431.18	495.38
431.402	485.38
431.624	507.38
431.846	485.38
432.068	511.38
432.29	503.38
432.512	476.38
432.734	503.38
432.956	497.38
433.178	496.38
433.4	515.38
433.622	505.38
433.844	521.38
434.066	504.38
434.287	496.38
434.509	514.38
434.731	540.38
434.953	551.38
435.175	555.38
435.397	544.38
435.618	556.38
435.84	553.38
436.062	601.38
436.284	611.38
436.505	531.38
436.727	541.38
436.949	523.38
437.17	508.38
437.392	495.38
437.614	520.38
437.835	533.38
438.057	564.38
438.278	629.38
438.5	616.38
438.721	632.38
438.943	620.38
439.165	558.38
439.386	540.38
439.608	526.38
439.829	529.38
440.05	527.38
440.272	563.38
440.493	558.38
440.715	532.38
440.936	533.38
441.158	525.38
441.379	522.38
441.6	557.38
441.822	583.38
442.043	582.38
442.264	601.38
442.486	602.38
442.707	575.38
442.928	553.38
443.149	571.38
443.371	589.38
443.592	598.38
443.813	633.38
444.034	668.38
444.255	615.38
444.476	581.38
444.698	586.38
444.919	624.38
445.14	695.38
445.361	619.38
445.582	588.38
445.803	609.38
446.024	631.38
446.245	612.38
446.466	571.38
446.687	554.38
446.908	515.38
447.129	509.38
447.35	489.38
447.571	485.38
447.792	480.38
448.013	492.38
448.234	498.38
448.455	530.38
448.675	567.38
448.896	617.38
449.117	563.38
449.338	519.38
449.559	610.38
449.779	653.38
450	566.38
450.221	507.38
450.442	470.38
450.662	466.38
450.883	485.38
451.104	495.38
451.324	485.38
451.545	469.38
451.766	465.38
451.986	443.38
452.207	432.38
452.428	442.38
452.648	458.38
452.869	460.38
453.089	454.38
453.31	456.38
453.53	444.38
453.751	445.38
453.971	452.38
454.192	468.38
454.412	441.38
454.633	432.38
454.853	437.38
455.073	437.38
455.294	461.38
455.514	464.38
455.734	448.38
455.955	419.38
456.175	423.38
456.395	426.38
456.616	411.38
456.836	448.38
457.056	420.38
457.276	400.38
457.497	432.38
457.717	438.38
457.937	424.38
458.157	445.38
458.377	443.38
458.598	445.38
458.818	465.38
459.038	511.38
459.258	547.38
459.478	484.38
459.698	484.38
459.918	484.38
460.138	514.38
460.358	527.38
460.578	550.38
460.798	564.38
461.018	515.38
461.238	523.38
461.458	522.38
461.678	513.38
461.898	541.38
462.118	560.38
462.338	547.38
462.558	551.38
462.777	580.38
462.997	615.38
463.217	648.38
463.437	648.38
463.657	598.38
463.876	607.38
464.096	629.38
464.316	581.38
464.536	618.38
464.755	595.38
464.975	572.38
465.195	572.38
465.414	566.38
465.634	528.38
465.854	508.38
466.073	481.38
466.293	503.38
466.512	475.38
466.732	462.38
466.951	476.38
467.171	475.38
467.391	465.38
467.61	486.38
467.829	501.38
468.049	469.38
468.268	464.38
468.488	450.38
468.707	459.38
468.927	457.38
469.146	449.38
469.365	432.38
469.585	466.38
469.804	454.38
470.023	450.38
470.243	508.38
470.462	501.38
470.681	483.38
470.901	485.38
471.12	487.38
471.339	475.38
471.558	459.38
471.777	485.38
471.997	460.38
472.216	456.38
472.435	475.38
472.654	450.38
472.873	451.38
473.092	459.38
473.311	450.38
473.53	450.38
473.749	462.38
473.968	468.38
474.187	503.38
474.406	529.38
474.625	481.38
474.844	454.38
475.063	446.38
475.282	431.38
475.501	457.38
475.72	449.38
475.939	477.38
476.158	500.38
476.377	465.38
476.596	466.38
476.814	495.38
477.033	486.38
477.252	495.38
477.471	493.38
477.69	481.38
477.908	506.38
478.127	521.38
478.346	538.38
478.564	539.38
478.783	541.38
479.002	540.38
479.22	538.38
479.439	560.38
479.658	559.38
479.876	544.38
480.095	555.38
480.313	591.38
480.532	577.38
480.751	586.38
480.969	595.38
481.188	607.38
481.406	614.38
481.624	552.38
481.843	513.38
482.061	548.38
482.28	531.38
482.498	525.38
482.717	537.38
482.935	523.38
483.153	525.38
483.372	516.38
483.59	519.38
483.808	529.38
484.027	535.38
484.245	516.38
484.463	529.38
484.681	557.38
484.9	550.38
485.118	547.38
485.336	519.38
485.554	555.38
485.772	555.38
485.99	540.38
486.209	553.38
486.427	553.38
486.645	551.38
486.863	556.38
487.081	569.38
487.299	554.38
487.517	543.38
487.735	562.38
487.953	577.38
488.171	589.38
488.389	560.38
488.607	535.38
488.825	555.38
489.043	537.38
489.261	553.38
489.479	559.38
489.696	579.38
489.914	564.38
490.132	571.38
490.35	567.38
490.568	581.38
490.786	585.38
491.003	619.38
491.221	597.38
491.439	613.38
491.657	585.38
491.874	602.38
492.092	624.38
492.31	605.38
492.527	637.38
492.745	641.38
492.963	624.38
493.18	664.38
493.398	624.38
493.615	646.38
493.833	638.38
494.05	649.38
494.268	635.38
494.485	637.38
494.703	644.38
494.92	627.38
495.138	635.38
495.355	643.38
495.573	652.38
495.79	633.38
496.008	657.38
496.225	657.38
496.442	641.38
496.66	647.38
496.877	656.38
497.094	659.38
497.312	650.38
497.529	652.38
497.746	689.38
497.963	671.38
498.181	729.38
498.398	739.38
498.615	751.38
498.832	793.38
499.049	847.38
499.267	884.38
499.484	916.38
499.701	964.38
499.918	1083.38
500.135	1140.38
500.352	1222.38
500.569	1276.38
500.786	1299.38
501.003	1196.38
501.22	1123.38
501.437	1032.38
501.654	980.38
501.871	912.38
502.088	897.38
