Data from 1960PennyLincolnUp.LampE6.200Scan.07172019.P1_HRD10591_13-05-56-001.txt Node
Date: Thu Jul 18 13:05:56 EDT 2019
User: cochatt
Spectrometer: HR+D1059
Trigger mode: 1
Integration Time (sec): 1.000000E-1
Scans to average: 1
Electric dark correction enabled: true
Nonlinearity correction enabled: false
Boxcar width: 0
XAxis mode: Wavelengths
Number of Pixels in Spectrum: 2048
>>>>>Begin Spectral Data<<<<<
223.165	-3.88
223.4	-3.88
223.635	-3.88
223.869	-9.88
224.104	-12.88
224.338	-23.88
224.573	-1.88
224.808	-19.88
225.042	-12.88
225.277	-8.88
225.511	-15.88
225.746	15.12
225.98	7.12
226.215	10.12
226.449	14.12
226.683	14.12
226.918	24.12
227.152	25.12
227.387	23.12
227.621	26.12
227.856	32.12
228.09	51.12
228.324	48.12
228.559	61.12
228.793	50.12
229.027	67.12
229.262	81.12
229.496	97.12
229.73	101.12
229.964	121.12
230.199	111.12
230.433	103.12
230.667	111.12
230.901	101.12
231.136	104.12
231.37	103.12
231.604	119.12
231.838	106.12
232.072	97.12
232.306	97.12
232.541	107.12
232.775	105.12
233.009	112.12
233.243	109.12
233.477	106.12
233.711	116.12
233.945	110.12
234.179	112.12
234.413	115.12
234.647	115.12
234.881	112.12
235.115	110.12
235.349	111.12
235.583	117.12
235.817	93.12
236.051	106.12
236.285	135.12
236.519	124.12
236.753	132.12
236.987	117.12
237.221	131.12
237.455	156.12
237.689	145.12
237.922	127.12
238.156	111.12
238.39	125.12
238.624	111.12
238.858	105.12
239.091	117.12
239.325	127.12
239.559	116.12
239.793	110.12
240.027	122.12
240.26	118.12
240.494	137.12
240.728	133.12
240.961	129.12
241.195	138.12
241.429	122.12
241.662	133.12
241.896	130.12
242.13	126.12
242.363	126.12
242.597	121.12
242.83	117.12
243.064	132.12
243.298	121.12
243.531	122.12
243.765	143.12
243.998	137.12
244.232	137.12
244.465	132.12
244.699	147.12
244.932	141.12
245.166	132.12
245.399	129.12
245.633	135.12
245.866	144.12
246.099	146.12
246.333	138.12
246.566	133.12
246.8	133.12
247.033	144.12
247.266	158.12
247.5	157.12
247.733	154.12
247.966	152.12
248.2	158.12
248.433	141.12
248.666	170.12
248.899	164.12
249.133	180.12
249.366	187.12
249.599	168.12
249.832	161.12
250.066	161.12
250.299	161.12
250.532	159.12
250.765	177.12
250.998	198.12
251.231	197.12
251.465	190.12
251.698	178.12
251.931	187.12
252.164	173.12
252.397	173.12
252.63	173.12
252.863	170.12
253.096	190.12
253.329	203.12
253.562	201.12
253.795	190.12
254.028	173.12
254.261	186.12
254.494	195.12
254.727	214.12
254.96	211.12
255.193	219.12
255.426	194.12
255.659	207.12
255.892	192.12
256.124	195.12
256.357	201.12
256.59	204.12
256.823	200.12
257.056	198.12
257.289	191.12
257.521	175.12
257.754	200.12
257.987	180.12
258.22	179.12
258.452	170.12
258.685	198.12
258.918	190.12
259.151	202.12
259.383	195.12
259.616	202.12
259.849	209.12
260.081	205.12
260.314	210.12
260.547	228.12
260.779	206.12
261.012	201.12
261.244	217.12
261.477	195.12
261.71	175.12
261.942	216.12
262.175	202.12
262.407	202.12
262.64	195.12
262.872	192.12
263.105	207.12
263.337	195.12
263.57	206.12
263.802	206.12
264.035	185.12
264.267	187.12
264.499	188.12
264.732	205.12
264.964	208.12
265.197	211.12
265.429	185.12
265.661	190.12
265.894	204.12
266.126	187.12
266.358	215.12
266.591	199.12
266.823	225.12
267.055	231.12
267.287	211.12
267.52	211.12
267.752	225.12
267.984	200.12
268.216	214.12
268.448	216.12
268.681	219.12
268.913	233.12
269.145	245.12
269.377	248.12
269.609	221.12
269.841	245.12
270.073	242.12
270.306	258.12
270.538	265.12
270.77	268.12
271.002	251.12
271.234	247.12
271.466	257.12
271.698	276.12
271.93	265.12
272.162	271.12
272.394	276.12
272.626	267.12
272.858	250.12
273.09	247.12
273.322	243.12
273.553	255.12
273.785	251.12
274.017	227.12
274.249	247.12
274.481	251.12
274.713	241.12
274.945	245.12
275.176	261.12
275.408	247.12
275.64	247.12
275.872	241.12
276.104	247.12
276.335	234.12
276.567	250.12
276.799	259.12
277.031	292.12
277.262	299.12
277.494	282.12
277.726	263.12
277.957	266.12
278.189	245.12
278.421	276.12
278.652	248.12
278.884	250.12
279.115	253.12
279.347	284.12
279.579	264.12
279.81	251.12
280.042	255.12
280.273	271.12
280.505	265.12
280.736	261.12
280.968	260.12
281.199	268.12
281.431	267.12
281.662	261.12
281.894	261.12
282.125	265.12
282.356	268.12
282.588	282.12
282.819	262.12
283.051	265.12
283.282	268.12
283.513	283.12
283.745	266.12
283.976	286.12
284.207	273.12
284.439	275.12
284.67	278.12
284.901	264.12
285.132	289.12
285.364	265.12
285.595	283.12
285.826	289.12
286.057	289.12
286.288	278.12
286.52	297.12
286.751	291.12
286.982	279.12
287.213	287.12
287.444	273.12
287.675	296.12
287.906	295.12
288.138	280.12
288.369	285.12
288.6	289.12
288.831	307.12
289.062	301.12
289.293	304.12
289.524	296.12
289.755	273.12
289.986	301.12
290.217	291.12
290.448	313.12
290.679	292.12
290.91	289.12
291.141	291.12
291.371	307.12
291.602	280.12
291.833	302.12
292.064	300.12
292.295	289.12
292.526	294.12
292.757	309.12
292.987	304.12
293.218	300.12
293.449	308.12
293.68	274.12
293.91	303.12
294.141	314.12
294.372	285.12
294.603	306.12
294.833	306.12
295.064	291.12
295.295	302.12
295.525	300.12
295.756	321.12
295.987	310.12
296.217	318.12
296.448	299.12
296.679	296.12
296.909	289.12
297.14	297.12
297.37	307.12
297.601	312.12
297.831	310.12
298.062	321.12
298.292	316.12
298.523	307.12
298.753	313.12
298.984	325.12
299.214	308.12
299.445	329.12
299.675	324.12
299.905	334.12
300.136	314.12
300.366	319.12
300.597	329.12
300.827	326.12
301.057	329.12
301.288	343.12
301.518	340.12
301.748	333.12
301.979	340.12
302.209	345.12
302.439	324.12
302.669	322.12
302.9	317.12
303.13	336.12
303.36	338.12
303.59	326.12
303.82	343.12
304.051	354.12
304.281	329.12
304.511	326.12
304.741	343.12
304.971	355.12
305.201	349.12
305.431	325.12
305.661	347.12
305.891	329.12
306.121	344.12
306.352	339.12
306.582	340.12
306.812	333.12
307.042	351.12
307.272	337.12
307.502	341.12
307.731	348.12
307.961	319.12
308.191	309.12
308.421	328.12
308.651	335.12
308.881	323.12
309.111	335.12
309.341	338.12
309.571	342.12
309.8	341.12
310.03	362.12
310.26	377.12
310.49	359.12
310.72	365.12
310.949	361.12
311.179	373.12
311.409	350.12
311.639	372.12
311.868	346.12
312.098	362.12
312.328	357.12
312.557	375.12
312.787	373.12
313.017	366.12
313.246	361.12
313.476	357.12
313.706	376.12
313.935	361.12
314.165	368.12
314.394	377.12
314.624	362.12
314.853	388.12
315.083	356.12
315.312	375.12
315.542	353.12
315.771	366.12
316.001	360.12
316.23	363.12
316.46	364.12
316.689	354.12
316.919	373.12
317.148	358.12
317.377	365.12
317.607	371.12
317.836	361.12
318.065	358.12
318.295	359.12
318.524	378.12
318.753	366.12
318.983	364.12
319.212	375.12
319.441	371.12
319.67	367.12
319.9	367.12
320.129	353.12
320.358	374.12
320.587	375.12
320.816	365.12
321.046	385.12
321.275	368.12
321.504	356.12
321.733	382.12
321.962	395.12
322.191	385.12
322.42	387.12
322.649	397.12
322.878	397.12
323.108	390.12
323.337	411.12
323.566	417.12
323.795	425.12
324.024	461.12
324.253	486.12
324.482	645.12
324.71	945.12
324.939	1241.12
325.168	1016.12
325.397	572.12
325.626	465.12
325.855	442.12
326.084	431.12
326.313	426.12
326.542	434.12
326.77	455.12
326.999	504.12
327.228	636.12
327.457	830.12
327.686	990.12
327.914	665.12
328.143	502.12
328.372	464.12
328.6	480.12
328.829	463.12
329.058	461.12
329.287	480.12
329.515	455.12
329.744	429.12
329.972	423.12
330.201	465.12
330.43	469.12
330.658	475.12
330.887	485.12
331.115	497.12
331.344	433.12
331.572	438.12
331.801	453.12
332.03	452.12
332.258	451.12
332.486	460.12
332.715	457.12
332.943	456.12
333.172	460.12
333.4	493.12
333.629	474.12
333.857	513.12
334.085	503.12
334.314	518.12
334.542	505.12
334.771	504.12
334.999	504.12
335.227	483.12
335.455	465.12
335.684	475.12
335.912	453.12
336.14	455.12
336.369	468.12
336.597	462.12
336.825	477.12
337.053	453.12
337.281	463.12
337.51	467.12
337.738	442.12
337.966	455.12
338.194	425.12
338.422	439.12
338.65	408.12
338.878	429.12
339.106	423.12
339.334	448.12
339.562	444.12
339.79	419.12
340.018	413.12
340.246	399.12
340.474	430.12
340.702	407.12
340.93	427.12
341.158	427.12
341.386	418.12
341.614	430.12
341.842	424.12
342.07	430.12
342.298	403.12
342.526	410.12
342.754	407.12
342.981	398.12
343.209	396.12
343.437	441.12
343.665	442.12
343.893	480.12
344.12	463.12
344.348	458.12
344.576	435.12
344.804	437.12
345.031	431.12
345.259	453.12
345.487	433.12
345.714	408.12
345.942	417.12
346.17	409.12
346.397	406.12
346.625	403.12
346.853	403.12
347.08	397.12
347.308	378.12
347.535	405.12
347.763	404.12
347.99	401.12
348.218	400.12
348.445	421.12
348.673	413.12
348.9	413.12
349.128	415.12
349.355	388.12
349.583	385.12
349.81	384.12
350.037	403.12
350.265	396.12
350.492	387.12
350.72	433.12
350.947	416.12
351.174	400.12
351.402	409.12
351.629	392.12
351.856	418.12
352.083	409.12
352.311	418.12
352.538	419.12
352.765	399.12
352.992	395.12
353.22	408.12
353.447	379.12
353.674	386.12
353.901	391.12
354.128	383.12
354.355	389.12
354.583	386.12
354.81	402.12
355.037	389.12
355.264	379.12
355.491	392.12
355.718	380.12
355.945	394.12
356.172	376.12
356.399	393.12
356.626	394.12
356.853	386.12
357.08	393.12
357.307	395.12
357.534	388.12
357.761	382.12
357.988	387.12
358.215	358.12
358.441	380.12
358.668	392.12
358.895	375.12
359.122	393.12
359.349	378.12
359.576	394.12
359.802	412.12
360.029	445.12
360.256	415.12
360.483	432.12
360.709	399.12
360.936	403.12
361.163	414.12
361.39	405.12
361.616	404.12
361.843	409.12
362.07	403.12
362.296	405.12
362.523	405.12
362.749	401.12
362.976	384.12
363.203	393.12
363.429	395.12
363.656	402.12
363.882	417.12
364.109	379.12
364.335	384.12
364.562	399.12
364.788	398.12
365.015	390.12
365.241	411.12
365.468	391.12
365.694	401.12
365.92	396.12
366.147	373.12
366.373	397.12
366.599	386.12
366.826	407.12
367.052	373.12
367.278	383.12
367.505	406.12
367.731	389.12
367.957	405.12
368.184	405.12
368.41	395.12
368.636	420.12
368.862	395.12
369.089	416.12
369.315	395.12
369.541	398.12
369.767	395.12
369.993	389.12
370.219	400.12
370.445	396.12
370.672	400.12
370.898	402.12
371.124	408.12
371.35	419.12
371.576	405.12
371.802	394.12
372.028	416.12
372.254	403.12
372.48	403.12
372.706	432.12
372.932	420.12
373.158	421.12
373.384	421.12
373.61	422.12
373.835	427.12
374.061	431.12
374.287	413.12
374.513	408.12
374.739	426.12
374.965	429.12
375.191	447.12
375.416	427.12
375.642	411.12
375.868	427.12
376.094	432.12
376.319	419.12
376.545	418.12
376.771	411.12
376.997	401.12
377.222	411.12
377.448	414.12
377.674	407.12
377.899	403.12
378.125	405.12
378.35	384.12
378.576	411.12
378.802	411.12
379.027	395.12
379.253	407.12
379.478	405.12
379.704	429.12
379.929	408.12
380.155	409.12
380.38	387.12
380.606	414.12
380.831	422.12
381.057	427.12
381.282	421.12
381.507	412.12
381.733	417.12
381.958	410.12
382.184	407.12
382.409	409.12
382.634	423.12
382.86	418.12
383.085	433.12
383.31	440.12
383.535	432.12
383.761	432.12
383.986	434.12
384.211	455.12
384.436	415.12
384.662	457.12
384.887	491.12
385.112	466.12
385.337	493.12
385.562	461.12
385.787	472.12
386.013	462.12
386.238	466.12
386.463	479.12
386.688	462.12
386.913	466.12
387.138	459.12
387.363	463.12
387.588	451.12
387.813	451.12
388.038	457.12
388.263	481.12
388.488	468.12
388.713	479.12
388.938	465.12
389.163	464.12
389.387	473.12
389.612	446.12
389.837	451.12
390.062	449.12
390.287	446.12
390.512	465.12
390.736	443.12
390.961	492.12
391.186	481.12
391.411	483.12
391.636	479.12
391.86	497.12
392.085	507.12
392.31	531.12
392.534	504.12
392.759	474.12
392.984	489.12
393.208	479.12
393.433	488.12
393.658	473.12
393.882	460.12
394.107	468.12
394.331	471.12
394.556	494.12
394.78	511.12
395.005	502.12
395.229	502.12
395.454	489.12
395.678	498.12
395.903	512.12
396.127	511.12
396.352	507.12
396.576	488.12
396.801	481.12
397.025	507.12
397.249	500.12
397.474	527.12
397.698	505.12
397.922	515.12
398.147	530.12
398.371	544.12
398.595	552.12
398.82	545.12
399.044	591.12
399.268	610.12
399.492	661.12
399.717	731.12
399.941	743.12
400.165	691.12
400.389	671.12
400.613	623.12
400.837	587.12
401.062	587.12
401.286	554.12
401.51	567.12
401.734	546.12
401.958	562.12
402.182	562.12
402.406	553.12
402.63	593.12
402.854	596.12
403.078	594.12
403.302	585.12
403.526	605.12
403.75	595.12
403.974	619.12
404.198	621.12
404.422	616.12
404.645	614.12
404.869	607.12
405.093	613.12
405.317	644.12
405.541	664.12
405.765	631.12
405.988	606.12
406.212	605.12
406.436	629.12
406.66	625.12
406.883	641.12
407.107	682.12
407.331	702.12
407.555	755.12
407.778	729.12
408.002	658.12
408.226	625.12
408.449	627.12
408.673	619.12
408.896	629.12
409.12	642.12
409.344	621.12
409.567	612.12
409.791	603.12
410.014	581.12
410.238	579.12
410.461	590.12
410.685	595.12
410.908	592.12
411.132	605.12
411.355	623.12
411.578	572.12
411.802	563.12
412.025	577.12
412.249	575.12
412.472	600.12
412.695	605.12
412.919	579.12
413.142	565.12
413.365	547.12
413.589	543.12
413.812	543.12
414.035	558.12
414.258	554.12
414.482	535.12
414.705	558.12
414.928	534.12
415.151	537.12
415.374	553.12
415.597	561.12
415.821	556.12
416.044	539.12
416.267	530.12
416.49	542.12
416.713	513.12
416.936	521.12
417.159	543.12
417.382	568.12
417.605	534.12
417.828	546.12
418.051	563.12
418.274	576.12
418.497	554.12
418.72	547.12
418.943	564.12
419.166	573.12
419.389	595.12
419.611	600.12
419.834	586.12
420.057	565.12
420.28	546.12
420.503	552.12
420.726	567.12
420.948	560.12
421.171	580.12
421.394	611.12
421.617	555.12
421.839	558.12
422.062	546.12
422.285	578.12
422.507	607.12
422.73	647.12
422.953	642.12
423.175	609.12
423.398	576.12
423.621	590.12
423.843	629.12
424.066	625.12
424.288	604.12
424.511	595.12
424.733	616.12
424.956	639.12
425.178	629.12
425.401	627.12
425.623	622.12
425.846	597.12
426.068	563.12
426.291	530.12
426.513	555.12
426.735	562.12
426.958	553.12
427.18	634.12
427.402	709.12
427.625	730.12
427.847	645.12
428.069	591.12
428.292	565.12
428.514	542.12
428.736	524.12
428.958	496.12
429.181	515.12
429.403	530.12
429.625	518.12
429.847	539.12
430.069	587.12
430.292	586.12
430.514	498.12
430.736	496.12
430.958	498.12
431.18	480.12
431.402	494.12
431.624	484.12
431.846	465.12
432.068	504.12
432.29	517.12
432.512	495.12
432.734	505.12
432.956	504.12
433.178	513.12
433.4	528.12
433.622	526.12
433.844	509.12
434.066	504.12
434.287	488.12
434.509	513.12
434.731	527.12
434.953	543.12
435.175	541.12
435.397	552.12
435.618	546.12
435.84	590.12
436.062	608.12
436.284	659.12
436.505	571.12
436.727	537.12
436.949	524.12
437.17	519.12
437.392	516.12
437.614	516.12
437.835	525.12
438.057	569.12
438.278	612.12
438.5	626.12
438.721	660.12
438.943	631.12
439.165	568.12
439.386	531.12
439.608	544.12
439.829	550.12
440.05	539.12
440.272	570.12
440.493	546.12
440.715	512.12
440.936	513.12
441.158	531.12
441.379	517.12
441.6	556.12
441.822	562.12
442.043	571.12
442.264	621.12
442.486	653.12
442.707	591.12
442.928	559.12
443.149	567.12
443.371	577.12
443.592	598.12
443.813	662.12
444.034	689.12
444.255	621.12
444.476	609.12
444.698	611.12
444.919	609.12
445.14	733.12
445.361	643.12
445.582	584.12
445.803	625.12
446.024	651.12
446.245	678.12
446.466	619.12
446.687	544.12
446.908	532.12
447.129	501.12
447.35	504.12
447.571	476.12
447.792	466.12
448.013	505.12
448.234	497.12
448.455	532.12
448.675	592.12
448.896	660.12
449.117	568.12
449.338	548.12
449.559	610.12
449.779	653.12
450	563.12
450.221	468.12
450.442	487.12
450.662	474.12
450.883	471.12
451.104	477.12
451.324	472.12
451.545	453.12
451.766	461.12
451.986	460.12
452.207	446.12
452.428	419.12
452.648	447.12
452.869	469.12
453.089	463.12
453.31	454.12
453.53	457.12
453.751	420.12
453.971	461.12
454.192	471.12
454.412	459.12
454.633	441.12
454.853	433.12
455.073	443.12
455.294	460.12
455.514	503.12
455.734	477.12
455.955	421.12
456.175	425.12
456.395	424.12
456.616	418.12
456.836	432.12
457.056	444.12
457.276	413.12
457.497	423.12
457.717	432.12
457.937	435.12
458.157	439.12
458.377	437.12
458.598	450.12
458.818	485.12
459.038	543.12
459.258	545.12
459.478	509.12
459.698	512.12
459.918	498.12
460.138	515.12
460.358	534.12
460.578	545.12
460.798	533.12
461.018	531.12
461.238	541.12
461.458	542.12
461.678	527.12
461.898	542.12
462.118	553.12
462.338	569.12
462.558	559.12
462.777	590.12
462.997	611.12
463.217	626.12
463.437	651.12
463.657	599.12
463.876	582.12
464.096	584.12
464.316	576.12
464.536	588.12
464.755	618.12
464.975	585.12
465.195	557.12
465.414	588.12
465.634	533.12
465.854	502.12
466.073	480.12
466.293	508.12
466.512	479.12
466.732	454.12
466.951	469.12
467.171	466.12
467.391	471.12
467.61	474.12
467.829	501.12
468.049	474.12
468.268	480.12
468.488	446.12
468.707	437.12
468.927	451.12
469.146	457.12
469.365	461.12
469.585	450.12
469.804	472.12
470.023	470.12
470.243	464.12
470.462	504.12
470.681	488.12
470.901	499.12
471.12	506.12
471.339	458.12
471.558	471.12
471.777	482.12
471.997	458.12
472.216	455.12
472.435	477.12
472.654	481.12
472.873	437.12
473.092	448.12
473.311	433.12
473.53	471.12
473.749	455.12
473.968	456.12
474.187	524.12
474.406	547.12
474.625	493.12
474.844	457.12
475.063	475.12
475.282	458.12
475.501	451.12
475.72	465.12
475.939	480.12
476.158	485.12
476.377	450.12
476.596	444.12
476.814	464.12
477.033	475.12
477.252	515.12
477.471	516.12
477.69	491.12
477.908	510.12
478.127	518.12
478.346	536.12
478.564	561.12
478.783	537.12
479.002	554.12
479.22	553.12
479.439	549.12
479.658	534.12
479.876	575.12
480.095	562.12
480.313	555.12
480.532	607.12
480.751	577.12
480.969	564.12
481.188	586.12
481.406	616.12
481.624	566.12
481.843	526.12
482.061	541.12
482.28	534.12
482.498	553.12
482.717	537.12
482.935	546.12
483.153	521.12
483.372	519.12
483.59	529.12
483.808	519.12
484.027	513.12
484.245	533.12
484.463	523.12
484.681	543.12
484.9	533.12
485.118	529.12
485.336	538.12
485.554	541.12
485.772	526.12
485.99	549.12
486.209	545.12
486.427	558.12
486.645	528.12
486.863	562.12
487.081	558.12
487.299	551.12
487.517	571.12
487.735	538.12
487.953	570.12
488.171	554.12
488.389	549.12
488.607	551.12
488.825	536.12
489.043	557.12
489.261	552.12
489.479	564.12
489.696	589.12
489.914	544.12
490.132	561.12
490.35	591.12
490.568	594.12
490.786	610.12
491.003	618.12
491.221	594.12
491.439	597.12
491.657	617.12
491.874	619.12
492.092	631.12
492.31	621.12
492.527	632.12
492.745	627.12
492.963	632.12
493.18	626.12
493.398	646.12
493.615	639.12
493.833	659.12
494.05	642.12
494.268	641.12
494.485	623.12
494.703	634.12
494.92	649.12
495.138	665.12
495.355	616.12
495.573	627.12
495.79	618.12
496.008	621.12
496.225	632.12
496.442	635.12
496.66	653.12
496.877	628.12
497.094	682.12
497.312	647.12
497.529	680.12
497.746	685.12
497.963	692.12
498.181	697.12
498.398	740.12
498.615	742.12
498.832	790.12
499.049	809.12
499.267	864.12
499.484	928.12
499.701	977.12
499.918	1019.12
500.135	1145.12
500.352	1229.12
500.569	1273.12
500.786	1303.12
501.003	1208.12
501.22	1128.12
501.437	1044.12
501.654	973.12
501.871	919.12
502.088	848.12
