Data from 1960PennyLincolnUp.LampE6.200Scan.07172019.P1_HRD10591_13-06-09-001.txt Node
Date: Thu Jul 18 13:06:09 EDT 2019
User: cochatt
Spectrometer: HR+D1059
Trigger mode: 1
Integration Time (sec): 1.000000E-1
Scans to average: 1
Electric dark correction enabled: true
Nonlinearity correction enabled: false
Boxcar width: 0
XAxis mode: Wavelengths
Number of Pixels in Spectrum: 2048
>>>>>Begin Spectral Data<<<<<
223.165	-9.88
223.4	-9.88
223.635	-9.88
223.869	-10.88
224.104	-15.88
224.338	-20.88
224.573	-22.88
224.808	-11.88
225.042	1.12
225.277	-1.88
225.511	-3.88
225.746	-0.88
225.98	-1.88
226.215	7.12
226.449	20.12
226.683	27.12
226.918	14.12
227.152	31.12
227.387	23.12
227.621	39.12
227.856	38.12
228.09	45.12
228.324	35.12
228.559	53.12
228.793	49.12
229.027	78.12
229.262	98.12
229.496	100.12
229.73	98.12
229.964	125.12
230.199	100.12
230.433	85.12
230.667	105.12
230.901	109.12
231.136	96.12
231.37	103.12
231.604	107.12
231.838	124.12
232.072	128.12
232.306	105.12
232.541	117.12
232.775	97.12
233.009	103.12
233.243	110.12
233.477	110.12
233.711	111.12
233.945	115.12
234.179	107.12
234.413	102.12
234.647	115.12
234.881	110.12
235.115	112.12
235.349	94.12
235.583	113.12
235.817	121.12
236.051	115.12
236.285	116.12
236.519	108.12
236.753	105.12
236.987	131.12
237.221	149.12
237.455	174.12
237.689	150.12
237.922	144.12
238.156	121.12
238.39	103.12
238.624	121.12
238.858	133.12
239.091	101.12
239.325	116.12
239.559	123.12
239.793	121.12
240.027	114.12
240.26	143.12
240.494	121.12
240.728	138.12
240.961	132.12
241.195	149.12
241.429	126.12
241.662	132.12
241.896	119.12
242.13	130.12
242.363	116.12
242.597	128.12
242.83	122.12
243.064	137.12
243.298	138.12
243.531	112.12
243.765	125.12
243.998	157.12
244.232	147.12
244.465	139.12
244.699	125.12
244.932	143.12
245.166	129.12
245.399	134.12
245.633	141.12
245.866	129.12
246.099	127.12
246.333	146.12
246.566	153.12
246.8	150.12
247.033	138.12
247.266	142.12
247.5	150.12
247.733	148.12
247.966	157.12
248.2	163.12
248.433	151.12
248.666	164.12
248.899	166.12
249.133	179.12
249.366	193.12
249.599	155.12
249.832	167.12
250.066	163.12
250.299	164.12
250.532	164.12
250.765	186.12
250.998	201.12
251.231	193.12
251.465	196.12
251.698	190.12
251.931	159.12
252.164	189.12
252.397	181.12
252.63	191.12
252.863	189.12
253.096	182.12
253.329	217.12
253.562	187.12
253.795	173.12
254.028	194.12
254.261	189.12
254.494	194.12
254.727	222.12
254.96	237.12
255.193	220.12
255.426	201.12
255.659	194.12
255.892	186.12
256.124	199.12
256.357	204.12
256.59	189.12
256.823	194.12
257.056	182.12
257.289	203.12
257.521	200.12
257.754	191.12
257.987	208.12
258.22	203.12
258.452	175.12
258.685	180.12
258.918	199.12
259.151	182.12
259.383	196.12
259.616	207.12
259.849	183.12
260.081	213.12
260.314	226.12
260.547	230.12
260.779	223.12
261.012	186.12
261.244	197.12
261.477	186.12
261.71	185.12
261.942	217.12
262.175	210.12
262.407	197.12
262.64	193.12
262.872	195.12
263.105	206.12
263.337	204.12
263.57	215.12
263.802	202.12
264.035	217.12
264.267	213.12
264.499	205.12
264.732	214.12
264.964	209.12
265.197	208.12
265.429	205.12
265.661	202.12
265.894	199.12
266.126	201.12
266.358	207.12
266.591	194.12
266.823	228.12
267.055	211.12
267.287	219.12
267.52	203.12
267.752	200.12
267.984	218.12
268.216	219.12
268.448	214.12
268.681	225.12
268.913	223.12
269.145	234.12
269.377	259.12
269.609	251.12
269.841	236.12
270.073	236.12
270.306	266.12
270.538	258.12
270.77	275.12
271.002	252.12
271.234	259.12
271.466	264.12
271.698	267.12
271.93	283.12
272.162	264.12
272.394	276.12
272.626	249.12
272.858	256.12
273.09	249.12
273.322	247.12
273.553	259.12
273.785	231.12
274.017	244.12
274.249	261.12
274.481	257.12
274.713	242.12
274.945	235.12
275.176	249.12
275.408	257.12
275.64	254.12
275.872	243.12
276.104	255.12
276.335	265.12
276.567	253.12
276.799	254.12
277.031	262.12
277.262	279.12
277.494	251.12
277.726	272.12
277.957	269.12
278.189	264.12
278.421	267.12
278.652	274.12
278.884	248.12
279.115	262.12
279.347	255.12
279.579	278.12
279.81	257.12
280.042	258.12
280.273	240.12
280.505	257.12
280.736	245.12
280.968	258.12
281.199	298.12
281.431	267.12
281.662	258.12
281.894	257.12
282.125	272.12
282.356	291.12
282.588	292.12
282.819	296.12
283.051	260.12
283.282	262.12
283.513	280.12
283.745	268.12
283.976	270.12
284.207	287.12
284.439	281.12
284.67	282.12
284.901	289.12
285.132	303.12
285.364	278.12
285.595	273.12
285.826	276.12
286.057	266.12
286.288	281.12
286.52	273.12
286.751	279.12
286.982	301.12
287.213	303.12
287.444	283.12
287.675	297.12
287.906	299.12
288.138	309.12
288.369	314.12
288.6	283.12
288.831	299.12
289.062	287.12
289.293	318.12
289.524	283.12
289.755	273.12
289.986	290.12
290.217	294.12
290.448	307.12
290.679	289.12
290.91	285.12
291.141	272.12
291.371	315.12
291.602	290.12
291.833	295.12
292.064	316.12
292.295	300.12
292.526	293.12
292.757	297.12
292.987	289.12
293.218	301.12
293.449	293.12
293.68	318.12
293.91	310.12
294.141	294.12
294.372	310.12
294.603	307.12
294.833	298.12
295.064	292.12
295.295	308.12
295.525	319.12
295.756	303.12
295.987	308.12
296.217	319.12
296.448	316.12
296.679	330.12
296.909	323.12
297.14	293.12
297.37	310.12
297.601	304.12
297.831	317.12
298.062	315.12
298.292	319.12
298.523	299.12
298.753	311.12
298.984	330.12
299.214	320.12
299.445	310.12
299.675	340.12
299.905	330.12
300.136	314.12
300.366	313.12
300.597	318.12
300.827	329.12
301.057	329.12
301.288	339.12
301.518	338.12
301.748	337.12
301.979	336.12
302.209	331.12
302.439	328.12
302.669	346.12
302.9	345.12
303.13	335.12
303.36	363.12
303.59	351.12
303.82	349.12
304.051	350.12
304.281	338.12
304.511	354.12
304.741	333.12
304.971	338.12
305.201	329.12
305.431	326.12
305.661	348.12
305.891	338.12
306.121	345.12
306.352	341.12
306.582	349.12
306.812	334.12
307.042	321.12
307.272	341.12
307.502	334.12
307.731	330.12
307.961	339.12
308.191	329.12
308.421	345.12
308.651	323.12
308.881	349.12
309.111	340.12
309.341	350.12
309.571	353.12
309.8	337.12
310.03	349.12
310.26	354.12
310.49	359.12
310.72	355.12
310.949	368.12
311.179	379.12
311.409	374.12
311.639	363.12
311.868	376.12
312.098	356.12
312.328	372.12
312.557	369.12
312.787	381.12
313.017	379.12
313.246	358.12
313.476	371.12
313.706	372.12
313.935	383.12
314.165	389.12
314.394	381.12
314.624	368.12
314.853	380.12
315.083	383.12
315.312	352.12
315.542	372.12
315.771	370.12
316.001	351.12
316.23	371.12
316.46	371.12
316.689	377.12
316.919	365.12
317.148	382.12
317.377	394.12
317.607	365.12
317.836	372.12
318.065	369.12
318.295	391.12
318.524	371.12
318.753	357.12
318.983	375.12
319.212	366.12
319.441	372.12
319.67	381.12
319.9	354.12
320.129	371.12
320.358	370.12
320.587	383.12
320.816	368.12
321.046	361.12
321.275	388.12
321.504	374.12
321.733	388.12
321.962	401.12
322.191	387.12
322.42	377.12
322.649	398.12
322.878	391.12
323.108	400.12
323.337	396.12
323.566	430.12
323.795	442.12
324.024	468.12
324.253	531.12
324.482	687.12
324.71	1021.12
324.939	1406.12
325.168	1171.12
325.397	613.12
325.626	473.12
325.855	449.12
326.084	447.12
326.313	437.12
326.542	438.12
326.77	464.12
326.999	501.12
327.228	662.12
327.457	941.12
327.686	1093.12
327.914	718.12
328.143	537.12
328.372	487.12
328.6	478.12
328.829	452.12
329.058	482.12
329.287	479.12
329.515	458.12
329.744	468.12
329.972	469.12
330.201	484.12
330.43	475.12
330.658	483.12
330.887	501.12
331.115	517.12
331.344	466.12
331.572	453.12
331.801	452.12
332.03	489.12
332.258	457.12
332.486	434.12
332.715	455.12
332.943	461.12
333.172	491.12
333.4	491.12
333.629	497.12
333.857	509.12
334.085	514.12
334.314	516.12
334.542	526.12
334.771	555.12
334.999	502.12
335.227	508.12
335.455	488.12
335.684	490.12
335.912	489.12
336.14	495.12
336.369	469.12
336.597	462.12
336.825	466.12
337.053	451.12
337.281	448.12
337.51	474.12
337.738	439.12
337.966	436.12
338.194	439.12
338.422	461.12
338.65	441.12
338.878	435.12
339.106	422.12
339.334	450.12
339.562	436.12
339.79	426.12
340.018	421.12
340.246	425.12
340.474	425.12
340.702	415.12
340.93	422.12
341.158	448.12
341.386	421.12
341.614	434.12
341.842	427.12
342.07	417.12
342.298	406.12
342.526	402.12
342.754	414.12
342.981	420.12
343.209	434.12
343.437	439.12
343.665	458.12
343.893	455.12
344.12	485.12
344.348	474.12
344.576	445.12
344.804	455.12
345.031	454.12
345.259	442.12
345.487	414.12
345.714	411.12
345.942	418.12
346.17	413.12
346.397	436.12
346.625	400.12
346.853	411.12
347.08	403.12
347.308	393.12
347.535	411.12
347.763	416.12
347.99	406.12
348.218	404.12
348.445	417.12
348.673	429.12
348.9	417.12
349.128	410.12
349.355	396.12
349.583	399.12
349.81	403.12
350.037	382.12
350.265	405.12
350.492	403.12
350.72	387.12
350.947	393.12
351.174	418.12
351.402	413.12
351.629	404.12
351.856	405.12
352.083	410.12
352.311	423.12
352.538	414.12
352.765	423.12
352.992	393.12
353.22	405.12
353.447	406.12
353.674	394.12
353.901	404.12
354.128	391.12
354.355	394.12
354.583	382.12
354.81	387.12
355.037	404.12
355.264	385.12
355.491	414.12
355.718	375.12
355.945	387.12
356.172	397.12
356.399	376.12
356.626	389.12
356.853	397.12
357.08	388.12
357.307	389.12
357.534	399.12
357.761	397.12
357.988	379.12
358.215	407.12
358.441	386.12
358.668	386.12
358.895	388.12
359.122	388.12
359.349	413.12
359.576	404.12
359.802	422.12
360.029	442.12
360.256	447.12
360.483	413.12
360.709	405.12
360.936	395.12
361.163	390.12
361.39	416.12
361.616	431.12
361.843	403.12
362.07	417.12
362.296	414.12
362.523	411.12
362.749	413.12
362.976	408.12
363.203	412.12
363.429	391.12
363.656	421.12
363.882	386.12
364.109	393.12
364.335	388.12
364.562	389.12
364.788	395.12
365.015	401.12
365.241	407.12
365.468	408.12
365.694	382.12
365.92	394.12
366.147	405.12
366.373	393.12
366.599	400.12
366.826	403.12
367.052	404.12
367.278	409.12
367.505	396.12
367.731	397.12
367.957	404.12
368.184	412.12
368.41	410.12
368.636	413.12
368.862	420.12
369.089	394.12
369.315	411.12
369.541	402.12
369.767	400.12
369.993	426.12
370.219	401.12
370.445	413.12
370.672	433.12
370.898	404.12
371.124	399.12
371.35	433.12
371.576	425.12
371.802	422.12
372.028	395.12
372.254	400.12
372.48	406.12
372.706	419.12
372.932	430.12
373.158	409.12
373.384	406.12
373.61	414.12
373.835	427.12
374.061	410.12
374.287	426.12
374.513	436.12
374.739	443.12
374.965	452.12
375.191	435.12
375.416	426.12
375.642	422.12
375.868	430.12
376.094	427.12
376.319	412.12
376.545	410.12
376.771	411.12
376.997	404.12
377.222	429.12
377.448	400.12
377.674	432.12
377.899	417.12
378.125	430.12
378.35	415.12
378.576	401.12
378.802	416.12
379.027	419.12
379.253	420.12
379.478	421.12
379.704	431.12
379.929	427.12
380.155	404.12
380.38	425.12
380.606	395.12
380.831	418.12
381.057	432.12
381.282	400.12
381.507	419.12
381.733	438.12
381.958	418.12
382.184	434.12
382.409	435.12
382.634	427.12
382.86	406.12
383.085	429.12
383.31	423.12
383.535	449.12
383.761	443.12
383.986	463.12
384.211	466.12
384.436	468.12
384.662	459.12
384.887	465.12
385.112	456.12
385.337	469.12
385.562	465.12
385.787	486.12
386.013	479.12
386.238	477.12
386.463	466.12
386.688	466.12
386.913	488.12
387.138	483.12
387.363	467.12
387.588	469.12
387.813	463.12
388.038	469.12
388.263	463.12
388.488	455.12
388.713	461.12
388.938	463.12
389.163	476.12
389.387	465.12
389.612	459.12
389.837	476.12
390.062	452.12
390.287	441.12
390.512	472.12
390.736	467.12
390.961	469.12
391.186	493.12
391.411	490.12
391.636	484.12
391.86	515.12
392.085	503.12
392.31	497.12
392.534	492.12
392.759	499.12
392.984	474.12
393.208	479.12
393.433	496.12
393.658	484.12
393.882	485.12
394.107	491.12
394.331	478.12
394.556	474.12
394.78	486.12
395.005	487.12
395.229	488.12
395.454	502.12
395.678	535.12
395.903	549.12
396.127	532.12
396.352	526.12
396.576	485.12
396.801	508.12
397.025	500.12
397.249	508.12
397.474	528.12
397.698	501.12
397.922	519.12
398.147	514.12
398.371	548.12
398.595	548.12
398.82	567.12
399.044	583.12
399.268	627.12
399.492	688.12
399.717	738.12
399.941	722.12
400.165	715.12
400.389	670.12
400.613	610.12
400.837	607.12
401.062	553.12
401.286	524.12
401.51	579.12
401.734	576.12
401.958	554.12
402.182	565.12
402.406	589.12
402.63	586.12
402.854	585.12
403.078	600.12
403.302	599.12
403.526	615.12
403.75	615.12
403.974	612.12
404.198	643.12
404.422	621.12
404.645	620.12
404.869	617.12
405.093	636.12
405.317	674.12
405.541	681.12
405.765	645.12
405.988	621.12
406.212	613.12
406.436	627.12
406.66	649.12
406.883	626.12
407.107	659.12
407.331	687.12
407.555	764.12
407.778	732.12
408.002	695.12
408.226	662.12
408.449	638.12
408.673	629.12
408.896	643.12
409.12	667.12
409.344	635.12
409.567	629.12
409.791	617.12
410.014	594.12
410.238	579.12
410.461	593.12
410.685	589.12
410.908	619.12
411.132	621.12
411.355	617.12
411.578	631.12
411.802	557.12
412.025	568.12
412.249	586.12
412.472	593.12
412.695	639.12
412.919	604.12
413.142	599.12
413.365	572.12
413.589	573.12
413.812	582.12
414.035	556.12
414.258	561.12
414.482	551.12
414.705	554.12
414.928	558.12
415.151	565.12
415.374	545.12
415.597	565.12
415.821	542.12
416.044	556.12
416.267	550.12
416.49	547.12
416.713	557.12
416.936	542.12
417.159	544.12
417.382	560.12
417.605	547.12
417.828	556.12
418.051	549.12
418.274	569.12
418.497	553.12
418.72	570.12
418.943	540.12
419.166	587.12
419.389	603.12
419.611	597.12
419.834	607.12
420.057	572.12
420.28	577.12
420.503	563.12
420.726	559.12
420.948	580.12
421.171	589.12
421.394	622.12
421.617	586.12
421.839	560.12
422.062	594.12
422.285	583.12
422.507	630.12
422.73	640.12
422.953	639.12
423.175	598.12
423.398	605.12
423.621	611.12
423.843	605.12
424.066	603.12
424.288	594.12
424.511	578.12
424.733	629.12
424.956	696.12
425.178	641.12
425.401	641.12
425.623	675.12
425.846	597.12
426.068	578.12
426.291	534.12
426.513	565.12
426.735	573.12
426.958	579.12
427.18	624.12
427.402	731.12
427.625	779.12
427.847	682.12
428.069	590.12
428.292	553.12
428.514	551.12
428.736	539.12
428.958	529.12
429.181	501.12
429.403	506.12
429.625	537.12
429.847	554.12
430.069	570.12
430.292	574.12
430.514	529.12
430.736	513.12
430.958	532.12
431.18	511.12
431.402	513.12
431.624	531.12
431.846	513.12
432.068	507.12
432.29	467.12
432.512	527.12
432.734	515.12
432.956	505.12
433.178	528.12
433.4	522.12
433.622	527.12
433.844	533.12
434.066	490.12
434.287	511.12
434.509	526.12
434.731	534.12
434.953	551.12
435.175	554.12
435.397	566.12
435.618	571.12
435.84	576.12
436.062	634.12
436.284	661.12
436.505	577.12
436.727	553.12
436.949	528.12
437.17	540.12
437.392	524.12
437.614	531.12
437.835	511.12
438.057	551.12
438.278	656.12
438.5	645.12
438.721	711.12
438.943	681.12
439.165	547.12
439.386	539.12
439.608	549.12
439.829	544.12
440.05	580.12
440.272	594.12
440.493	550.12
440.715	523.12
440.936	528.12
441.158	529.12
441.379	570.12
441.6	526.12
441.822	558.12
442.043	586.12
442.264	627.12
442.486	669.12
442.707	603.12
442.928	576.12
443.149	581.12
443.371	587.12
443.592	620.12
443.813	697.12
444.034	714.12
444.255	653.12
444.476	609.12
444.698	604.12
444.919	618.12
445.14	729.12
445.361	663.12
445.582	589.12
445.803	619.12
446.024	665.12
446.245	688.12
446.466	629.12
446.687	563.12
446.908	557.12
447.129	533.12
447.35	498.12
447.571	503.12
447.792	529.12
448.013	513.12
448.234	502.12
448.455	529.12
448.675	617.12
448.896	655.12
449.117	567.12
449.338	547.12
449.559	639.12
449.779	705.12
450	571.12
450.221	499.12
450.442	517.12
450.662	490.12
450.883	466.12
451.104	486.12
451.324	500.12
451.545	463.12
451.766	460.12
451.986	451.12
452.207	443.12
452.428	447.12
452.648	459.12
452.869	444.12
453.089	486.12
453.31	457.12
453.53	443.12
453.751	452.12
453.971	434.12
454.192	459.12
454.412	429.12
454.633	441.12
454.853	427.12
455.073	429.12
455.294	470.12
455.514	518.12
455.734	497.12
455.955	445.12
456.175	445.12
456.395	439.12
456.616	424.12
456.836	451.12
457.056	448.12
457.276	413.12
457.497	440.12
457.717	430.12
457.937	423.12
458.157	438.12
458.377	443.12
458.598	458.12
458.818	504.12
459.038	532.12
459.258	561.12
459.478	503.12
459.698	500.12
459.918	514.12
460.138	515.12
460.358	522.12
460.578	521.12
460.798	553.12
461.018	553.12
461.238	550.12
461.458	533.12
461.678	553.12
461.898	550.12
462.118	545.12
462.338	556.12
462.558	569.12
462.777	574.12
462.997	608.12
463.217	671.12
463.437	630.12
463.657	620.12
463.876	598.12
464.096	593.12
464.316	590.12
464.536	598.12
464.755	597.12
464.975	582.12
465.195	612.12
465.414	609.12
465.634	545.12
465.854	526.12
466.073	499.12
466.293	482.12
466.512	476.12
466.732	475.12
466.951	469.12
467.171	471.12
467.391	476.12
467.61	489.12
467.829	474.12
468.049	483.12
468.268	470.12
468.488	467.12
468.707	452.12
468.927	464.12
469.146	435.12
469.365	455.12
469.585	475.12
469.804	488.12
470.023	479.12
470.243	474.12
470.462	482.12
470.681	523.12
470.901	501.12
471.12	487.12
471.339	468.12
471.558	471.12
471.777	494.12
471.997	492.12
472.216	490.12
472.435	502.12
472.654	487.12
472.873	469.12
473.092	478.12
473.311	459.12
473.53	458.12
473.749	466.12
473.968	500.12
474.187	538.12
474.406	562.12
474.625	488.12
474.844	487.12
475.063	454.12
475.282	467.12
475.501	456.12
475.72	481.12
475.939	456.12
476.158	459.12
476.377	458.12
476.596	491.12
476.814	492.12
477.033	488.12
477.252	500.12
477.471	479.12
477.69	498.12
477.908	498.12
478.127	554.12
478.346	544.12
478.564	538.12
478.783	534.12
479.002	551.12
479.22	551.12
479.439	561.12
479.658	565.12
479.876	553.12
480.095	562.12
480.313	605.12
480.532	603.12
480.751	607.12
480.969	592.12
481.188	643.12
481.406	627.12
481.624	563.12
481.843	549.12
482.061	546.12
482.28	528.12
482.498	542.12
482.717	537.12
482.935	538.12
483.153	547.12
483.372	544.12
483.59	533.12
483.808	541.12
484.027	539.12
484.245	524.12
484.463	533.12
484.681	554.12
484.9	535.12
485.118	541.12
485.336	529.12
485.554	551.12
485.772	567.12
485.99	556.12
486.209	550.12
486.427	554.12
486.645	556.12
486.863	571.12
487.081	574.12
487.299	573.12
487.517	567.12
487.735	561.12
487.953	548.12
488.171	571.12
488.389	551.12
488.607	553.12
488.825	583.12
489.043	576.12
489.261	567.12
489.479	553.12
489.696	575.12
489.914	575.12
490.132	571.12
490.35	575.12
490.568	603.12
490.786	599.12
491.003	600.12
491.221	623.12
491.439	610.12
491.657	618.12
491.874	626.12
492.092	646.12
492.31	637.12
492.527	646.12
492.745	666.12
492.963	637.12
493.18	657.12
493.398	667.12
493.615	662.12
493.833	645.12
494.05	669.12
494.268	637.12
494.485	667.12
494.703	652.12
494.92	637.12
495.138	653.12
495.355	634.12
495.573	673.12
495.79	658.12
496.008	665.12
496.225	674.12
496.442	644.12
496.66	666.12
496.877	666.12
497.094	669.12
497.312	662.12
497.529	678.12
497.746	689.12
497.963	707.12
498.181	728.12
498.398	732.12
498.615	787.12
498.832	799.12
499.049	848.12
499.267	887.12
499.484	937.12
499.701	994.12
499.918	1049.12
500.135	1157.12
500.352	1237.12
500.569	1280.12
500.786	1289.12
501.003	1228.12
501.22	1152.12
501.437	1085.12
501.654	1005.12
501.871	948.12
502.088	873.12
