Data from 1960PennyLincolnUp.LampE5.5.200Scan.07172019.P1.ChangedAngle_HRD10591_13-15-38-821.txt Node
Date: Thu Jul 18 13:15:38 EDT 2019
User: cochatt
Spectrometer: HR+D1059
Trigger mode: 1
Integration Time (sec): 1.000000E-1
Scans to average: 1
Electric dark correction enabled: true
Nonlinearity correction enabled: false
Boxcar width: 0
XAxis mode: Wavelengths
Number of Pixels in Spectrum: 2048
>>>>>Begin Spectral Data<<<<<
223.165	-7.19
223.4	-7.19
223.635	-7.19
223.869	-16.19
224.104	-16.19
224.338	-13.19
224.573	-3.19
224.808	-22.19
225.042	-24.19
225.277	-14.19
225.511	6.81
225.746	5.81
225.98	14.81
226.215	12.81
226.449	15.81
226.683	11.81
226.918	24.81
227.152	23.81
227.387	34.81
227.621	29.81
227.856	35.81
228.09	44.81
228.324	39.81
228.559	55.81
228.793	75.81
229.027	79.81
229.262	88.81
229.496	97.81
229.73	111.81
229.964	126.81
230.199	90.81
230.433	111.81
230.667	103.81
230.901	94.81
231.136	92.81
231.37	87.81
231.604	95.81
231.838	101.81
232.072	107.81
232.306	99.81
232.541	124.81
232.775	105.81
233.009	109.81
233.243	125.81
233.477	110.81
233.711	102.81
233.945	101.81
234.179	114.81
234.413	103.81
234.647	105.81
234.881	129.81
235.115	112.81
235.349	119.81
235.583	105.81
235.817	106.81
236.051	116.81
236.285	110.81
236.519	103.81
236.753	126.81
236.987	137.81
237.221	145.81
237.455	184.81
237.689	167.81
237.922	130.81
238.156	117.81
238.39	126.81
238.624	115.81
238.858	129.81
239.091	109.81
239.325	113.81
239.559	124.81
239.793	107.81
240.027	123.81
240.26	131.81
240.494	119.81
240.728	139.81
240.961	129.81
241.195	126.81
241.429	115.81
241.662	117.81
241.896	127.81
242.13	130.81
242.363	138.81
242.597	122.81
242.83	123.81
243.064	128.81
243.298	120.81
243.531	126.81
243.765	140.81
243.998	125.81
244.232	139.81
244.465	128.81
244.699	135.81
244.932	142.81
245.166	123.81
245.399	133.81
245.633	133.81
245.866	127.81
246.099	159.81
246.333	140.81
246.566	142.81
246.8	137.81
247.033	136.81
247.266	141.81
247.5	143.81
247.733	159.81
247.966	167.81
248.2	169.81
248.433	149.81
248.666	167.81
248.899	182.81
249.133	182.81
249.366	183.81
249.599	174.81
249.832	165.81
250.066	179.81
250.299	151.81
250.532	169.81
250.765	196.81
250.998	198.81
251.231	184.81
251.465	188.81
251.698	193.81
251.931	165.81
252.164	179.81
252.397	176.81
252.63	190.81
252.863	188.81
253.096	187.81
253.329	202.81
253.562	176.81
253.795	194.81
254.028	191.81
254.261	189.81
254.494	215.81
254.727	240.81
254.96	222.81
255.193	222.81
255.426	214.81
255.659	210.81
255.892	196.81
256.124	193.81
256.357	220.81
256.59	196.81
256.823	187.81
257.056	198.81
257.289	205.81
257.521	197.81
257.754	189.81
257.987	205.81
258.22	211.81
258.452	189.81
258.685	195.81
258.918	185.81
259.151	215.81
259.383	211.81
259.616	201.81
259.849	198.81
260.081	193.81
260.314	208.81
260.547	236.81
260.779	233.81
261.012	207.81
261.244	224.81
261.477	212.81
261.71	199.81
261.942	214.81
262.175	204.81
262.407	219.81
262.64	190.81
262.872	209.81
263.105	199.81
263.337	187.81
263.57	197.81
263.802	187.81
264.035	193.81
264.267	197.81
264.499	197.81
264.732	191.81
264.964	212.81
265.197	205.81
265.429	211.81
265.661	209.81
265.894	213.81
266.126	212.81
266.358	205.81
266.591	205.81
266.823	205.81
267.055	210.81
267.287	197.81
267.52	191.81
267.752	208.81
267.984	194.81
268.216	201.81
268.448	228.81
268.681	221.81
268.913	212.81
269.145	244.81
269.377	238.81
269.609	251.81
269.841	252.81
270.073	251.81
270.306	255.81
270.538	254.81
270.77	277.81
271.002	295.81
271.234	264.81
271.466	265.81
271.698	265.81
271.93	284.81
272.162	304.81
272.394	283.81
272.626	260.81
272.858	263.81
273.09	255.81
273.322	261.81
273.553	237.81
273.785	237.81
274.017	264.81
274.249	251.81
274.481	245.81
274.713	251.81
274.945	257.81
275.176	248.81
275.408	240.81
275.64	249.81
275.872	247.81
276.104	256.81
276.335	274.81
276.567	268.81
276.799	269.81
277.031	284.81
277.262	274.81
277.494	289.81
277.726	275.81
277.957	279.81
278.189	261.81
278.421	270.81
278.652	256.81
278.884	262.81
279.115	261.81
279.347	262.81
279.579	281.81
279.81	265.81
280.042	244.81
280.273	272.81
280.505	238.81
280.736	237.81
280.968	257.81
281.199	255.81
281.431	260.81
281.662	258.81
281.894	270.81
282.125	233.81
282.356	280.81
282.588	259.81
282.819	283.81
283.051	277.81
283.282	265.81
283.513	274.81
283.745	271.81
283.976	275.81
284.207	259.81
284.439	252.81
284.67	279.81
284.901	279.81
285.132	278.81
285.364	277.81
285.595	282.81
285.826	270.81
286.057	275.81
286.288	277.81
286.52	282.81
286.751	278.81
286.982	287.81
287.213	273.81
287.444	280.81
287.675	271.81
287.906	277.81
288.138	293.81
288.369	279.81
288.6	294.81
288.831	280.81
289.062	287.81
289.293	284.81
289.524	295.81
289.755	282.81
289.986	291.81
290.217	296.81
290.448	278.81
290.679	281.81
290.91	291.81
291.141	280.81
291.371	292.81
291.602	289.81
291.833	281.81
292.064	280.81
292.295	282.81
292.526	275.81
292.757	292.81
292.987	286.81
293.218	270.81
293.449	286.81
293.68	287.81
293.91	277.81
294.141	292.81
294.372	273.81
294.603	295.81
294.833	280.81
295.064	280.81
295.295	294.81
295.525	279.81
295.756	275.81
295.987	284.81
296.217	307.81
296.448	309.81
296.679	290.81
296.909	305.81
297.14	293.81
297.37	304.81
297.601	305.81
297.831	299.81
298.062	292.81
298.292	280.81
298.523	303.81
298.753	305.81
298.984	317.81
299.214	315.81
299.445	288.81
299.675	307.81
299.905	300.81
300.136	304.81
300.366	311.81
300.597	325.81
300.827	295.81
301.057	315.81
301.288	308.81
301.518	315.81
301.748	331.81
301.979	312.81
302.209	303.81
302.439	317.81
302.669	317.81
302.9	329.81
303.13	323.81
303.36	327.81
303.59	320.81
303.82	330.81
304.051	331.81
304.281	327.81
304.511	327.81
304.741	332.81
304.971	300.81
305.201	337.81
305.431	303.81
305.661	318.81
305.891	315.81
306.121	324.81
306.352	330.81
306.582	332.81
306.812	319.81
307.042	321.81
307.272	310.81
307.502	336.81
307.731	341.81
307.961	347.81
308.191	310.81
308.421	329.81
308.651	331.81
308.881	336.81
309.111	355.81
309.341	332.81
309.571	342.81
309.8	333.81
310.03	335.81
310.26	356.81
310.49	359.81
310.72	344.81
310.949	337.81
311.179	377.81
311.409	346.81
311.639	350.81
311.868	349.81
312.098	355.81
312.328	352.81
312.557	379.81
312.787	347.81
313.017	367.81
313.246	367.81
313.476	346.81
313.706	359.81
313.935	367.81
314.165	358.81
314.394	380.81
314.624	391.81
314.853	367.81
315.083	351.81
315.312	375.81
315.542	361.81
315.771	351.81
316.001	361.81
316.23	337.81
316.46	361.81
316.689	369.81
316.919	341.81
317.148	375.81
317.377	381.81
317.607	358.81
317.836	371.81
318.065	372.81
318.295	363.81
318.524	368.81
318.753	366.81
318.983	367.81
319.212	367.81
319.441	352.81
319.67	373.81
319.9	371.81
320.129	349.81
320.358	373.81
320.587	379.81
320.816	375.81
321.046	373.81
321.275	373.81
321.504	382.81
321.733	371.81
321.962	369.81
322.191	395.81
322.42	381.81
322.649	409.81
322.878	421.81
323.108	411.81
323.337	427.81
323.566	439.81
323.795	459.81
324.024	472.81
324.253	568.81
324.482	777.81
324.71	1081.81
324.939	1456.81
325.168	1251.81
325.397	719.81
325.626	549.81
325.855	476.81
326.084	451.81
326.313	436.81
326.542	448.81
326.77	500.81
326.999	542.81
327.228	720.81
327.457	960.81
327.686	1115.81
327.914	799.81
328.143	583.81
328.372	501.81
328.6	485.81
328.829	480.81
329.058	492.81
329.287	505.81
329.515	465.81
329.744	465.81
329.972	448.81
330.201	463.81
330.43	501.81
330.658	496.81
330.887	480.81
331.115	475.81
331.344	461.81
331.572	450.81
331.801	449.81
332.03	451.81
332.258	434.81
332.486	445.81
332.715	404.81
332.943	428.81
333.172	436.81
333.4	444.81
333.629	446.81
333.857	440.81
334.085	467.81
334.314	483.81
334.542	472.81
334.771	497.81
334.999	471.81
335.227	440.81
335.455	418.81
335.684	439.81
335.912	406.81
336.14	426.81
336.369	424.81
336.597	422.81
336.825	424.81
337.053	424.81
337.281	430.81
337.51	416.81
337.738	403.81
337.966	393.81
338.194	425.81
338.422	420.81
338.65	439.81
338.878	410.81
339.106	399.81
339.334	396.81
339.562	404.81
339.79	380.81
340.018	390.81
340.246	395.81
340.474	406.81
340.702	403.81
340.93	388.81
341.158	392.81
341.386	400.81
341.614	398.81
341.842	380.81
342.07	395.81
342.298	395.81
342.526	400.81
342.754	389.81
342.981	391.81
343.209	374.81
343.437	391.81
343.665	397.81
343.893	411.81
344.12	407.81
344.348	406.81
344.576	404.81
344.804	404.81
345.031	397.81
345.259	398.81
345.487	404.81
345.714	409.81
345.942	382.81
346.17	384.81
346.397	383.81
346.625	391.81
346.853	385.81
347.08	369.81
347.308	379.81
347.535	395.81
347.763	405.81
347.99	388.81
348.218	371.81
348.445	383.81
348.673	409.81
348.9	372.81
349.128	372.81
349.355	376.81
349.583	377.81
349.81	373.81
350.037	364.81
350.265	367.81
350.492	370.81
350.72	368.81
350.947	373.81
351.174	369.81
351.402	411.81
351.629	356.81
351.856	369.81
352.083	389.81
352.311	381.81
352.538	380.81
352.765	398.81
352.992	369.81
353.22	378.81
353.447	368.81
353.674	381.81
353.901	370.81
354.128	372.81
354.355	367.81
354.583	363.81
354.81	372.81
355.037	349.81
355.264	361.81
355.491	363.81
355.718	341.81
355.945	341.81
356.172	348.81
356.399	350.81
356.626	356.81
356.853	341.81
357.08	342.81
357.307	360.81
357.534	359.81
357.761	352.81
357.988	366.81
358.215	339.81
358.441	342.81
358.668	377.81
358.895	371.81
359.122	366.81
359.349	383.81
359.576	376.81
359.802	377.81
360.029	404.81
360.256	402.81
360.483	380.81
360.709	367.81
360.936	373.81
361.163	372.81
361.39	368.81
361.616	371.81
361.843	362.81
362.07	368.81
362.296	378.81
362.523	369.81
362.749	361.81
362.976	355.81
363.203	377.81
363.429	334.81
363.656	331.81
363.882	336.81
364.109	367.81
364.335	360.81
364.562	355.81
364.788	360.81
365.015	349.81
365.241	347.81
365.468	360.81
365.694	371.81
365.92	357.81
366.147	371.81
366.373	352.81
366.599	355.81
366.826	363.81
367.052	372.81
367.278	364.81
367.505	372.81
367.731	350.81
367.957	364.81
368.184	369.81
368.41	343.81
368.636	367.81
368.862	365.81
369.089	367.81
369.315	372.81
369.541	358.81
369.767	355.81
369.993	348.81
370.219	346.81
370.445	347.81
370.672	362.81
370.898	367.81
371.124	342.81
371.35	355.81
371.576	367.81
371.802	352.81
372.028	352.81
372.254	340.81
372.48	367.81
372.706	366.81
372.932	341.81
373.158	364.81
373.384	371.81
373.61	363.81
373.835	342.81
374.061	360.81
374.287	344.81
374.513	350.81
374.739	365.81
374.965	361.81
375.191	350.81
375.416	361.81
375.642	365.81
375.868	361.81
376.094	344.81
376.319	353.81
376.545	344.81
376.771	344.81
376.997	340.81
377.222	341.81
377.448	351.81
377.674	332.81
377.899	336.81
378.125	346.81
378.35	352.81
378.576	340.81
378.802	359.81
379.027	355.81
379.253	346.81
379.478	346.81
379.704	347.81
379.929	347.81
380.155	338.81
380.38	346.81
380.606	365.81
380.831	341.81
381.057	358.81
381.282	346.81
381.507	343.81
381.733	339.81
381.958	348.81
382.184	369.81
382.409	355.81
382.634	351.81
382.86	353.81
383.085	349.81
383.31	359.81
383.535	367.81
383.761	367.81
383.986	370.81
384.211	365.81
384.436	367.81
384.662	364.81
384.887	355.81
385.112	344.81
385.337	375.81
385.562	379.81
385.787	371.81
386.013	393.81
386.238	403.81
386.463	391.81
386.688	383.81
386.913	377.81
387.138	360.81
387.363	380.81
387.588	370.81
387.813	372.81
388.038	384.81
388.263	363.81
388.488	366.81
388.713	391.81
388.938	372.81
389.163	387.81
389.387	377.81
389.612	386.81
389.837	384.81
390.062	375.81
390.287	359.81
390.512	369.81
390.736	369.81
390.961	372.81
391.186	372.81
391.411	385.81
391.636	389.81
391.86	380.81
392.085	375.81
392.31	383.81
392.534	381.81
392.759	407.81
392.984	385.81
393.208	369.81
393.433	375.81
393.658	395.81
393.882	382.81
394.107	373.81
394.331	384.81
394.556	367.81
394.78	378.81
395.005	372.81
395.229	373.81
395.454	383.81
395.678	399.81
395.903	390.81
396.127	399.81
396.352	401.81
396.576	394.81
396.801	396.81
397.025	386.81
397.249	381.81
397.474	395.81
397.698	399.81
397.922	394.81
398.147	405.81
398.371	417.81
398.595	427.81
398.82	430.81
399.044	427.81
399.268	436.81
399.492	464.81
399.717	488.81
399.941	509.81
400.165	517.81
400.389	523.81
400.613	458.81
400.837	449.81
401.062	423.81
401.286	435.81
401.51	414.81
401.734	425.81
401.958	427.81
402.182	430.81
402.406	433.81
402.63	430.81
402.854	437.81
403.078	439.81
403.302	422.81
403.526	427.81
403.75	427.81
403.974	417.81
404.198	427.81
404.422	431.81
404.645	445.81
404.869	455.81
405.093	449.81
405.317	480.81
405.541	504.81
405.765	456.81
405.988	435.81
406.212	439.81
406.436	462.81
406.66	474.81
406.883	456.81
407.107	484.81
407.331	503.81
407.555	545.81
407.778	563.81
408.002	513.81
408.226	467.81
408.449	474.81
408.673	472.81
408.896	482.81
409.12	492.81
409.344	503.81
409.567	429.81
409.791	417.81
410.014	441.81
410.238	426.81
410.461	421.81
410.685	429.81
410.908	414.81
411.132	441.81
411.355	473.81
411.578	464.81
411.802	438.81
412.025	420.81
412.249	421.81
412.472	447.81
412.695	484.81
412.919	455.81
413.142	446.81
413.365	411.81
413.589	419.81
413.812	399.81
414.035	404.81
414.258	403.81
414.482	399.81
414.705	391.81
414.928	412.81
415.151	409.81
415.374	406.81
415.597	404.81
415.821	414.81
416.044	414.81
416.267	417.81
416.49	391.81
416.713	411.81
416.936	406.81
417.159	393.81
417.382	388.81
417.605	388.81
417.828	404.81
418.051	392.81
418.274	394.81
418.497	390.81
418.72	405.81
418.943	405.81
419.166	424.81
419.389	427.81
419.611	439.81
419.834	408.81
420.057	405.81
420.28	414.81
420.503	415.81
420.726	401.81
420.948	416.81
421.171	445.81
421.394	466.81
421.617	426.81
421.839	415.81
422.062	416.81
422.285	423.81
422.507	461.81
422.73	503.81
422.953	480.81
423.175	427.81
423.398	425.81
423.621	426.81
423.843	427.81
424.066	430.81
424.288	438.81
424.511	455.81
424.733	490.81
424.956	532.81
425.178	515.81
425.401	503.81
425.623	545.81
425.846	468.81
426.068	420.81
426.291	420.81
426.513	439.81
426.735	457.81
426.958	461.81
427.18	492.81
427.402	622.81
427.625	663.81
427.847	559.81
428.069	499.81
428.292	458.81
428.514	412.81
428.736	400.81
428.958	404.81
429.181	383.81
429.403	387.81
429.625	417.81
429.847	431.81
430.069	471.81
430.292	457.81
430.514	410.81
430.736	405.81
430.958	377.81
431.18	392.81
431.402	382.81
431.624	363.81
431.846	382.81
432.068	368.81
432.29	364.81
432.512	385.81
432.734	385.81
432.956	400.81
433.178	400.81
433.4	401.81
433.622	389.81
433.844	386.81
434.066	371.81
434.287	362.81
434.509	371.81
434.731	403.81
434.953	393.81
435.175	400.81
435.397	428.81
435.618	428.81
435.84	447.81
436.062	511.81
436.284	559.81
436.505	486.81
436.727	436.81
436.949	419.81
437.17	411.81
437.392	396.81
437.614	412.81
437.835	436.81
438.057	481.81
438.278	553.81
438.5	560.81
438.721	608.81
438.943	575.81
439.165	464.81
439.386	439.81
439.608	443.81
439.829	407.81
440.05	432.81
440.272	487.81
440.493	448.81
440.715	421.81
440.936	413.81
441.158	402.81
441.379	404.81
441.6	422.81
441.822	432.81
442.043	450.81
442.264	497.81
442.486	540.81
442.707	484.81
442.928	454.81
443.149	436.81
443.371	438.81
443.592	489.81
443.813	540.81
444.034	587.81
444.255	515.81
444.476	441.81
444.698	456.81
444.919	414.81
445.14	516.81
445.361	489.81
445.582	463.81
445.803	483.81
446.024	545.81
446.245	552.81
446.466	503.81
446.687	464.81
446.908	412.81
447.129	409.81
447.35	419.81
447.571	403.81
447.792	385.81
448.013	392.81
448.234	413.81
448.455	441.81
448.675	514.81
448.896	589.81
449.117	521.81
449.338	466.81
449.559	538.81
449.779	608.81
450	495.81
450.221	450.81
450.442	391.81
450.662	389.81
450.883	387.81
451.104	397.81
451.324	378.81
451.545	374.81
451.766	371.81
451.986	361.81
452.207	363.81
452.428	353.81
452.648	345.81
452.869	347.81
453.089	367.81
453.31	376.81
453.53	356.81
453.751	350.81
453.971	359.81
454.192	377.81
454.412	362.81
454.633	356.81
454.853	367.81
455.073	348.81
455.294	383.81
455.514	419.81
455.734	389.81
455.955	386.81
456.175	357.81
456.395	348.81
456.616	332.81
456.836	347.81
457.056	339.81
457.276	322.81
457.497	344.81
457.717	333.81
457.937	335.81
458.157	345.81
458.377	350.81
458.598	367.81
458.818	400.81
459.038	444.81
459.258	455.81
459.478	403.81
459.698	362.81
459.918	375.81
460.138	365.81
460.358	371.81
460.578	392.81
460.798	401.81
461.018	377.81
461.238	379.81
461.458	399.81
461.678	381.81
461.898	403.81
462.118	394.81
462.338	397.81
462.558	406.81
462.777	407.81
462.997	429.81
463.217	440.81
463.437	434.81
463.657	414.81
463.876	399.81
464.096	405.81
464.316	428.81
464.536	407.81
464.755	405.81
464.975	403.81
465.195	431.81
465.414	469.81
465.634	415.81
465.854	399.81
466.073	364.81
466.293	387.81
466.512	374.81
466.732	365.81
466.951	369.81
467.171	359.81
467.391	356.81
467.61	360.81
467.829	381.81
468.049	368.81
468.268	366.81
468.488	358.81
468.707	361.81
468.927	384.81
469.146	356.81
469.365	350.81
469.585	360.81
469.804	351.81
470.023	371.81
470.243	373.81
470.462	371.81
470.681	365.81
470.901	391.81
471.12	360.81
471.339	375.81
471.558	375.81
471.777	380.81
471.997	385.81
472.216	380.81
472.435	393.81
472.654	380.81
472.873	373.81
473.092	368.81
473.311	367.81
473.53	368.81
473.749	380.81
473.968	412.81
474.187	463.81
474.406	493.81
474.625	407.81
474.844	389.81
475.063	373.81
475.282	382.81
475.501	376.81
475.72	393.81
475.939	381.81
476.158	384.81
476.377	377.81
476.596	391.81
476.814	388.81
477.033	402.81
477.252	397.81
477.471	390.81
477.69	392.81
477.908	393.81
478.127	386.81
478.346	405.81
478.564	409.81
478.783	411.81
479.002	417.81
479.22	406.81
479.439	435.81
479.658	444.81
479.876	466.81
480.095	456.81
480.313	465.81
480.532	458.81
480.751	465.81
480.969	467.81
481.188	472.81
481.406	510.81
481.624	452.81
481.843	445.81
482.061	428.81
482.28	425.81
482.498	426.81
482.717	443.81
482.935	437.81
483.153	443.81
483.372	429.81
483.59	424.81
483.808	417.81
484.027	420.81
484.245	445.81
484.463	420.81
484.681	437.81
484.9	429.81
485.118	422.81
485.336	451.81
485.554	444.81
485.772	445.81
485.99	449.81
486.209	433.81
486.427	461.81
486.645	470.81
486.863	467.81
487.081	451.81
487.299	438.81
487.517	457.81
487.735	450.81
487.953	458.81
488.171	448.81
488.389	448.81
488.607	456.81
488.825	468.81
489.043	459.81
489.261	464.81
489.479	456.81
489.696	469.81
489.914	461.81
490.132	480.81
490.35	468.81
490.568	470.81
490.786	480.81
491.003	484.81
491.221	483.81
491.439	496.81
491.657	483.81
491.874	489.81
492.092	507.81
492.31	509.81
492.527	525.81
492.745	501.81
492.963	511.81
493.18	522.81
493.398	528.81
493.615	503.81
493.833	526.81
494.05	525.81
494.268	515.81
494.485	516.81
494.703	501.81
494.92	501.81
495.138	521.81
495.355	487.81
495.573	521.81
495.79	531.81
496.008	534.81
496.225	525.81
496.442	516.81
496.66	530.81
496.877	554.81
497.094	541.81
497.312	538.81
497.529	541.81
497.746	552.81
497.963	547.81
498.181	560.81
498.398	595.81
498.615	588.81
498.832	603.81
499.049	599.81
499.267	615.81
499.484	638.81
499.701	679.81
499.918	713.81
500.135	748.81
500.352	745.81
500.569	739.81
500.786	779.81
501.003	739.81
501.22	727.81
501.437	681.81
501.654	689.81
501.871	672.81
