Data from 1960PennyLincolnUp.LampE6.200Scan.07172019.P1_HRD10591_13-05-57-001.txt Node
Date: Thu Jul 18 13:05:57 EDT 2019
User: cochatt
Spectrometer: HR+D1059
Trigger mode: 1
Integration Time (sec): 1.000000E-1
Scans to average: 1
Electric dark correction enabled: true
Nonlinearity correction enabled: false
Boxcar width: 0
XAxis mode: Wavelengths
Number of Pixels in Spectrum: 2048
>>>>>Begin Spectral Data<<<<<
223.165	-24.94
223.4	-24.94
223.635	-24.94
223.869	-14.94
224.104	-15.94
224.338	-11.94
224.573	-12.94
224.808	-21.94
225.042	-11.94
225.277	-9.94
225.511	13.06
225.746	13.06
225.98	13.06
226.215	5.06
226.449	25.06
226.683	15.06
226.918	14.06
227.152	26.06
227.387	42.06
227.621	41.06
227.856	55.06
228.09	53.06
228.324	57.06
228.559	60.06
228.793	56.06
229.027	85.06
229.262	89.06
229.496	91.06
229.73	103.06
229.964	106.06
230.199	100.06
230.433	110.06
230.667	108.06
230.901	111.06
231.136	107.06
231.37	109.06
231.604	103.06
231.838	113.06
232.072	101.06
232.306	102.06
232.541	133.06
232.775	115.06
233.009	108.06
233.243	116.06
233.477	105.06
233.711	126.06
233.945	122.06
234.179	125.06
234.413	128.06
234.647	108.06
234.881	109.06
235.115	118.06
235.349	104.06
235.583	127.06
235.817	117.06
236.051	105.06
236.285	112.06
236.519	136.06
236.753	126.06
236.987	141.06
237.221	155.06
237.455	158.06
237.689	144.06
237.922	144.06
238.156	124.06
238.39	118.06
238.624	121.06
238.858	110.06
239.091	125.06
239.325	115.06
239.559	127.06
239.793	131.06
240.027	134.06
240.26	143.06
240.494	142.06
240.728	143.06
240.961	143.06
241.195	144.06
241.429	128.06
241.662	113.06
241.896	129.06
242.13	140.06
242.363	146.06
242.597	142.06
242.83	149.06
243.064	137.06
243.298	147.06
243.531	134.06
243.765	153.06
243.998	146.06
244.232	143.06
244.465	126.06
244.699	137.06
244.932	137.06
245.166	144.06
245.399	139.06
245.633	143.06
245.866	141.06
246.099	149.06
246.333	149.06
246.566	141.06
246.8	160.06
247.033	152.06
247.266	136.06
247.5	154.06
247.733	167.06
247.966	163.06
248.2	183.06
248.433	149.06
248.666	172.06
248.899	177.06
249.133	200.06
249.366	173.06
249.599	168.06
249.832	161.06
250.066	184.06
250.299	176.06
250.532	188.06
250.765	200.06
250.998	195.06
251.231	198.06
251.465	189.06
251.698	173.06
251.931	200.06
252.164	179.06
252.397	202.06
252.63	184.06
252.863	175.06
253.096	204.06
253.329	206.06
253.562	187.06
253.795	191.06
254.028	179.06
254.261	210.06
254.494	198.06
254.727	244.06
254.96	235.06
255.193	215.06
255.426	208.06
255.659	200.06
255.892	188.06
256.124	220.06
256.357	209.06
256.59	206.06
256.823	205.06
257.056	195.06
257.289	200.06
257.521	202.06
257.754	212.06
257.987	191.06
258.22	191.06
258.452	201.06
258.685	187.06
258.918	195.06
259.151	199.06
259.383	215.06
259.616	206.06
259.849	209.06
260.081	214.06
260.314	231.06
260.547	233.06
260.779	229.06
261.012	214.06
261.244	199.06
261.477	212.06
261.71	207.06
261.942	205.06
262.175	218.06
262.407	219.06
262.64	217.06
262.872	214.06
263.105	213.06
263.337	197.06
263.57	214.06
263.802	203.06
264.035	206.06
264.267	201.06
264.499	201.06
264.732	202.06
264.964	195.06
265.197	215.06
265.429	200.06
265.661	215.06
265.894	217.06
266.126	194.06
266.358	202.06
266.591	216.06
266.823	212.06
267.055	222.06
267.287	221.06
267.52	223.06
267.752	221.06
267.984	229.06
268.216	231.06
268.448	228.06
268.681	229.06
268.913	242.06
269.145	249.06
269.377	257.06
269.609	239.06
269.841	260.06
270.073	249.06
270.306	290.06
270.538	287.06
270.77	270.06
271.002	265.06
271.234	247.06
271.466	263.06
271.698	280.06
271.93	289.06
272.162	275.06
272.394	265.06
272.626	266.06
272.858	263.06
273.09	260.06
273.322	273.06
273.553	252.06
273.785	261.06
274.017	258.06
274.249	245.06
274.481	257.06
274.713	255.06
274.945	246.06
275.176	243.06
275.408	254.06
275.64	264.06
275.872	261.06
276.104	245.06
276.335	269.06
276.567	267.06
276.799	259.06
277.031	288.06
277.262	321.06
277.494	295.06
277.726	263.06
277.957	286.06
278.189	266.06
278.421	263.06
278.652	255.06
278.884	251.06
279.115	268.06
279.347	254.06
279.579	236.06
279.81	268.06
280.042	255.06
280.273	275.06
280.505	277.06
280.736	305.06
280.968	253.06
281.199	256.06
281.431	281.06
281.662	249.06
281.894	268.06
282.125	268.06
282.356	280.06
282.588	310.06
282.819	298.06
283.051	285.06
283.282	273.06
283.513	284.06
283.745	287.06
283.976	286.06
284.207	295.06
284.439	291.06
284.67	296.06
284.901	271.06
285.132	288.06
285.364	294.06
285.595	295.06
285.826	292.06
286.057	279.06
286.288	295.06
286.52	295.06
286.751	303.06
286.982	284.06
287.213	303.06
287.444	267.06
287.675	291.06
287.906	285.06
288.138	312.06
288.369	305.06
288.6	316.06
288.831	304.06
289.062	285.06
289.293	295.06
289.524	293.06
289.755	286.06
289.986	302.06
290.217	297.06
290.448	320.06
290.679	311.06
290.91	314.06
291.141	289.06
291.371	319.06
291.602	293.06
291.833	295.06
292.064	305.06
292.295	315.06
292.526	311.06
292.757	307.06
292.987	286.06
293.218	310.06
293.449	304.06
293.68	293.06
293.91	302.06
294.141	309.06
294.372	296.06
294.603	307.06
294.833	320.06
295.064	300.06
295.295	315.06
295.525	293.06
295.756	307.06
295.987	324.06
296.217	321.06
296.448	334.06
296.679	325.06
296.909	316.06
297.14	314.06
297.37	327.06
297.601	291.06
297.831	324.06
298.062	344.06
298.292	318.06
298.523	331.06
298.753	323.06
298.984	331.06
299.214	330.06
299.445	336.06
299.675	325.06
299.905	327.06
300.136	328.06
300.366	330.06
300.597	321.06
300.827	334.06
301.057	338.06
301.288	362.06
301.518	337.06
301.748	347.06
301.979	342.06
302.209	345.06
302.439	341.06
302.669	348.06
302.9	347.06
303.13	340.06
303.36	334.06
303.59	333.06
303.82	329.06
304.051	356.06
304.281	341.06
304.511	331.06
304.741	342.06
304.971	344.06
305.201	341.06
305.431	332.06
305.661	335.06
305.891	352.06
306.121	330.06
306.352	350.06
306.582	346.06
306.812	337.06
307.042	338.06
307.272	345.06
307.502	342.06
307.731	344.06
307.961	336.06
308.191	337.06
308.421	336.06
308.651	360.06
308.881	331.06
309.111	348.06
309.341	369.06
309.571	343.06
309.8	357.06
310.03	359.06
310.26	377.06
310.49	366.06
310.72	364.06
310.949	383.06
311.179	381.06
311.409	365.06
311.639	362.06
311.868	354.06
312.098	383.06
312.328	384.06
312.557	398.06
312.787	379.06
313.017	386.06
313.246	380.06
313.476	355.06
313.706	389.06
313.935	365.06
314.165	380.06
314.394	381.06
314.624	386.06
314.853	382.06
315.083	373.06
315.312	392.06
315.542	377.06
315.771	360.06
316.001	347.06
316.23	375.06
316.46	377.06
316.689	372.06
316.919	372.06
317.148	372.06
317.377	385.06
317.607	408.06
317.836	363.06
318.065	376.06
318.295	377.06
318.524	358.06
318.753	382.06
318.983	369.06
319.212	381.06
319.441	370.06
319.67	392.06
319.9	386.06
320.129	392.06
320.358	377.06
320.587	364.06
320.816	379.06
321.046	400.06
321.275	398.06
321.504	393.06
321.733	389.06
321.962	390.06
322.191	379.06
322.42	407.06
322.649	415.06
322.878	402.06
323.108	431.06
323.337	451.06
323.566	441.06
323.795	445.06
324.024	455.06
324.253	536.06
324.482	743.06
324.71	1031.06
324.939	1392.06
325.168	1157.06
325.397	622.06
325.626	481.06
325.855	472.06
326.084	451.06
326.313	451.06
326.542	467.06
326.77	511.06
326.999	535.06
327.228	701.06
327.457	963.06
327.686	1097.06
327.914	727.06
328.143	534.06
328.372	483.06
328.6	493.06
328.829	490.06
329.058	488.06
329.287	492.06
329.515	471.06
329.744	464.06
329.972	458.06
330.201	467.06
330.43	514.06
330.658	501.06
330.887	526.06
331.115	517.06
331.344	470.06
331.572	453.06
331.801	468.06
332.03	482.06
332.258	464.06
332.486	492.06
332.715	461.06
332.943	506.06
333.172	481.06
333.4	503.06
333.629	515.06
333.857	520.06
334.085	512.06
334.314	526.06
334.542	544.06
334.771	564.06
334.999	501.06
335.227	516.06
335.455	505.06
335.684	490.06
335.912	493.06
336.14	469.06
336.369	478.06
336.597	486.06
336.825	460.06
337.053	467.06
337.281	457.06
337.51	456.06
337.738	468.06
337.966	469.06
338.194	457.06
338.422	448.06
338.65	440.06
338.878	447.06
339.106	431.06
339.334	424.06
339.562	420.06
339.79	411.06
340.018	441.06
340.246	434.06
340.474	431.06
340.702	427.06
340.93	435.06
341.158	417.06
341.386	414.06
341.614	430.06
341.842	422.06
342.07	411.06
342.298	428.06
342.526	429.06
342.754	420.06
342.981	424.06
343.209	439.06
343.437	425.06
343.665	454.06
343.893	493.06
344.12	487.06
344.348	480.06
344.576	473.06
344.804	456.06
345.031	474.06
345.259	459.06
345.487	433.06
345.714	439.06
345.942	433.06
346.17	434.06
346.397	441.06
346.625	411.06
346.853	413.06
347.08	415.06
347.308	434.06
347.535	421.06
347.763	411.06
347.99	436.06
348.218	439.06
348.445	432.06
348.673	432.06
348.9	416.06
349.128	416.06
349.355	413.06
349.583	401.06
349.81	405.06
350.037	403.06
350.265	386.06
350.492	404.06
350.72	415.06
350.947	395.06
351.174	428.06
351.402	415.06
351.629	428.06
351.856	416.06
352.083	434.06
352.311	438.06
352.538	440.06
352.765	432.06
352.992	412.06
353.22	398.06
353.447	407.06
353.674	415.06
353.901	409.06
354.128	407.06
354.355	388.06
354.583	411.06
354.81	410.06
355.037	400.06
355.264	385.06
355.491	406.06
355.718	397.06
355.945	397.06
356.172	395.06
356.399	419.06
356.626	399.06
356.853	424.06
357.08	395.06
357.307	403.06
357.534	411.06
357.761	392.06
357.988	411.06
358.215	417.06
358.441	409.06
358.668	392.06
358.895	400.06
359.122	396.06
359.349	399.06
359.576	435.06
359.802	434.06
360.029	455.06
360.256	452.06
360.483	449.06
360.709	403.06
360.936	438.06
361.163	415.06
361.39	425.06
361.616	428.06
361.843	396.06
362.07	399.06
362.296	412.06
362.523	414.06
362.749	405.06
362.976	421.06
363.203	394.06
363.429	407.06
363.656	432.06
363.882	420.06
364.109	400.06
364.335	406.06
364.562	399.06
364.788	400.06
365.015	412.06
365.241	411.06
365.468	411.06
365.694	423.06
365.92	412.06
366.147	393.06
366.373	407.06
366.599	405.06
366.826	398.06
367.052	392.06
367.278	398.06
367.505	390.06
367.731	404.06
367.957	401.06
368.184	421.06
368.41	413.06
368.636	405.06
368.862	424.06
369.089	412.06
369.315	429.06
369.541	424.06
369.767	412.06
369.993	410.06
370.219	406.06
370.445	433.06
370.672	431.06
370.898	420.06
371.124	408.06
371.35	441.06
371.576	416.06
371.802	422.06
372.028	429.06
372.254	416.06
372.48	427.06
372.706	426.06
372.932	445.06
373.158	436.06
373.384	433.06
373.61	434.06
373.835	434.06
374.061	415.06
374.287	457.06
374.513	437.06
374.739	439.06
374.965	436.06
375.191	447.06
375.416	441.06
375.642	439.06
375.868	416.06
376.094	441.06
376.319	413.06
376.545	420.06
376.771	419.06
376.997	428.06
377.222	433.06
377.448	427.06
377.674	422.06
377.899	407.06
378.125	409.06
378.35	415.06
378.576	427.06
378.802	437.06
379.027	409.06
379.253	438.06
379.478	414.06
379.704	426.06
379.929	437.06
380.155	412.06
380.38	413.06
380.606	443.06
380.831	404.06
381.057	422.06
381.282	420.06
381.507	421.06
381.733	429.06
381.958	431.06
382.184	425.06
382.409	431.06
382.634	436.06
382.86	443.06
383.085	448.06
383.31	447.06
383.535	461.06
383.761	464.06
383.986	457.06
384.211	448.06
384.436	463.06
384.662	461.06
384.887	491.06
385.112	465.06
385.337	466.06
385.562	480.06
385.787	484.06
386.013	494.06
386.238	461.06
386.463	500.06
386.688	489.06
386.913	492.06
387.138	499.06
387.363	463.06
387.588	463.06
387.813	471.06
388.038	480.06
388.263	490.06
388.488	467.06
388.713	480.06
388.938	469.06
389.163	477.06
389.387	472.06
389.612	478.06
389.837	481.06
390.062	486.06
390.287	488.06
390.512	482.06
390.736	462.06
390.961	481.06
391.186	480.06
391.411	507.06
391.636	504.06
391.86	513.06
392.085	526.06
392.31	506.06
392.534	531.06
392.759	504.06
392.984	511.06
393.208	503.06
393.433	506.06
393.658	498.06
393.882	492.06
394.107	475.06
394.331	499.06
394.556	503.06
394.78	521.06
395.005	500.06
395.229	506.06
395.454	517.06
395.678	527.06
395.903	543.06
396.127	531.06
396.352	519.06
396.576	510.06
396.801	491.06
397.025	520.06
397.249	529.06
397.474	532.06
397.698	531.06
397.922	555.06
398.147	539.06
398.371	542.06
398.595	536.06
398.82	556.06
399.044	600.06
399.268	646.06
399.492	696.06
399.717	785.06
399.941	770.06
400.165	728.06
400.389	697.06
400.613	632.06
400.837	583.06
401.062	584.06
401.286	588.06
401.51	564.06
401.734	565.06
401.958	573.06
402.182	572.06
402.406	603.06
402.63	621.06
402.854	601.06
403.078	595.06
403.302	614.06
403.526	639.06
403.75	622.06
403.974	628.06
404.198	632.06
404.422	645.06
404.645	642.06
404.869	630.06
405.093	637.06
405.317	670.06
405.541	699.06
405.765	638.06
405.988	611.06
406.212	629.06
406.436	629.06
406.66	644.06
406.883	645.06
407.107	655.06
407.331	720.06
407.555	757.06
407.778	745.06
408.002	726.06
408.226	667.06
408.449	643.06
408.673	656.06
408.896	659.06
409.12	689.06
409.344	688.06
409.567	630.06
409.791	606.06
410.014	629.06
410.238	617.06
410.461	599.06
410.685	612.06
410.908	630.06
411.132	625.06
411.355	619.06
411.578	627.06
411.802	611.06
412.025	607.06
412.249	592.06
412.472	605.06
412.695	634.06
412.919	629.06
413.142	615.06
413.365	603.06
413.589	596.06
413.812	544.06
414.035	543.06
414.258	555.06
414.482	541.06
414.705	570.06
414.928	559.06
415.151	575.06
415.374	574.06
415.597	545.06
415.821	566.06
416.044	581.06
416.267	537.06
416.49	540.06
416.713	523.06
416.936	540.06
417.159	572.06
417.382	582.06
417.605	569.06
417.828	563.06
418.051	592.06
418.274	570.06
418.497	572.06
418.72	539.06
418.943	553.06
419.166	576.06
419.389	629.06
419.611	596.06
419.834	593.06
420.057	594.06
420.28	596.06
420.503	587.06
420.726	573.06
420.948	573.06
421.171	595.06
421.394	590.06
421.617	569.06
421.839	566.06
422.062	572.06
422.285	592.06
422.507	609.06
422.73	655.06
422.953	620.06
423.175	600.06
423.398	594.06
423.621	604.06
423.843	605.06
424.066	633.06
424.288	603.06
424.511	619.06
424.733	664.06
424.956	693.06
425.178	659.06
425.401	668.06
425.623	656.06
425.846	590.06
426.068	606.06
426.291	557.06
426.513	567.06
426.735	584.06
426.958	614.06
427.18	640.06
427.402	719.06
427.625	780.06
427.847	714.06
428.069	625.06
428.292	584.06
428.514	550.06
428.736	539.06
428.958	533.06
429.181	515.06
429.403	536.06
429.625	541.06
429.847	552.06
430.069	601.06
430.292	587.06
430.514	517.06
430.736	517.06
430.958	521.06
431.18	514.06
431.402	512.06
431.624	514.06
431.846	520.06
432.068	524.06
432.29	516.06
432.512	512.06
432.734	525.06
432.956	532.06
433.178	543.06
433.4	523.06
433.622	510.06
433.844	517.06
434.066	529.06
434.287	537.06
434.509	530.06
434.731	537.06
434.953	577.06
435.175	564.06
435.397	592.06
435.618	580.06
435.84	597.06
436.062	630.06
436.284	657.06
436.505	575.06
436.727	557.06
436.949	554.06
437.17	512.06
437.392	510.06
437.614	533.06
437.835	535.06
438.057	582.06
438.278	669.06
438.5	661.06
438.721	711.06
438.943	700.06
439.165	583.06
439.386	557.06
439.608	569.06
439.829	561.06
440.05	579.06
440.272	591.06
440.493	559.06
440.715	542.06
440.936	555.06
441.158	552.06
441.379	565.06
441.6	572.06
441.822	599.06
442.043	596.06
442.264	666.06
442.486	670.06
442.707	607.06
442.928	575.06
443.149	586.06
443.371	596.06
443.592	617.06
443.813	672.06
444.034	727.06
444.255	652.06
444.476	615.06
444.698	627.06
444.919	651.06
445.14	739.06
445.361	663.06
445.582	648.06
445.803	633.06
446.024	659.06
446.245	679.06
446.466	658.06
446.687	581.06
446.908	545.06
447.129	543.06
447.35	540.06
447.571	525.06
447.792	494.06
448.013	526.06
448.234	532.06
448.455	538.06
448.675	624.06
448.896	658.06
449.117	613.06
449.338	591.06
449.559	646.06
449.779	708.06
450	584.06
450.221	509.06
450.442	507.06
450.662	489.06
450.883	504.06
451.104	506.06
451.324	520.06
451.545	456.06
451.766	471.06
451.986	455.06
452.207	468.06
452.428	481.06
452.648	459.06
452.869	457.06
453.089	475.06
453.31	459.06
453.53	466.06
453.751	453.06
453.971	461.06
454.192	487.06
454.412	443.06
454.633	442.06
454.853	444.06
455.073	435.06
455.294	494.06
455.514	503.06
455.734	509.06
455.955	441.06
456.175	442.06
456.395	449.06
456.616	441.06
456.836	436.06
457.056	417.06
457.276	436.06
457.497	419.06
457.717	449.06
457.937	442.06
458.157	445.06
458.377	477.06
458.598	476.06
458.818	505.06
459.038	547.06
459.258	590.06
459.478	527.06
459.698	536.06
459.918	521.06
460.138	549.06
460.358	523.06
460.578	541.06
460.798	562.06
461.018	561.06
461.238	544.06
461.458	536.06
461.678	534.06
461.898	564.06
462.118	552.06
462.338	573.06
462.558	584.06
462.777	592.06
462.997	642.06
463.217	685.06
463.437	684.06
463.657	627.06
463.876	618.06
464.096	627.06
464.316	593.06
464.536	595.06
464.755	596.06
464.975	596.06
465.195	620.06
465.414	639.06
465.634	569.06
465.854	544.06
466.073	511.06
466.293	487.06
466.512	503.06
466.732	495.06
466.951	469.06
467.171	489.06
467.391	488.06
467.61	484.06
467.829	506.06
468.049	479.06
468.268	477.06
468.488	487.06
468.707	506.06
468.927	479.06
469.146	463.06
469.365	456.06
469.585	474.06
469.804	471.06
470.023	508.06
470.243	486.06
470.462	512.06
470.681	515.06
470.901	511.06
471.12	507.06
471.339	508.06
471.558	479.06
471.777	469.06
471.997	473.06
472.216	497.06
472.435	513.06
472.654	485.06
472.873	461.06
473.092	484.06
473.311	468.06
473.53	443.06
473.749	464.06
473.968	487.06
474.187	536.06
474.406	557.06
474.625	515.06
474.844	476.06
475.063	463.06
475.282	477.06
475.501	467.06
475.72	476.06
475.939	477.06
476.158	476.06
476.377	469.06
476.596	484.06
476.814	478.06
477.033	474.06
477.252	495.06
477.471	510.06
477.69	523.06
477.908	525.06
478.127	533.06
478.346	527.06
478.564	551.06
478.783	537.06
479.002	584.06
479.22	561.06
479.439	567.06
479.658	566.06
479.876	567.06
480.095	571.06
480.313	594.06
480.532	636.06
480.751	627.06
480.969	615.06
481.188	615.06
481.406	641.06
481.624	595.06
481.843	545.06
482.061	564.06
482.28	561.06
482.498	541.06
482.717	538.06
482.935	547.06
483.153	539.06
483.372	545.06
483.59	540.06
483.808	531.06
484.027	544.06
484.245	541.06
484.463	528.06
484.681	531.06
484.9	542.06
485.118	553.06
485.336	542.06
485.554	555.06
485.772	577.06
485.99	571.06
486.209	568.06
486.427	577.06
486.645	592.06
486.863	598.06
487.081	574.06
487.299	575.06
487.517	584.06
487.735	570.06
487.953	572.06
488.171	600.06
488.389	585.06
488.607	555.06
488.825	565.06
489.043	552.06
489.261	561.06
489.479	582.06
489.696	577.06
489.914	588.06
490.132	591.06
490.35	579.06
490.568	609.06
490.786	615.06
491.003	597.06
491.221	632.06
491.439	624.06
491.657	637.06
491.874	656.06
492.092	651.06
492.31	661.06
492.527	653.06
492.745	665.06
492.963	642.06
493.18	679.06
493.398	679.06
493.615	686.06
493.833	685.06
494.05	684.06
494.268	685.06
494.485	684.06
494.703	654.06
494.92	650.06
495.138	634.06
495.355	666.06
495.573	663.06
495.79	652.06
496.008	645.06
496.225	666.06
496.442	667.06
496.66	668.06
496.877	681.06
497.094	659.06
497.312	691.06
497.529	697.06
497.746	683.06
497.963	696.06
498.181	732.06
498.398	761.06
498.615	776.06
498.832	830.06
499.049	846.06
499.267	897.06
499.484	917.06
499.701	1016.06
499.918	1085.06
500.135	1174.06
500.352	1272.06
500.569	1281.06
500.786	1298.06
501.003	1232.06
501.22	1151.06
501.437	1100.06
501.654	1011.06
501.871	964.06
