Data from 1960PennyLincolnUp.LampE5.5.200Scan.07172019.P1.ChangedAngle_HRD10591_13-15-20-821.txt Node
Date: Thu Jul 18 13:15:20 EDT 2019
User: cochatt
Spectrometer: HR+D1059
Trigger mode: 1
Integration Time (sec): 1.000000E-1
Scans to average: 1
Electric dark correction enabled: true
Nonlinearity correction enabled: false
Boxcar width: 0
XAxis mode: Wavelengths
Number of Pixels in Spectrum: 2048
>>>>>Begin Spectral Data<<<<<
223.165	-24.94
223.4	-24.94
223.635	-24.94
223.869	-7.94
224.104	-11.94
224.338	-8.94
224.573	-15.94
224.808	-10.94
225.042	-10.94
225.277	-0.94
225.511	9.06
225.746	2.06
225.98	0.06
226.215	10.06
226.449	7.06
226.683	15.06
226.918	20.06
227.152	29.06
227.387	33.06
227.621	36.06
227.856	35.06
228.09	39.06
228.324	23.06
228.559	53.06
228.793	72.06
229.027	79.06
229.262	83.06
229.496	97.06
229.73	115.06
229.964	131.06
230.199	105.06
230.433	96.06
230.667	99.06
230.901	77.06
231.136	95.06
231.37	92.06
231.604	112.06
231.838	121.06
232.072	91.06
232.306	105.06
232.541	101.06
232.775	109.06
233.009	109.06
233.243	102.06
233.477	108.06
233.711	110.06
233.945	108.06
234.179	101.06
234.413	112.06
234.647	115.06
234.881	99.06
235.115	121.06
235.349	115.06
235.583	114.06
235.817	113.06
236.051	115.06
236.285	114.06
236.519	121.06
236.753	116.06
236.987	133.06
237.221	157.06
237.455	183.06
237.689	145.06
237.922	128.06
238.156	122.06
238.39	130.06
238.624	127.06
238.858	119.06
239.091	126.06
239.325	113.06
239.559	114.06
239.793	114.06
240.027	125.06
240.26	148.06
240.494	150.06
240.728	141.06
240.961	128.06
241.195	124.06
241.429	137.06
241.662	127.06
241.896	116.06
242.13	120.06
242.363	127.06
242.597	129.06
242.83	139.06
243.064	127.06
243.298	127.06
243.531	119.06
243.765	133.06
243.998	119.06
244.232	133.06
244.465	147.06
244.699	151.06
244.932	148.06
245.166	149.06
245.399	136.06
245.633	140.06
245.866	144.06
246.099	136.06
246.333	130.06
246.566	151.06
246.8	146.06
247.033	165.06
247.266	163.06
247.5	141.06
247.733	150.06
247.966	156.06
248.2	159.06
248.433	167.06
248.666	164.06
248.899	177.06
249.133	166.06
249.366	167.06
249.599	171.06
249.832	171.06
250.066	168.06
250.299	167.06
250.532	184.06
250.765	171.06
250.998	187.06
251.231	218.06
251.465	159.06
251.698	184.06
251.931	213.06
252.164	186.06
252.397	180.06
252.63	186.06
252.863	177.06
253.096	201.06
253.329	200.06
253.562	196.06
253.795	212.06
254.028	200.06
254.261	191.06
254.494	200.06
254.727	221.06
254.96	247.06
255.193	225.06
255.426	225.06
255.659	193.06
255.892	220.06
256.124	201.06
256.357	224.06
256.59	210.06
256.823	210.06
257.056	210.06
257.289	192.06
257.521	210.06
257.754	199.06
257.987	201.06
258.22	195.06
258.452	189.06
258.685	189.06
258.918	196.06
259.151	219.06
259.383	223.06
259.616	194.06
259.849	187.06
260.081	207.06
260.314	223.06
260.547	253.06
260.779	217.06
261.012	199.06
261.244	213.06
261.477	198.06
261.71	218.06
261.942	200.06
262.175	222.06
262.407	200.06
262.64	196.06
262.872	181.06
263.105	215.06
263.337	206.06
263.57	205.06
263.802	195.06
264.035	211.06
264.267	210.06
264.499	185.06
264.732	196.06
264.964	200.06
265.197	215.06
265.429	202.06
265.661	219.06
265.894	230.06
266.126	204.06
266.358	211.06
266.591	215.06
266.823	248.06
267.055	222.06
267.287	247.06
267.52	213.06
267.752	221.06
267.984	223.06
268.216	223.06
268.448	216.06
268.681	247.06
268.913	231.06
269.145	246.06
269.377	263.06
269.609	247.06
269.841	262.06
270.073	267.06
270.306	257.06
270.538	278.06
270.77	277.06
271.002	298.06
271.234	269.06
271.466	280.06
271.698	281.06
271.93	287.06
272.162	302.06
272.394	285.06
272.626	282.06
272.858	270.06
273.09	252.06
273.322	267.06
273.553	266.06
273.785	263.06
274.017	260.06
274.249	251.06
274.481	244.06
274.713	264.06
274.945	270.06
275.176	260.06
275.408	260.06
275.64	258.06
275.872	262.06
276.104	280.06
276.335	261.06
276.567	263.06
276.799	280.06
277.031	297.06
277.262	286.06
277.494	297.06
277.726	280.06
277.957	272.06
278.189	254.06
278.421	257.06
278.652	270.06
278.884	291.06
279.115	284.06
279.347	284.06
279.579	257.06
279.81	279.06
280.042	257.06
280.273	279.06
280.505	262.06
280.736	257.06
280.968	263.06
281.199	262.06
281.431	260.06
281.662	272.06
281.894	276.06
282.125	268.06
282.356	280.06
282.588	286.06
282.819	289.06
283.051	288.06
283.282	267.06
283.513	271.06
283.745	287.06
283.976	285.06
284.207	274.06
284.439	293.06
284.67	284.06
284.901	285.06
285.132	280.06
285.364	283.06
285.595	299.06
285.826	289.06
286.057	297.06
286.288	292.06
286.52	271.06
286.751	282.06
286.982	282.06
287.213	282.06
287.444	297.06
287.675	293.06
287.906	287.06
288.138	303.06
288.369	317.06
288.6	283.06
288.831	299.06
289.062	285.06
289.293	284.06
289.524	286.06
289.755	299.06
289.986	295.06
290.217	298.06
290.448	307.06
290.679	277.06
290.91	294.06
291.141	269.06
291.371	297.06
291.602	275.06
291.833	288.06
292.064	294.06
292.295	288.06
292.526	269.06
292.757	285.06
292.987	288.06
293.218	294.06
293.449	295.06
293.68	312.06
293.91	285.06
294.141	306.06
294.372	299.06
294.603	304.06
294.833	296.06
295.064	306.06
295.295	299.06
295.525	317.06
295.756	293.06
295.987	291.06
296.217	307.06
296.448	321.06
296.679	317.06
296.909	307.06
297.14	304.06
297.37	317.06
297.601	300.06
297.831	305.06
298.062	303.06
298.292	301.06
298.523	291.06
298.753	297.06
298.984	299.06
299.214	335.06
299.445	302.06
299.675	304.06
299.905	328.06
300.136	329.06
300.366	307.06
300.597	286.06
300.827	335.06
301.057	326.06
301.288	319.06
301.518	317.06
301.748	328.06
301.979	329.06
302.209	337.06
302.439	317.06
302.669	319.06
302.9	348.06
303.13	333.06
303.36	305.06
303.59	339.06
303.82	336.06
304.051	324.06
304.281	345.06
304.511	328.06
304.741	327.06
304.971	332.06
305.201	301.06
305.431	343.06
305.661	332.06
305.891	337.06
306.121	355.06
306.352	327.06
306.582	341.06
306.812	312.06
307.042	330.06
307.272	340.06
307.502	338.06
307.731	341.06
307.961	337.06
308.191	312.06
308.421	337.06
308.651	337.06
308.881	326.06
309.111	341.06
309.341	324.06
309.571	348.06
309.8	368.06
310.03	359.06
310.26	361.06
310.49	343.06
310.72	371.06
310.949	369.06
311.179	374.06
311.409	351.06
311.639	356.06
311.868	359.06
312.098	352.06
312.328	369.06
312.557	381.06
312.787	382.06
313.017	384.06
313.246	377.06
313.476	366.06
313.706	363.06
313.935	355.06
314.165	375.06
314.394	379.06
314.624	379.06
314.853	390.06
315.083	379.06
315.312	359.06
315.542	367.06
315.771	362.06
316.001	359.06
316.23	373.06
316.46	375.06
316.689	377.06
316.919	377.06
317.148	374.06
317.377	379.06
317.607	375.06
317.836	366.06
318.065	355.06
318.295	376.06
318.524	365.06
318.753	366.06
318.983	387.06
319.212	370.06
319.441	375.06
319.67	396.06
319.9	391.06
320.129	372.06
320.358	375.06
320.587	377.06
320.816	367.06
321.046	381.06
321.275	371.06
321.504	372.06
321.733	380.06
321.962	382.06
322.191	415.06
322.42	390.06
322.649	411.06
322.878	430.06
323.108	430.06
323.337	442.06
323.566	453.06
323.795	446.06
324.024	488.06
324.253	572.06
324.482	780.06
324.71	1123.06
324.939	1511.06
325.168	1258.06
325.397	720.06
325.626	531.06
325.855	480.06
326.084	467.06
326.313	452.06
326.542	476.06
326.77	502.06
326.999	576.06
327.228	739.06
327.457	1019.06
327.686	1167.06
327.914	792.06
328.143	590.06
328.372	512.06
328.6	523.06
328.829	491.06
329.058	488.06
329.287	477.06
329.515	480.06
329.744	448.06
329.972	479.06
330.201	467.06
330.43	493.06
330.658	543.06
330.887	513.06
331.115	507.06
331.344	466.06
331.572	444.06
331.801	449.06
332.03	461.06
332.258	414.06
332.486	432.06
332.715	427.06
332.943	427.06
333.172	432.06
333.4	430.06
333.629	452.06
333.857	470.06
334.085	467.06
334.314	465.06
334.542	508.06
334.771	497.06
334.999	446.06
335.227	447.06
335.455	429.06
335.684	437.06
335.912	437.06
336.14	424.06
336.369	431.06
336.597	458.06
336.825	451.06
337.053	433.06
337.281	412.06
337.51	425.06
337.738	400.06
337.966	423.06
338.194	424.06
338.422	423.06
338.65	428.06
338.878	405.06
339.106	426.06
339.334	415.06
339.562	427.06
339.79	425.06
340.018	419.06
340.246	419.06
340.474	412.06
340.702	401.06
340.93	408.06
341.158	392.06
341.386	404.06
341.614	407.06
341.842	423.06
342.07	411.06
342.298	411.06
342.526	407.06
342.754	398.06
342.981	392.06
343.209	396.06
343.437	392.06
343.665	414.06
343.893	429.06
344.12	441.06
344.348	424.06
344.576	436.06
344.804	411.06
345.031	408.06
345.259	417.06
345.487	413.06
345.714	399.06
345.942	407.06
346.17	407.06
346.397	375.06
346.625	413.06
346.853	404.06
347.08	408.06
347.308	383.06
347.535	384.06
347.763	388.06
347.99	395.06
348.218	399.06
348.445	391.06
348.673	398.06
348.9	392.06
349.128	371.06
349.355	381.06
349.583	366.06
349.81	378.06
350.037	371.06
350.265	387.06
350.492	389.06
350.72	384.06
350.947	383.06
351.174	391.06
351.402	381.06
351.629	409.06
351.856	393.06
352.083	381.06
352.311	396.06
352.538	387.06
352.765	378.06
352.992	392.06
353.22	364.06
353.447	386.06
353.674	384.06
353.901	375.06
354.128	385.06
354.355	366.06
354.583	360.06
354.81	384.06
355.037	346.06
355.264	359.06
355.491	362.06
355.718	365.06
355.945	383.06
356.172	368.06
356.399	369.06
356.626	368.06
356.853	349.06
357.08	361.06
357.307	356.06
357.534	350.06
357.761	379.06
357.988	357.06
358.215	353.06
358.441	389.06
358.668	363.06
358.895	385.06
359.122	360.06
359.349	360.06
359.576	378.06
359.802	366.06
360.029	415.06
360.256	427.06
360.483	399.06
360.709	377.06
360.936	388.06
361.163	375.06
361.39	388.06
361.616	374.06
361.843	384.06
362.07	374.06
362.296	373.06
362.523	381.06
362.749	372.06
362.976	350.06
363.203	362.06
363.429	361.06
363.656	367.06
363.882	376.06
364.109	383.06
364.335	364.06
364.562	365.06
364.788	356.06
365.015	383.06
365.241	374.06
365.468	371.06
365.694	359.06
365.92	365.06
366.147	363.06
366.373	381.06
366.599	360.06
366.826	370.06
367.052	376.06
367.278	348.06
367.505	374.06
367.731	361.06
367.957	366.06
368.184	375.06
368.41	353.06
368.636	367.06
368.862	374.06
369.089	377.06
369.315	373.06
369.541	368.06
369.767	381.06
369.993	385.06
370.219	368.06
370.445	358.06
370.672	389.06
370.898	362.06
371.124	351.06
371.35	365.06
371.576	362.06
371.802	367.06
372.028	388.06
372.254	358.06
372.48	364.06
372.706	377.06
372.932	363.06
373.158	364.06
373.384	388.06
373.61	374.06
373.835	351.06
374.061	363.06
374.287	385.06
374.513	384.06
374.739	360.06
374.965	365.06
375.191	381.06
375.416	383.06
375.642	404.06
375.868	347.06
376.094	347.06
376.319	349.06
376.545	363.06
376.771	361.06
376.997	367.06
377.222	364.06
377.448	361.06
377.674	365.06
377.899	353.06
378.125	367.06
378.35	353.06
378.576	357.06
378.802	359.06
379.027	355.06
379.253	369.06
379.478	351.06
379.704	354.06
379.929	369.06
380.155	360.06
380.38	366.06
380.606	367.06
380.831	371.06
381.057	355.06
381.282	366.06
381.507	384.06
381.733	351.06
381.958	355.06
382.184	360.06
382.409	351.06
382.634	377.06
382.86	361.06
383.085	374.06
383.31	370.06
383.535	375.06
383.761	396.06
383.986	368.06
384.211	379.06
384.436	366.06
384.662	389.06
384.887	381.06
385.112	370.06
385.337	373.06
385.562	375.06
385.787	394.06
386.013	399.06
386.238	401.06
386.463	406.06
386.688	403.06
386.913	389.06
387.138	397.06
387.363	398.06
387.588	399.06
387.813	374.06
388.038	389.06
388.263	393.06
388.488	386.06
388.713	381.06
388.938	375.06
389.163	366.06
389.387	372.06
389.612	388.06
389.837	386.06
390.062	385.06
390.287	403.06
390.512	392.06
390.736	395.06
390.961	405.06
391.186	381.06
391.411	393.06
391.636	382.06
391.86	376.06
392.085	399.06
392.31	399.06
392.534	398.06
392.759	385.06
392.984	396.06
393.208	398.06
393.433	399.06
393.658	384.06
393.882	384.06
394.107	398.06
394.331	376.06
394.556	383.06
394.78	392.06
395.005	401.06
395.229	382.06
395.454	383.06
395.678	413.06
395.903	396.06
396.127	421.06
396.352	431.06
396.576	399.06
396.801	406.06
397.025	385.06
397.249	402.06
397.474	412.06
397.698	399.06
397.922	407.06
398.147	425.06
398.371	440.06
398.595	421.06
398.82	437.06
399.044	458.06
399.268	460.06
399.492	489.06
399.717	502.06
399.941	516.06
400.165	521.06
400.389	510.06
400.613	471.06
400.837	463.06
401.062	457.06
401.286	441.06
401.51	437.06
401.734	422.06
401.958	438.06
402.182	445.06
402.406	442.06
402.63	458.06
402.854	441.06
403.078	431.06
403.302	450.06
403.526	447.06
403.75	440.06
403.974	433.06
404.198	442.06
404.422	427.06
404.645	438.06
404.869	461.06
405.093	483.06
405.317	505.06
405.541	515.06
405.765	478.06
405.988	475.06
406.212	491.06
406.436	479.06
406.66	456.06
406.883	469.06
407.107	499.06
407.331	504.06
407.555	555.06
407.778	578.06
408.002	515.06
408.226	495.06
408.449	473.06
408.673	478.06
408.896	480.06
409.12	508.06
409.344	490.06
409.567	448.06
409.791	445.06
410.014	456.06
410.238	449.06
410.461	428.06
410.685	431.06
410.908	470.06
411.132	460.06
411.355	499.06
411.578	477.06
411.802	444.06
412.025	440.06
412.249	448.06
412.472	476.06
412.695	459.06
412.919	476.06
413.142	440.06
413.365	458.06
413.589	457.06
413.812	432.06
414.035	410.06
414.258	423.06
414.482	406.06
414.705	413.06
414.928	429.06
415.151	405.06
415.374	403.06
415.597	407.06
415.821	405.06
416.044	412.06
416.267	403.06
416.49	410.06
416.713	400.06
416.936	405.06
417.159	419.06
417.382	414.06
417.605	407.06
417.828	423.06
418.051	420.06
418.274	436.06
418.497	403.06
418.72	414.06
418.943	407.06
419.166	410.06
419.389	427.06
419.611	424.06
419.834	437.06
420.057	447.06
420.28	436.06
420.503	449.06
420.726	425.06
420.948	444.06
421.171	448.06
421.394	481.06
421.617	434.06
421.839	411.06
422.062	427.06
422.285	452.06
422.507	480.06
422.73	525.06
422.953	507.06
423.175	447.06
423.398	432.06
423.621	441.06
423.843	466.06
424.066	465.06
424.288	470.06
424.511	471.06
424.733	487.06
424.956	559.06
425.178	538.06
425.401	538.06
425.623	512.06
425.846	459.06
426.068	437.06
426.291	445.06
426.513	449.06
426.735	437.06
426.958	487.06
427.18	531.06
427.402	595.06
427.625	672.06
427.847	604.06
428.069	490.06
428.292	473.06
428.514	437.06
428.736	439.06
428.958	429.06
429.181	429.06
429.403	416.06
429.625	422.06
429.847	457.06
430.069	504.06
430.292	489.06
430.514	410.06
430.736	426.06
430.958	416.06
431.18	431.06
431.402	395.06
431.624	379.06
431.846	409.06
432.068	404.06
432.29	408.06
432.512	406.06
432.734	397.06
432.956	412.06
433.178	403.06
433.4	401.06
433.622	397.06
433.844	404.06
434.066	421.06
434.287	406.06
434.509	407.06
434.731	401.06
434.953	412.06
435.175	403.06
435.397	434.06
435.618	460.06
435.84	456.06
436.062	533.06
436.284	574.06
436.505	493.06
436.727	436.06
436.949	439.06
437.17	393.06
437.392	413.06
437.614	407.06
437.835	453.06
438.057	494.06
438.278	563.06
438.5	569.06
438.721	619.06
438.943	599.06
439.165	467.06
439.386	454.06
439.608	432.06
439.829	445.06
440.05	432.06
440.272	465.06
440.493	456.06
440.715	449.06
440.936	422.06
441.158	418.06
441.379	430.06
441.6	427.06
441.822	437.06
442.043	471.06
442.264	517.06
442.486	552.06
442.707	471.06
442.928	439.06
443.149	449.06
443.371	479.06
443.592	509.06
443.813	563.06
444.034	592.06
444.255	511.06
444.476	474.06
444.698	458.06
444.919	444.06
445.14	526.06
445.361	486.06
445.582	473.06
445.803	507.06
446.024	557.06
446.245	576.06
446.466	541.06
446.687	487.06
446.908	452.06
447.129	430.06
447.35	420.06
447.571	403.06
447.792	421.06
448.013	408.06
448.234	411.06
448.455	463.06
448.675	523.06
448.896	608.06
449.117	533.06
449.338	511.06
449.559	574.06
449.779	622.06
450	520.06
450.221	437.06
450.442	408.06
450.662	383.06
450.883	388.06
451.104	403.06
451.324	403.06
451.545	368.06
451.766	356.06
451.986	367.06
452.207	352.06
452.428	361.06
452.648	379.06
452.869	374.06
453.089	351.06
453.31	365.06
453.53	383.06
453.751	375.06
453.971	371.06
454.192	366.06
454.412	352.06
454.633	367.06
454.853	358.06
455.073	372.06
455.294	387.06
455.514	401.06
455.734	427.06
455.955	350.06
456.175	360.06
456.395	357.06
456.616	366.06
456.836	348.06
457.056	351.06
457.276	371.06
457.497	348.06
457.717	368.06
457.937	363.06
458.157	352.06
458.377	371.06
458.598	375.06
458.818	389.06
459.038	447.06
459.258	459.06
459.478	421.06
459.698	394.06
459.918	399.06
460.138	392.06
460.358	401.06
460.578	406.06
460.798	415.06
461.018	406.06
461.238	412.06
461.458	393.06
461.678	398.06
461.898	408.06
462.118	409.06
462.338	414.06
462.558	422.06
462.777	423.06
462.997	440.06
463.217	438.06
463.437	451.06
463.657	432.06
463.876	453.06
464.096	423.06
464.316	429.06
464.536	424.06
464.755	430.06
464.975	414.06
465.195	442.06
465.414	493.06
465.634	434.06
465.854	387.06
466.073	393.06
466.293	397.06
466.512	402.06
466.732	396.06
466.951	383.06
467.171	387.06
467.391	388.06
467.61	373.06
467.829	378.06
468.049	381.06
468.268	384.06
468.488	375.06
468.707	392.06
468.927	379.06
469.146	367.06
469.365	382.06
469.585	376.06
469.804	385.06
470.023	376.06
470.243	384.06
470.462	374.06
470.681	406.06
470.901	378.06
471.12	376.06
471.339	388.06
471.558	385.06
471.777	383.06
471.997	387.06
472.216	399.06
472.435	419.06
472.654	388.06
472.873	384.06
473.092	377.06
473.311	392.06
473.53	378.06
473.749	394.06
473.968	407.06
474.187	457.06
474.406	520.06
474.625	438.06
474.844	412.06
475.063	393.06
475.282	380.06
475.501	385.06
475.72	403.06
475.939	400.06
476.158	393.06
476.377	392.06
476.596	383.06
476.814	412.06
477.033	401.06
477.252	390.06
477.471	419.06
477.69	395.06
477.908	393.06
478.127	411.06
478.346	401.06
478.564	408.06
478.783	427.06
479.002	440.06
479.22	424.06
479.439	437.06
479.658	457.06
479.876	441.06
480.095	444.06
480.313	463.06
480.532	478.06
480.751	463.06
480.969	477.06
481.188	512.06
481.406	507.06
481.624	480.06
481.843	453.06
482.061	460.06
482.28	436.06
482.498	437.06
482.717	442.06
482.935	445.06
483.153	432.06
483.372	442.06
483.59	442.06
483.808	440.06
484.027	455.06
484.245	436.06
484.463	451.06
484.681	454.06
484.9	445.06
485.118	433.06
485.336	461.06
485.554	452.06
485.772	460.06
485.99	443.06
486.209	450.06
486.427	477.06
486.645	441.06
486.863	460.06
487.081	462.06
487.299	461.06
487.517	493.06
487.735	479.06
487.953	470.06
488.171	486.06
488.389	468.06
488.607	475.06
488.825	471.06
489.043	457.06
489.261	478.06
489.479	471.06
489.696	490.06
489.914	471.06
490.132	469.06
490.35	492.06
490.568	480.06
490.786	523.06
491.003	505.06
491.221	513.06
491.439	522.06
491.657	501.06
491.874	520.06
492.092	542.06
492.31	532.06
492.527	536.06
492.745	530.06
492.963	533.06
493.18	544.06
493.398	549.06
493.615	539.06
493.833	550.06
494.05	557.06
494.268	547.06
494.485	535.06
494.703	554.06
494.92	521.06
495.138	543.06
495.355	558.06
495.573	547.06
495.79	529.06
496.008	564.06
496.225	559.06
496.442	552.06
496.66	547.06
496.877	528.06
497.094	560.06
497.312	551.06
497.529	559.06
497.746	570.06
497.963	598.06
498.181	617.06
498.398	611.06
498.615	633.06
498.832	626.06
499.049	622.06
499.267	654.06
499.484	657.06
499.701	678.06
499.918	731.06
500.135	724.06
500.352	778.06
500.569	803.06
500.786	769.06
501.003	752.06
501.22	748.06
501.437	713.06
501.654	716.06
501.871	697.06
