Data from 1960PennyLincolnUp.LampE5.5.200Scan.07172019.P1.ChangedAngle_HRD10591_13-15-41-823.txt Node
Date: Thu Jul 18 13:15:41 EDT 2019
User: cochatt
Spectrometer: HR+D1059
Trigger mode: 1
Integration Time (sec): 1.000000E-1
Scans to average: 1
Electric dark correction enabled: true
Nonlinearity correction enabled: false
Boxcar width: 0
XAxis mode: Wavelengths
Number of Pixels in Spectrum: 2048
>>>>>Begin Spectral Data<<<<<
223.165	-12.56
223.4	-12.56
223.635	-12.56
223.869	-11.56
224.104	-9.56
224.338	-8.56
224.573	-23.56
224.808	-4.56
225.042	-7.56
225.277	-18.56
225.511	-13.56
225.746	24.44
225.98	5.44
226.215	10.44
226.449	6.44
226.683	19.44
226.918	20.44
227.152	23.44
227.387	45.44
227.621	48.44
227.856	53.44
228.09	54.44
228.324	43.44
228.559	53.44
228.793	65.44
229.027	92.44
229.262	99.44
229.496	103.44
229.73	119.44
229.964	129.44
230.199	115.44
230.433	105.44
230.667	101.44
230.901	125.44
231.136	111.44
231.37	118.44
231.604	110.44
231.838	98.44
232.072	124.44
232.306	106.44
232.541	117.44
232.775	112.44
233.009	111.44
233.243	125.44
233.477	121.44
233.711	126.44
233.945	111.44
234.179	116.44
234.413	111.44
234.647	116.44
234.881	115.44
235.115	125.44
235.349	113.44
235.583	118.44
235.817	105.44
236.051	128.44
236.285	119.44
236.519	131.44
236.753	136.44
236.987	143.44
237.221	151.44
237.455	201.44
237.689	172.44
237.922	139.44
238.156	133.44
238.39	121.44
238.624	115.44
238.858	127.44
239.091	131.44
239.325	119.44
239.559	117.44
239.793	126.44
240.027	132.44
240.26	136.44
240.494	149.44
240.728	137.44
240.961	134.44
241.195	139.44
241.429	139.44
241.662	132.44
241.896	129.44
242.13	134.44
242.363	133.44
242.597	132.44
242.83	130.44
243.064	144.44
243.298	139.44
243.531	146.44
243.765	136.44
243.998	134.44
244.232	135.44
244.465	154.44
244.699	143.44
244.932	144.44
245.166	149.44
245.399	135.44
245.633	134.44
245.866	139.44
246.099	148.44
246.333	148.44
246.566	136.44
246.8	153.44
247.033	136.44
247.266	163.44
247.5	136.44
247.733	146.44
247.966	164.44
248.2	173.44
248.433	174.44
248.666	166.44
248.899	186.44
249.133	191.44
249.366	184.44
249.599	183.44
249.832	173.44
250.066	183.44
250.299	177.44
250.532	178.44
250.765	195.44
250.998	207.44
251.231	206.44
251.465	203.44
251.698	191.44
251.931	192.44
252.164	174.44
252.397	169.44
252.63	200.44
252.863	211.44
253.096	192.44
253.329	215.44
253.562	206.44
253.795	193.44
254.028	194.44
254.261	209.44
254.494	223.44
254.727	231.44
254.96	258.44
255.193	247.44
255.426	232.44
255.659	203.44
255.892	215.44
256.124	213.44
256.357	233.44
256.59	210.44
256.823	197.44
257.056	209.44
257.289	196.44
257.521	202.44
257.754	200.44
257.987	187.44
258.22	215.44
258.452	219.44
258.685	198.44
258.918	196.44
259.151	210.44
259.383	213.44
259.616	219.44
259.849	211.44
260.081	212.44
260.314	233.44
260.547	251.44
260.779	237.44
261.012	212.44
261.244	221.44
261.477	218.44
261.71	220.44
261.942	197.44
262.175	226.44
262.407	233.44
262.64	215.44
262.872	204.44
263.105	216.44
263.337	208.44
263.57	203.44
263.802	225.44
264.035	220.44
264.267	223.44
264.499	217.44
264.732	201.44
264.964	217.44
265.197	220.44
265.429	210.44
265.661	206.44
265.894	217.44
266.126	224.44
266.358	225.44
266.591	215.44
266.823	226.44
267.055	207.44
267.287	235.44
267.52	232.44
267.752	216.44
267.984	215.44
268.216	216.44
268.448	232.44
268.681	234.44
268.913	248.44
269.145	238.44
269.377	248.44
269.609	253.44
269.841	236.44
270.073	253.44
270.306	260.44
270.538	282.44
270.77	299.44
271.002	287.44
271.234	280.44
271.466	285.44
271.698	275.44
271.93	301.44
272.162	289.44
272.394	282.44
272.626	261.44
272.858	280.44
273.09	273.44
273.322	267.44
273.553	260.44
273.785	268.44
274.017	247.44
274.249	260.44
274.481	257.44
274.713	258.44
274.945	263.44
275.176	262.44
275.408	253.44
275.64	275.44
275.872	271.44
276.104	257.44
276.335	269.44
276.567	270.44
276.799	277.44
277.031	287.44
277.262	299.44
277.494	307.44
277.726	297.44
277.957	282.44
278.189	290.44
278.421	285.44
278.652	272.44
278.884	274.44
279.115	279.44
279.347	260.44
279.579	261.44
279.81	256.44
280.042	270.44
280.273	281.44
280.505	280.44
280.736	266.44
280.968	280.44
281.199	269.44
281.431	265.44
281.662	275.44
281.894	276.44
282.125	277.44
282.356	285.44
282.588	299.44
282.819	265.44
283.051	287.44
283.282	275.44
283.513	285.44
283.745	285.44
283.976	292.44
284.207	284.44
284.439	305.44
284.67	288.44
284.901	282.44
285.132	291.44
285.364	288.44
285.595	265.44
285.826	275.44
286.057	290.44
286.288	278.44
286.52	281.44
286.751	298.44
286.982	297.44
287.213	292.44
287.444	312.44
287.675	285.44
287.906	280.44
288.138	290.44
288.369	298.44
288.6	305.44
288.831	297.44
289.062	304.44
289.293	319.44
289.524	315.44
289.755	273.44
289.986	292.44
290.217	310.44
290.448	301.44
290.679	298.44
290.91	296.44
291.141	299.44
291.371	307.44
291.602	287.44
291.833	301.44
292.064	289.44
292.295	297.44
292.526	304.44
292.757	287.44
292.987	271.44
293.218	285.44
293.449	305.44
293.68	307.44
293.91	299.44
294.141	303.44
294.372	292.44
294.603	305.44
294.833	288.44
295.064	292.44
295.295	291.44
295.525	305.44
295.756	295.44
295.987	308.44
296.217	312.44
296.448	336.44
296.679	295.44
296.909	314.44
297.14	308.44
297.37	322.44
297.601	278.44
297.831	295.44
298.062	309.44
298.292	307.44
298.523	320.44
298.753	301.44
298.984	295.44
299.214	304.44
299.445	303.44
299.675	331.44
299.905	316.44
300.136	318.44
300.366	313.44
300.597	322.44
300.827	349.44
301.057	331.44
301.288	335.44
301.518	325.44
301.748	320.44
301.979	324.44
302.209	326.44
302.439	343.44
302.669	332.44
302.9	335.44
303.13	320.44
303.36	344.44
303.59	337.44
303.82	345.44
304.051	321.44
304.281	338.44
304.511	331.44
304.741	336.44
304.971	336.44
305.201	320.44
305.431	323.44
305.661	334.44
305.891	311.44
306.121	320.44
306.352	326.44
306.582	333.44
306.812	336.44
307.042	362.44
307.272	367.44
307.502	326.44
307.731	339.44
307.961	334.44
308.191	323.44
308.421	352.44
308.651	336.44
308.881	349.44
309.111	327.44
309.341	323.44
309.571	341.44
309.8	356.44
310.03	365.44
310.26	360.44
310.49	368.44
310.72	363.44
310.949	377.44
311.179	361.44
311.409	367.44
311.639	375.44
311.868	383.44
312.098	369.44
312.328	372.44
312.557	387.44
312.787	397.44
313.017	369.44
313.246	395.44
313.476	363.44
313.706	372.44
313.935	364.44
314.165	375.44
314.394	362.44
314.624	389.44
314.853	388.44
315.083	368.44
315.312	363.44
315.542	362.44
315.771	384.44
316.001	392.44
316.23	380.44
316.46	373.44
316.689	356.44
316.919	377.44
317.148	379.44
317.377	399.44
317.607	393.44
317.836	369.44
318.065	380.44
318.295	368.44
318.524	395.44
318.753	377.44
318.983	383.44
319.212	363.44
319.441	373.44
319.67	372.44
319.9	370.44
320.129	388.44
320.358	384.44
320.587	372.44
320.816	384.44
321.046	392.44
321.275	393.44
321.504	379.44
321.733	387.44
321.962	410.44
322.191	410.44
322.42	431.44
322.649	415.44
322.878	416.44
323.108	435.44
323.337	437.44
323.566	464.44
323.795	457.44
324.024	517.44
324.253	604.44
324.482	834.44
324.71	1197.44
324.939	1622.44
325.168	1357.44
325.397	739.44
325.626	552.44
325.855	505.44
326.084	480.44
326.313	458.44
326.542	465.44
326.77	508.44
326.999	604.44
327.228	757.44
327.457	1083.44
327.686	1184.44
327.914	829.44
328.143	596.44
328.372	538.44
328.6	508.44
328.829	512.44
329.058	505.44
329.287	514.44
329.515	504.44
329.744	491.44
329.972	495.44
330.201	471.44
330.43	527.44
330.658	519.44
330.887	536.44
331.115	525.44
331.344	474.44
331.572	485.44
331.801	460.44
332.03	432.44
332.258	426.44
332.486	461.44
332.715	444.44
332.943	432.44
333.172	435.44
333.4	426.44
333.629	453.44
333.857	471.44
334.085	483.44
334.314	475.44
334.542	491.44
334.771	505.44
334.999	474.44
335.227	459.44
335.455	441.44
335.684	442.44
335.912	447.44
336.14	429.44
336.369	441.44
336.597	418.44
336.825	422.44
337.053	433.44
337.281	439.44
337.51	416.44
337.738	435.44
337.966	426.44
338.194	436.44
338.422	431.44
338.65	421.44
338.878	411.44
339.106	418.44
339.334	427.44
339.562	410.44
339.79	407.44
340.018	401.44
340.246	431.44
340.474	411.44
340.702	402.44
340.93	397.44
341.158	406.44
341.386	403.44
341.614	401.44
341.842	414.44
342.07	408.44
342.298	397.44
342.526	389.44
342.754	390.44
342.981	405.44
343.209	411.44
343.437	399.44
343.665	416.44
343.893	433.44
344.12	412.44
344.348	428.44
344.576	417.44
344.804	423.44
345.031	424.44
345.259	419.44
345.487	431.44
345.714	402.44
345.942	400.44
346.17	401.44
346.397	415.44
346.625	391.44
346.853	391.44
347.08	375.44
347.308	398.44
347.535	396.44
347.763	394.44
347.99	402.44
348.218	394.44
348.445	397.44
348.673	385.44
348.9	397.44
349.128	394.44
349.355	387.44
349.583	393.44
349.81	373.44
350.037	392.44
350.265	379.44
350.492	385.44
350.72	359.44
350.947	392.44
351.174	402.44
351.402	393.44
351.629	397.44
351.856	391.44
352.083	393.44
352.311	394.44
352.538	397.44
352.765	397.44
352.992	395.44
353.22	396.44
353.447	398.44
353.674	363.44
353.901	394.44
354.128	395.44
354.355	362.44
354.583	377.44
354.81	375.44
355.037	387.44
355.264	381.44
355.491	360.44
355.718	371.44
355.945	379.44
356.172	372.44
356.399	346.44
356.626	365.44
356.853	361.44
357.08	364.44
357.307	367.44
357.534	368.44
357.761	371.44
357.988	368.44
358.215	367.44
358.441	379.44
358.668	365.44
358.895	365.44
359.122	380.44
359.349	385.44
359.576	373.44
359.802	388.44
360.029	403.44
360.256	399.44
360.483	385.44
360.709	387.44
360.936	379.44
361.163	354.44
361.39	381.44
361.616	369.44
361.843	393.44
362.07	375.44
362.296	389.44
362.523	367.44
362.749	373.44
362.976	373.44
363.203	378.44
363.429	368.44
363.656	364.44
363.882	371.44
364.109	366.44
364.335	353.44
364.562	342.44
364.788	367.44
365.015	390.44
365.241	395.44
365.468	378.44
365.694	383.44
365.92	366.44
366.147	377.44
366.373	377.44
366.599	362.44
366.826	351.44
367.052	374.44
367.278	361.44
367.505	373.44
367.731	370.44
367.957	375.44
368.184	352.44
368.41	367.44
368.636	359.44
368.862	378.44
369.089	345.44
369.315	348.44
369.541	376.44
369.767	355.44
369.993	375.44
370.219	397.44
370.445	375.44
370.672	367.44
370.898	351.44
371.124	361.44
371.35	362.44
371.576	359.44
371.802	373.44
372.028	357.44
372.254	344.44
372.48	373.44
372.706	353.44
372.932	359.44
373.158	365.44
373.384	372.44
373.61	380.44
373.835	365.44
374.061	368.44
374.287	379.44
374.513	360.44
374.739	359.44
374.965	377.44
375.191	371.44
375.416	367.44
375.642	369.44
375.868	366.44
376.094	366.44
376.319	380.44
376.545	351.44
376.771	358.44
376.997	363.44
377.222	354.44
377.448	352.44
377.674	361.44
377.899	372.44
378.125	365.44
378.35	366.44
378.576	371.44
378.802	376.44
379.027	366.44
379.253	369.44
379.478	352.44
379.704	353.44
379.929	378.44
380.155	353.44
380.38	355.44
380.606	363.44
380.831	351.44
381.057	359.44
381.282	351.44
381.507	361.44
381.733	349.44
381.958	355.44
382.184	363.44
382.409	375.44
382.634	374.44
382.86	372.44
383.085	371.44
383.31	372.44
383.535	380.44
383.761	350.44
383.986	355.44
384.211	375.44
384.436	359.44
384.662	366.44
384.887	370.44
385.112	393.44
385.337	375.44
385.562	390.44
385.787	375.44
386.013	379.44
386.238	390.44
386.463	386.44
386.688	415.44
386.913	377.44
387.138	382.44
387.363	392.44
387.588	403.44
387.813	390.44
388.038	390.44
388.263	405.44
388.488	370.44
388.713	373.44
388.938	404.44
389.163	389.44
389.387	382.44
389.612	386.44
389.837	369.44
390.062	405.44
390.287	392.44
390.512	375.44
390.736	381.44
390.961	397.44
391.186	379.44
391.411	390.44
391.636	373.44
391.86	387.44
392.085	419.44
392.31	374.44
392.534	394.44
392.759	389.44
392.984	389.44
393.208	392.44
393.433	393.44
393.658	387.44
393.882	389.44
394.107	392.44
394.331	399.44
394.556	387.44
394.78	370.44
395.005	394.44
395.229	379.44
395.454	372.44
395.678	394.44
395.903	423.44
396.127	416.44
396.352	421.44
396.576	408.44
396.801	392.44
397.025	396.44
397.249	383.44
397.474	415.44
397.698	402.44
397.922	417.44
398.147	449.44
398.371	442.44
398.595	418.44
398.82	437.44
399.044	441.44
399.268	443.44
399.492	473.44
399.717	495.44
399.941	512.44
400.165	514.44
400.389	544.44
400.613	495.44
400.837	461.44
401.062	440.44
401.286	453.44
401.51	434.44
401.734	433.44
401.958	444.44
402.182	431.44
402.406	441.44
402.63	446.44
402.854	430.44
403.078	453.44
403.302	453.44
403.526	457.44
403.75	437.44
403.974	445.44
404.198	431.44
404.422	441.44
404.645	451.44
404.869	460.44
405.093	470.44
405.317	513.44
405.541	514.44
405.765	478.44
405.988	468.44
406.212	465.44
406.436	472.44
406.66	484.44
406.883	465.44
407.107	494.44
407.331	541.44
407.555	574.44
407.778	541.44
408.002	511.44
408.226	489.44
408.449	468.44
408.673	479.44
408.896	484.44
409.12	531.44
409.344	499.44
409.567	453.44
409.791	456.44
410.014	448.44
410.238	418.44
410.461	429.44
410.685	433.44
410.908	449.44
411.132	475.44
411.355	497.44
411.578	481.44
411.802	452.44
412.025	428.44
412.249	453.44
412.472	462.44
412.695	468.44
412.919	466.44
413.142	450.44
413.365	445.44
413.589	434.44
413.812	428.44
414.035	400.44
414.258	409.44
414.482	416.44
414.705	421.44
414.928	408.44
415.151	407.44
415.374	413.44
415.597	397.44
415.821	412.44
416.044	434.44
416.267	408.44
416.49	420.44
416.713	413.44
416.936	399.44
417.159	404.44
417.382	405.44
417.605	413.44
417.828	427.44
418.051	440.44
418.274	430.44
418.497	419.44
418.72	414.44
418.943	402.44
419.166	435.44
419.389	435.44
419.611	445.44
419.834	430.44
420.057	423.44
420.28	433.44
420.503	425.44
420.726	409.44
420.948	435.44
421.171	459.44
421.394	493.44
421.617	451.44
421.839	440.44
422.062	415.44
422.285	437.44
422.507	480.44
422.73	527.44
422.953	505.44
423.175	461.44
423.398	427.44
423.621	433.44
423.843	459.44
424.066	443.44
424.288	444.44
424.511	452.44
424.733	503.44
424.956	553.44
425.178	540.44
425.401	521.44
425.623	546.44
425.846	481.44
426.068	449.44
426.291	447.44
426.513	450.44
426.735	445.44
426.958	484.44
427.18	533.44
427.402	628.44
427.625	680.44
427.847	576.44
428.069	523.44
428.292	483.44
428.514	429.44
428.736	428.44
428.958	445.44
429.181	425.44
429.403	417.44
429.625	423.44
429.847	444.44
430.069	473.44
430.292	493.44
430.514	425.44
430.736	419.44
430.958	386.44
431.18	400.44
431.402	389.44
431.624	398.44
431.846	394.44
432.068	375.44
432.29	410.44
432.512	389.44
432.734	402.44
432.956	392.44
433.178	399.44
433.4	400.44
433.622	404.44
433.844	387.44
434.066	390.44
434.287	402.44
434.509	416.44
434.731	415.44
434.953	398.44
435.175	399.44
435.397	446.44
435.618	447.44
435.84	482.44
436.062	552.44
436.284	566.44
436.505	488.44
436.727	447.44
436.949	425.44
437.17	419.44
437.392	396.44
437.614	435.44
437.835	462.44
438.057	514.44
438.278	552.44
438.5	561.44
438.721	623.44
438.943	605.44
439.165	495.44
439.386	457.44
439.608	442.44
439.829	450.44
440.05	489.44
440.272	471.44
440.493	460.44
440.715	439.44
440.936	406.44
441.158	407.44
441.379	404.44
441.6	410.44
441.822	451.44
442.043	469.44
442.264	529.44
442.486	545.44
442.707	492.44
442.928	428.44
443.149	462.44
443.371	475.44
443.592	504.44
443.813	578.44
444.034	609.44
444.255	516.44
444.476	459.44
444.698	469.44
444.919	450.44
445.14	563.44
445.361	504.44
445.582	463.44
445.803	516.44
446.024	587.44
446.245	596.44
446.466	546.44
446.687	478.44
446.908	445.44
447.129	419.44
447.35	413.44
447.571	413.44
447.792	425.44
448.013	443.44
448.234	419.44
448.455	474.44
448.675	562.44
448.896	597.44
449.117	536.44
449.338	503.44
449.559	577.44
449.779	668.44
450	548.44
450.221	441.44
450.442	415.44
450.662	388.44
450.883	433.44
451.104	415.44
451.324	401.44
451.545	376.44
451.766	385.44
451.986	373.44
452.207	373.44
452.428	379.44
452.648	357.44
452.869	371.44
453.089	377.44
453.31	384.44
453.53	371.44
453.751	396.44
453.971	368.44
454.192	388.44
454.412	383.44
454.633	356.44
454.853	362.44
455.073	359.44
455.294	376.44
455.514	414.44
455.734	415.44
455.955	376.44
456.175	368.44
456.395	360.44
456.616	356.44
456.836	349.44
457.056	356.44
457.276	351.44
457.497	364.44
457.717	357.44
457.937	356.44
458.157	368.44
458.377	363.44
458.598	388.44
458.818	412.44
459.038	443.44
459.258	477.44
459.478	420.44
459.698	391.44
459.918	379.44
460.138	380.44
460.358	386.44
460.578	407.44
460.798	396.44
461.018	403.44
461.238	407.44
461.458	402.44
461.678	386.44
461.898	392.44
462.118	416.44
462.338	435.44
462.558	432.44
462.777	413.44
462.997	420.44
463.217	441.44
463.437	449.44
463.657	435.44
463.876	418.44
464.096	433.44
464.316	419.44
464.536	425.44
464.755	432.44
464.975	427.44
465.195	444.44
465.414	482.44
465.634	439.44
465.854	416.44
466.073	396.44
466.293	379.44
466.512	379.44
466.732	365.44
466.951	399.44
467.171	369.44
467.391	381.44
467.61	381.44
467.829	385.44
468.049	374.44
468.268	390.44
468.488	373.44
468.707	367.44
468.927	359.44
469.146	361.44
469.365	355.44
469.585	377.44
469.804	387.44
470.023	371.44
470.243	374.44
470.462	388.44
470.681	400.44
470.901	384.44
471.12	386.44
471.339	372.44
471.558	363.44
471.777	397.44
471.997	392.44
472.216	390.44
472.435	392.44
472.654	409.44
472.873	401.44
473.092	378.44
473.311	380.44
473.53	383.44
473.749	396.44
473.968	414.44
474.187	507.44
474.406	493.44
474.625	437.44
474.844	397.44
475.063	400.44
475.282	406.44
475.501	398.44
475.72	408.44
475.939	411.44
476.158	416.44
476.377	390.44
476.596	392.44
476.814	411.44
477.033	408.44
477.252	401.44
477.471	409.44
477.69	392.44
477.908	423.44
478.127	421.44
478.346	406.44
478.564	410.44
478.783	457.44
479.002	425.44
479.22	444.44
479.439	436.44
479.658	477.44
479.876	463.44
480.095	480.44
480.313	492.44
480.532	479.44
480.751	455.44
480.969	481.44
481.188	501.44
481.406	520.44
481.624	447.44
481.843	467.44
482.061	447.44
482.28	452.44
482.498	450.44
482.717	445.44
482.935	452.44
483.153	429.44
483.372	452.44
483.59	438.44
483.808	459.44
484.027	433.44
484.245	447.44
484.463	429.44
484.681	458.44
484.9	457.44
485.118	464.44
485.336	445.44
485.554	448.44
485.772	465.44
485.99	443.44
486.209	438.44
486.427	488.44
486.645	482.44
486.863	481.44
487.081	455.44
487.299	465.44
487.517	469.44
487.735	445.44
487.953	452.44
488.171	479.44
488.389	466.44
488.607	480.44
488.825	467.44
489.043	466.44
489.261	495.44
489.479	495.44
489.696	479.44
489.914	489.44
490.132	476.44
490.35	501.44
490.568	488.44
490.786	495.44
491.003	502.44
491.221	499.44
491.439	529.44
491.657	517.44
491.874	507.44
492.092	523.44
492.31	528.44
492.527	518.44
492.745	534.44
492.963	549.44
493.18	526.44
493.398	529.44
493.615	548.44
493.833	536.44
494.05	538.44
494.268	560.44
494.485	544.44
494.703	522.44
494.92	517.44
495.138	539.44
495.355	547.44
495.573	531.44
495.79	521.44
496.008	553.44
496.225	538.44
496.442	546.44
496.66	555.44
496.877	565.44
497.094	554.44
497.312	576.44
497.529	564.44
497.746	598.44
497.963	582.44
498.181	597.44
498.398	585.44
498.615	638.44
498.832	611.44
499.049	624.44
499.267	642.44
499.484	665.44
499.701	707.44
499.918	714.44
500.135	709.44
500.352	758.44
500.569	781.44
500.786	792.44
501.003	795.44
501.22	731.44
501.437	708.44
501.654	697.44
501.871	707.44
