Data from 1960PennyLincolnUp.LampE6.200Scan.07172019.P1_HRD10591_13-05-34-001.txt Node
Date: Thu Jul 18 13:05:34 EDT 2019
User: cochatt
Spectrometer: HR+D1059
Trigger mode: 1
Integration Time (sec): 1.000000E-1
Scans to average: 1
Electric dark correction enabled: true
Nonlinearity correction enabled: false
Boxcar width: 0
XAxis mode: Wavelengths
Number of Pixels in Spectrum: 2048
>>>>>Begin Spectral Data<<<<<
223.165	-9.25
223.4	-9.25
223.635	-9.25
223.869	-20.25
224.104	-15.25
224.338	-25.25
224.573	-20.25
224.808	-14.25
225.042	-11.25
225.277	-0.25
225.511	11.75
225.746	6.75
225.98	6.75
226.215	8.75
226.449	20.75
226.683	19.75
226.918	19.75
227.152	21.75
227.387	38.75
227.621	38.75
227.856	34.75
228.09	44.75
228.324	40.75
228.559	63.75
228.793	55.75
229.027	82.75
229.262	102.75
229.496	94.75
229.73	102.75
229.964	112.75
230.199	98.75
230.433	101.75
230.667	107.75
230.901	85.75
231.136	93.75
231.37	108.75
231.604	104.75
231.838	107.75
232.072	102.75
232.306	110.75
232.541	117.75
232.775	111.75
233.009	105.75
233.243	100.75
233.477	101.75
233.711	107.75
233.945	114.75
234.179	114.75
234.413	107.75
234.647	106.75
234.881	107.75
235.115	115.75
235.349	99.75
235.583	108.75
235.817	109.75
236.051	110.75
236.285	122.75
236.519	126.75
236.753	128.75
236.987	114.75
237.221	127.75
237.455	158.75
237.689	131.75
237.922	135.75
238.156	124.75
238.39	118.75
238.624	112.75
238.858	98.75
239.091	105.75
239.325	116.75
239.559	118.75
239.793	124.75
240.027	127.75
240.26	119.75
240.494	129.75
240.728	126.75
240.961	148.75
241.195	143.75
241.429	117.75
241.662	121.75
241.896	130.75
242.13	127.75
242.363	102.75
242.597	110.75
242.83	144.75
243.064	137.75
243.298	120.75
243.531	131.75
243.765	124.75
243.998	128.75
244.232	116.75
244.465	126.75
244.699	135.75
244.932	134.75
245.166	146.75
245.399	129.75
245.633	139.75
245.866	139.75
246.099	130.75
246.333	143.75
246.566	144.75
246.8	148.75
247.033	156.75
247.266	130.75
247.5	140.75
247.733	143.75
247.966	148.75
248.2	142.75
248.433	162.75
248.666	170.75
248.899	147.75
249.133	168.75
249.366	179.75
249.599	162.75
249.832	159.75
250.066	158.75
250.299	144.75
250.532	164.75
250.765	183.75
250.998	194.75
251.231	183.75
251.465	157.75
251.698	173.75
251.931	174.75
252.164	160.75
252.397	162.75
252.63	175.75
252.863	156.75
253.096	187.75
253.329	206.75
253.562	172.75
253.795	190.75
254.028	182.75
254.261	171.75
254.494	189.75
254.727	203.75
254.96	213.75
255.193	195.75
255.426	186.75
255.659	193.75
255.892	185.75
256.124	188.75
256.357	166.75
256.59	178.75
256.823	189.75
257.056	187.75
257.289	176.75
257.521	186.75
257.754	191.75
257.987	182.75
258.22	193.75
258.452	183.75
258.685	167.75
258.918	203.75
259.151	192.75
259.383	178.75
259.616	194.75
259.849	190.75
260.081	194.75
260.314	214.75
260.547	201.75
260.779	197.75
261.012	189.75
261.244	190.75
261.477	212.75
261.71	199.75
261.942	195.75
262.175	201.75
262.407	198.75
262.64	194.75
262.872	194.75
263.105	200.75
263.337	179.75
263.57	199.75
263.802	192.75
264.035	186.75
264.267	196.75
264.499	196.75
264.732	204.75
264.964	209.75
265.197	207.75
265.429	197.75
265.661	208.75
265.894	195.75
266.126	197.75
266.358	203.75
266.591	198.75
266.823	213.75
267.055	201.75
267.287	201.75
267.52	203.75
267.752	203.75
267.984	206.75
268.216	208.75
268.448	224.75
268.681	224.75
268.913	226.75
269.145	236.75
269.377	249.75
269.609	246.75
269.841	240.75
270.073	216.75
270.306	260.75
270.538	237.75
270.77	238.75
271.002	261.75
271.234	247.75
271.466	255.75
271.698	240.75
271.93	279.75
272.162	252.75
272.394	257.75
272.626	244.75
272.858	238.75
273.09	244.75
273.322	238.75
273.553	248.75
273.785	248.75
274.017	234.75
274.249	231.75
274.481	255.75
274.713	224.75
274.945	251.75
275.176	253.75
275.408	246.75
275.64	232.75
275.872	221.75
276.104	253.75
276.335	245.75
276.567	248.75
276.799	251.75
277.031	271.75
277.262	243.75
277.494	279.75
277.726	271.75
277.957	239.75
278.189	247.75
278.421	251.75
278.652	247.75
278.884	258.75
279.115	236.75
279.347	260.75
279.579	256.75
279.81	262.75
280.042	262.75
280.273	264.75
280.505	266.75
280.736	251.75
280.968	254.75
281.199	261.75
281.431	236.75
281.662	250.75
281.894	271.75
282.125	254.75
282.356	264.75
282.588	274.75
282.819	282.75
283.051	269.75
283.282	270.75
283.513	262.75
283.745	276.75
283.976	270.75
284.207	268.75
284.439	256.75
284.67	291.75
284.901	286.75
285.132	279.75
285.364	278.75
285.595	283.75
285.826	279.75
286.057	283.75
286.288	275.75
286.52	292.75
286.751	280.75
286.982	280.75
287.213	253.75
287.444	269.75
287.675	280.75
287.906	294.75
288.138	285.75
288.369	286.75
288.6	282.75
288.831	297.75
289.062	289.75
289.293	267.75
289.524	282.75
289.755	264.75
289.986	293.75
290.217	290.75
290.448	277.75
290.679	285.75
290.91	290.75
291.141	282.75
291.371	273.75
291.602	266.75
291.833	292.75
292.064	283.75
292.295	292.75
292.526	299.75
292.757	291.75
292.987	312.75
293.218	301.75
293.449	293.75
293.68	305.75
293.91	286.75
294.141	288.75
294.372	295.75
294.603	282.75
294.833	307.75
295.064	280.75
295.295	298.75
295.525	291.75
295.756	309.75
295.987	317.75
296.217	301.75
296.448	305.75
296.679	304.75
296.909	292.75
297.14	292.75
297.37	303.75
297.601	327.75
297.831	300.75
298.062	298.75
298.292	298.75
298.523	307.75
298.753	326.75
298.984	303.75
299.214	304.75
299.445	300.75
299.675	304.75
299.905	320.75
300.136	310.75
300.366	315.75
300.597	320.75
300.827	318.75
301.057	307.75
301.288	322.75
301.518	324.75
301.748	338.75
301.979	326.75
302.209	325.75
302.439	338.75
302.669	332.75
302.9	332.75
303.13	334.75
303.36	333.75
303.59	312.75
303.82	323.75
304.051	327.75
304.281	329.75
304.511	327.75
304.741	333.75
304.971	330.75
305.201	334.75
305.431	333.75
305.661	313.75
305.891	312.75
306.121	323.75
306.352	329.75
306.582	332.75
306.812	327.75
307.042	327.75
307.272	336.75
307.502	330.75
307.731	338.75
307.961	333.75
308.191	319.75
308.421	328.75
308.651	335.75
308.881	313.75
309.111	321.75
309.341	324.75
309.571	328.75
309.8	343.75
310.03	312.75
310.26	335.75
310.49	330.75
310.72	336.75
310.949	355.75
311.179	348.75
311.409	351.75
311.639	336.75
311.868	347.75
312.098	362.75
312.328	356.75
312.557	361.75
312.787	350.75
313.017	343.75
313.246	334.75
313.476	362.75
313.706	342.75
313.935	364.75
314.165	356.75
314.394	366.75
314.624	368.75
314.853	367.75
315.083	355.75
315.312	347.75
315.542	357.75
315.771	357.75
316.001	358.75
316.23	353.75
316.46	347.75
316.689	346.75
316.919	349.75
317.148	366.75
317.377	372.75
317.607	363.75
317.836	364.75
318.065	366.75
318.295	356.75
318.524	355.75
318.753	339.75
318.983	371.75
319.212	343.75
319.441	353.75
319.67	353.75
319.9	380.75
320.129	360.75
320.358	343.75
320.587	364.75
320.816	380.75
321.046	376.75
321.275	357.75
321.504	360.75
321.733	372.75
321.962	385.75
322.191	379.75
322.42	377.75
322.649	361.75
322.878	374.75
323.108	389.75
323.337	406.75
323.566	401.75
323.795	438.75
324.024	423.75
324.253	486.75
324.482	633.75
324.71	845.75
324.939	1145.75
325.168	940.75
325.397	567.75
325.626	466.75
325.855	426.75
326.084	402.75
326.313	403.75
326.542	442.75
326.77	434.75
326.999	504.75
327.228	610.75
327.457	833.75
327.686	895.75
327.914	642.75
328.143	494.75
328.372	462.75
328.6	433.75
328.829	436.75
329.058	467.75
329.287	444.75
329.515	432.75
329.744	443.75
329.972	435.75
330.201	439.75
330.43	437.75
330.658	477.75
330.887	487.75
331.115	452.75
331.344	436.75
331.572	415.75
331.801	460.75
332.03	427.75
332.258	437.75
332.486	451.75
332.715	448.75
332.943	451.75
333.172	467.75
333.4	467.75
333.629	501.75
333.857	493.75
334.085	479.75
334.314	503.75
334.542	518.75
334.771	523.75
334.999	468.75
335.227	470.75
335.455	456.75
335.684	438.75
335.912	437.75
336.14	460.75
336.369	461.75
336.597	452.75
336.825	421.75
337.053	414.75
337.281	434.75
337.51	430.75
337.738	436.75
337.966	418.75
338.194	439.75
338.422	420.75
338.65	438.75
338.878	425.75
339.106	436.75
339.334	419.75
339.562	406.75
339.79	396.75
340.018	383.75
340.246	416.75
340.474	417.75
340.702	423.75
340.93	398.75
341.158	421.75
341.386	419.75
341.614	412.75
341.842	404.75
342.07	408.75
342.298	395.75
342.526	398.75
342.754	407.75
342.981	399.75
343.209	415.75
343.437	439.75
343.665	408.75
343.893	444.75
344.12	444.75
344.348	455.75
344.576	447.75
344.804	432.75
345.031	411.75
345.259	429.75
345.487	411.75
345.714	398.75
345.942	397.75
346.17	379.75
346.397	415.75
346.625	392.75
346.853	402.75
347.08	396.75
347.308	392.75
347.535	422.75
347.763	424.75
347.99	421.75
348.218	387.75
348.445	394.75
348.673	396.75
348.9	401.75
349.128	389.75
349.355	360.75
349.583	374.75
349.81	389.75
350.037	415.75
350.265	388.75
350.492	382.75
350.72	388.75
350.947	387.75
351.174	387.75
351.402	380.75
351.629	389.75
351.856	396.75
352.083	390.75
352.311	396.75
352.538	401.75
352.765	381.75
352.992	382.75
353.22	396.75
353.447	383.75
353.674	375.75
353.901	386.75
354.128	375.75
354.355	385.75
354.583	382.75
354.81	366.75
355.037	385.75
355.264	380.75
355.491	389.75
355.718	370.75
355.945	374.75
356.172	388.75
356.399	374.75
356.626	380.75
356.853	372.75
357.08	404.75
357.307	369.75
357.534	379.75
357.761	383.75
357.988	384.75
358.215	381.75
358.441	381.75
358.668	384.75
358.895	373.75
359.122	381.75
359.349	393.75
359.576	393.75
359.802	382.75
360.029	403.75
360.256	420.75
360.483	410.75
360.709	390.75
360.936	376.75
361.163	420.75
361.39	402.75
361.616	393.75
361.843	392.75
362.07	400.75
362.296	420.75
362.523	405.75
362.749	399.75
362.976	388.75
363.203	404.75
363.429	383.75
363.656	376.75
363.882	383.75
364.109	385.75
364.335	390.75
364.562	400.75
364.788	396.75
365.015	392.75
365.241	404.75
365.468	396.75
365.694	392.75
365.92	387.75
366.147	397.75
366.373	393.75
366.599	384.75
366.826	385.75
367.052	381.75
367.278	385.75
367.505	398.75
367.731	385.75
367.957	381.75
368.184	403.75
368.41	406.75
368.636	404.75
368.862	388.75
369.089	381.75
369.315	387.75
369.541	402.75
369.767	392.75
369.993	391.75
370.219	389.75
370.445	405.75
370.672	375.75
370.898	394.75
371.124	383.75
371.35	386.75
371.576	427.75
371.802	426.75
372.028	391.75
372.254	400.75
372.48	402.75
372.706	407.75
372.932	425.75
373.158	413.75
373.384	414.75
373.61	414.75
373.835	402.75
374.061	403.75
374.287	408.75
374.513	413.75
374.739	443.75
374.965	432.75
375.191	439.75
375.416	456.75
375.642	416.75
375.868	426.75
376.094	435.75
376.319	402.75
376.545	394.75
376.771	404.75
376.997	374.75
377.222	383.75
377.448	399.75
377.674	397.75
377.899	422.75
378.125	403.75
378.35	394.75
378.576	404.75
378.802	400.75
379.027	394.75
379.253	408.75
379.478	405.75
379.704	412.75
379.929	404.75
380.155	384.75
380.38	411.75
380.606	397.75
380.831	413.75
381.057	403.75
381.282	410.75
381.507	418.75
381.733	416.75
381.958	398.75
382.184	420.75
382.409	440.75
382.634	423.75
382.86	402.75
383.085	410.75
383.31	426.75
383.535	437.75
383.761	419.75
383.986	418.75
384.211	461.75
384.436	465.75
384.662	451.75
384.887	450.75
385.112	448.75
385.337	458.75
385.562	470.75
385.787	459.75
386.013	442.75
386.238	468.75
386.463	486.75
386.688	463.75
386.913	462.75
387.138	458.75
387.363	472.75
387.588	447.75
387.813	458.75
388.038	453.75
388.263	460.75
388.488	453.75
388.713	451.75
388.938	447.75
389.163	450.75
389.387	454.75
389.612	456.75
389.837	464.75
390.062	435.75
390.287	449.75
390.512	452.75
390.736	449.75
390.961	463.75
391.186	475.75
391.411	472.75
391.636	475.75
391.86	487.75
392.085	508.75
392.31	495.75
392.534	481.75
392.759	488.75
392.984	490.75
393.208	481.75
393.433	488.75
393.658	476.75
393.882	482.75
394.107	480.75
394.331	476.75
394.556	473.75
394.78	483.75
395.005	477.75
395.229	486.75
395.454	499.75
395.678	496.75
395.903	500.75
396.127	499.75
396.352	500.75
396.576	508.75
396.801	464.75
397.025	490.75
397.249	494.75
397.474	491.75
397.698	505.75
397.922	512.75
398.147	511.75
398.371	523.75
398.595	532.75
398.82	548.75
399.044	586.75
399.268	594.75
399.492	676.75
399.717	739.75
399.941	747.75
400.165	685.75
400.389	658.75
400.613	631.75
400.837	582.75
401.062	558.75
401.286	561.75
401.51	565.75
401.734	538.75
401.958	553.75
402.182	551.75
402.406	552.75
402.63	582.75
402.854	575.75
403.078	568.75
403.302	607.75
403.526	602.75
403.75	587.75
403.974	597.75
404.198	630.75
404.422	598.75
404.645	594.75
404.869	595.75
405.093	613.75
405.317	628.75
405.541	625.75
405.765	612.75
405.988	578.75
406.212	618.75
406.436	637.75
406.66	640.75
406.883	590.75
407.107	640.75
407.331	692.75
407.555	721.75
407.778	693.75
408.002	659.75
408.226	653.75
408.449	633.75
408.673	639.75
408.896	615.75
409.12	634.75
409.344	650.75
409.567	590.75
409.791	589.75
410.014	572.75
410.238	579.75
410.461	573.75
410.685	549.75
410.908	576.75
411.132	584.75
411.355	575.75
411.578	589.75
411.802	581.75
412.025	559.75
412.249	578.75
412.472	565.75
412.695	573.75
412.919	570.75
413.142	563.75
413.365	567.75
413.589	562.75
413.812	567.75
414.035	530.75
414.258	533.75
414.482	539.75
414.705	559.75
414.928	568.75
415.151	554.75
415.374	554.75
415.597	540.75
415.821	524.75
416.044	545.75
416.267	546.75
416.49	525.75
416.713	526.75
416.936	530.75
417.159	515.75
417.382	519.75
417.605	540.75
417.828	554.75
418.051	560.75
418.274	534.75
418.497	539.75
418.72	570.75
418.943	562.75
419.166	560.75
419.389	575.75
419.611	583.75
419.834	564.75
420.057	574.75
420.28	568.75
420.503	524.75
420.726	522.75
420.948	549.75
421.171	576.75
421.394	573.75
421.617	556.75
421.839	536.75
422.062	550.75
422.285	542.75
422.507	590.75
422.73	613.75
422.953	619.75
423.175	551.75
423.398	556.75
423.621	571.75
423.843	573.75
424.066	595.75
424.288	562.75
424.511	569.75
424.733	598.75
424.956	640.75
425.178	619.75
425.401	623.75
425.623	627.75
425.846	575.75
426.068	521.75
426.291	536.75
426.513	550.75
426.735	547.75
426.958	557.75
427.18	597.75
427.402	669.75
427.625	710.75
427.847	632.75
428.069	600.75
428.292	562.75
428.514	518.75
428.736	514.75
428.958	512.75
429.181	500.75
429.403	518.75
429.625	512.75
429.847	526.75
430.069	560.75
430.292	556.75
430.514	481.75
430.736	512.75
430.958	492.75
431.18	491.75
431.402	497.75
431.624	482.75
431.846	497.75
432.068	498.75
432.29	487.75
432.512	476.75
432.734	500.75
432.956	496.75
433.178	509.75
433.4	509.75
433.622	504.75
433.844	502.75
434.066	501.75
434.287	490.75
434.509	522.75
434.731	520.75
434.953	534.75
435.175	539.75
435.397	566.75
435.618	551.75
435.84	562.75
436.062	583.75
436.284	614.75
436.505	542.75
436.727	517.75
436.949	514.75
437.17	507.75
437.392	485.75
437.614	500.75
437.835	509.75
438.057	570.75
438.278	594.75
438.5	606.75
438.721	639.75
438.943	630.75
439.165	538.75
439.386	530.75
439.608	547.75
439.829	531.75
440.05	507.75
440.272	541.75
440.493	551.75
440.715	515.75
440.936	527.75
441.158	514.75
441.379	517.75
441.6	527.75
441.822	539.75
442.043	563.75
442.264	625.75
442.486	617.75
442.707	575.75
442.928	565.75
443.149	554.75
443.371	554.75
443.592	577.75
443.813	629.75
444.034	656.75
444.255	622.75
444.476	580.75
444.698	600.75
444.919	618.75
445.14	710.75
445.361	628.75
445.582	586.75
445.803	606.75
446.024	635.75
446.245	618.75
446.466	592.75
446.687	540.75
446.908	532.75
447.129	498.75
447.35	487.75
447.571	463.75
447.792	482.75
448.013	475.75
448.234	476.75
448.455	495.75
448.675	567.75
448.896	612.75
449.117	555.75
449.338	509.75
449.559	579.75
449.779	631.75
450	558.75
450.221	451.75
450.442	476.75
450.662	486.75
450.883	467.75
451.104	488.75
451.324	465.75
451.545	442.75
451.766	458.75
451.986	456.75
452.207	470.75
452.428	449.75
452.648	447.75
452.869	428.75
453.089	454.75
453.31	467.75
453.53	447.75
453.751	450.75
453.971	438.75
454.192	438.75
454.412	444.75
454.633	421.75
454.853	436.75
455.073	430.75
455.294	434.75
455.514	469.75
455.734	470.75
455.955	439.75
456.175	416.75
456.395	423.75
456.616	415.75
456.836	413.75
457.056	406.75
457.276	412.75
457.497	422.75
457.717	410.75
457.937	398.75
458.157	411.75
458.377	447.75
458.598	438.75
458.818	477.75
459.038	506.75
459.258	531.75
459.478	492.75
459.698	493.75
459.918	487.75
460.138	512.75
460.358	522.75
460.578	519.75
460.798	517.75
461.018	532.75
461.238	528.75
461.458	519.75
461.678	502.75
461.898	532.75
462.118	532.75
462.338	552.75
462.558	554.75
462.777	566.75
462.997	602.75
463.217	655.75
463.437	635.75
463.657	620.75
463.876	576.75
464.096	593.75
464.316	581.75
464.536	588.75
464.755	591.75
464.975	566.75
465.195	590.75
465.414	584.75
465.634	527.75
465.854	478.75
466.073	494.75
466.293	464.75
466.512	476.75
466.732	475.75
466.951	462.75
467.171	450.75
467.391	465.75
467.61	443.75
467.829	447.75
468.049	457.75
468.268	431.75
468.488	435.75
468.707	436.75
468.927	459.75
469.146	433.75
469.365	435.75
469.585	441.75
469.804	451.75
470.023	478.75
470.243	465.75
470.462	492.75
470.681	491.75
470.901	471.75
471.12	474.75
471.339	482.75
471.558	455.75
471.777	479.75
471.997	456.75
472.216	482.75
472.435	495.75
472.654	472.75
472.873	442.75
473.092	442.75
473.311	450.75
473.53	460.75
473.749	451.75
473.968	470.75
474.187	522.75
474.406	520.75
474.625	474.75
474.844	473.75
475.063	454.75
475.282	452.75
475.501	491.75
475.72	458.75
475.939	459.75
476.158	459.75
476.377	470.75
476.596	464.75
476.814	460.75
477.033	470.75
477.252	484.75
477.471	486.75
477.69	488.75
477.908	511.75
478.127	525.75
478.346	502.75
478.564	515.75
478.783	549.75
479.002	544.75
479.22	552.75
479.439	547.75
479.658	542.75
479.876	548.75
480.095	561.75
480.313	580.75
480.532	577.75
480.751	593.75
480.969	588.75
481.188	593.75
481.406	612.75
481.624	546.75
481.843	539.75
482.061	523.75
482.28	511.75
482.498	493.75
482.717	508.75
482.935	496.75
483.153	518.75
483.372	531.75
483.59	528.75
483.808	528.75
484.027	522.75
484.245	524.75
484.463	500.75
484.681	548.75
484.9	511.75
485.118	523.75
485.336	545.75
485.554	527.75
485.772	504.75
485.99	528.75
486.209	535.75
486.427	540.75
486.645	549.75
486.863	563.75
487.081	542.75
487.299	540.75
487.517	550.75
487.735	533.75
487.953	559.75
488.171	540.75
488.389	547.75
488.607	551.75
488.825	529.75
489.043	558.75
489.261	530.75
489.479	548.75
489.696	548.75
489.914	568.75
490.132	556.75
490.35	562.75
490.568	565.75
490.786	583.75
491.003	592.75
491.221	594.75
491.439	583.75
491.657	591.75
491.874	598.75
492.092	598.75
492.31	605.75
492.527	614.75
492.745	637.75
492.963	596.75
493.18	626.75
493.398	632.75
493.615	610.75
493.833	622.75
494.05	604.75
494.268	641.75
494.485	627.75
494.703	608.75
494.92	649.75
495.138	640.75
495.355	624.75
495.573	635.75
495.79	592.75
496.008	623.75
496.225	642.75
496.442	620.75
496.66	638.75
496.877	656.75
497.094	642.75
497.312	641.75
497.529	661.75
497.746	682.75
497.963	687.75
498.181	712.75
498.398	700.75
498.615	723.75
498.832	784.75
499.049	799.75
499.267	843.75
499.484	902.75
499.701	976.75
499.918	1027.75
500.135	1118.75
500.352	1236.75
500.569	1272.75
500.786	1256.75
501.003	1202.75
501.22	1086.75
501.437	1052.75
501.654	936.75
501.871	896.75
502.088	867.75
