Data from 1960PennyLincolnUp.LampE5.5.200Scan.07172019.P1.ChangedAngle_HRD10591_13-14-30-821.txt Node
Date: Thu Jul 18 13:14:30 EDT 2019
User: cochatt
Spectrometer: HR+D1059
Trigger mode: 1
Integration Time (sec): 1.000000E-1
Scans to average: 1
Electric dark correction enabled: true
Nonlinearity correction enabled: false
Boxcar width: 0
XAxis mode: Wavelengths
Number of Pixels in Spectrum: 2048
>>>>>Begin Spectral Data<<<<<
223.165	-14.62
223.4	-14.62
223.635	-14.62
223.869	-8.62
224.104	-15.62
224.338	-10.62
224.573	-21.62
224.808	-10.62
225.042	-6.62
225.277	-1.62
225.511	-4.62
225.746	0.38
225.98	6.38
226.215	17.38
226.449	4.38
226.683	13.38
226.918	26.38
227.152	26.38
227.387	37.38
227.621	35.38
227.856	44.38
228.09	39.38
228.324	33.38
228.559	40.38
228.793	56.38
229.027	69.38
229.262	87.38
229.496	88.38
229.73	106.38
229.964	113.38
230.199	99.38
230.433	109.38
230.667	84.38
230.901	97.38
231.136	93.38
231.37	77.38
231.604	101.38
231.838	99.38
232.072	89.38
232.306	100.38
232.541	101.38
232.775	85.38
233.009	93.38
233.243	102.38
233.477	80.38
233.711	105.38
233.945	99.38
234.179	112.38
234.413	102.38
234.647	85.38
234.881	115.38
235.115	99.38
235.349	98.38
235.583	104.38
235.817	103.38
236.051	101.38
236.285	104.38
236.519	102.38
236.753	109.38
236.987	115.38
237.221	131.38
237.455	161.38
237.689	132.38
237.922	127.38
238.156	115.38
238.39	119.38
238.624	113.38
238.858	95.38
239.091	115.38
239.325	111.38
239.559	111.38
239.793	116.38
240.027	118.38
240.26	124.38
240.494	127.38
240.728	116.38
240.961	113.38
241.195	127.38
241.429	120.38
241.662	118.38
241.896	117.38
242.13	127.38
242.363	110.38
242.597	118.38
242.83	98.38
243.064	119.38
243.298	125.38
243.531	126.38
243.765	115.38
243.998	120.38
244.232	108.38
244.465	131.38
244.699	126.38
244.932	123.38
245.166	123.38
245.399	118.38
245.633	137.38
245.866	139.38
246.099	137.38
246.333	118.38
246.566	144.38
246.8	137.38
247.033	122.38
247.266	139.38
247.5	140.38
247.733	141.38
247.966	142.38
248.2	149.38
248.433	127.38
248.666	148.38
248.899	145.38
249.133	176.38
249.366	150.38
249.599	151.38
249.832	159.38
250.066	147.38
250.299	150.38
250.532	157.38
250.765	160.38
250.998	190.38
251.231	192.38
251.465	164.38
251.698	169.38
251.931	168.38
252.164	163.38
252.397	174.38
252.63	167.38
252.863	174.38
253.096	182.38
253.329	195.38
253.562	181.38
253.795	181.38
254.028	182.38
254.261	177.38
254.494	190.38
254.727	191.38
254.96	213.38
255.193	225.38
255.426	198.38
255.659	187.38
255.892	187.38
256.124	195.38
256.357	196.38
256.59	187.38
256.823	173.38
257.056	189.38
257.289	181.38
257.521	184.38
257.754	187.38
257.987	179.38
258.22	178.38
258.452	176.38
258.685	188.38
258.918	180.38
259.151	188.38
259.383	186.38
259.616	174.38
259.849	186.38
260.081	187.38
260.314	216.38
260.547	197.38
260.779	205.38
261.012	195.38
261.244	192.38
261.477	206.38
261.71	211.38
261.942	198.38
262.175	186.38
262.407	207.38
262.64	196.38
262.872	209.38
263.105	194.38
263.337	203.38
263.57	194.38
263.802	193.38
264.035	183.38
264.267	191.38
264.499	197.38
264.732	187.38
264.964	194.38
265.197	182.38
265.429	192.38
265.661	191.38
265.894	194.38
266.126	189.38
266.358	206.38
266.591	209.38
266.823	202.38
267.055	203.38
267.287	206.38
267.52	209.38
267.752	195.38
267.984	206.38
268.216	218.38
268.448	211.38
268.681	226.38
268.913	219.38
269.145	228.38
269.377	243.38
269.609	231.38
269.841	258.38
270.073	225.38
270.306	265.38
270.538	265.38
270.77	252.38
271.002	256.38
271.234	237.38
271.466	256.38
271.698	257.38
271.93	251.38
272.162	250.38
272.394	252.38
272.626	257.38
272.858	234.38
273.09	247.38
273.322	242.38
273.553	226.38
273.785	238.38
274.017	215.38
274.249	228.38
274.481	229.38
274.713	213.38
274.945	241.38
275.176	240.38
275.408	261.38
275.64	227.38
275.872	228.38
276.104	250.38
276.335	233.38
276.567	233.38
276.799	267.38
277.031	258.38
277.262	274.38
277.494	269.38
277.726	266.38
277.957	241.38
278.189	247.38
278.421	246.38
278.652	231.38
278.884	248.38
279.115	243.38
279.347	260.38
279.579	260.38
279.81	247.38
280.042	241.38
280.273	251.38
280.505	252.38
280.736	259.38
280.968	253.38
281.199	253.38
281.431	252.38
281.662	260.38
281.894	256.38
282.125	249.38
282.356	273.38
282.588	272.38
282.819	265.38
283.051	241.38
283.282	245.38
283.513	251.38
283.745	248.38
283.976	271.38
284.207	269.38
284.439	287.38
284.67	250.38
284.901	259.38
285.132	260.38
285.364	257.38
285.595	261.38
285.826	269.38
286.057	258.38
286.288	257.38
286.52	264.38
286.751	263.38
286.982	258.38
287.213	262.38
287.444	257.38
287.675	285.38
287.906	260.38
288.138	279.38
288.369	280.38
288.6	291.38
288.831	273.38
289.062	272.38
289.293	259.38
289.524	293.38
289.755	273.38
289.986	277.38
290.217	277.38
290.448	275.38
290.679	281.38
290.91	287.38
291.141	269.38
291.371	281.38
291.602	277.38
291.833	289.38
292.064	273.38
292.295	274.38
292.526	264.38
292.757	266.38
292.987	283.38
293.218	266.38
293.449	279.38
293.68	266.38
293.91	280.38
294.141	278.38
294.372	266.38
294.603	272.38
294.833	274.38
295.064	282.38
295.295	262.38
295.525	281.38
295.756	276.38
295.987	283.38
296.217	291.38
296.448	295.38
296.679	286.38
296.909	259.38
297.14	287.38
297.37	293.38
297.601	283.38
297.831	273.38
298.062	286.38
298.292	273.38
298.523	289.38
298.753	283.38
298.984	286.38
299.214	289.38
299.445	277.38
299.675	311.38
299.905	291.38
300.136	288.38
300.366	294.38
300.597	301.38
300.827	289.38
301.057	289.38
301.288	293.38
301.518	287.38
301.748	313.38
301.979	295.38
302.209	309.38
302.439	305.38
302.669	325.38
302.9	306.38
303.13	295.38
303.36	310.38
303.59	309.38
303.82	323.38
304.051	305.38
304.281	312.38
304.511	313.38
304.741	312.38
304.971	294.38
305.201	304.38
305.431	307.38
305.661	315.38
305.891	295.38
306.121	325.38
306.352	314.38
306.582	312.38
306.812	320.38
307.042	323.38
307.272	321.38
307.502	302.38
307.731	324.38
307.961	293.38
308.191	321.38
308.421	305.38
308.651	314.38
308.881	303.38
309.111	307.38
309.341	310.38
309.571	316.38
309.8	339.38
310.03	325.38
310.26	340.38
310.49	328.38
310.72	319.38
310.949	335.38
311.179	358.38
311.409	331.38
311.639	321.38
311.868	322.38
312.098	346.38
312.328	361.38
312.557	351.38
312.787	359.38
313.017	358.38
313.246	328.38
313.476	340.38
313.706	338.38
313.935	354.38
314.165	345.38
314.394	349.38
314.624	348.38
314.853	337.38
315.083	340.38
315.312	339.38
315.542	341.38
315.771	339.38
316.001	327.38
316.23	322.38
316.46	330.38
316.689	339.38
316.919	332.38
317.148	346.38
317.377	344.38
317.607	355.38
317.836	343.38
318.065	338.38
318.295	341.38
318.524	329.38
318.753	330.38
318.983	323.38
319.212	333.38
319.441	358.38
319.67	359.38
319.9	355.38
320.129	330.38
320.358	352.38
320.587	347.38
320.816	345.38
321.046	346.38
321.275	354.38
321.504	355.38
321.733	352.38
321.962	370.38
322.191	365.38
322.42	363.38
322.649	383.38
322.878	389.38
323.108	387.38
323.337	416.38
323.566	397.38
323.795	415.38
324.024	432.38
324.253	518.38
324.482	661.38
324.71	946.38
324.939	1285.38
325.168	1079.38
325.397	620.38
325.626	491.38
325.855	413.38
326.084	398.38
326.313	417.38
326.542	403.38
326.77	410.38
326.999	479.38
327.228	636.38
327.457	849.38
327.686	974.38
327.914	678.38
328.143	519.38
328.372	459.38
328.6	467.38
328.829	452.38
329.058	461.38
329.287	414.38
329.515	410.38
329.744	423.38
329.972	429.38
330.201	428.38
330.43	437.38
330.658	434.38
330.887	453.38
331.115	431.38
331.344	421.38
331.572	390.38
331.801	433.38
332.03	425.38
332.258	435.38
332.486	395.38
332.715	405.38
332.943	399.38
333.172	401.38
333.4	432.38
333.629	394.38
333.857	416.38
334.085	441.38
334.314	444.38
334.542	422.38
334.771	434.38
334.999	442.38
335.227	408.38
335.455	424.38
335.684	402.38
335.912	413.38
336.14	415.38
336.369	407.38
336.597	394.38
336.825	419.38
337.053	413.38
337.281	399.38
337.51	401.38
337.738	408.38
337.966	390.38
338.194	400.38
338.422	392.38
338.65	385.38
338.878	395.38
339.106	367.38
339.334	383.38
339.562	370.38
339.79	389.38
340.018	401.38
340.246	395.38
340.474	400.38
340.702	394.38
340.93	387.38
341.158	380.38
341.386	385.38
341.614	382.38
341.842	383.38
342.07	359.38
342.298	373.38
342.526	371.38
342.754	373.38
342.981	362.38
343.209	376.38
343.437	398.38
343.665	395.38
343.893	373.38
344.12	413.38
344.348	415.38
344.576	394.38
344.804	401.38
345.031	379.38
345.259	387.38
345.487	378.38
345.714	375.38
345.942	383.38
346.17	380.38
346.397	368.38
346.625	355.38
346.853	369.38
347.08	364.38
347.308	369.38
347.535	379.38
347.763	370.38
347.99	374.38
348.218	369.38
348.445	385.38
348.673	377.38
348.9	361.38
349.128	353.38
349.355	362.38
349.583	349.38
349.81	350.38
350.037	355.38
350.265	339.38
350.492	342.38
350.72	365.38
350.947	355.38
351.174	369.38
351.402	344.38
351.629	368.38
351.856	351.38
352.083	365.38
352.311	367.38
352.538	381.38
352.765	360.38
352.992	360.38
353.22	350.38
353.447	351.38
353.674	359.38
353.901	342.38
354.128	350.38
354.355	341.38
354.583	353.38
354.81	332.38
355.037	356.38
355.264	342.38
355.491	344.38
355.718	346.38
355.945	340.38
356.172	343.38
356.399	357.38
356.626	330.38
356.853	302.38
357.08	328.38
357.307	350.38
357.534	335.38
357.761	338.38
357.988	338.38
358.215	342.38
358.441	327.38
358.668	307.38
358.895	343.38
359.122	334.38
359.349	344.38
359.576	343.38
359.802	347.38
360.029	365.38
360.256	368.38
360.483	362.38
360.709	359.38
360.936	351.38
361.163	333.38
361.39	336.38
361.616	354.38
361.843	351.38
362.07	353.38
362.296	346.38
362.523	369.38
362.749	341.38
362.976	330.38
363.203	350.38
363.429	346.38
363.656	333.38
363.882	343.38
364.109	347.38
364.335	342.38
364.562	334.38
364.788	343.38
365.015	354.38
365.241	353.38
365.468	368.38
365.694	328.38
365.92	333.38
366.147	335.38
366.373	350.38
366.599	339.38
366.826	333.38
367.052	327.38
367.278	341.38
367.505	353.38
367.731	343.38
367.957	321.38
368.184	366.38
368.41	349.38
368.636	344.38
368.862	369.38
369.089	345.38
369.315	349.38
369.541	337.38
369.767	345.38
369.993	340.38
370.219	330.38
370.445	355.38
370.672	343.38
370.898	332.38
371.124	335.38
371.35	333.38
371.576	346.38
371.802	357.38
372.028	333.38
372.254	343.38
372.48	343.38
372.706	364.38
372.932	340.38
373.158	338.38
373.384	345.38
373.61	349.38
373.835	329.38
374.061	331.38
374.287	350.38
374.513	352.38
374.739	370.38
374.965	350.38
375.191	351.38
375.416	365.38
375.642	342.38
375.868	330.38
376.094	360.38
376.319	340.38
376.545	344.38
376.771	354.38
376.997	330.38
377.222	333.38
377.448	340.38
377.674	331.38
377.899	321.38
378.125	331.38
378.35	325.38
378.576	331.38
378.802	338.38
379.027	345.38
379.253	353.38
379.478	323.38
379.704	351.38
379.929	329.38
380.155	339.38
380.38	329.38
380.606	332.38
380.831	335.38
381.057	340.38
381.282	344.38
381.507	327.38
381.733	346.38
381.958	357.38
382.184	342.38
382.409	341.38
382.634	334.38
382.86	334.38
383.085	345.38
383.31	357.38
383.535	351.38
383.761	348.38
383.986	359.38
384.211	351.38
384.436	363.38
384.662	357.38
384.887	368.38
385.112	366.38
385.337	352.38
385.562	362.38
385.787	353.38
386.013	375.38
386.238	360.38
386.463	369.38
386.688	363.38
386.913	366.38
387.138	354.38
387.363	361.38
387.588	372.38
387.813	382.38
388.038	364.38
388.263	369.38
388.488	373.38
388.713	366.38
388.938	357.38
389.163	378.38
389.387	362.38
389.612	346.38
389.837	359.38
390.062	371.38
390.287	360.38
390.512	369.38
390.736	376.38
390.961	351.38
391.186	372.38
391.411	365.38
391.636	372.38
391.86	358.38
392.085	376.38
392.31	382.38
392.534	361.38
392.759	349.38
392.984	359.38
393.208	375.38
393.433	371.38
393.658	380.38
393.882	362.38
394.107	365.38
394.331	369.38
394.556	367.38
394.78	368.38
395.005	369.38
395.229	361.38
395.454	371.38
395.678	382.38
395.903	386.38
396.127	374.38
396.352	400.38
396.576	382.38
396.801	386.38
397.025	374.38
397.249	389.38
397.474	388.38
397.698	400.38
397.922	395.38
398.147	401.38
398.371	408.38
398.595	395.38
398.82	389.38
399.044	429.38
399.268	434.38
399.492	446.38
399.717	467.38
399.941	469.38
400.165	489.38
400.389	530.38
400.613	467.38
400.837	442.38
401.062	423.38
401.286	400.38
401.51	409.38
401.734	394.38
401.958	408.38
402.182	430.38
402.406	422.38
402.63	395.38
402.854	414.38
403.078	401.38
403.302	400.38
403.526	421.38
403.75	414.38
403.974	417.38
404.198	409.38
404.422	420.38
404.645	433.38
404.869	435.38
405.093	440.38
405.317	448.38
405.541	470.38
405.765	447.38
405.988	439.38
406.212	445.38
406.436	447.38
406.66	466.38
406.883	448.38
407.107	448.38
407.331	487.38
407.555	523.38
407.778	521.38
408.002	494.38
408.226	438.38
408.449	464.38
408.673	459.38
408.896	465.38
409.12	461.38
409.344	459.38
409.567	422.38
409.791	434.38
410.014	427.38
410.238	434.38
410.461	413.38
410.685	426.38
410.908	395.38
411.132	445.38
411.355	453.38
411.578	448.38
411.802	419.38
412.025	405.38
412.249	407.38
412.472	438.38
412.695	435.38
412.919	449.38
413.142	431.38
413.365	408.38
413.589	410.38
413.812	390.38
414.035	386.38
414.258	391.38
414.482	378.38
414.705	395.38
414.928	393.38
415.151	391.38
415.374	382.38
415.597	391.38
415.821	375.38
416.044	384.38
416.267	375.38
416.49	388.38
416.713	390.38
416.936	382.38
417.159	393.38
417.382	397.38
417.605	395.38
417.828	389.38
418.051	390.38
418.274	408.38
418.497	387.38
418.72	386.38
418.943	382.38
419.166	403.38
419.389	419.38
419.611	410.38
419.834	381.38
420.057	415.38
420.28	419.38
420.503	393.38
420.726	417.38
420.948	408.38
421.171	429.38
421.394	448.38
421.617	425.38
421.839	410.38
422.062	397.38
422.285	410.38
422.507	436.38
422.73	493.38
422.953	497.38
423.175	429.38
423.398	403.38
423.621	406.38
423.843	416.38
424.066	425.38
424.288	417.38
424.511	456.38
424.733	478.38
424.956	517.38
425.178	478.38
425.401	498.38
425.623	471.38
425.846	439.38
426.068	414.38
426.291	402.38
426.513	404.38
426.735	421.38
426.958	447.38
427.18	506.38
427.402	581.38
427.625	605.38
427.847	517.38
428.069	468.38
428.292	417.38
428.514	413.38
428.736	403.38
428.958	383.38
429.181	377.38
429.403	394.38
429.625	395.38
429.847	406.38
430.069	432.38
430.292	435.38
430.514	393.38
430.736	391.38
430.958	374.38
431.18	336.38
431.402	373.38
431.624	369.38
431.846	365.38
432.068	378.38
432.29	393.38
432.512	363.38
432.734	391.38
432.956	373.38
433.178	361.38
433.4	388.38
433.622	364.38
433.844	384.38
434.066	367.38
434.287	363.38
434.509	357.38
434.731	377.38
434.953	395.38
435.175	382.38
435.397	408.38
435.618	391.38
435.84	425.38
436.062	496.38
436.284	517.38
436.505	440.38
436.727	413.38
436.949	387.38
437.17	383.38
437.392	394.38
437.614	404.38
437.835	398.38
438.057	475.38
438.278	521.38
438.5	507.38
438.721	567.38
438.943	557.38
439.165	437.38
439.386	422.38
439.608	431.38
439.829	417.38
440.05	408.38
440.272	414.38
440.493	427.38
440.715	400.38
440.936	390.38
441.158	372.38
441.379	376.38
441.6	374.38
441.822	390.38
442.043	422.38
442.264	473.38
442.486	499.38
442.707	442.38
442.928	403.38
443.149	428.38
443.371	429.38
443.592	461.38
443.813	497.38
444.034	552.38
444.255	459.38
444.476	425.38
444.698	418.38
444.919	424.38
445.14	534.38
445.361	470.38
445.582	444.38
445.803	461.38
446.024	522.38
446.245	507.38
446.466	466.38
446.687	418.38
446.908	407.38
447.129	382.38
447.35	371.38
447.571	380.38
447.792	376.38
448.013	378.38
448.234	402.38
448.455	426.38
448.675	508.38
448.896	563.38
449.117	474.38
449.338	474.38
449.559	536.38
449.779	576.38
450	463.38
450.221	400.38
450.442	381.38
450.662	353.38
450.883	377.38
451.104	373.38
451.324	346.38
451.545	341.38
451.766	350.38
451.986	349.38
452.207	325.38
452.428	335.38
452.648	335.38
452.869	333.38
453.089	349.38
453.31	329.38
453.53	347.38
453.751	354.38
453.971	350.38
454.192	334.38
454.412	331.38
454.633	322.38
454.853	326.38
455.073	337.38
455.294	338.38
455.514	409.38
455.734	391.38
455.955	353.38
456.175	331.38
456.395	314.38
456.616	322.38
456.836	343.38
457.056	325.38
457.276	331.38
457.497	317.38
457.717	328.38
457.937	338.38
458.157	346.38
458.377	364.38
458.598	353.38
458.818	391.38
459.038	403.38
459.258	420.38
459.478	365.38
459.698	373.38
459.918	379.38
460.138	372.38
460.358	359.38
460.578	394.38
460.798	393.38
461.018	388.38
461.238	376.38
461.458	391.38
461.678	371.38
461.898	369.38
462.118	354.38
462.338	394.38
462.558	386.38
462.777	375.38
462.997	440.38
463.217	411.38
463.437	410.38
463.657	398.38
463.876	421.38
464.096	426.38
464.316	382.38
464.536	420.38
464.755	406.38
464.975	399.38
465.195	415.38
465.414	430.38
465.634	394.38
465.854	385.38
466.073	375.38
466.293	368.38
466.512	349.38
466.732	335.38
466.951	351.38
467.171	370.38
467.391	364.38
467.61	367.38
467.829	373.38
468.049	343.38
468.268	341.38
468.488	365.38
468.707	361.38
468.927	355.38
469.146	353.38
469.365	357.38
469.585	337.38
469.804	349.38
470.023	346.38
470.243	359.38
470.462	358.38
470.681	358.38
470.901	371.38
471.12	365.38
471.339	356.38
471.558	349.38
471.777	345.38
471.997	334.38
472.216	339.38
472.435	371.38
472.654	379.38
472.873	355.38
473.092	349.38
473.311	361.38
473.53	369.38
473.749	379.38
473.968	386.38
474.187	431.38
474.406	431.38
474.625	402.38
474.844	379.38
475.063	350.38
475.282	366.38
475.501	349.38
475.72	396.38
475.939	360.38
476.158	387.38
476.377	394.38
476.596	377.38
476.814	364.38
477.033	378.38
477.252	386.38
477.471	385.38
477.69	412.38
477.908	394.38
478.127	386.38
478.346	382.38
478.564	390.38
478.783	401.38
479.002	411.38
479.22	418.38
479.439	420.38
479.658	419.38
479.876	419.38
480.095	425.38
480.313	423.38
480.532	441.38
480.751	454.38
480.969	427.38
481.188	470.38
481.406	466.38
481.624	423.38
481.843	423.38
482.061	423.38
482.28	417.38
482.498	408.38
482.717	419.38
482.935	433.38
483.153	410.38
483.372	422.38
483.59	414.38
483.808	426.38
484.027	429.38
484.245	433.38
484.463	411.38
484.681	425.38
484.9	426.38
485.118	444.38
485.336	428.38
485.554	419.38
485.772	429.38
485.99	423.38
486.209	441.38
486.427	429.38
486.645	414.38
486.863	440.38
487.081	453.38
487.299	441.38
487.517	420.38
487.735	419.38
487.953	446.38
488.171	427.38
488.389	450.38
488.607	453.38
488.825	430.38
489.043	432.38
489.261	434.38
489.479	427.38
489.696	430.38
489.914	451.38
490.132	442.38
490.35	467.38
490.568	456.38
490.786	450.38
491.003	455.38
491.221	482.38
491.439	482.38
491.657	484.38
491.874	472.38
492.092	490.38
492.31	503.38
492.527	486.38
492.745	491.38
492.963	507.38
493.18	470.38
493.398	495.38
493.615	505.38
493.833	504.38
494.05	506.38
494.268	493.38
494.485	487.38
494.703	506.38
494.92	502.38
495.138	514.38
495.355	513.38
495.573	505.38
495.79	533.38
496.008	514.38
496.225	501.38
496.442	536.38
496.66	511.38
496.877	512.38
497.094	510.38
497.312	535.38
497.529	518.38
497.746	522.38
497.963	547.38
498.181	570.38
498.398	585.38
498.615	546.38
498.832	571.38
499.049	602.38
499.267	608.38
499.484	624.38
499.701	650.38
499.918	674.38
500.135	712.38
500.352	715.38
500.569	734.38
500.786	753.38
501.003	709.38
501.22	714.38
501.437	699.38
501.654	676.38
501.871	661.38
502.088	638.38
