Data from 1960PennyLincolnUp.LampE6.200Scan.07172019.P1_HRD10591_13-05-39-001.txt Node
Date: Thu Jul 18 13:05:39 EDT 2019
User: cochatt
Spectrometer: HR+D1059
Trigger mode: 1
Integration Time (sec): 1.000000E-1
Scans to average: 1
Electric dark correction enabled: true
Nonlinearity correction enabled: false
Boxcar width: 0
XAxis mode: Wavelengths
Number of Pixels in Spectrum: 2048
>>>>>Begin Spectral Data<<<<<
223.165	-12
223.4	-12
223.635	-12
223.869	-11
224.104	-2
224.338	-15
224.573	-24
224.808	-26
225.042	-13
225.277	3
225.511	1
225.746	10
225.98	-3
226.215	10
226.449	25
226.683	18
226.918	19
227.152	20
227.387	41
227.621	37
227.856	57
228.09	53
228.324	45
228.559	48
228.793	41
229.027	81
229.262	105
229.496	106
229.73	109
229.964	126
230.199	118
230.433	92
230.667	107
230.901	107
231.136	117
231.37	120
231.604	116
231.838	114
232.072	104
232.306	113
232.541	119
232.775	120
233.009	121
233.243	107
233.477	119
233.711	116
233.945	117
234.179	123
234.413	120
234.647	105
234.881	110
235.115	117
235.349	122
235.583	114
235.817	116
236.051	117
236.285	130
236.519	118
236.753	124
236.987	124
237.221	151
237.455	166
237.689	138
237.922	125
238.156	119
238.39	123
238.624	138
238.858	135
239.091	126
239.325	126
239.559	118
239.793	131
240.027	137
240.26	149
240.494	144
240.728	150
240.961	132
241.195	136
241.429	128
241.662	147
241.896	137
242.13	127
242.363	139
242.597	120
242.83	129
243.064	144
243.298	132
243.531	127
243.765	135
243.998	122
244.232	135
244.465	142
244.699	139
244.932	139
245.166	144
245.399	154
245.633	134
245.866	137
246.099	135
246.333	143
246.566	134
246.8	125
247.033	150
247.266	165
247.5	163
247.733	157
247.966	158
248.2	152
248.433	164
248.666	168
248.899	155
249.133	177
249.366	179
249.599	178
249.832	177
250.066	168
250.299	161
250.532	180
250.765	172
250.998	189
251.231	213
251.465	180
251.698	186
251.931	169
252.164	189
252.397	183
252.63	179
252.863	172
253.096	191
253.329	206
253.562	199
253.795	207
254.028	192
254.261	180
254.494	208
254.727	217
254.96	232
255.193	206
255.426	197
255.659	200
255.892	208
256.124	206
256.357	200
256.59	187
256.823	184
257.056	173
257.289	187
257.521	199
257.754	171
257.987	183
258.22	177
258.452	188
258.685	200
258.918	195
259.151	204
259.383	210
259.616	184
259.849	194
260.081	211
260.314	223
260.547	230
260.779	199
261.012	216
261.244	210
261.477	211
261.71	202
261.942	216
262.175	211
262.407	208
262.64	213
262.872	192
263.105	209
263.337	198
263.57	204
263.802	211
264.035	197
264.267	207
264.499	208
264.732	198
264.964	191
265.197	194
265.429	208
265.661	207
265.894	220
266.126	218
266.358	199
266.591	196
266.823	210
267.055	203
267.287	205
267.52	234
267.752	224
267.984	230
268.216	218
268.448	226
268.681	219
268.913	233
269.145	253
269.377	256
269.609	252
269.841	248
270.073	243
270.306	254
270.538	270
270.77	273
271.002	262
271.234	269
271.466	267
271.698	280
271.93	271
272.162	273
272.394	275
272.626	278
272.858	274
273.09	234
273.322	258
273.553	252
273.785	242
274.017	261
274.249	265
274.481	235
274.713	246
274.945	259
275.176	250
275.408	268
275.64	257
275.872	257
276.104	256
276.335	229
276.567	260
276.799	267
277.031	264
277.262	288
277.494	298
277.726	282
277.957	255
278.189	247
278.421	253
278.652	265
278.884	284
279.115	273
279.347	269
279.579	278
279.81	269
280.042	266
280.273	262
280.505	279
280.736	261
280.968	260
281.199	262
281.431	259
281.662	262
281.894	269
282.125	285
282.356	285
282.588	282
282.819	271
283.051	293
283.282	291
283.513	290
283.745	298
283.976	273
284.207	277
284.439	298
284.67	298
284.901	266
285.132	270
285.364	282
285.595	283
285.826	304
286.057	291
286.288	268
286.52	304
286.751	285
286.982	278
287.213	294
287.444	295
287.675	292
287.906	295
288.138	307
288.369	327
288.6	288
288.831	296
289.062	285
289.293	316
289.524	294
289.755	286
289.986	312
290.217	301
290.448	304
290.679	285
290.91	298
291.141	308
291.371	300
291.602	294
291.833	280
292.064	296
292.295	296
292.526	304
292.757	296
292.987	298
293.218	292
293.449	304
293.68	300
293.91	316
294.141	308
294.372	296
294.603	301
294.833	293
295.064	296
295.295	282
295.525	307
295.756	304
295.987	317
296.217	331
296.448	332
296.679	316
296.909	303
297.14	306
297.37	324
297.601	321
297.831	308
298.062	330
298.292	328
298.523	334
298.753	337
298.984	332
299.214	330
299.445	314
299.675	322
299.905	324
300.136	326
300.366	313
300.597	319
300.827	333
301.057	356
301.288	346
301.518	352
301.748	334
301.979	345
302.209	343
302.439	335
302.669	337
302.9	330
303.13	347
303.36	356
303.59	345
303.82	334
304.051	341
304.281	341
304.511	336
304.741	338
304.971	325
305.201	359
305.431	343
305.661	347
305.891	337
306.121	349
306.352	343
306.582	333
306.812	348
307.042	346
307.272	342
307.502	363
307.731	336
307.961	343
308.191	333
308.421	330
308.651	340
308.881	356
309.111	340
309.341	336
309.571	342
309.8	345
310.03	359
310.26	370
310.49	361
310.72	351
310.949	364
311.179	360
311.409	363
311.639	356
311.868	359
312.098	369
312.328	358
312.557	374
312.787	372
313.017	390
313.246	367
313.476	365
313.706	364
313.935	401
314.165	388
314.394	382
314.624	393
314.853	378
315.083	370
315.312	368
315.542	371
315.771	360
316.001	386
316.23	361
316.46	373
316.689	389
316.919	391
317.148	382
317.377	372
317.607	365
317.836	377
318.065	366
318.295	359
318.524	381
318.753	372
318.983	374
319.212	365
319.441	378
319.67	379
319.9	384
320.129	372
320.358	389
320.587	364
320.816	397
321.046	396
321.275	384
321.504	391
321.733	382
321.962	375
322.191	375
322.42	385
322.649	398
322.878	412
323.108	398
323.337	430
323.566	439
323.795	442
324.024	456
324.253	484
324.482	646
324.71	954
324.939	1264
325.168	1096
325.397	593
325.626	484
325.855	425
326.084	442
326.313	458
326.542	413
326.77	457
326.999	511
327.228	650
327.457	875
327.686	1014
327.914	687
328.143	505
328.372	482
328.6	472
328.829	443
329.058	486
329.287	452
329.515	452
329.744	451
329.972	476
330.201	497
330.43	490
330.658	480
330.887	506
331.115	497
331.344	461
331.572	457
331.801	447
332.03	468
332.258	456
332.486	454
332.715	455
332.943	475
333.172	486
333.4	500
333.629	506
333.857	522
334.085	514
334.314	521
334.542	528
334.771	547
334.999	524
335.227	511
335.455	485
335.684	476
335.912	460
336.14	474
336.369	474
336.597	489
336.825	464
337.053	456
337.281	455
337.51	446
337.738	444
337.966	449
338.194	455
338.422	445
338.65	430
338.878	445
339.106	457
339.334	454
339.562	450
339.79	430
340.018	424
340.246	426
340.474	437
340.702	425
340.93	446
341.158	435
341.386	409
341.614	420
341.842	426
342.07	436
342.298	423
342.526	432
342.754	409
342.981	405
343.209	429
343.437	441
343.665	454
343.893	470
344.12	510
344.348	465
344.576	492
344.804	446
345.031	446
345.259	428
345.487	433
345.714	426
345.942	441
346.17	411
346.397	410
346.625	392
346.853	372
347.08	392
347.308	416
347.535	420
347.763	403
347.99	426
348.218	433
348.445	394
348.673	402
348.9	411
349.128	429
349.355	422
349.583	411
349.81	410
350.037	418
350.265	388
350.492	412
350.72	418
350.947	385
351.174	393
351.402	405
351.629	406
351.856	421
352.083	411
352.311	419
352.538	409
352.765	419
352.992	411
353.22	404
353.447	403
353.674	403
353.901	386
354.128	402
354.355	388
354.583	398
354.81	407
355.037	414
355.264	386
355.491	391
355.718	394
355.945	394
356.172	397
356.399	421
356.626	389
356.853	388
357.08	391
357.307	370
357.534	381
357.761	405
357.988	390
358.215	407
358.441	413
358.668	410
358.895	374
359.122	407
359.349	416
359.576	423
359.802	417
360.029	420
360.256	436
360.483	442
360.709	412
360.936	408
361.163	402
361.39	403
361.616	407
361.843	401
362.07	411
362.296	432
362.523	416
362.749	414
362.976	408
363.203	386
363.429	409
363.656	406
363.882	413
364.109	406
364.335	405
364.562	386
364.788	399
365.015	394
365.241	404
365.468	424
365.694	401
365.92	402
366.147	383
366.373	404
366.599	398
366.826	401
367.052	392
367.278	398
367.505	417
367.731	406
367.957	413
368.184	404
368.41	422
368.636	441
368.862	408
369.089	408
369.315	406
369.541	404
369.767	433
369.993	398
370.219	416
370.445	420
370.672	397
370.898	389
371.124	420
371.35	421
371.576	419
371.802	415
372.028	423
372.254	429
372.48	426
372.706	426
372.932	420
373.158	423
373.384	437
373.61	426
373.835	429
374.061	419
374.287	428
374.513	439
374.739	453
374.965	450
375.191	445
375.416	443
375.642	442
375.868	447
376.094	430
376.319	444
376.545	413
376.771	422
376.997	413
377.222	429
377.448	421
377.674	425
377.899	411
378.125	408
378.35	394
378.576	414
378.802	419
379.027	426
379.253	428
379.478	410
379.704	434
379.929	424
380.155	401
380.38	422
380.606	406
380.831	433
381.057	433
381.282	409
381.507	406
381.733	432
381.958	423
382.184	426
382.409	424
382.634	442
382.86	441
383.085	444
383.31	449
383.535	442
383.761	445
383.986	468
384.211	437
384.436	459
384.662	460
384.887	457
385.112	465
385.337	485
385.562	462
385.787	482
386.013	479
386.238	476
386.463	480
386.688	473
386.913	467
387.138	479
387.363	472
387.588	484
387.813	466
388.038	498
388.263	499
388.488	509
388.713	466
388.938	468
389.163	463
389.387	472
389.612	466
389.837	463
390.062	471
390.287	469
390.512	476
390.736	461
390.961	493
391.186	470
391.411	486
391.636	497
391.86	521
392.085	507
392.31	514
392.534	512
392.759	486
392.984	513
393.208	483
393.433	504
393.658	508
393.882	498
394.107	503
394.331	492
394.556	486
394.78	512
395.005	498
395.229	500
395.454	502
395.678	537
395.903	518
396.127	515
396.352	508
396.576	512
396.801	507
397.025	526
397.249	516
397.474	514
397.698	516
397.922	546
398.147	531
398.371	541
398.595	585
398.82	585
399.044	562
399.268	630
399.492	696
399.717	762
399.941	751
400.165	729
400.389	684
400.613	642
400.837	589
401.062	582
401.286	574
401.51	559
401.734	566
401.958	559
402.182	580
402.406	576
402.63	602
402.854	604
403.078	605
403.302	613
403.526	629
403.75	621
403.974	621
404.198	629
404.422	625
404.645	619
404.869	621
405.093	642
405.317	634
405.541	661
405.765	620
405.988	627
406.212	632
406.436	647
406.66	649
406.883	645
407.107	670
407.331	691
407.555	750
407.778	738
408.002	692
408.226	649
408.449	676
408.673	649
408.896	634
409.12	666
409.344	659
409.567	598
409.791	600
410.014	585
410.238	581
410.461	582
410.685	580
410.908	610
411.132	605
411.355	628
411.578	630
411.802	595
412.025	563
412.249	604
412.472	599
412.695	633
412.919	600
413.142	578
413.365	581
413.589	563
413.812	563
414.035	561
414.258	534
414.482	548
414.705	550
414.928	577
415.151	554
415.374	529
415.597	564
415.821	562
416.044	555
416.267	554
416.49	553
416.713	549
416.936	561
417.159	515
417.382	545
417.605	548
417.828	550
418.051	562
418.274	565
418.497	568
418.72	546
418.943	559
419.166	596
419.389	619
419.611	596
419.834	578
420.057	598
420.28	573
420.503	589
420.726	574
420.948	568
421.171	587
421.394	601
421.617	564
421.839	560
422.062	573
422.285	574
422.507	626
422.73	661
422.953	622
423.175	582
423.398	593
423.621	589
423.843	584
424.066	612
424.288	602
424.511	639
424.733	620
424.956	681
425.178	645
425.401	630
425.623	655
425.846	597
426.068	554
426.291	562
426.513	569
426.735	583
426.958	589
427.18	622
427.402	715
427.625	758
427.847	698
428.069	626
428.292	568
428.514	516
428.736	514
428.958	522
429.181	508
429.403	530
429.625	523
429.847	531
430.069	595
430.292	569
430.514	521
430.736	517
430.958	517
431.18	507
431.402	504
431.624	506
431.846	508
432.068	502
432.29	526
432.512	504
432.734	500
432.956	530
433.178	528
433.4	533
433.622	504
433.844	517
434.066	535
434.287	510
434.509	509
434.731	541
434.953	546
435.175	564
435.397	564
435.618	562
435.84	575
436.062	616
436.284	687
436.505	595
436.727	549
436.949	515
437.17	511
437.392	508
437.614	525
437.835	521
438.057	583
438.278	621
438.5	614
438.721	674
438.943	683
439.165	566
439.386	525
439.608	540
439.829	563
440.05	556
440.272	562
440.493	570
440.715	524
440.936	509
441.158	532
441.379	544
441.6	564
441.822	586
442.043	588
442.264	652
442.486	662
442.707	598
442.928	539
443.149	548
443.371	601
443.592	628
443.813	651
444.034	708
444.255	645
444.476	620
444.698	597
444.919	621
445.14	737
445.361	660
445.582	594
445.803	618
446.024	661
446.245	698
446.466	644
446.687	570
446.908	556
447.129	526
447.35	500
447.571	526
447.792	498
448.013	494
448.234	482
448.455	518
448.675	605
448.896	660
449.117	599
449.338	578
449.559	623
449.779	674
450	580
450.221	527
450.442	483
450.662	471
450.883	489
451.104	492
451.324	491
451.545	462
451.766	456
451.986	462
452.207	475
452.428	457
452.648	446
452.869	465
453.089	461
453.31	477
453.53	451
453.751	446
453.971	442
454.192	467
454.412	453
454.633	449
454.853	429
455.073	445
455.294	460
455.514	483
455.734	491
455.955	467
456.175	454
456.395	429
456.616	422
456.836	428
457.056	443
457.276	418
457.497	435
457.717	443
457.937	450
458.157	454
458.377	437
458.598	463
458.818	498
459.038	534
459.258	562
459.478	510
459.698	507
459.918	522
460.138	494
460.358	554
460.578	555
460.798	581
461.018	549
461.238	546
461.458	528
461.678	527
461.898	553
462.118	549
462.338	572
462.558	570
462.777	601
462.997	612
463.217	642
463.437	677
463.657	614
463.876	610
464.096	601
464.316	600
464.536	583
464.755	602
464.975	592
465.195	600
465.414	594
465.634	548
465.854	505
466.073	502
466.293	469
466.512	471
466.732	476
466.951	468
467.171	476
467.391	482
467.61	476
467.829	489
468.049	474
468.268	457
468.488	462
468.707	457
468.927	455
469.146	475
469.365	481
469.585	465
469.804	480
470.023	483
470.243	477
470.462	479
470.681	504
470.901	498
471.12	505
471.339	471
471.558	485
471.777	504
471.997	471
472.216	479
472.435	501
472.654	466
472.873	467
473.092	446
473.311	462
473.53	469
473.749	454
473.968	491
474.187	540
474.406	552
474.625	480
474.844	461
475.063	444
475.282	452
475.501	465
475.72	495
475.939	476
476.158	484
476.377	470
476.596	469
476.814	498
477.033	494
477.252	500
477.471	523
477.69	504
477.908	531
478.127	547
478.346	537
478.564	550
478.783	532
479.002	570
479.22	568
479.439	549
479.658	565
479.876	562
480.095	556
480.313	602
480.532	603
480.751	620
480.969	574
481.188	593
481.406	626
481.624	562
481.843	554
482.061	556
482.28	554
482.498	542
482.717	545
482.935	536
483.153	512
483.372	539
483.59	531
483.808	537
484.027	529
484.245	539
484.463	531
484.681	566
484.9	538
485.118	560
485.336	549
485.554	550
485.772	561
485.99	545
486.209	567
486.427	560
486.645	601
486.863	577
487.081	591
487.299	549
487.517	578
487.735	549
487.953	575
488.171	556
488.389	568
488.607	567
488.825	557
489.043	555
489.261	566
489.479	581
489.696	567
489.914	572
490.132	585
490.35	585
490.568	598
490.786	613
491.003	606
491.221	632
491.439	628
491.657	625
491.874	642
492.092	647
492.31	650
492.527	633
492.745	632
492.963	641
493.18	649
493.398	650
493.615	658
493.833	657
494.05	658
494.268	669
494.485	639
494.703	649
494.92	637
495.138	650
495.355	674
495.573	683
495.79	660
496.008	660
496.225	665
496.442	658
496.66	663
496.877	665
497.094	656
497.312	674
497.529	683
497.746	691
497.963	713
498.181	728
498.398	758
498.615	794
498.832	811
499.049	848
499.267	910
499.484	904
499.701	990
499.918	1038
500.135	1168
500.352	1272
500.569	1278
500.786	1299
501.003	1281
501.22	1170
501.437	1080
501.654	1012
501.871	964
502.088	898
502.305	845
502.522	794
502.739	809
502.956	742
503.172	750
503.389	708
503.606	675
503.823	673
504.04	695
504.256	691
504.473	687
504.69	696
504.907	681
505.123	659
505.34	631
505.557	620
505.773	610
505.99	637
506.207	610
506.423	584
506.64	600
506.856	606
507.073	600
507.289	574
507.506	571
507.722	604
507.939	595
508.155	567
508.372	571
508.588	556
508.805	531
509.021	549
509.238	556
509.454	558
509.67	549
509.887	567
510.103	564
510.319	539
510.536	615
510.752	835
510.968	715
511.184	554
511.401	540
511.617	521
511.833	510
512.049	544
512.265	538
512.481	510
512.698	506
512.914	528
513.13	513
513.346	531
513.562	528
513.778	543
513.994	508
514.21	531
514.426	537
514.642	582
514.858	591
515.074	612
515.29	654
515.506	893
515.721	759
515.937	593
516.153	577
516.369	571
516.585	572
516.801	583
517.016	597
517.232	615
517.448	621
517.664	648
517.879	630
518.095	654
518.311	661
518.527	626
518.742	625
518.958	573
519.173	592
519.389	560
519.605	547
519.82	543
520.036	531
520.251	559
520.467	577
520.682	545
520.898	560
521.113	550
521.329	573
521.544	597
521.76	693
521.975	1022
522.19	1044
522.406	673
522.621	544
522.836	508
523.052	513
523.267	475
523.482	482
523.698	463
523.913	480
524.128	489
524.343	468
524.559	448
524.774	456
524.989	470
525.204	475
525.419	500
525.634	451
525.849	455
526.064	444
526.28	473
526.495	471
526.71	436
526.925	441
527.14	450
527.355	441
527.57	457
527.785	451
527.999	450
528.214	429
528.429	466
528.644	462
528.859	443
529.074	456
529.289	470
529.503	498
529.718	496
529.933	464
530.148	464
530.363	450
530.577	446
530.792	438
531.007	468
531.221	441
531.436	446
531.651	475
531.865	442
532.08	440
532.295	448
532.509	448
532.724	451
532.938	442
533.153	434
533.367	445
533.582	458
533.796	434
534.011	450
534.225	437
534.44	432
534.654	425
534.868	433
535.083	413
535.297	435
535.511	438
535.726	450
535.94	421
536.154	426
536.369	443
536.583	440
536.797	441
537.011	406
537.225	424
537.44	417
537.654	403
537.868	412
538.082	417
538.296	413
538.51	419
538.724	416
538.938	422
539.153	412
539.367	422
539.581	424
539.795	410
540.009	400
540.222	410
540.436	410
540.65	418
540.864	417
541.078	430
541.292	428
541.506	413
541.72	422
541.934	413
542.147	428
542.361	422
542.575	420
542.789	413
543.002	412
543.216	425
543.43	391
543.644	416
543.857	404
544.071	417
544.285	420
544.498	414
544.712	419
544.925	426
545.139	426
545.352	418
545.566	420
545.779	409
545.993	405
546.206	419
546.42	425
546.633	422
546.847	433
547.06	411
547.274	420
547.487	429
547.7	427
547.914	423
548.127	425
548.34	433
548.554	407
548.767	429
548.98	413
549.193	418
549.407	414
549.62	397
549.833	422
550.046	426
550.259	432
550.473	440
550.686	422
550.899	422
551.112	435
551.325	423
551.538	388
551.751	406
551.964	410
552.177	420
552.39	411
552.603	434
552.816	464
553.029	453
553.242	456
553.455	460
553.667	450
553.88	466
554.093	443
554.306	433
554.519	448
554.732	420
554.944	405
555.157	407
555.37	405
555.583	398
555.795	401
556.008	394
556.221	401
556.433	386
556.646	386
556.859	376
557.071	384
557.284	376
557.496	381
557.709	376
557.921	371
558.134	382
558.346	371
558.559	372
558.771	374
558.984	374
559.196	368
559.409	368
559.621	363
559.833	352
560.046	375
560.258	394
560.47	358
560.683	356
560.895	352
561.107	364
561.32	372
561.532	356
561.744	368
561.956	389
562.168	367
562.381	367
562.593	370
562.805	368
563.017	371
563.229	375
563.441	367
