Data from 1960PennyLincolnUp.LampE6.200Scan.07172019.P1_HRD10591_13-05-23-001.txt Node
Date: Thu Jul 18 13:05:23 EDT 2019
User: cochatt
Spectrometer: HR+D1059
Trigger mode: 1
Integration Time (sec): 1.000000E-1
Scans to average: 1
Electric dark correction enabled: true
Nonlinearity correction enabled: false
Boxcar width: 0
XAxis mode: Wavelengths
Number of Pixels in Spectrum: 2048
>>>>>Begin Spectral Data<<<<<
223.165	-22.81
223.4	-22.81
223.635	-22.81
223.869	-6.81
224.104	-13.81
224.338	-2.81
224.573	-3.81
224.808	-23.81
225.042	6.19
225.277	-10.81
225.511	-13.81
225.746	2.19
225.98	10.19
226.215	21.19
226.449	14.19
226.683	15.19
226.918	10.19
227.152	19.19
227.387	36.19
227.621	38.19
227.856	45.19
228.09	46.19
228.324	61.19
228.559	61.19
228.793	68.19
229.027	92.19
229.262	102.19
229.496	81.19
229.73	101.19
229.964	135.19
230.199	113.19
230.433	103.19
230.667	107.19
230.901	103.19
231.136	100.19
231.37	104.19
231.604	125.19
231.838	115.19
232.072	104.19
232.306	99.19
232.541	111.19
232.775	105.19
233.009	114.19
233.243	113.19
233.477	120.19
233.711	116.19
233.945	123.19
234.179	117.19
234.413	126.19
234.647	103.19
234.881	118.19
235.115	125.19
235.349	109.19
235.583	111.19
235.817	137.19
236.051	97.19
236.285	115.19
236.519	121.19
236.753	118.19
236.987	141.19
237.221	135.19
237.455	165.19
237.689	145.19
237.922	124.19
238.156	125.19
238.39	113.19
238.624	105.19
238.858	109.19
239.091	111.19
239.325	128.19
239.559	117.19
239.793	118.19
240.027	143.19
240.26	123.19
240.494	124.19
240.728	121.19
240.961	136.19
241.195	146.19
241.429	135.19
241.662	134.19
241.896	134.19
242.13	142.19
242.363	128.19
242.597	118.19
242.83	134.19
243.064	115.19
243.298	135.19
243.531	131.19
243.765	122.19
243.998	132.19
244.232	119.19
244.465	127.19
244.699	144.19
244.932	139.19
245.166	149.19
245.399	146.19
245.633	148.19
245.866	157.19
246.099	117.19
246.333	158.19
246.566	138.19
246.8	148.19
247.033	156.19
247.266	149.19
247.5	162.19
247.733	145.19
247.966	145.19
248.2	141.19
248.433	162.19
248.666	182.19
248.899	157.19
249.133	184.19
249.366	166.19
249.599	159.19
249.832	171.19
250.066	165.19
250.299	181.19
250.532	177.19
250.765	179.19
250.998	198.19
251.231	191.19
251.465	177.19
251.698	180.19
251.931	166.19
252.164	173.19
252.397	165.19
252.63	161.19
252.863	179.19
253.096	194.19
253.329	194.19
253.562	202.19
253.795	193.19
254.028	187.19
254.261	197.19
254.494	211.19
254.727	210.19
254.96	225.19
255.193	219.19
255.426	197.19
255.659	197.19
255.892	195.19
256.124	182.19
256.357	197.19
256.59	196.19
256.823	179.19
257.056	168.19
257.289	190.19
257.521	208.19
257.754	194.19
257.987	197.19
258.22	194.19
258.452	197.19
258.685	191.19
258.918	183.19
259.151	211.19
259.383	191.19
259.616	199.19
259.849	194.19
260.081	219.19
260.314	216.19
260.547	226.19
260.779	212.19
261.012	200.19
261.244	206.19
261.477	203.19
261.71	190.19
261.942	204.19
262.175	200.19
262.407	209.19
262.64	214.19
262.872	198.19
263.105	194.19
263.337	190.19
263.57	201.19
263.802	201.19
264.035	193.19
264.267	192.19
264.499	195.19
264.732	205.19
264.964	219.19
265.197	208.19
265.429	201.19
265.661	212.19
265.894	203.19
266.126	220.19
266.358	210.19
266.591	212.19
266.823	235.19
267.055	207.19
267.287	201.19
267.52	213.19
267.752	215.19
267.984	219.19
268.216	208.19
268.448	225.19
268.681	225.19
268.913	229.19
269.145	228.19
269.377	261.19
269.609	249.19
269.841	246.19
270.073	246.19
270.306	234.19
270.538	267.19
270.77	255.19
271.002	256.19
271.234	258.19
271.466	263.19
271.698	269.19
271.93	280.19
272.162	267.19
272.394	273.19
272.626	244.19
272.858	261.19
273.09	265.19
273.322	239.19
273.553	247.19
273.785	247.19
274.017	279.19
274.249	246.19
274.481	254.19
274.713	239.19
274.945	247.19
275.176	254.19
275.408	251.19
275.64	264.19
275.872	265.19
276.104	269.19
276.335	258.19
276.567	254.19
276.799	273.19
277.031	278.19
277.262	273.19
277.494	271.19
277.726	265.19
277.957	284.19
278.189	253.19
278.421	276.19
278.652	255.19
278.884	260.19
279.115	259.19
279.347	251.19
279.579	254.19
279.81	262.19
280.042	262.19
280.273	272.19
280.505	273.19
280.736	281.19
280.968	267.19
281.199	273.19
281.431	270.19
281.662	259.19
281.894	267.19
282.125	272.19
282.356	305.19
282.588	287.19
282.819	302.19
283.051	285.19
283.282	267.19
283.513	273.19
283.745	289.19
283.976	274.19
284.207	292.19
284.439	285.19
284.67	280.19
284.901	280.19
285.132	281.19
285.364	275.19
285.595	291.19
285.826	276.19
286.057	286.19
286.288	308.19
286.52	280.19
286.751	282.19
286.982	290.19
287.213	286.19
287.444	283.19
287.675	293.19
287.906	305.19
288.138	302.19
288.369	305.19
288.6	307.19
288.831	300.19
289.062	301.19
289.293	292.19
289.524	302.19
289.755	298.19
289.986	289.19
290.217	287.19
290.448	303.19
290.679	306.19
290.91	282.19
291.141	301.19
291.371	300.19
291.602	307.19
291.833	300.19
292.064	295.19
292.295	293.19
292.526	296.19
292.757	286.19
292.987	299.19
293.218	284.19
293.449	305.19
293.68	305.19
293.91	306.19
294.141	279.19
294.372	304.19
294.603	314.19
294.833	286.19
295.064	312.19
295.295	310.19
295.525	297.19
295.756	305.19
295.987	283.19
296.217	314.19
296.448	323.19
296.679	310.19
296.909	309.19
297.14	288.19
297.37	295.19
297.601	328.19
297.831	315.19
298.062	308.19
298.292	310.19
298.523	329.19
298.753	334.19
298.984	319.19
299.214	313.19
299.445	323.19
299.675	331.19
299.905	330.19
300.136	324.19
300.366	309.19
300.597	325.19
300.827	327.19
301.057	334.19
301.288	347.19
301.518	334.19
301.748	358.19
301.979	349.19
302.209	353.19
302.439	340.19
302.669	344.19
302.9	332.19
303.13	350.19
303.36	345.19
303.59	346.19
303.82	358.19
304.051	334.19
304.281	347.19
304.511	354.19
304.741	360.19
304.971	331.19
305.201	329.19
305.431	338.19
305.661	343.19
305.891	329.19
306.121	342.19
306.352	345.19
306.582	334.19
306.812	337.19
307.042	344.19
307.272	362.19
307.502	347.19
307.731	342.19
307.961	343.19
308.191	321.19
308.421	322.19
308.651	336.19
308.881	328.19
309.111	349.19
309.341	352.19
309.571	353.19
309.8	352.19
310.03	353.19
310.26	354.19
310.49	353.19
310.72	350.19
310.949	355.19
311.179	363.19
311.409	357.19
311.639	348.19
311.868	363.19
312.098	364.19
312.328	345.19
312.557	359.19
312.787	356.19
313.017	371.19
313.246	357.19
313.476	344.19
313.706	369.19
313.935	388.19
314.165	373.19
314.394	373.19
314.624	378.19
314.853	384.19
315.083	379.19
315.312	379.19
315.542	387.19
315.771	386.19
316.001	362.19
316.23	352.19
316.46	389.19
316.689	366.19
316.919	377.19
317.148	381.19
317.377	366.19
317.607	364.19
317.836	362.19
318.065	383.19
318.295	360.19
318.524	374.19
318.753	363.19
318.983	379.19
319.212	383.19
319.441	373.19
319.67	366.19
319.9	371.19
320.129	396.19
320.358	363.19
320.587	393.19
320.816	376.19
321.046	393.19
321.275	371.19
321.504	363.19
321.733	391.19
321.962	408.19
322.191	383.19
322.42	397.19
322.649	408.19
322.878	400.19
323.108	397.19
323.337	397.19
323.566	429.19
323.795	430.19
324.024	449.19
324.253	515.19
324.482	638.19
324.71	891.19
324.939	1193.19
325.168	1003.19
325.397	575.19
325.626	466.19
325.855	427.19
326.084	429.19
326.313	433.19
326.542	439.19
326.77	452.19
326.999	495.19
327.228	635.19
327.457	823.19
327.686	940.19
327.914	667.19
328.143	493.19
328.372	485.19
328.6	460.19
328.829	451.19
329.058	459.19
329.287	485.19
329.515	468.19
329.744	463.19
329.972	436.19
330.201	473.19
330.43	486.19
330.658	486.19
330.887	497.19
331.115	500.19
331.344	462.19
331.572	446.19
331.801	455.19
332.03	453.19
332.258	445.19
332.486	473.19
332.715	468.19
332.943	463.19
333.172	474.19
333.4	497.19
333.629	509.19
333.857	539.19
334.085	523.19
334.314	521.19
334.542	546.19
334.771	526.19
334.999	518.19
335.227	498.19
335.455	489.19
335.684	486.19
335.912	483.19
336.14	468.19
336.369	461.19
336.597	469.19
336.825	447.19
337.053	455.19
337.281	458.19
337.51	467.19
337.738	455.19
337.966	452.19
338.194	446.19
338.422	460.19
338.65	436.19
338.878	456.19
339.106	457.19
339.334	439.19
339.562	427.19
339.79	431.19
340.018	427.19
340.246	428.19
340.474	406.19
340.702	428.19
340.93	424.19
341.158	422.19
341.386	413.19
341.614	413.19
341.842	436.19
342.07	433.19
342.298	428.19
342.526	405.19
342.754	421.19
342.981	418.19
343.209	429.19
343.437	444.19
343.665	461.19
343.893	493.19
344.12	487.19
344.348	444.19
344.576	460.19
344.804	463.19
345.031	444.19
345.259	444.19
345.487	407.19
345.714	427.19
345.942	433.19
346.17	411.19
346.397	410.19
346.625	399.19
346.853	406.19
347.08	413.19
347.308	429.19
347.535	405.19
347.763	417.19
347.99	420.19
348.218	414.19
348.445	407.19
348.673	427.19
348.9	414.19
349.128	420.19
349.355	422.19
349.583	404.19
349.81	408.19
350.037	402.19
350.265	408.19
350.492	393.19
350.72	407.19
350.947	413.19
351.174	410.19
351.402	401.19
351.629	412.19
351.856	411.19
352.083	409.19
352.311	405.19
352.538	417.19
352.765	404.19
352.992	414.19
353.22	411.19
353.447	399.19
353.674	410.19
353.901	405.19
354.128	382.19
354.355	397.19
354.583	380.19
354.81	402.19
355.037	403.19
355.264	392.19
355.491	398.19
355.718	404.19
355.945	394.19
356.172	408.19
356.399	397.19
356.626	398.19
356.853	411.19
357.08	401.19
357.307	407.19
357.534	395.19
357.761	400.19
357.988	400.19
358.215	391.19
358.441	405.19
358.668	388.19
358.895	385.19
359.122	391.19
359.349	414.19
359.576	406.19
359.802	423.19
360.029	429.19
360.256	436.19
360.483	402.19
360.709	403.19
360.936	407.19
361.163	412.19
361.39	391.19
361.616	404.19
361.843	412.19
362.07	411.19
362.296	404.19
362.523	414.19
362.749	406.19
362.976	438.19
363.203	415.19
363.429	409.19
363.656	405.19
363.882	405.19
364.109	407.19
364.335	388.19
364.562	402.19
364.788	399.19
365.015	406.19
365.241	383.19
365.468	397.19
365.694	398.19
365.92	399.19
366.147	407.19
366.373	379.19
366.599	399.19
366.826	392.19
367.052	381.19
367.278	412.19
367.505	409.19
367.731	394.19
367.957	394.19
368.184	409.19
368.41	401.19
368.636	423.19
368.862	410.19
369.089	398.19
369.315	406.19
369.541	411.19
369.767	399.19
369.993	413.19
370.219	418.19
370.445	405.19
370.672	427.19
370.898	419.19
371.124	425.19
371.35	423.19
371.576	408.19
371.802	437.19
372.028	413.19
372.254	399.19
372.48	414.19
372.706	422.19
372.932	430.19
373.158	432.19
373.384	415.19
373.61	401.19
373.835	422.19
374.061	419.19
374.287	417.19
374.513	409.19
374.739	417.19
374.965	440.19
375.191	452.19
375.416	451.19
375.642	425.19
375.868	427.19
376.094	423.19
376.319	426.19
376.545	440.19
376.771	414.19
376.997	421.19
377.222	416.19
377.448	424.19
377.674	411.19
377.899	399.19
378.125	391.19
378.35	421.19
378.576	422.19
378.802	413.19
379.027	410.19
379.253	409.19
379.478	420.19
379.704	411.19
379.929	419.19
380.155	405.19
380.38	397.19
380.606	419.19
380.831	402.19
381.057	439.19
381.282	428.19
381.507	442.19
381.733	437.19
381.958	439.19
382.184	434.19
382.409	443.19
382.634	430.19
382.86	426.19
383.085	439.19
383.31	429.19
383.535	440.19
383.761	462.19
383.986	446.19
384.211	469.19
384.436	462.19
384.662	456.19
384.887	489.19
385.112	475.19
385.337	454.19
385.562	462.19
385.787	484.19
386.013	481.19
386.238	486.19
386.463	485.19
386.688	482.19
386.913	462.19
387.138	468.19
387.363	457.19
387.588	482.19
387.813	477.19
388.038	486.19
388.263	485.19
388.488	499.19
388.713	468.19
388.938	449.19
389.163	476.19
389.387	461.19
389.612	472.19
389.837	476.19
390.062	456.19
390.287	466.19
390.512	466.19
390.736	471.19
390.961	473.19
391.186	467.19
391.411	499.19
391.636	487.19
391.86	504.19
392.085	505.19
392.31	511.19
392.534	486.19
392.759	511.19
392.984	505.19
393.208	495.19
393.433	499.19
393.658	493.19
393.882	494.19
394.107	484.19
394.331	503.19
394.556	487.19
394.78	499.19
395.005	502.19
395.229	493.19
395.454	519.19
395.678	505.19
395.903	530.19
396.127	527.19
396.352	525.19
396.576	508.19
396.801	500.19
397.025	508.19
397.249	516.19
397.474	514.19
397.698	529.19
397.922	508.19
398.147	525.19
398.371	555.19
398.595	539.19
398.82	549.19
399.044	579.19
399.268	611.19
399.492	681.19
399.717	719.19
399.941	754.19
400.165	725.19
400.389	685.19
400.613	626.19
400.837	595.19
401.062	576.19
401.286	588.19
401.51	565.19
401.734	551.19
401.958	570.19
402.182	575.19
402.406	562.19
402.63	585.19
402.854	594.19
403.078	597.19
403.302	594.19
403.526	614.19
403.75	615.19
403.974	596.19
404.198	615.19
404.422	616.19
404.645	599.19
404.869	613.19
405.093	652.19
405.317	650.19
405.541	674.19
405.765	617.19
405.988	622.19
406.212	645.19
406.436	629.19
406.66	654.19
406.883	628.19
407.107	673.19
407.331	692.19
407.555	756.19
407.778	726.19
408.002	702.19
408.226	657.19
408.449	653.19
408.673	622.19
408.896	657.19
409.12	648.19
409.344	638.19
409.567	625.19
409.791	609.19
410.014	596.19
410.238	602.19
410.461	598.19
410.685	614.19
410.908	623.19
411.132	606.19
411.355	611.19
411.578	599.19
411.802	579.19
412.025	591.19
412.249	594.19
412.472	606.19
412.695	615.19
412.919	574.19
413.142	598.19
413.365	571.19
413.589	573.19
413.812	554.19
414.035	547.19
414.258	549.19
414.482	556.19
414.705	553.19
414.928	566.19
415.151	570.19
415.374	589.19
415.597	559.19
415.821	542.19
416.044	571.19
416.267	546.19
416.49	556.19
416.713	549.19
416.936	564.19
417.159	542.19
417.382	553.19
417.605	545.19
417.828	591.19
418.051	590.19
418.274	548.19
418.497	539.19
418.72	583.19
418.943	574.19
419.166	581.19
419.389	610.19
419.611	601.19
419.834	587.19
420.057	589.19
420.28	587.19
420.503	555.19
420.726	575.19
420.948	568.19
421.171	587.19
421.394	602.19
421.617	564.19
421.839	551.19
422.062	579.19
422.285	551.19
422.507	586.19
422.73	623.19
422.953	626.19
423.175	606.19
423.398	599.19
423.621	570.19
423.843	614.19
424.066	594.19
424.288	601.19
424.511	603.19
424.733	617.19
424.956	690.19
425.178	647.19
425.401	624.19
425.623	645.19
425.846	596.19
426.068	557.19
426.291	566.19
426.513	563.19
426.735	571.19
426.958	579.19
427.18	615.19
427.402	688.19
427.625	709.19
427.847	619.19
428.069	581.19
428.292	551.19
428.514	534.19
428.736	530.19
428.958	517.19
429.181	523.19
429.403	539.19
429.625	515.19
429.847	538.19
430.069	576.19
430.292	571.19
430.514	514.19
430.736	517.19
430.958	526.19
431.18	513.19
431.402	506.19
431.624	490.19
431.846	500.19
432.068	478.19
432.29	499.19
432.512	517.19
432.734	529.19
432.956	505.19
433.178	518.19
433.4	515.19
433.622	529.19
433.844	519.19
434.066	509.19
434.287	525.19
434.509	521.19
434.731	529.19
434.953	539.19
435.175	546.19
435.397	587.19
435.618	542.19
435.84	563.19
436.062	604.19
436.284	639.19
436.505	579.19
436.727	555.19
436.949	531.19
437.17	520.19
437.392	517.19
437.614	508.19
437.835	545.19
438.057	579.19
438.278	613.19
438.5	623.19
438.721	691.19
438.943	635.19
439.165	559.19
439.386	529.19
439.608	537.19
439.829	538.19
440.05	561.19
440.272	557.19
440.493	555.19
440.715	536.19
440.936	526.19
441.158	533.19
441.379	538.19
441.6	538.19
441.822	582.19
442.043	582.19
442.264	625.19
442.486	648.19
442.707	604.19
442.928	570.19
443.149	578.19
443.371	584.19
443.592	597.19
443.813	664.19
444.034	682.19
444.255	635.19
444.476	629.19
444.698	616.19
444.919	609.19
445.14	710.19
445.361	621.19
445.582	606.19
445.803	603.19
446.024	666.19
446.245	677.19
446.466	614.19
446.687	525.19
446.908	542.19
447.129	524.19
447.35	507.19
447.571	496.19
447.792	493.19
448.013	499.19
448.234	508.19
448.455	528.19
448.675	573.19
448.896	634.19
449.117	559.19
449.338	566.19
449.559	615.19
449.779	662.19
450	562.19
450.221	511.19
450.442	485.19
450.662	481.19
450.883	489.19
451.104	486.19
451.324	492.19
451.545	474.19
451.766	451.19
451.986	452.19
452.207	442.19
452.428	452.19
452.648	457.19
452.869	482.19
453.089	451.19
453.31	460.19
453.53	464.19
453.751	446.19
453.971	453.19
454.192	457.19
454.412	431.19
454.633	449.19
454.853	443.19
455.073	444.19
455.294	457.19
455.514	493.19
455.734	474.19
455.955	435.19
456.175	422.19
456.395	440.19
456.616	430.19
456.836	427.19
457.056	444.19
457.276	424.19
457.497	415.19
457.717	441.19
457.937	439.19
458.157	456.19
458.377	453.19
458.598	468.19
458.818	480.19
459.038	533.19
459.258	557.19
459.478	521.19
459.698	491.19
459.918	510.19
460.138	529.19
460.358	555.19
460.578	541.19
460.798	547.19
461.018	571.19
461.238	548.19
461.458	543.19
461.678	547.19
461.898	551.19
462.118	532.19
462.338	584.19
462.558	597.19
462.777	583.19
462.997	617.19
463.217	650.19
463.437	677.19
463.657	613.19
463.876	606.19
464.096	598.19
464.316	601.19
464.536	618.19
464.755	595.19
464.975	589.19
465.195	590.19
465.414	577.19
465.634	561.19
465.854	520.19
466.073	505.19
466.293	499.19
466.512	476.19
466.732	478.19
466.951	473.19
467.171	456.19
467.391	468.19
467.61	471.19
467.829	489.19
468.049	489.19
468.268	478.19
468.488	481.19
468.707	476.19
468.927	448.19
469.146	445.19
469.365	455.19
469.585	444.19
469.804	469.19
470.023	496.19
470.243	485.19
470.462	483.19
470.681	524.19
470.901	509.19
471.12	482.19
471.339	500.19
471.558	486.19
471.777	479.19
471.997	478.19
472.216	463.19
472.435	490.19
472.654	467.19
472.873	449.19
473.092	455.19
473.311	476.19
473.53	453.19
473.749	446.19
473.968	485.19
474.187	529.19
474.406	518.19
474.625	459.19
474.844	499.19
475.063	485.19
475.282	457.19
475.501	449.19
475.72	486.19
475.939	466.19
476.158	486.19
476.377	471.19
476.596	472.19
476.814	482.19
477.033	497.19
477.252	493.19
477.471	491.19
477.69	509.19
477.908	514.19
478.127	547.19
478.346	535.19
478.564	538.19
478.783	541.19
479.002	564.19
479.22	545.19
479.439	568.19
479.658	576.19
479.876	592.19
480.095	585.19
480.313	601.19
480.532	593.19
480.751	596.19
480.969	570.19
481.188	637.19
481.406	626.19
481.624	594.19
481.843	555.19
482.061	541.19
482.28	551.19
482.498	535.19
482.717	539.19
482.935	525.19
483.153	513.19
483.372	510.19
483.59	545.19
483.808	522.19
484.027	529.19
484.245	540.19
484.463	533.19
484.681	565.19
484.9	561.19
485.118	530.19
485.336	561.19
485.554	542.19
485.772	567.19
485.99	575.19
486.209	567.19
486.427	558.19
486.645	579.19
486.863	570.19
487.081	579.19
487.299	579.19
487.517	556.19
487.735	574.19
487.953	565.19
488.171	553.19
488.389	541.19
488.607	561.19
488.825	561.19
489.043	556.19
489.261	563.19
489.479	574.19
489.696	561.19
489.914	559.19
490.132	581.19
490.35	565.19
490.568	586.19
490.786	606.19
491.003	589.19
491.221	590.19
491.439	616.19
491.657	633.19
491.874	631.19
492.092	631.19
492.31	623.19
492.527	633.19
492.745	645.19
492.963	643.19
493.18	620.19
493.398	646.19
493.615	643.19
493.833	638.19
494.05	640.19
494.268	653.19
494.485	643.19
494.703	643.19
494.92	644.19
495.138	645.19
495.355	618.19
495.573	625.19
495.79	655.19
496.008	645.19
496.225	647.19
496.442	650.19
496.66	653.19
496.877	682.19
497.094	658.19
497.312	658.19
497.529	677.19
497.746	687.19
497.963	682.19
498.181	742.19
498.398	726.19
498.615	771.19
498.832	798.19
499.049	841.19
499.267	862.19
499.484	934.19
499.701	980.19
499.918	1041.19
500.135	1157.19
500.352	1307.19
500.569	1306.19
500.786	1283.19
501.003	1217.19
501.22	1147.19
501.437	1065.19
501.654	1018.19
501.871	961.19
