Data from 1960PennyLincolnUp.LampE5.5.200Scan.07172019.P1.ChangedAngle_HRD10591_13-14-51-821.txt Node
Date: Thu Jul 18 13:14:51 EDT 2019
User: cochatt
Spectrometer: HR+D1059
Trigger mode: 1
Integration Time (sec): 1.000000E-1
Scans to average: 1
Electric dark correction enabled: true
Nonlinearity correction enabled: false
Boxcar width: 0
XAxis mode: Wavelengths
Number of Pixels in Spectrum: 2048
>>>>>Begin Spectral Data<<<<<
223.165	-9.56
223.4	-9.56
223.635	-9.56
223.869	-23.56
224.104	-27.56
224.338	-7.56
224.573	-19.56
224.808	-27.56
225.042	3.44
225.277	-0.56
225.511	-12.56
225.746	-6.56
225.98	13.44
226.215	13.44
226.449	28.44
226.683	18.44
226.918	23.44
227.152	34.44
227.387	47.44
227.621	24.44
227.856	40.44
228.09	52.44
228.324	42.44
228.559	54.44
228.793	69.44
229.027	92.44
229.262	85.44
229.496	105.44
229.73	108.44
229.964	126.44
230.199	101.44
230.433	93.44
230.667	104.44
230.901	108.44
231.136	100.44
231.37	115.44
231.604	101.44
231.838	110.44
232.072	107.44
232.306	101.44
232.541	109.44
232.775	106.44
233.009	105.44
233.243	103.44
233.477	121.44
233.711	110.44
233.945	113.44
234.179	105.44
234.413	112.44
234.647	121.44
234.881	100.44
235.115	105.44
235.349	119.44
235.583	117.44
235.817	118.44
236.051	105.44
236.285	109.44
236.519	104.44
236.753	113.44
236.987	117.44
237.221	149.44
237.455	167.44
237.689	147.44
237.922	132.44
238.156	121.44
238.39	125.44
238.624	110.44
238.858	104.44
239.091	111.44
239.325	129.44
239.559	121.44
239.793	114.44
240.027	119.44
240.26	124.44
240.494	128.44
240.728	134.44
240.961	129.44
241.195	128.44
241.429	122.44
241.662	117.44
241.896	123.44
242.13	147.44
242.363	128.44
242.597	120.44
242.83	124.44
243.064	132.44
243.298	131.44
243.531	149.44
243.765	139.44
243.998	146.44
244.232	132.44
244.465	133.44
244.699	134.44
244.932	130.44
245.166	131.44
245.399	144.44
245.633	138.44
245.866	139.44
246.099	126.44
246.333	139.44
246.566	129.44
246.8	138.44
247.033	145.44
247.266	154.44
247.5	142.44
247.733	140.44
247.966	150.44
248.2	167.44
248.433	157.44
248.666	143.44
248.899	153.44
249.133	158.44
249.366	175.44
249.599	171.44
249.832	179.44
250.066	155.44
250.299	155.44
250.532	166.44
250.765	173.44
250.998	185.44
251.231	178.44
251.465	185.44
251.698	186.44
251.931	180.44
252.164	171.44
252.397	175.44
252.63	175.44
252.863	169.44
253.096	188.44
253.329	176.44
253.562	188.44
253.795	180.44
254.028	175.44
254.261	191.44
254.494	201.44
254.727	206.44
254.96	218.44
255.193	227.44
255.426	210.44
255.659	202.44
255.892	203.44
256.124	214.44
256.357	203.44
256.59	192.44
256.823	191.44
257.056	203.44
257.289	206.44
257.521	194.44
257.754	194.44
257.987	187.44
258.22	192.44
258.452	175.44
258.685	169.44
258.918	193.44
259.151	192.44
259.383	204.44
259.616	200.44
259.849	196.44
260.081	217.44
260.314	223.44
260.547	223.44
260.779	212.44
261.012	221.44
261.244	192.44
261.477	206.44
261.71	203.44
261.942	203.44
262.175	222.44
262.407	198.44
262.64	197.44
262.872	205.44
263.105	196.44
263.337	190.44
263.57	204.44
263.802	211.44
264.035	190.44
264.267	206.44
264.499	192.44
264.732	208.44
264.964	203.44
265.197	199.44
265.429	199.44
265.661	202.44
265.894	199.44
266.126	201.44
266.358	191.44
266.591	187.44
266.823	198.44
267.055	205.44
267.287	220.44
267.52	211.44
267.752	210.44
267.984	205.44
268.216	213.44
268.448	227.44
268.681	227.44
268.913	228.44
269.145	240.44
269.377	256.44
269.609	232.44
269.841	239.44
270.073	240.44
270.306	261.44
270.538	272.44
270.77	284.44
271.002	263.44
271.234	258.44
271.466	258.44
271.698	263.44
271.93	255.44
272.162	259.44
272.394	277.44
272.626	249.44
272.858	257.44
273.09	247.44
273.322	250.44
273.553	241.44
273.785	242.44
274.017	240.44
274.249	255.44
274.481	252.44
274.713	251.44
274.945	256.44
275.176	251.44
275.408	235.44
275.64	235.44
275.872	238.44
276.104	256.44
276.335	236.44
276.567	254.44
276.799	251.44
277.031	275.44
277.262	283.44
277.494	262.44
277.726	275.44
277.957	269.44
278.189	269.44
278.421	259.44
278.652	253.44
278.884	251.44
279.115	252.44
279.347	254.44
279.579	263.44
279.81	258.44
280.042	227.44
280.273	276.44
280.505	260.44
280.736	251.44
280.968	265.44
281.199	253.44
281.431	263.44
281.662	253.44
281.894	249.44
282.125	266.44
282.356	275.44
282.588	277.44
282.819	264.44
283.051	270.44
283.282	270.44
283.513	252.44
283.745	254.44
283.976	249.44
284.207	266.44
284.439	276.44
284.67	258.44
284.901	264.44
285.132	270.44
285.364	264.44
285.595	266.44
285.826	279.44
286.057	279.44
286.288	272.44
286.52	256.44
286.751	280.44
286.982	275.44
287.213	276.44
287.444	279.44
287.675	284.44
287.906	297.44
288.138	287.44
288.369	315.44
288.6	281.44
288.831	301.44
289.062	301.44
289.293	286.44
289.524	281.44
289.755	274.44
289.986	285.44
290.217	283.44
290.448	280.44
290.679	275.44
290.91	287.44
291.141	277.44
291.371	278.44
291.602	279.44
291.833	283.44
292.064	280.44
292.295	269.44
292.526	284.44
292.757	271.44
292.987	292.44
293.218	279.44
293.449	280.44
293.68	267.44
293.91	295.44
294.141	298.44
294.372	290.44
294.603	283.44
294.833	295.44
295.064	283.44
295.295	305.44
295.525	303.44
295.756	291.44
295.987	300.44
296.217	301.44
296.448	311.44
296.679	309.44
296.909	293.44
297.14	289.44
297.37	270.44
297.601	289.44
297.831	288.44
298.062	272.44
298.292	293.44
298.523	305.44
298.753	312.44
298.984	297.44
299.214	293.44
299.445	286.44
299.675	291.44
299.905	308.44
300.136	308.44
300.366	288.44
300.597	308.44
300.827	320.44
301.057	314.44
301.288	318.44
301.518	314.44
301.748	294.44
301.979	306.44
302.209	320.44
302.439	296.44
302.669	315.44
302.9	295.44
303.13	335.44
303.36	324.44
303.59	330.44
303.82	328.44
304.051	330.44
304.281	309.44
304.511	303.44
304.741	321.44
304.971	312.44
305.201	328.44
305.431	312.44
305.661	328.44
305.891	322.44
306.121	331.44
306.352	309.44
306.582	344.44
306.812	314.44
307.042	322.44
307.272	335.44
307.502	331.44
307.731	335.44
307.961	302.44
308.191	311.44
308.421	325.44
308.651	329.44
308.881	323.44
309.111	342.44
309.341	339.44
309.571	342.44
309.8	328.44
310.03	341.44
310.26	348.44
310.49	342.44
310.72	350.44
310.949	351.44
311.179	357.44
311.409	352.44
311.639	343.44
311.868	355.44
312.098	339.44
312.328	348.44
312.557	384.44
312.787	393.44
313.017	373.44
313.246	357.44
313.476	334.44
313.706	354.44
313.935	345.44
314.165	355.44
314.394	357.44
314.624	358.44
314.853	348.44
315.083	349.44
315.312	342.44
315.542	351.44
315.771	337.44
316.001	352.44
316.23	363.44
316.46	357.44
316.689	363.44
316.919	371.44
317.148	369.44
317.377	354.44
317.607	375.44
317.836	353.44
318.065	347.44
318.295	371.44
318.524	349.44
318.753	343.44
318.983	356.44
319.212	361.44
319.441	364.44
319.67	366.44
319.9	351.44
320.129	356.44
320.358	368.44
320.587	373.44
320.816	358.44
321.046	373.44
321.275	382.44
321.504	365.44
321.733	382.44
321.962	376.44
322.191	394.44
322.42	383.44
322.649	411.44
322.878	423.44
323.108	415.44
323.337	414.44
323.566	437.44
323.795	425.44
324.024	445.44
324.253	556.44
324.482	705.44
324.71	1019.44
324.939	1363.44
325.168	1158.44
325.397	676.44
325.626	515.44
325.855	447.44
326.084	426.44
326.313	422.44
326.542	415.44
326.77	445.44
326.999	509.44
327.228	656.44
327.457	913.44
327.686	1037.44
327.914	752.44
328.143	553.44
328.372	501.44
328.6	470.44
328.829	462.44
329.058	450.44
329.287	454.44
329.515	460.44
329.744	450.44
329.972	429.44
330.201	452.44
330.43	497.44
330.658	467.44
330.887	480.44
331.115	451.44
331.344	436.44
331.572	456.44
331.801	444.44
332.03	419.44
332.258	425.44
332.486	397.44
332.715	426.44
332.943	423.44
333.172	420.44
333.4	412.44
333.629	437.44
333.857	434.44
334.085	437.44
334.314	416.44
334.542	464.44
334.771	473.44
334.999	440.44
335.227	448.44
335.455	427.44
335.684	429.44
335.912	389.44
336.14	411.44
336.369	412.44
336.597	412.44
336.825	404.44
337.053	406.44
337.281	400.44
337.51	394.44
337.738	397.44
337.966	400.44
338.194	401.44
338.422	394.44
338.65	421.44
338.878	415.44
339.106	428.44
339.334	396.44
339.562	382.44
339.79	384.44
340.018	397.44
340.246	368.44
340.474	392.44
340.702	402.44
340.93	398.44
341.158	390.44
341.386	382.44
341.614	384.44
341.842	384.44
342.07	395.44
342.298	386.44
342.526	389.44
342.754	377.44
342.981	385.44
343.209	388.44
343.437	393.44
343.665	415.44
343.893	406.44
344.12	414.44
344.348	397.44
344.576	415.44
344.804	411.44
345.031	413.44
345.259	405.44
345.487	395.44
345.714	388.44
345.942	396.44
346.17	369.44
346.397	373.44
346.625	373.44
346.853	385.44
347.08	376.44
347.308	376.44
347.535	367.44
347.763	351.44
347.99	353.44
348.218	390.44
348.445	376.44
348.673	377.44
348.9	366.44
349.128	365.44
349.355	374.44
349.583	367.44
349.81	376.44
350.037	377.44
350.265	374.44
350.492	380.44
350.72	379.44
350.947	357.44
351.174	375.44
351.402	366.44
351.629	362.44
351.856	358.44
352.083	398.44
352.311	374.44
352.538	360.44
352.765	358.44
352.992	373.44
353.22	361.44
353.447	374.44
353.674	352.44
353.901	363.44
354.128	346.44
354.355	361.44
354.583	350.44
354.81	355.44
355.037	345.44
355.264	327.44
355.491	366.44
355.718	347.44
355.945	357.44
356.172	361.44
356.399	349.44
356.626	350.44
356.853	357.44
357.08	344.44
357.307	342.44
357.534	337.44
357.761	334.44
357.988	359.44
358.215	329.44
358.441	360.44
358.668	339.44
358.895	367.44
359.122	365.44
359.349	368.44
359.576	367.44
359.802	364.44
360.029	371.44
360.256	380.44
360.483	384.44
360.709	372.44
360.936	366.44
361.163	370.44
361.39	362.44
361.616	339.44
361.843	353.44
362.07	367.44
362.296	373.44
362.523	344.44
362.749	355.44
362.976	364.44
363.203	367.44
363.429	362.44
363.656	350.44
363.882	373.44
364.109	374.44
364.335	344.44
364.562	361.44
364.788	355.44
365.015	343.44
365.241	361.44
365.468	347.44
365.694	366.44
365.92	361.44
366.147	361.44
366.373	352.44
366.599	345.44
366.826	349.44
367.052	363.44
367.278	357.44
367.505	337.44
367.731	353.44
367.957	358.44
368.184	365.44
368.41	359.44
368.636	343.44
368.862	352.44
369.089	363.44
369.315	321.44
369.541	357.44
369.767	385.44
369.993	341.44
370.219	356.44
370.445	347.44
370.672	348.44
370.898	366.44
371.124	357.44
371.35	352.44
371.576	376.44
371.802	353.44
372.028	352.44
372.254	364.44
372.48	343.44
372.706	363.44
372.932	351.44
373.158	367.44
373.384	370.44
373.61	355.44
373.835	360.44
374.061	357.44
374.287	365.44
374.513	343.44
374.739	371.44
374.965	361.44
375.191	325.44
375.416	363.44
375.642	350.44
375.868	355.44
376.094	339.44
376.319	347.44
376.545	358.44
376.771	356.44
376.997	364.44
377.222	336.44
377.448	364.44
377.674	331.44
377.899	344.44
378.125	353.44
378.35	351.44
378.576	326.44
378.802	333.44
379.027	347.44
379.253	340.44
379.478	322.44
379.704	359.44
379.929	370.44
380.155	342.44
380.38	351.44
380.606	336.44
380.831	355.44
381.057	339.44
381.282	344.44
381.507	348.44
381.733	326.44
381.958	341.44
382.184	335.44
382.409	344.44
382.634	336.44
382.86	342.44
383.085	348.44
383.31	365.44
383.535	366.44
383.761	364.44
383.986	356.44
384.211	385.44
384.436	364.44
384.662	379.44
384.887	379.44
385.112	376.44
385.337	365.44
385.562	359.44
385.787	383.44
386.013	391.44
386.238	367.44
386.463	367.44
386.688	355.44
386.913	355.44
387.138	386.44
387.363	363.44
387.588	374.44
387.813	367.44
388.038	374.44
388.263	370.44
388.488	376.44
388.713	370.44
388.938	372.44
389.163	374.44
389.387	369.44
389.612	369.44
389.837	378.44
390.062	355.44
390.287	375.44
390.512	378.44
390.736	383.44
390.961	399.44
391.186	379.44
391.411	377.44
391.636	385.44
391.86	365.44
392.085	376.44
392.31	378.44
392.534	377.44
392.759	376.44
392.984	390.44
393.208	393.44
393.433	382.44
393.658	389.44
393.882	381.44
394.107	369.44
394.331	373.44
394.556	379.44
394.78	379.44
395.005	358.44
395.229	387.44
395.454	390.44
395.678	380.44
395.903	396.44
396.127	405.44
396.352	415.44
396.576	396.44
396.801	377.44
397.025	391.44
397.249	403.44
397.474	406.44
397.698	385.44
397.922	406.44
398.147	405.44
398.371	423.44
398.595	427.44
398.82	437.44
399.044	444.44
399.268	420.44
399.492	447.44
399.717	483.44
399.941	492.44
400.165	495.44
400.389	491.44
400.613	479.44
400.837	437.44
401.062	428.44
401.286	422.44
401.51	410.44
401.734	412.44
401.958	408.44
402.182	422.44
402.406	406.44
402.63	414.44
402.854	421.44
403.078	433.44
403.302	447.44
403.526	430.44
403.75	422.44
403.974	412.44
404.198	392.44
404.422	437.44
404.645	435.44
404.869	433.44
405.093	449.44
405.317	471.44
405.541	487.44
405.765	470.44
405.988	433.44
406.212	442.44
406.436	446.44
406.66	454.44
406.883	467.44
407.107	464.44
407.331	493.44
407.555	532.44
407.778	548.44
408.002	492.44
408.226	457.44
408.449	469.44
408.673	472.44
408.896	464.44
409.12	500.44
409.344	473.44
409.567	439.44
409.791	417.44
410.014	415.44
410.238	420.44
410.461	427.44
410.685	440.44
410.908	438.44
411.132	461.44
411.355	501.44
411.578	459.44
411.802	432.44
412.025	435.44
412.249	433.44
412.472	449.44
412.695	483.44
412.919	441.44
413.142	437.44
413.365	424.44
413.589	398.44
413.812	399.44
414.035	414.44
414.258	411.44
414.482	401.44
414.705	399.44
414.928	399.44
415.151	408.44
415.374	416.44
415.597	392.44
415.821	400.44
416.044	398.44
416.267	384.44
416.49	395.44
416.713	374.44
416.936	365.44
417.159	395.44
417.382	398.44
417.605	396.44
417.828	399.44
418.051	399.44
418.274	384.44
418.497	388.44
418.72	402.44
418.943	392.44
419.166	397.44
419.389	415.44
419.611	412.44
419.834	416.44
420.057	405.44
420.28	410.44
420.503	402.44
420.726	413.44
420.948	414.44
421.171	427.44
421.394	488.44
421.617	444.44
421.839	398.44
422.062	428.44
422.285	420.44
422.507	443.44
422.73	501.44
422.953	478.44
423.175	430.44
423.398	429.44
423.621	431.44
423.843	422.44
424.066	449.44
424.288	428.44
424.511	460.44
424.733	450.44
424.956	517.44
425.178	500.44
425.401	497.44
425.623	517.44
425.846	470.44
426.068	431.44
426.291	456.44
426.513	410.44
426.735	417.44
426.958	451.44
427.18	499.44
427.402	575.44
427.625	640.44
427.847	557.44
428.069	506.44
428.292	443.44
428.514	412.44
428.736	385.44
428.958	411.44
429.181	411.44
429.403	384.44
429.625	401.44
429.847	425.44
430.069	445.44
430.292	462.44
430.514	402.44
430.736	405.44
430.958	400.44
431.18	383.44
431.402	389.44
431.624	371.44
431.846	372.44
432.068	387.44
432.29	397.44
432.512	370.44
432.734	390.44
432.956	391.44
433.178	407.44
433.4	385.44
433.622	380.44
433.844	407.44
434.066	359.44
434.287	383.44
434.509	373.44
434.731	384.44
434.953	401.44
435.175	371.44
435.397	418.44
435.618	429.44
435.84	480.44
436.062	488.44
436.284	560.44
436.505	469.44
436.727	438.44
436.949	409.44
437.17	414.44
437.392	390.44
437.614	412.44
437.835	414.44
438.057	459.44
438.278	536.44
438.5	547.44
438.721	582.44
438.943	553.44
439.165	465.44
439.386	439.44
439.608	413.44
439.829	411.44
440.05	426.44
440.272	450.44
440.493	458.44
440.715	411.44
440.936	419.44
441.158	402.44
441.379	385.44
441.6	417.44
441.822	405.44
442.043	454.44
442.264	488.44
442.486	499.44
442.707	460.44
442.928	442.44
443.149	435.44
443.371	446.44
443.592	470.44
443.813	497.44
444.034	543.44
444.255	465.44
444.476	457.44
444.698	420.44
444.919	428.44
445.14	526.44
445.361	467.44
445.582	454.44
445.803	487.44
446.024	529.44
446.245	517.44
446.466	501.44
446.687	445.44
446.908	424.44
447.129	407.44
447.35	389.44
447.571	394.44
447.792	393.44
448.013	389.44
448.234	425.44
448.455	414.44
448.675	502.44
448.896	571.44
449.117	497.44
449.338	473.44
449.559	551.44
449.779	608.44
450	487.44
450.221	405.44
450.442	395.44
450.662	392.44
450.883	393.44
451.104	393.44
451.324	364.44
451.545	351.44
451.766	367.44
451.986	361.44
452.207	331.44
452.428	354.44
452.648	344.44
452.869	362.44
453.089	352.44
453.31	375.44
453.53	357.44
453.751	352.44
453.971	360.44
454.192	375.44
454.412	355.44
454.633	333.44
454.853	346.44
455.073	342.44
455.294	365.44
455.514	403.44
455.734	400.44
455.955	366.44
456.175	339.44
456.395	343.44
456.616	330.44
456.836	343.44
457.056	351.44
457.276	342.44
457.497	350.44
457.717	332.44
457.937	342.44
458.157	345.44
458.377	348.44
458.598	357.44
458.818	389.44
459.038	420.44
459.258	430.44
459.478	405.44
459.698	393.44
459.918	349.44
460.138	389.44
460.358	392.44
460.578	381.44
460.798	378.44
461.018	397.44
461.238	389.44
461.458	378.44
461.678	372.44
461.898	396.44
462.118	391.44
462.338	397.44
462.558	408.44
462.777	411.44
462.997	411.44
463.217	412.44
463.437	413.44
463.657	432.44
463.876	426.44
464.096	402.44
464.316	409.44
464.536	394.44
464.755	411.44
464.975	416.44
465.195	428.44
465.414	446.44
465.634	412.44
465.854	399.44
466.073	387.44
466.293	363.44
466.512	373.44
466.732	348.44
466.951	371.44
467.171	361.44
467.391	379.44
467.61	379.44
467.829	364.44
468.049	367.44
468.268	364.44
468.488	349.44
468.707	344.44
468.927	343.44
469.146	351.44
469.365	345.44
469.585	362.44
469.804	342.44
470.023	362.44
470.243	349.44
470.462	362.44
470.681	372.44
470.901	384.44
471.12	361.44
471.339	362.44
471.558	371.44
471.777	388.44
471.997	348.44
472.216	361.44
472.435	392.44
472.654	374.44
472.873	367.44
473.092	365.44
473.311	383.44
473.53	349.44
473.749	375.44
473.968	410.44
474.187	467.44
474.406	461.44
474.625	400.44
474.844	395.44
475.063	369.44
475.282	365.44
475.501	357.44
475.72	383.44
475.939	386.44
476.158	373.44
476.377	374.44
476.596	365.44
476.814	387.44
477.033	383.44
477.252	368.44
477.471	384.44
477.69	387.44
477.908	397.44
478.127	400.44
478.346	408.44
478.564	419.44
478.783	369.44
479.002	415.44
479.22	420.44
479.439	423.44
479.658	420.44
479.876	437.44
480.095	432.44
480.313	469.44
480.532	462.44
480.751	429.44
480.969	437.44
481.188	484.44
481.406	500.44
481.624	470.44
481.843	431.44
482.061	427.44
482.28	431.44
482.498	432.44
482.717	415.44
482.935	422.44
483.153	423.44
483.372	421.44
483.59	421.44
483.808	424.44
484.027	433.44
484.245	412.44
484.463	421.44
484.681	435.44
484.9	414.44
485.118	435.44
485.336	440.44
485.554	428.44
485.772	427.44
485.99	427.44
486.209	444.44
486.427	429.44
486.645	451.44
486.863	460.44
487.081	456.44
487.299	449.44
487.517	453.44
487.735	433.44
487.953	433.44
488.171	448.44
488.389	434.44
488.607	419.44
488.825	447.44
489.043	450.44
489.261	447.44
489.479	468.44
489.696	447.44
489.914	467.44
490.132	447.44
490.35	448.44
490.568	453.44
490.786	477.44
491.003	469.44
491.221	485.44
491.439	474.44
491.657	481.44
491.874	504.44
492.092	505.44
492.31	489.44
492.527	486.44
492.745	487.44
492.963	501.44
493.18	483.44
493.398	489.44
493.615	488.44
493.833	497.44
494.05	517.44
494.268	528.44
494.485	510.44
494.703	508.44
494.92	501.44
495.138	500.44
495.355	529.44
495.573	525.44
495.79	502.44
496.008	522.44
496.225	516.44
496.442	520.44
496.66	519.44
496.877	530.44
497.094	549.44
497.312	541.44
497.529	547.44
497.746	542.44
497.963	542.44
498.181	559.44
498.398	568.44
498.615	589.44
498.832	613.44
499.049	611.44
499.267	634.44
499.484	653.44
499.701	670.44
499.918	704.44
500.135	702.44
500.352	728.44
500.569	736.44
500.786	759.44
501.003	748.44
501.22	712.44
501.437	715.44
501.654	679.44
501.871	654.44
