Data from 1960PennyLincolnUp.LampE5.5.200Scan.07172019.P1.ChangedAngle_HRD10591_13-15-18-821.txt Node
Date: Thu Jul 18 13:15:18 EDT 2019
User: cochatt
Spectrometer: HR+D1059
Trigger mode: 1
Integration Time (sec): 1.000000E-1
Scans to average: 1
Electric dark correction enabled: true
Nonlinearity correction enabled: false
Boxcar width: 0
XAxis mode: Wavelengths
Number of Pixels in Spectrum: 2048
>>>>>Begin Spectral Data<<<<<
223.165	-16.25
223.4	-16.25
223.635	-16.25
223.869	-22.25
224.104	-23.25
224.338	-10.25
224.573	-17.25
224.808	-28.25
225.042	-16.25
225.277	-7.25
225.511	15.75
225.746	12.75
225.98	6.75
226.215	18.75
226.449	10.75
226.683	23.75
226.918	15.75
227.152	36.75
227.387	35.75
227.621	36.75
227.856	39.75
228.09	43.75
228.324	56.75
228.559	62.75
228.793	71.75
229.027	87.75
229.262	78.75
229.496	96.75
229.73	114.75
229.964	121.75
230.199	105.75
230.433	99.75
230.667	98.75
230.901	115.75
231.136	105.75
231.37	103.75
231.604	119.75
231.838	103.75
232.072	113.75
232.306	128.75
232.541	126.75
232.775	96.75
233.009	115.75
233.243	106.75
233.477	119.75
233.711	113.75
233.945	117.75
234.179	107.75
234.413	125.75
234.647	105.75
234.881	113.75
235.115	109.75
235.349	112.75
235.583	117.75
235.817	115.75
236.051	108.75
236.285	125.75
236.519	120.75
236.753	131.75
236.987	122.75
237.221	139.75
237.455	193.75
237.689	154.75
237.922	114.75
238.156	126.75
238.39	133.75
238.624	130.75
238.858	115.75
239.091	111.75
239.325	131.75
239.559	115.75
239.793	121.75
240.027	105.75
240.26	144.75
240.494	131.75
240.728	144.75
240.961	133.75
241.195	135.75
241.429	134.75
241.662	129.75
241.896	133.75
242.13	118.75
242.363	129.75
242.597	115.75
242.83	135.75
243.064	139.75
243.298	137.75
243.531	129.75
243.765	132.75
243.998	132.75
244.232	133.75
244.465	133.75
244.699	135.75
244.932	133.75
245.166	137.75
245.399	138.75
245.633	148.75
245.866	135.75
246.099	156.75
246.333	137.75
246.566	125.75
246.8	135.75
247.033	153.75
247.266	143.75
247.5	159.75
247.733	148.75
247.966	165.75
248.2	167.75
248.433	169.75
248.666	148.75
248.899	179.75
249.133	171.75
249.366	188.75
249.599	170.75
249.832	169.75
250.066	181.75
250.299	181.75
250.532	185.75
250.765	193.75
250.998	181.75
251.231	202.75
251.465	196.75
251.698	195.75
251.931	193.75
252.164	198.75
252.397	191.75
252.63	197.75
252.863	194.75
253.096	198.75
253.329	199.75
253.562	181.75
253.795	192.75
254.028	196.75
254.261	188.75
254.494	193.75
254.727	213.75
254.96	230.75
255.193	246.75
255.426	212.75
255.659	206.75
255.892	214.75
256.124	215.75
256.357	221.75
256.59	206.75
256.823	206.75
257.056	203.75
257.289	227.75
257.521	208.75
257.754	184.75
257.987	186.75
258.22	196.75
258.452	202.75
258.685	185.75
258.918	218.75
259.151	212.75
259.383	221.75
259.616	201.75
259.849	216.75
260.081	208.75
260.314	227.75
260.547	229.75
260.779	228.75
261.012	216.75
261.244	215.75
261.477	220.75
261.71	213.75
261.942	209.75
262.175	220.75
262.407	201.75
262.64	190.75
262.872	202.75
263.105	203.75
263.337	211.75
263.57	225.75
263.802	212.75
264.035	223.75
264.267	199.75
264.499	202.75
264.732	211.75
264.964	215.75
265.197	211.75
265.429	211.75
265.661	198.75
265.894	208.75
266.126	217.75
266.358	193.75
266.591	216.75
266.823	198.75
267.055	213.75
267.287	217.75
267.52	216.75
267.752	221.75
267.984	212.75
268.216	223.75
268.448	232.75
268.681	227.75
268.913	242.75
269.145	222.75
269.377	252.75
269.609	252.75
269.841	248.75
270.073	256.75
270.306	254.75
270.538	287.75
270.77	271.75
271.002	283.75
271.234	277.75
271.466	273.75
271.698	297.75
271.93	276.75
272.162	273.75
272.394	277.75
272.626	263.75
272.858	265.75
273.09	248.75
273.322	267.75
273.553	264.75
273.785	254.75
274.017	252.75
274.249	276.75
274.481	266.75
274.713	256.75
274.945	260.75
275.176	270.75
275.408	255.75
275.64	258.75
275.872	262.75
276.104	258.75
276.335	253.75
276.567	254.75
276.799	284.75
277.031	283.75
277.262	272.75
277.494	289.75
277.726	291.75
277.957	275.75
278.189	274.75
278.421	256.75
278.652	280.75
278.884	262.75
279.115	273.75
279.347	271.75
279.579	262.75
279.81	273.75
280.042	246.75
280.273	251.75
280.505	280.75
280.736	266.75
280.968	263.75
281.199	265.75
281.431	284.75
281.662	261.75
281.894	273.75
282.125	287.75
282.356	270.75
282.588	284.75
282.819	285.75
283.051	294.75
283.282	268.75
283.513	270.75
283.745	278.75
283.976	268.75
284.207	278.75
284.439	280.75
284.67	293.75
284.901	271.75
285.132	284.75
285.364	285.75
285.595	271.75
285.826	287.75
286.057	266.75
286.288	289.75
286.52	273.75
286.751	269.75
286.982	292.75
287.213	278.75
287.444	272.75
287.675	281.75
287.906	292.75
288.138	306.75
288.369	294.75
288.6	280.75
288.831	312.75
289.062	272.75
289.293	291.75
289.524	276.75
289.755	291.75
289.986	280.75
290.217	313.75
290.448	296.75
290.679	302.75
290.91	298.75
291.141	287.75
291.371	275.75
291.602	284.75
291.833	309.75
292.064	300.75
292.295	281.75
292.526	297.75
292.757	279.75
292.987	291.75
293.218	279.75
293.449	307.75
293.68	296.75
293.91	291.75
294.141	302.75
294.372	296.75
294.603	295.75
294.833	308.75
295.064	307.75
295.295	302.75
295.525	293.75
295.756	291.75
295.987	317.75
296.217	309.75
296.448	337.75
296.679	318.75
296.909	294.75
297.14	296.75
297.37	316.75
297.601	289.75
297.831	310.75
298.062	311.75
298.292	301.75
298.523	284.75
298.753	304.75
298.984	306.75
299.214	318.75
299.445	326.75
299.675	305.75
299.905	321.75
300.136	308.75
300.366	310.75
300.597	314.75
300.827	319.75
301.057	322.75
301.288	332.75
301.518	324.75
301.748	316.75
301.979	320.75
302.209	327.75
302.439	300.75
302.669	332.75
302.9	324.75
303.13	324.75
303.36	339.75
303.59	337.75
303.82	334.75
304.051	333.75
304.281	327.75
304.511	333.75
304.741	335.75
304.971	317.75
305.201	303.75
305.431	339.75
305.661	355.75
305.891	325.75
306.121	325.75
306.352	333.75
306.582	353.75
306.812	319.75
307.042	315.75
307.272	339.75
307.502	350.75
307.731	340.75
307.961	327.75
308.191	325.75
308.421	332.75
308.651	322.75
308.881	335.75
309.111	335.75
309.341	336.75
309.571	361.75
309.8	350.75
310.03	351.75
310.26	364.75
310.49	352.75
310.72	347.75
310.949	373.75
311.179	371.75
311.409	360.75
311.639	364.75
311.868	350.75
312.098	357.75
312.328	371.75
312.557	384.75
312.787	381.75
313.017	373.75
313.246	362.75
313.476	389.75
313.706	358.75
313.935	364.75
314.165	379.75
314.394	391.75
314.624	376.75
314.853	376.75
315.083	372.75
315.312	359.75
315.542	369.75
315.771	368.75
316.001	367.75
316.23	370.75
316.46	381.75
316.689	383.75
316.919	368.75
317.148	391.75
317.377	376.75
317.607	373.75
317.836	365.75
318.065	365.75
318.295	346.75
318.524	365.75
318.753	373.75
318.983	364.75
319.212	365.75
319.441	385.75
319.67	396.75
319.9	388.75
320.129	388.75
320.358	375.75
320.587	385.75
320.816	365.75
321.046	380.75
321.275	366.75
321.504	380.75
321.733	373.75
321.962	407.75
322.191	405.75
322.42	402.75
322.649	398.75
322.878	420.75
323.108	412.75
323.337	432.75
323.566	447.75
323.795	468.75
324.024	507.75
324.253	596.75
324.482	814.75
324.71	1145.75
324.939	1513.75
325.168	1282.75
325.397	723.75
325.626	537.75
325.855	486.75
326.084	469.75
326.313	447.75
326.542	460.75
326.77	498.75
326.999	568.75
327.228	730.75
327.457	985.75
327.686	1145.75
327.914	779.75
328.143	581.75
328.372	525.75
328.6	508.75
328.829	480.75
329.058	490.75
329.287	505.75
329.515	469.75
329.744	457.75
329.972	475.75
330.201	468.75
330.43	512.75
330.658	526.75
330.887	503.75
331.115	486.75
331.344	470.75
331.572	443.75
331.801	458.75
332.03	443.75
332.258	434.75
332.486	440.75
332.715	433.75
332.943	439.75
333.172	444.75
333.4	449.75
333.629	445.75
333.857	451.75
334.085	461.75
334.314	470.75
334.542	495.75
334.771	511.75
334.999	471.75
335.227	447.75
335.455	449.75
335.684	427.75
335.912	449.75
336.14	428.75
336.369	443.75
336.597	435.75
336.825	435.75
337.053	429.75
337.281	419.75
337.51	423.75
337.738	424.75
337.966	428.75
338.194	409.75
338.422	438.75
338.65	427.75
338.878	410.75
339.106	415.75
339.334	419.75
339.562	411.75
339.79	403.75
340.018	406.75
340.246	423.75
340.474	412.75
340.702	421.75
340.93	430.75
341.158	411.75
341.386	397.75
341.614	390.75
341.842	412.75
342.07	399.75
342.298	395.75
342.526	422.75
342.754	393.75
342.981	411.75
343.209	399.75
343.437	401.75
343.665	403.75
343.893	443.75
344.12	409.75
344.348	423.75
344.576	415.75
344.804	425.75
345.031	438.75
345.259	419.75
345.487	407.75
345.714	421.75
345.942	405.75
346.17	400.75
346.397	397.75
346.625	394.75
346.853	381.75
347.08	375.75
347.308	383.75
347.535	391.75
347.763	383.75
347.99	392.75
348.218	396.75
348.445	420.75
348.673	379.75
348.9	426.75
349.128	398.75
349.355	393.75
349.583	382.75
349.81	367.75
350.037	386.75
350.265	367.75
350.492	377.75
350.72	366.75
350.947	382.75
351.174	377.75
351.402	377.75
351.629	397.75
351.856	375.75
352.083	397.75
352.311	400.75
352.538	395.75
352.765	403.75
352.992	393.75
353.22	375.75
353.447	379.75
353.674	369.75
353.901	348.75
354.128	360.75
354.355	367.75
354.583	357.75
354.81	358.75
355.037	373.75
355.264	373.75
355.491	383.75
355.718	350.75
355.945	375.75
356.172	350.75
356.399	363.75
356.626	359.75
356.853	351.75
357.08	361.75
357.307	349.75
357.534	365.75
357.761	370.75
357.988	352.75
358.215	341.75
358.441	361.75
358.668	374.75
358.895	375.75
359.122	383.75
359.349	373.75
359.576	395.75
359.802	401.75
360.029	413.75
360.256	392.75
360.483	407.75
360.709	375.75
360.936	365.75
361.163	371.75
361.39	372.75
361.616	398.75
361.843	366.75
362.07	384.75
362.296	380.75
362.523	373.75
362.749	376.75
362.976	357.75
363.203	373.75
363.429	372.75
363.656	372.75
363.882	366.75
364.109	363.75
364.335	349.75
364.562	371.75
364.788	367.75
365.015	370.75
365.241	356.75
365.468	389.75
365.694	378.75
365.92	367.75
366.147	377.75
366.373	353.75
366.599	361.75
366.826	359.75
367.052	348.75
367.278	353.75
367.505	368.75
367.731	371.75
367.957	370.75
368.184	386.75
368.41	379.75
368.636	371.75
368.862	395.75
369.089	381.75
369.315	363.75
369.541	364.75
369.767	366.75
369.993	362.75
370.219	376.75
370.445	366.75
370.672	384.75
370.898	358.75
371.124	363.75
371.35	365.75
371.576	366.75
371.802	343.75
372.028	364.75
372.254	361.75
372.48	357.75
372.706	364.75
372.932	381.75
373.158	357.75
373.384	367.75
373.61	355.75
373.835	379.75
374.061	353.75
374.287	379.75
374.513	352.75
374.739	377.75
374.965	376.75
375.191	374.75
375.416	386.75
375.642	376.75
375.868	389.75
376.094	376.75
376.319	370.75
376.545	373.75
376.771	353.75
376.997	353.75
377.222	362.75
377.448	368.75
377.674	340.75
377.899	353.75
378.125	349.75
378.35	366.75
378.576	345.75
378.802	355.75
379.027	357.75
379.253	357.75
379.478	348.75
379.704	379.75
379.929	379.75
380.155	350.75
380.38	345.75
380.606	358.75
380.831	352.75
381.057	357.75
381.282	355.75
381.507	363.75
381.733	339.75
381.958	379.75
382.184	356.75
382.409	373.75
382.634	365.75
382.86	366.75
383.085	380.75
383.31	379.75
383.535	380.75
383.761	366.75
383.986	358.75
384.211	376.75
384.436	389.75
384.662	391.75
384.887	386.75
385.112	365.75
385.337	385.75
385.562	360.75
385.787	382.75
386.013	397.75
386.238	384.75
386.463	388.75
386.688	391.75
386.913	400.75
387.138	394.75
387.363	403.75
387.588	388.75
387.813	397.75
388.038	405.75
388.263	380.75
388.488	386.75
388.713	395.75
388.938	400.75
389.163	399.75
389.387	405.75
389.612	390.75
389.837	369.75
390.062	361.75
390.287	361.75
390.512	397.75
390.736	387.75
390.961	382.75
391.186	385.75
391.411	418.75
391.636	400.75
391.86	397.75
392.085	392.75
392.31	398.75
392.534	396.75
392.759	408.75
392.984	407.75
393.208	399.75
393.433	378.75
393.658	390.75
393.882	410.75
394.107	397.75
394.331	410.75
394.556	383.75
394.78	412.75
395.005	403.75
395.229	393.75
395.454	396.75
395.678	391.75
395.903	396.75
396.127	431.75
396.352	413.75
396.576	411.75
396.801	407.75
397.025	414.75
397.249	399.75
397.474	405.75
397.698	407.75
397.922	405.75
398.147	434.75
398.371	424.75
398.595	412.75
398.82	431.75
399.044	440.75
399.268	475.75
399.492	478.75
399.717	490.75
399.941	525.75
400.165	510.75
400.389	514.75
400.613	478.75
400.837	458.75
401.062	454.75
401.286	424.75
401.51	427.75
401.734	427.75
401.958	427.75
402.182	444.75
402.406	455.75
402.63	453.75
402.854	434.75
403.078	412.75
403.302	409.75
403.526	456.75
403.75	426.75
403.974	433.75
404.198	440.75
404.422	433.75
404.645	459.75
404.869	448.75
405.093	485.75
405.317	479.75
405.541	533.75
405.765	483.75
405.988	469.75
406.212	461.75
406.436	467.75
406.66	490.75
406.883	468.75
407.107	498.75
407.331	509.75
407.555	542.75
407.778	563.75
408.002	534.75
408.226	470.75
408.449	500.75
408.673	495.75
408.896	478.75
409.12	514.75
409.344	488.75
409.567	449.75
409.791	450.75
410.014	462.75
410.238	444.75
410.461	457.75
410.685	432.75
410.908	458.75
411.132	494.75
411.355	503.75
411.578	481.75
411.802	450.75
412.025	437.75
412.249	485.75
412.472	464.75
412.695	487.75
412.919	487.75
413.142	466.75
413.365	437.75
413.589	427.75
413.812	409.75
414.035	423.75
414.258	420.75
414.482	432.75
414.705	432.75
414.928	412.75
415.151	402.75
415.374	403.75
415.597	403.75
415.821	407.75
416.044	404.75
416.267	406.75
416.49	408.75
416.713	408.75
416.936	416.75
417.159	413.75
417.382	413.75
417.605	402.75
417.828	428.75
418.051	420.75
418.274	442.75
418.497	416.75
418.72	416.75
418.943	415.75
419.166	427.75
419.389	423.75
419.611	439.75
419.834	419.75
420.057	447.75
420.28	424.75
420.503	419.75
420.726	412.75
420.948	415.75
421.171	443.75
421.394	506.75
421.617	463.75
421.839	425.75
422.062	410.75
422.285	431.75
422.507	468.75
422.73	520.75
422.953	490.75
423.175	461.75
423.398	416.75
423.621	447.75
423.843	461.75
424.066	469.75
424.288	444.75
424.511	448.75
424.733	501.75
424.956	507.75
425.178	522.75
425.401	534.75
425.623	555.75
425.846	489.75
426.068	436.75
426.291	443.75
426.513	431.75
426.735	443.75
426.958	485.75
427.18	550.75
427.402	618.75
427.625	675.75
427.847	575.75
428.069	528.75
428.292	480.75
428.514	423.75
428.736	428.75
428.958	414.75
429.181	408.75
429.403	407.75
429.625	424.75
429.847	447.75
430.069	483.75
430.292	471.75
430.514	413.75
430.736	403.75
430.958	389.75
431.18	395.75
431.402	412.75
431.624	381.75
431.846	403.75
432.068	410.75
432.29	393.75
432.512	375.75
432.734	385.75
432.956	411.75
433.178	398.75
433.4	403.75
433.622	405.75
433.844	394.75
434.066	389.75
434.287	408.75
434.509	394.75
434.731	397.75
434.953	407.75
435.175	436.75
435.397	431.75
435.618	452.75
435.84	459.75
436.062	518.75
436.284	572.75
436.505	507.75
436.727	470.75
436.949	425.75
437.17	415.75
437.392	399.75
437.614	426.75
437.835	469.75
438.057	497.75
438.278	574.75
438.5	568.75
438.721	635.75
438.943	603.75
439.165	485.75
439.386	433.75
439.608	440.75
439.829	458.75
440.05	456.75
440.272	507.75
440.493	462.75
440.715	433.75
440.936	417.75
441.158	407.75
441.379	425.75
441.6	411.75
441.822	436.75
442.043	449.75
442.264	520.75
442.486	522.75
442.707	473.75
442.928	445.75
443.149	449.75
443.371	493.75
443.592	500.75
443.813	579.75
444.034	614.75
444.255	511.75
444.476	455.75
444.698	449.75
444.919	450.75
445.14	523.75
445.361	481.75
445.582	469.75
445.803	519.75
446.024	576.75
446.245	605.75
446.466	526.75
446.687	476.75
446.908	448.75
447.129	431.75
447.35	427.75
447.571	413.75
447.792	392.75
448.013	408.75
448.234	415.75
448.455	446.75
448.675	515.75
448.896	601.75
449.117	500.75
449.338	497.75
449.559	554.75
449.779	622.75
450	489.75
450.221	443.75
450.442	424.75
450.662	393.75
450.883	427.75
451.104	395.75
451.324	391.75
451.545	375.75
451.766	367.75
451.986	363.75
452.207	355.75
452.428	376.75
452.648	408.75
452.869	360.75
453.089	377.75
453.31	368.75
453.53	377.75
453.751	365.75
453.971	360.75
454.192	360.75
454.412	357.75
454.633	353.75
454.853	363.75
455.073	361.75
455.294	367.75
455.514	411.75
455.734	421.75
455.955	366.75
456.175	344.75
456.395	346.75
456.616	353.75
456.836	357.75
457.056	353.75
457.276	352.75
457.497	358.75
457.717	339.75
457.937	355.75
458.157	363.75
458.377	375.75
458.598	379.75
458.818	412.75
459.038	436.75
459.258	474.75
459.478	428.75
459.698	405.75
459.918	390.75
460.138	370.75
460.358	411.75
460.578	394.75
460.798	414.75
461.018	405.75
461.238	404.75
461.458	397.75
461.678	410.75
461.898	432.75
462.118	409.75
462.338	404.75
462.558	433.75
462.777	428.75
462.997	442.75
463.217	442.75
463.437	423.75
463.657	439.75
463.876	435.75
464.096	421.75
464.316	443.75
464.536	442.75
464.755	443.75
464.975	456.75
465.195	456.75
465.414	453.75
465.634	442.75
465.854	408.75
466.073	424.75
466.293	397.75
466.512	393.75
466.732	384.75
466.951	373.75
467.171	392.75
467.391	403.75
467.61	380.75
467.829	369.75
468.049	403.75
468.268	374.75
468.488	391.75
468.707	377.75
468.927	377.75
469.146	352.75
469.365	359.75
469.585	351.75
469.804	373.75
470.023	393.75
470.243	374.75
470.462	390.75
470.681	383.75
470.901	389.75
471.12	372.75
471.339	395.75
471.558	397.75
471.777	385.75
471.997	382.75
472.216	401.75
472.435	403.75
472.654	411.75
472.873	396.75
473.092	389.75
473.311	387.75
473.53	400.75
473.749	387.75
473.968	427.75
474.187	487.75
474.406	511.75
474.625	437.75
474.844	416.75
475.063	380.75
475.282	389.75
475.501	392.75
475.72	400.75
475.939	390.75
476.158	389.75
476.377	392.75
476.596	400.75
476.814	399.75
477.033	399.75
477.252	382.75
477.471	401.75
477.69	409.75
477.908	408.75
478.127	431.75
478.346	429.75
478.564	422.75
478.783	419.75
479.002	441.75
479.22	419.75
479.439	451.75
479.658	446.75
479.876	464.75
480.095	460.75
480.313	476.75
480.532	460.75
480.751	460.75
480.969	468.75
481.188	524.75
481.406	512.75
481.624	492.75
481.843	475.75
482.061	455.75
482.28	454.75
482.498	451.75
482.717	432.75
482.935	431.75
483.153	440.75
483.372	471.75
483.59	433.75
483.808	439.75
484.027	458.75
484.245	440.75
484.463	436.75
484.681	458.75
484.9	451.75
485.118	473.75
485.336	470.75
485.554	470.75
485.772	448.75
485.99	457.75
486.209	465.75
486.427	471.75
486.645	450.75
486.863	465.75
487.081	470.75
487.299	461.75
487.517	493.75
487.735	469.75
487.953	476.75
488.171	454.75
488.389	485.75
488.607	461.75
488.825	479.75
489.043	484.75
489.261	471.75
489.479	473.75
489.696	474.75
489.914	467.75
490.132	501.75
490.35	483.75
490.568	470.75
490.786	499.75
491.003	509.75
491.221	514.75
491.439	509.75
491.657	527.75
491.874	517.75
492.092	508.75
492.31	528.75
492.527	532.75
492.745	510.75
492.963	516.75
493.18	528.75
493.398	509.75
493.615	529.75
493.833	538.75
494.05	544.75
494.268	553.75
494.485	527.75
494.703	539.75
494.92	551.75
495.138	557.75
495.355	550.75
495.573	548.75
495.79	550.75
496.008	541.75
496.225	530.75
496.442	533.75
496.66	552.75
496.877	547.75
497.094	541.75
497.312	568.75
497.529	560.75
497.746	554.75
497.963	608.75
498.181	584.75
498.398	618.75
498.615	614.75
498.832	628.75
499.049	625.75
499.267	656.75
499.484	679.75
499.701	700.75
499.918	721.75
500.135	768.75
500.352	799.75
500.569	783.75
500.786	791.75
501.003	812.75
501.22	771.75
501.437	748.75
501.654	729.75
501.871	701.75
