Data from 1960PennyLincolnUp.LampE5.5.200Scan.07172019.P1.ChangedAngle_HRD10591_13-15-42-823.txt Node
Date: Thu Jul 18 13:15:42 EDT 2019
User: cochatt
Spectrometer: HR+D1059
Trigger mode: 1
Integration Time (sec): 1.000000E-1
Scans to average: 1
Electric dark correction enabled: true
Nonlinearity correction enabled: false
Boxcar width: 0
XAxis mode: Wavelengths
Number of Pixels in Spectrum: 2048
>>>>>Begin Spectral Data<<<<<
223.165	-10.75
223.4	-10.75
223.635	-10.75
223.869	-21.75
224.104	-26.75
224.338	-11.75
224.573	-4.75
224.808	-14.75
225.042	1.25
225.277	16.25
225.511	-3.75
225.746	-6.75
225.98	5.25
226.215	8.25
226.449	7.25
226.683	15.25
226.918	17.25
227.152	30.25
227.387	43.25
227.621	34.25
227.856	41.25
228.09	50.25
228.324	58.25
228.559	57.25
228.793	71.25
229.027	83.25
229.262	95.25
229.496	104.25
229.73	109.25
229.964	125.25
230.199	94.25
230.433	107.25
230.667	96.25
230.901	117.25
231.136	86.25
231.37	87.25
231.604	110.25
231.838	110.25
232.072	111.25
232.306	101.25
232.541	116.25
232.775	105.25
233.009	96.25
233.243	97.25
233.477	109.25
233.711	114.25
233.945	122.25
234.179	111.25
234.413	117.25
234.647	119.25
234.881	96.25
235.115	95.25
235.349	115.25
235.583	107.25
235.817	113.25
236.051	118.25
236.285	117.25
236.519	117.25
236.753	133.25
236.987	121.25
237.221	159.25
237.455	192.25
237.689	165.25
237.922	134.25
238.156	137.25
238.39	127.25
238.624	119.25
238.858	116.25
239.091	117.25
239.325	111.25
239.559	114.25
239.793	122.25
240.027	129.25
240.26	133.25
240.494	131.25
240.728	142.25
240.961	149.25
241.195	152.25
241.429	139.25
241.662	119.25
241.896	147.25
242.13	123.25
242.363	145.25
242.597	134.25
242.83	136.25
243.064	142.25
243.298	130.25
243.531	124.25
243.765	122.25
243.998	135.25
244.232	148.25
244.465	144.25
244.699	151.25
244.932	130.25
245.166	143.25
245.399	148.25
245.633	147.25
245.866	147.25
246.099	142.25
246.333	131.25
246.566	131.25
246.8	154.25
247.033	137.25
247.266	178.25
247.5	153.25
247.733	153.25
247.966	160.25
248.2	139.25
248.433	155.25
248.666	170.25
248.899	171.25
249.133	183.25
249.366	190.25
249.599	190.25
249.832	176.25
250.066	166.25
250.299	181.25
250.532	168.25
250.765	189.25
250.998	202.25
251.231	216.25
251.465	205.25
251.698	195.25
251.931	185.25
252.164	171.25
252.397	195.25
252.63	197.25
252.863	176.25
253.096	183.25
253.329	199.25
253.562	207.25
253.795	184.25
254.028	173.25
254.261	197.25
254.494	200.25
254.727	217.25
254.96	258.25
255.193	241.25
255.426	218.25
255.659	201.25
255.892	217.25
256.124	218.25
256.357	206.25
256.59	204.25
256.823	204.25
257.056	191.25
257.289	185.25
257.521	201.25
257.754	205.25
257.987	194.25
258.22	194.25
258.452	198.25
258.685	181.25
258.918	209.25
259.151	198.25
259.383	209.25
259.616	206.25
259.849	229.25
260.081	217.25
260.314	234.25
260.547	223.25
260.779	202.25
261.012	220.25
261.244	219.25
261.477	210.25
261.71	208.25
261.942	223.25
262.175	221.25
262.407	221.25
262.64	210.25
262.872	213.25
263.105	192.25
263.337	208.25
263.57	214.25
263.802	193.25
264.035	222.25
264.267	223.25
264.499	203.25
264.732	214.25
264.964	202.25
265.197	213.25
265.429	221.25
265.661	204.25
265.894	203.25
266.126	225.25
266.358	209.25
266.591	225.25
266.823	204.25
267.055	229.25
267.287	208.25
267.52	208.25
267.752	212.25
267.984	217.25
268.216	222.25
268.448	217.25
268.681	224.25
268.913	257.25
269.145	238.25
269.377	253.25
269.609	285.25
269.841	247.25
270.073	265.25
270.306	262.25
270.538	273.25
270.77	279.25
271.002	285.25
271.234	271.25
271.466	281.25
271.698	275.25
271.93	288.25
272.162	285.25
272.394	297.25
272.626	273.25
272.858	274.25
273.09	258.25
273.322	267.25
273.553	243.25
273.785	257.25
274.017	255.25
274.249	272.25
274.481	240.25
274.713	256.25
274.945	255.25
275.176	276.25
275.408	256.25
275.64	267.25
275.872	241.25
276.104	259.25
276.335	251.25
276.567	258.25
276.799	264.25
277.031	291.25
277.262	293.25
277.494	297.25
277.726	297.25
277.957	285.25
278.189	288.25
278.421	261.25
278.652	290.25
278.884	283.25
279.115	266.25
279.347	273.25
279.579	255.25
279.81	289.25
280.042	261.25
280.273	250.25
280.505	274.25
280.736	277.25
280.968	270.25
281.199	261.25
281.431	299.25
281.662	283.25
281.894	271.25
282.125	252.25
282.356	274.25
282.588	303.25
282.819	296.25
283.051	279.25
283.282	284.25
283.513	277.25
283.745	265.25
283.976	291.25
284.207	269.25
284.439	283.25
284.67	263.25
284.901	297.25
285.132	288.25
285.364	267.25
285.595	281.25
285.826	288.25
286.057	276.25
286.288	277.25
286.52	277.25
286.751	272.25
286.982	286.25
287.213	287.25
287.444	290.25
287.675	295.25
287.906	294.25
288.138	304.25
288.369	313.25
288.6	304.25
288.831	284.25
289.062	291.25
289.293	291.25
289.524	293.25
289.755	288.25
289.986	261.25
290.217	288.25
290.448	296.25
290.679	317.25
290.91	278.25
291.141	293.25
291.371	280.25
291.602	294.25
291.833	287.25
292.064	293.25
292.295	280.25
292.526	287.25
292.757	285.25
292.987	306.25
293.218	293.25
293.449	290.25
293.68	289.25
293.91	295.25
294.141	286.25
294.372	290.25
294.603	315.25
294.833	307.25
295.064	304.25
295.295	302.25
295.525	292.25
295.756	304.25
295.987	293.25
296.217	312.25
296.448	317.25
296.679	308.25
296.909	311.25
297.14	298.25
297.37	309.25
297.601	313.25
297.831	309.25
298.062	315.25
298.292	321.25
298.523	321.25
298.753	302.25
298.984	312.25
299.214	314.25
299.445	293.25
299.675	331.25
299.905	303.25
300.136	309.25
300.366	312.25
300.597	322.25
300.827	324.25
301.057	323.25
301.288	332.25
301.518	314.25
301.748	314.25
301.979	335.25
302.209	335.25
302.439	321.25
302.669	338.25
302.9	324.25
303.13	302.25
303.36	317.25
303.59	326.25
303.82	328.25
304.051	334.25
304.281	321.25
304.511	335.25
304.741	312.25
304.971	326.25
305.201	323.25
305.431	344.25
305.661	338.25
305.891	333.25
306.121	317.25
306.352	355.25
306.582	338.25
306.812	317.25
307.042	333.25
307.272	333.25
307.502	348.25
307.731	326.25
307.961	339.25
308.191	339.25
308.421	328.25
308.651	352.25
308.881	332.25
309.111	341.25
309.341	348.25
309.571	349.25
309.8	346.25
310.03	344.25
310.26	341.25
310.49	355.25
310.72	381.25
310.949	345.25
311.179	362.25
311.409	371.25
311.639	381.25
311.868	369.25
312.098	386.25
312.328	381.25
312.557	378.25
312.787	392.25
313.017	386.25
313.246	381.25
313.476	369.25
313.706	352.25
313.935	357.25
314.165	375.25
314.394	374.25
314.624	380.25
314.853	385.25
315.083	363.25
315.312	354.25
315.542	354.25
315.771	362.25
316.001	362.25
316.23	369.25
316.46	385.25
316.689	382.25
316.919	375.25
317.148	401.25
317.377	365.25
317.607	362.25
317.836	377.25
318.065	373.25
318.295	375.25
318.524	366.25
318.753	369.25
318.983	383.25
319.212	369.25
319.441	355.25
319.67	367.25
319.9	368.25
320.129	364.25
320.358	378.25
320.587	373.25
320.816	385.25
321.046	410.25
321.275	384.25
321.504	373.25
321.733	393.25
321.962	394.25
322.191	410.25
322.42	385.25
322.649	400.25
322.878	418.25
323.108	437.25
323.337	433.25
323.566	455.25
323.795	471.25
324.024	508.25
324.253	583.25
324.482	778.25
324.71	1149.25
324.939	1553.25
325.168	1293.25
325.397	742.25
325.626	541.25
325.855	492.25
326.084	464.25
326.313	465.25
326.542	468.25
326.77	473.25
326.999	553.25
327.228	730.25
327.457	997.25
327.686	1152.25
327.914	811.25
328.143	606.25
328.372	541.25
328.6	502.25
328.829	493.25
329.058	509.25
329.287	499.25
329.515	499.25
329.744	448.25
329.972	485.25
330.201	465.25
330.43	480.25
330.658	508.25
330.887	536.25
331.115	483.25
331.344	455.25
331.572	447.25
331.801	463.25
332.03	430.25
332.258	437.25
332.486	437.25
332.715	438.25
332.943	439.25
333.172	436.25
333.4	453.25
333.629	441.25
333.857	470.25
334.085	448.25
334.314	462.25
334.542	474.25
334.771	479.25
334.999	461.25
335.227	449.25
335.455	451.25
335.684	435.25
335.912	449.25
336.14	421.25
336.369	421.25
336.597	436.25
336.825	439.25
337.053	440.25
337.281	423.25
337.51	438.25
337.738	421.25
337.966	428.25
338.194	423.25
338.422	402.25
338.65	404.25
338.878	425.25
339.106	411.25
339.334	419.25
339.562	413.25
339.79	431.25
340.018	413.25
340.246	402.25
340.474	417.25
340.702	410.25
340.93	409.25
341.158	387.25
341.386	414.25
341.614	404.25
341.842	422.25
342.07	405.25
342.298	414.25
342.526	393.25
342.754	407.25
342.981	407.25
343.209	383.25
343.437	403.25
343.665	407.25
343.893	419.25
344.12	429.25
344.348	447.25
344.576	409.25
344.804	438.25
345.031	407.25
345.259	409.25
345.487	408.25
345.714	411.25
345.942	393.25
346.17	404.25
346.397	409.25
346.625	398.25
346.853	392.25
347.08	385.25
347.308	377.25
347.535	391.25
347.763	393.25
347.99	411.25
348.218	410.25
348.445	391.25
348.673	398.25
348.9	401.25
349.128	392.25
349.355	400.25
349.583	395.25
349.81	378.25
350.037	368.25
350.265	386.25
350.492	387.25
350.72	379.25
350.947	376.25
351.174	394.25
351.402	386.25
351.629	391.25
351.856	397.25
352.083	399.25
352.311	394.25
352.538	403.25
352.765	394.25
352.992	413.25
353.22	396.25
353.447	378.25
353.674	366.25
353.901	360.25
354.128	387.25
354.355	381.25
354.583	354.25
354.81	359.25
355.037	365.25
355.264	372.25
355.491	369.25
355.718	378.25
355.945	366.25
356.172	363.25
356.399	362.25
356.626	362.25
356.853	375.25
357.08	367.25
357.307	380.25
357.534	353.25
357.761	365.25
357.988	357.25
358.215	360.25
358.441	361.25
358.668	367.25
358.895	380.25
359.122	366.25
359.349	385.25
359.576	400.25
359.802	381.25
360.029	390.25
360.256	389.25
360.483	387.25
360.709	375.25
360.936	417.25
361.163	371.25
361.39	365.25
361.616	375.25
361.843	372.25
362.07	370.25
362.296	377.25
362.523	365.25
362.749	367.25
362.976	358.25
363.203	357.25
363.429	365.25
363.656	381.25
363.882	363.25
364.109	362.25
364.335	366.25
364.562	351.25
364.788	349.25
365.015	370.25
365.241	363.25
365.468	383.25
365.694	366.25
365.92	361.25
366.147	375.25
366.373	366.25
366.599	361.25
366.826	373.25
367.052	372.25
367.278	370.25
367.505	369.25
367.731	386.25
367.957	370.25
368.184	385.25
368.41	355.25
368.636	367.25
368.862	385.25
369.089	350.25
369.315	362.25
369.541	379.25
369.767	358.25
369.993	364.25
370.219	387.25
370.445	343.25
370.672	344.25
370.898	364.25
371.124	363.25
371.35	380.25
371.576	364.25
371.802	354.25
372.028	352.25
372.254	376.25
372.48	346.25
372.706	353.25
372.932	378.25
373.158	365.25
373.384	363.25
373.61	373.25
373.835	368.25
374.061	352.25
374.287	357.25
374.513	347.25
374.739	369.25
374.965	362.25
375.191	360.25
375.416	377.25
375.642	367.25
375.868	367.25
376.094	349.25
376.319	383.25
376.545	365.25
376.771	365.25
376.997	357.25
377.222	370.25
377.448	361.25
377.674	358.25
377.899	352.25
378.125	369.25
378.35	370.25
378.576	358.25
378.802	338.25
379.027	377.25
379.253	356.25
379.478	369.25
379.704	358.25
379.929	363.25
380.155	363.25
380.38	369.25
380.606	371.25
380.831	347.25
381.057	360.25
381.282	353.25
381.507	338.25
381.733	353.25
381.958	354.25
382.184	364.25
382.409	373.25
382.634	382.25
382.86	367.25
383.085	379.25
383.31	361.25
383.535	380.25
383.761	369.25
383.986	362.25
384.211	383.25
384.436	369.25
384.662	369.25
384.887	366.25
385.112	369.25
385.337	389.25
385.562	378.25
385.787	389.25
386.013	383.25
386.238	388.25
386.463	384.25
386.688	386.25
386.913	386.25
387.138	383.25
387.363	380.25
387.588	391.25
387.813	388.25
388.038	390.25
388.263	424.25
388.488	386.25
388.713	373.25
388.938	388.25
389.163	383.25
389.387	391.25
389.612	382.25
389.837	394.25
390.062	389.25
390.287	380.25
390.512	383.25
390.736	379.25
390.961	391.25
391.186	377.25
391.411	377.25
391.636	376.25
391.86	403.25
392.085	382.25
392.31	412.25
392.534	382.25
392.759	399.25
392.984	391.25
393.208	397.25
393.433	408.25
393.658	408.25
393.882	402.25
394.107	385.25
394.331	395.25
394.556	395.25
394.78	403.25
395.005	384.25
395.229	369.25
395.454	407.25
395.678	395.25
395.903	397.25
396.127	416.25
396.352	427.25
396.576	405.25
396.801	387.25
397.025	413.25
397.249	400.25
397.474	397.25
397.698	411.25
397.922	416.25
398.147	418.25
398.371	428.25
398.595	425.25
398.82	424.25
399.044	445.25
399.268	458.25
399.492	464.25
399.717	501.25
399.941	503.25
400.165	522.25
400.389	518.25
400.613	495.25
400.837	483.25
401.062	435.25
401.286	428.25
401.51	451.25
401.734	445.25
401.958	424.25
402.182	451.25
402.406	431.25
402.63	425.25
402.854	433.25
403.078	428.25
403.302	434.25
403.526	440.25
403.75	435.25
403.974	436.25
404.198	449.25
404.422	427.25
404.645	430.25
404.869	471.25
405.093	470.25
405.317	508.25
405.541	510.25
405.765	469.25
405.988	472.25
406.212	449.25
406.436	485.25
406.66	497.25
406.883	457.25
407.107	493.25
407.331	525.25
407.555	584.25
407.778	578.25
408.002	534.25
408.226	480.25
408.449	471.25
408.673	466.25
408.896	486.25
409.12	520.25
409.344	477.25
409.567	458.25
409.791	431.25
410.014	447.25
410.238	443.25
410.461	440.25
410.685	442.25
410.908	441.25
411.132	468.25
411.355	500.25
411.578	483.25
411.802	487.25
412.025	441.25
412.249	447.25
412.472	469.25
412.695	499.25
412.919	501.25
413.142	441.25
413.365	442.25
413.589	428.25
413.812	425.25
414.035	413.25
414.258	426.25
414.482	423.25
414.705	418.25
414.928	420.25
415.151	427.25
415.374	403.25
415.597	419.25
415.821	401.25
416.044	430.25
416.267	399.25
416.49	399.25
416.713	402.25
416.936	412.25
417.159	407.25
417.382	398.25
417.605	402.25
417.828	418.25
418.051	439.25
418.274	404.25
418.497	385.25
418.72	411.25
418.943	424.25
419.166	417.25
419.389	441.25
419.611	444.25
419.834	415.25
420.057	452.25
420.28	429.25
420.503	440.25
420.726	431.25
420.948	427.25
421.171	450.25
421.394	458.25
421.617	458.25
421.839	430.25
422.062	449.25
422.285	426.25
422.507	466.25
422.73	515.25
422.953	485.25
423.175	458.25
423.398	450.25
423.621	423.25
423.843	432.25
424.066	450.25
424.288	435.25
424.511	462.25
424.733	483.25
424.956	558.25
425.178	519.25
425.401	519.25
425.623	540.25
425.846	463.25
426.068	438.25
426.291	415.25
426.513	431.25
426.735	447.25
426.958	473.25
427.18	523.25
427.402	632.25
427.625	661.25
427.847	581.25
428.069	513.25
428.292	448.25
428.514	435.25
428.736	439.25
428.958	426.25
429.181	415.25
429.403	412.25
429.625	415.25
429.847	447.25
430.069	485.25
430.292	477.25
430.514	428.25
430.736	406.25
430.958	416.25
431.18	410.25
431.402	396.25
431.624	394.25
431.846	397.25
432.068	398.25
432.29	394.25
432.512	391.25
432.734	403.25
432.956	421.25
433.178	396.25
433.4	399.25
433.622	405.25
433.844	392.25
434.066	386.25
434.287	392.25
434.509	391.25
434.731	387.25
434.953	413.25
435.175	427.25
435.397	430.25
435.618	435.25
435.84	483.25
436.062	563.25
436.284	568.25
436.505	476.25
436.727	439.25
436.949	423.25
437.17	411.25
437.392	408.25
437.614	417.25
437.835	453.25
438.057	508.25
438.278	556.25
438.5	592.25
438.721	643.25
438.943	589.25
439.165	498.25
439.386	436.25
439.608	447.25
439.829	429.25
440.05	457.25
440.272	478.25
440.493	457.25
440.715	432.25
440.936	449.25
441.158	426.25
441.379	421.25
441.6	408.25
441.822	448.25
442.043	462.25
442.264	507.25
442.486	538.25
442.707	472.25
442.928	437.25
443.149	434.25
443.371	488.25
443.592	493.25
443.813	540.25
444.034	582.25
444.255	508.25
444.476	467.25
444.698	441.25
444.919	443.25
445.14	570.25
445.361	506.25
445.582	462.25
445.803	514.25
446.024	552.25
446.245	585.25
446.466	537.25
446.687	466.25
446.908	436.25
447.129	441.25
447.35	428.25
447.571	413.25
447.792	399.25
448.013	401.25
448.234	405.25
448.455	464.25
448.675	557.25
448.896	585.25
449.117	515.25
449.338	500.25
449.559	578.25
449.779	636.25
450	514.25
450.221	443.25
450.442	418.25
450.662	417.25
450.883	406.25
451.104	413.25
451.324	403.25
451.545	377.25
451.766	373.25
451.986	371.25
452.207	377.25
452.428	373.25
452.648	358.25
452.869	363.25
453.089	352.25
453.31	365.25
453.53	366.25
453.751	366.25
453.971	374.25
454.192	360.25
454.412	382.25
454.633	369.25
454.853	368.25
455.073	354.25
455.294	403.25
455.514	443.25
455.734	410.25
455.955	377.25
456.175	376.25
456.395	371.25
456.616	350.25
456.836	367.25
457.056	364.25
457.276	336.25
457.497	371.25
457.717	359.25
457.937	374.25
458.157	348.25
458.377	361.25
458.598	375.25
458.818	383.25
459.038	451.25
459.258	457.25
459.478	433.25
459.698	403.25
459.918	409.25
460.138	384.25
460.358	402.25
460.578	405.25
460.798	397.25
461.018	416.25
461.238	386.25
461.458	394.25
461.678	392.25
461.898	407.25
462.118	401.25
462.338	417.25
462.558	416.25
462.777	400.25
462.997	445.25
463.217	431.25
463.437	456.25
463.657	447.25
463.876	415.25
464.096	426.25
464.316	462.25
464.536	412.25
464.755	423.25
464.975	439.25
465.195	446.25
465.414	445.25
465.634	446.25
465.854	426.25
466.073	421.25
466.293	392.25
466.512	381.25
466.732	386.25
466.951	378.25
467.171	368.25
467.391	396.25
467.61	376.25
467.829	391.25
468.049	377.25
468.268	397.25
468.488	378.25
468.707	355.25
468.927	395.25
469.146	365.25
469.365	373.25
469.585	372.25
469.804	391.25
470.023	377.25
470.243	365.25
470.462	387.25
470.681	402.25
470.901	379.25
471.12	390.25
471.339	372.25
471.558	399.25
471.777	399.25
471.997	377.25
472.216	404.25
472.435	405.25
472.654	398.25
472.873	391.25
473.092	388.25
473.311	368.25
473.53	370.25
473.749	397.25
473.968	406.25
474.187	480.25
474.406	479.25
474.625	444.25
474.844	384.25
475.063	379.25
475.282	374.25
475.501	386.25
475.72	398.25
475.939	400.25
476.158	381.25
476.377	392.25
476.596	374.25
476.814	400.25
477.033	406.25
477.252	413.25
477.471	406.25
477.69	399.25
477.908	421.25
478.127	409.25
478.346	419.25
478.564	413.25
478.783	433.25
479.002	431.25
479.22	431.25
479.439	438.25
479.658	463.25
479.876	441.25
480.095	457.25
480.313	479.25
480.532	474.25
480.751	472.25
480.969	475.25
481.188	512.25
481.406	497.25
481.624	481.25
481.843	460.25
482.061	475.25
482.28	456.25
482.498	445.25
482.717	435.25
482.935	439.25
483.153	440.25
483.372	444.25
483.59	430.25
483.808	450.25
484.027	430.25
484.245	439.25
484.463	445.25
484.681	446.25
484.9	449.25
485.118	457.25
485.336	471.25
485.554	437.25
485.772	440.25
485.99	455.25
486.209	440.25
486.427	466.25
486.645	470.25
486.863	471.25
487.081	473.25
487.299	475.25
487.517	484.25
487.735	460.25
487.953	472.25
488.171	452.25
488.389	490.25
488.607	445.25
488.825	483.25
489.043	462.25
489.261	471.25
489.479	473.25
489.696	468.25
489.914	475.25
490.132	480.25
490.35	487.25
490.568	486.25
490.786	506.25
491.003	497.25
491.221	465.25
491.439	503.25
491.657	505.25
491.874	535.25
492.092	529.25
492.31	520.25
492.527	526.25
492.745	533.25
492.963	549.25
493.18	512.25
493.398	531.25
493.615	529.25
493.833	532.25
494.05	540.25
494.268	539.25
494.485	549.25
494.703	528.25
494.92	553.25
495.138	537.25
495.355	547.25
495.573	539.25
495.79	555.25
496.008	549.25
496.225	539.25
496.442	559.25
496.66	553.25
496.877	543.25
497.094	565.25
497.312	554.25
497.529	553.25
497.746	573.25
497.963	579.25
498.181	601.25
498.398	598.25
498.615	640.25
498.832	629.25
499.049	625.25
499.267	635.25
499.484	685.25
499.701	690.25
499.918	722.25
500.135	739.25
500.352	762.25
500.569	776.25
500.786	792.25
501.003	783.25
501.22	722.25
501.437	724.25
501.654	687.25
501.871	677.25
