Data from 1960PennyLincolnUp.LampE6.200Scan.07172019.P1_HRD10591_13-06-13-002.txt Node
Date: Thu Jul 18 13:06:13 EDT 2019
User: cochatt
Spectrometer: HR+D1059
Trigger mode: 1
Integration Time (sec): 1.000000E-1
Scans to average: 1
Electric dark correction enabled: true
Nonlinearity correction enabled: false
Boxcar width: 0
XAxis mode: Wavelengths
Number of Pixels in Spectrum: 2048
>>>>>Begin Spectral Data<<<<<
223.165	-5.44
223.4	-5.44
223.635	-5.44
223.869	-18.44
224.104	-22.44
224.338	-9.44
224.573	-6.44
224.808	-3.44
225.042	-2.44
225.277	-12.44
225.511	-16.44
225.746	3.56
225.98	-6.44
226.215	2.56
226.449	17.56
226.683	17.56
226.918	29.56
227.152	32.56
227.387	27.56
227.621	26.56
227.856	35.56
228.09	39.56
228.324	54.56
228.559	57.56
228.793	56.56
229.027	71.56
229.262	94.56
229.496	101.56
229.73	116.56
229.964	126.56
230.199	109.56
230.433	115.56
230.667	110.56
230.901	101.56
231.136	108.56
231.37	110.56
231.604	104.56
231.838	114.56
232.072	107.56
232.306	111.56
232.541	109.56
232.775	114.56
233.009	114.56
233.243	124.56
233.477	117.56
233.711	102.56
233.945	122.56
234.179	109.56
234.413	107.56
234.647	105.56
234.881	117.56
235.115	127.56
235.349	114.56
235.583	105.56
235.817	103.56
236.051	122.56
236.285	114.56
236.519	121.56
236.753	118.56
236.987	132.56
237.221	141.56
237.455	177.56
237.689	149.56
237.922	138.56
238.156	123.56
238.39	131.56
238.624	125.56
238.858	121.56
239.091	113.56
239.325	113.56
239.559	105.56
239.793	131.56
240.027	120.56
240.26	127.56
240.494	144.56
240.728	130.56
240.961	126.56
241.195	138.56
241.429	136.56
241.662	141.56
241.896	142.56
242.13	126.56
242.363	126.56
242.597	134.56
242.83	149.56
243.064	123.56
243.298	129.56
243.531	139.56
243.765	140.56
243.998	131.56
244.232	151.56
244.465	133.56
244.699	139.56
244.932	150.56
245.166	138.56
245.399	145.56
245.633	147.56
245.866	149.56
246.099	138.56
246.333	131.56
246.566	141.56
246.8	147.56
247.033	158.56
247.266	146.56
247.5	144.56
247.733	153.56
247.966	157.56
248.2	151.56
248.433	169.56
248.666	178.56
248.899	172.56
249.133	151.56
249.366	178.56
249.599	175.56
249.832	161.56
250.066	170.56
250.299	169.56
250.532	173.56
250.765	179.56
250.998	189.56
251.231	175.56
251.465	186.56
251.698	172.56
251.931	170.56
252.164	180.56
252.397	185.56
252.63	181.56
252.863	194.56
253.096	195.56
253.329	192.56
253.562	197.56
253.795	183.56
254.028	185.56
254.261	188.56
254.494	200.56
254.727	219.56
254.96	232.56
255.193	225.56
255.426	201.56
255.659	195.56
255.892	192.56
256.124	213.56
256.357	207.56
256.59	198.56
256.823	197.56
257.056	205.56
257.289	176.56
257.521	193.56
257.754	188.56
257.987	197.56
258.22	193.56
258.452	193.56
258.685	193.56
258.918	195.56
259.151	178.56
259.383	209.56
259.616	204.56
259.849	198.56
260.081	214.56
260.314	227.56
260.547	223.56
260.779	213.56
261.012	202.56
261.244	199.56
261.477	195.56
261.71	199.56
261.942	192.56
262.175	221.56
262.407	214.56
262.64	174.56
262.872	200.56
263.105	203.56
263.337	213.56
263.57	197.56
263.802	200.56
264.035	213.56
264.267	207.56
264.499	189.56
264.732	207.56
264.964	221.56
265.197	216.56
265.429	202.56
265.661	218.56
265.894	217.56
266.126	207.56
266.358	222.56
266.591	206.56
266.823	216.56
267.055	227.56
267.287	227.56
267.52	209.56
267.752	226.56
267.984	217.56
268.216	202.56
268.448	218.56
268.681	225.56
268.913	232.56
269.145	236.56
269.377	258.56
269.609	259.56
269.841	255.56
270.073	258.56
270.306	267.56
270.538	284.56
270.77	272.56
271.002	262.56
271.234	264.56
271.466	245.56
271.698	260.56
271.93	272.56
272.162	298.56
272.394	265.56
272.626	256.56
272.858	273.56
273.09	256.56
273.322	250.56
273.553	245.56
273.785	232.56
274.017	256.56
274.249	258.56
274.481	261.56
274.713	259.56
274.945	259.56
275.176	260.56
275.408	248.56
275.64	254.56
275.872	254.56
276.104	259.56
276.335	249.56
276.567	257.56
276.799	255.56
277.031	292.56
277.262	288.56
277.494	293.56
277.726	307.56
277.957	261.56
278.189	280.56
278.421	260.56
278.652	267.56
278.884	257.56
279.115	273.56
279.347	273.56
279.579	278.56
279.81	269.56
280.042	260.56
280.273	274.56
280.505	261.56
280.736	269.56
280.968	274.56
281.199	269.56
281.431	261.56
281.662	275.56
281.894	281.56
282.125	286.56
282.356	289.56
282.588	298.56
282.819	270.56
283.051	267.56
283.282	284.56
283.513	270.56
283.745	263.56
283.976	282.56
284.207	280.56
284.439	291.56
284.67	297.56
284.901	271.56
285.132	283.56
285.364	296.56
285.595	279.56
285.826	279.56
286.057	282.56
286.288	297.56
286.52	299.56
286.751	272.56
286.982	306.56
287.213	270.56
287.444	283.56
287.675	290.56
287.906	306.56
288.138	301.56
288.369	290.56
288.6	319.56
288.831	311.56
289.062	301.56
289.293	291.56
289.524	305.56
289.755	323.56
289.986	282.56
290.217	313.56
290.448	289.56
290.679	298.56
290.91	304.56
291.141	298.56
291.371	307.56
291.602	323.56
291.833	310.56
292.064	297.56
292.295	325.56
292.526	292.56
292.757	298.56
292.987	295.56
293.218	297.56
293.449	285.56
293.68	292.56
293.91	298.56
294.141	311.56
294.372	289.56
294.603	300.56
294.833	309.56
295.064	308.56
295.295	307.56
295.525	298.56
295.756	310.56
295.987	300.56
296.217	324.56
296.448	313.56
296.679	310.56
296.909	313.56
297.14	311.56
297.37	315.56
297.601	308.56
297.831	317.56
298.062	310.56
298.292	317.56
298.523	333.56
298.753	334.56
298.984	300.56
299.214	333.56
299.445	327.56
299.675	313.56
299.905	342.56
300.136	320.56
300.366	346.56
300.597	323.56
300.827	334.56
301.057	362.56
301.288	333.56
301.518	332.56
301.748	339.56
301.979	342.56
302.209	357.56
302.439	346.56
302.669	349.56
302.9	329.56
303.13	338.56
303.36	332.56
303.59	349.56
303.82	342.56
304.051	346.56
304.281	343.56
304.511	340.56
304.741	338.56
304.971	343.56
305.201	346.56
305.431	321.56
305.661	345.56
305.891	334.56
306.121	343.56
306.352	331.56
306.582	347.56
306.812	339.56
307.042	328.56
307.272	335.56
307.502	346.56
307.731	342.56
307.961	350.56
308.191	332.56
308.421	353.56
308.651	373.56
308.881	357.56
309.111	358.56
309.341	357.56
309.571	352.56
309.8	363.56
310.03	349.56
310.26	346.56
310.49	363.56
310.72	398.56
310.949	367.56
311.179	379.56
311.409	353.56
311.639	366.56
311.868	351.56
312.098	375.56
312.328	375.56
312.557	389.56
312.787	374.56
313.017	403.56
313.246	376.56
313.476	361.56
313.706	380.56
313.935	385.56
314.165	406.56
314.394	391.56
314.624	394.56
314.853	388.56
315.083	387.56
315.312	400.56
315.542	379.56
315.771	371.56
316.001	384.56
316.23	387.56
316.46	376.56
316.689	379.56
316.919	378.56
317.148	374.56
317.377	383.56
317.607	386.56
317.836	372.56
318.065	361.56
318.295	365.56
318.524	375.56
318.753	384.56
318.983	375.56
319.212	386.56
319.441	378.56
319.67	354.56
319.9	365.56
320.129	376.56
320.358	362.56
320.587	381.56
320.816	379.56
321.046	404.56
321.275	376.56
321.504	375.56
321.733	400.56
321.962	394.56
322.191	401.56
322.42	400.56
322.649	411.56
322.878	409.56
323.108	405.56
323.337	422.56
323.566	435.56
323.795	454.56
324.024	465.56
324.253	570.56
324.482	707.56
324.71	973.56
324.939	1329.56
325.168	1113.56
325.397	627.56
325.626	506.56
325.855	437.56
326.084	433.56
326.313	427.56
326.542	448.56
326.77	459.56
326.999	516.56
327.228	677.56
327.457	925.56
327.686	1053.56
327.914	704.56
328.143	521.56
328.372	511.56
328.6	490.56
328.829	498.56
329.058	482.56
329.287	490.56
329.515	462.56
329.744	455.56
329.972	447.56
330.201	486.56
330.43	487.56
330.658	496.56
330.887	523.56
331.115	502.56
331.344	481.56
331.572	446.56
331.801	447.56
332.03	480.56
332.258	477.56
332.486	450.56
332.715	471.56
332.943	497.56
333.172	481.56
333.4	497.56
333.629	505.56
333.857	505.56
334.085	518.56
334.314	529.56
334.542	549.56
334.771	535.56
334.999	546.56
335.227	505.56
335.455	478.56
335.684	482.56
335.912	465.56
336.14	473.56
336.369	486.56
336.597	456.56
336.825	467.56
337.053	479.56
337.281	465.56
337.51	451.56
337.738	457.56
337.966	453.56
338.194	454.56
338.422	444.56
338.65	451.56
338.878	455.56
339.106	439.56
339.334	436.56
339.562	437.56
339.79	447.56
340.018	438.56
340.246	456.56
340.474	427.56
340.702	439.56
340.93	446.56
341.158	421.56
341.386	445.56
341.614	438.56
341.842	442.56
342.07	418.56
342.298	427.56
342.526	430.56
342.754	430.56
342.981	418.56
343.209	431.56
343.437	461.56
343.665	483.56
343.893	467.56
344.12	490.56
344.348	477.56
344.576	446.56
344.804	464.56
345.031	463.56
345.259	450.56
345.487	448.56
345.714	455.56
345.942	427.56
346.17	427.56
346.397	422.56
346.625	419.56
346.853	416.56
347.08	411.56
347.308	419.56
347.535	415.56
347.763	432.56
347.99	426.56
348.218	429.56
348.445	435.56
348.673	412.56
348.9	417.56
349.128	387.56
349.355	398.56
349.583	390.56
349.81	411.56
350.037	404.56
350.265	394.56
350.492	422.56
350.72	395.56
350.947	411.56
351.174	435.56
351.402	415.56
351.629	433.56
351.856	398.56
352.083	417.56
352.311	439.56
352.538	433.56
352.765	438.56
352.992	430.56
353.22	399.56
353.447	406.56
353.674	398.56
353.901	402.56
354.128	403.56
354.355	398.56
354.583	401.56
354.81	397.56
355.037	394.56
355.264	411.56
355.491	418.56
355.718	394.56
355.945	404.56
356.172	397.56
356.399	392.56
356.626	394.56
356.853	410.56
357.08	377.56
357.307	396.56
357.534	385.56
357.761	415.56
357.988	392.56
358.215	387.56
358.441	406.56
358.668	405.56
358.895	406.56
359.122	423.56
359.349	411.56
359.576	406.56
359.802	434.56
360.029	457.56
360.256	445.56
360.483	419.56
360.709	415.56
360.936	415.56
361.163	408.56
361.39	421.56
361.616	412.56
361.843	419.56
362.07	403.56
362.296	409.56
362.523	410.56
362.749	421.56
362.976	389.56
363.203	412.56
363.429	416.56
363.656	415.56
363.882	408.56
364.109	391.56
364.335	397.56
364.562	402.56
364.788	415.56
365.015	426.56
365.241	406.56
365.468	415.56
365.694	387.56
365.92	407.56
366.147	398.56
366.373	383.56
366.599	386.56
366.826	398.56
367.052	417.56
367.278	417.56
367.505	408.56
367.731	402.56
367.957	391.56
368.184	403.56
368.41	420.56
368.636	433.56
368.862	409.56
369.089	418.56
369.315	421.56
369.541	421.56
369.767	401.56
369.993	395.56
370.219	403.56
370.445	427.56
370.672	396.56
370.898	426.56
371.124	422.56
371.35	425.56
371.576	410.56
371.802	417.56
372.028	417.56
372.254	414.56
372.48	411.56
372.706	419.56
372.932	432.56
373.158	421.56
373.384	433.56
373.61	434.56
373.835	408.56
374.061	408.56
374.287	423.56
374.513	422.56
374.739	459.56
374.965	453.56
375.191	458.56
375.416	448.56
375.642	434.56
375.868	424.56
376.094	421.56
376.319	428.56
376.545	435.56
376.771	432.56
376.997	418.56
377.222	432.56
377.448	423.56
377.674	402.56
377.899	411.56
378.125	400.56
378.35	426.56
378.576	424.56
378.802	426.56
379.027	417.56
379.253	434.56
379.478	423.56
379.704	416.56
379.929	409.56
380.155	413.56
380.38	424.56
380.606	422.56
380.831	416.56
381.057	433.56
381.282	425.56
381.507	409.56
381.733	439.56
381.958	419.56
382.184	438.56
382.409	438.56
382.634	438.56
382.86	435.56
383.085	443.56
383.31	443.56
383.535	446.56
383.761	443.56
383.986	445.56
384.211	461.56
384.436	455.56
384.662	475.56
384.887	471.56
385.112	465.56
385.337	467.56
385.562	479.56
385.787	487.56
386.013	505.56
386.238	485.56
386.463	487.56
386.688	499.56
386.913	452.56
387.138	475.56
387.363	456.56
387.588	484.56
387.813	472.56
388.038	482.56
388.263	482.56
388.488	460.56
388.713	479.56
388.938	469.56
389.163	477.56
389.387	484.56
389.612	472.56
389.837	485.56
390.062	461.56
390.287	467.56
390.512	475.56
390.736	478.56
390.961	488.56
391.186	491.56
391.411	493.56
391.636	497.56
391.86	518.56
392.085	533.56
392.31	523.56
392.534	507.56
392.759	504.56
392.984	485.56
393.208	507.56
393.433	505.56
393.658	495.56
393.882	486.56
394.107	519.56
394.331	496.56
394.556	485.56
394.78	510.56
395.005	508.56
395.229	506.56
395.454	498.56
395.678	553.56
395.903	535.56
396.127	528.56
396.352	528.56
396.576	513.56
396.801	522.56
397.025	514.56
397.249	510.56
397.474	530.56
397.698	503.56
397.922	508.56
398.147	535.56
398.371	532.56
398.595	556.56
398.82	573.56
399.044	574.56
399.268	623.56
399.492	709.56
399.717	751.56
399.941	769.56
400.165	748.56
400.389	684.56
400.613	628.56
400.837	618.56
401.062	584.56
401.286	562.56
401.51	563.56
401.734	585.56
401.958	584.56
402.182	576.56
402.406	600.56
402.63	607.56
402.854	617.56
403.078	612.56
403.302	618.56
403.526	622.56
403.75	624.56
403.974	630.56
404.198	621.56
404.422	625.56
404.645	644.56
404.869	626.56
405.093	667.56
405.317	666.56
405.541	690.56
405.765	615.56
405.988	642.56
406.212	619.56
406.436	644.56
406.66	665.56
406.883	665.56
407.107	674.56
407.331	706.56
407.555	776.56
407.778	727.56
408.002	721.56
408.226	656.56
408.449	654.56
408.673	662.56
408.896	657.56
409.12	682.56
409.344	643.56
409.567	627.56
409.791	609.56
410.014	630.56
410.238	591.56
410.461	630.56
410.685	594.56
410.908	602.56
411.132	616.56
411.355	650.56
411.578	622.56
411.802	615.56
412.025	575.56
412.249	614.56
412.472	591.56
412.695	627.56
412.919	611.56
413.142	565.56
413.365	581.56
413.589	586.56
413.812	580.56
414.035	575.56
414.258	565.56
414.482	579.56
414.705	582.56
414.928	561.56
415.151	575.56
415.374	569.56
415.597	569.56
415.821	563.56
416.044	544.56
416.267	587.56
416.49	557.56
416.713	550.56
416.936	547.56
417.159	537.56
417.382	558.56
417.605	568.56
417.828	561.56
418.051	584.56
418.274	589.56
418.497	576.56
418.72	591.56
418.943	574.56
419.166	589.56
419.389	615.56
419.611	592.56
419.834	569.56
420.057	599.56
420.28	606.56
420.503	577.56
420.726	578.56
420.948	567.56
421.171	593.56
421.394	604.56
421.617	584.56
421.839	580.56
422.062	572.56
422.285	569.56
422.507	649.56
422.73	669.56
422.953	653.56
423.175	612.56
423.398	609.56
423.621	598.56
423.843	613.56
424.066	621.56
424.288	619.56
424.511	598.56
424.733	617.56
424.956	683.56
425.178	690.56
425.401	669.56
425.623	666.56
425.846	616.56
426.068	568.56
426.291	589.56
426.513	592.56
426.735	563.56
426.958	605.56
427.18	658.56
427.402	712.56
427.625	741.56
427.847	683.56
428.069	613.56
428.292	555.56
428.514	546.56
428.736	526.56
428.958	541.56
429.181	525.56
429.403	512.56
429.625	523.56
429.847	531.56
430.069	562.56
430.292	593.56
430.514	530.56
430.736	530.56
430.958	527.56
431.18	530.56
431.402	494.56
431.624	511.56
431.846	510.56
432.068	517.56
432.29	503.56
432.512	534.56
432.734	535.56
432.956	504.56
433.178	513.56
433.4	501.56
433.622	528.56
433.844	519.56
434.066	531.56
434.287	525.56
434.509	511.56
434.731	543.56
434.953	559.56
435.175	551.56
435.397	584.56
435.618	541.56
435.84	605.56
436.062	603.56
436.284	679.56
436.505	576.56
436.727	548.56
436.949	543.56
437.17	516.56
437.392	504.56
437.614	517.56
437.835	530.56
438.057	580.56
438.278	655.56
438.5	663.56
438.721	700.56
438.943	661.56
439.165	554.56
439.386	541.56
439.608	567.56
439.829	548.56
440.05	570.56
440.272	582.56
440.493	571.56
440.715	541.56
440.936	557.56
441.158	559.56
441.379	520.56
441.6	559.56
441.822	583.56
442.043	601.56
442.264	627.56
442.486	631.56
442.707	599.56
442.928	574.56
443.149	586.56
443.371	624.56
443.592	647.56
443.813	681.56
444.034	719.56
444.255	639.56
444.476	619.56
444.698	645.56
444.919	639.56
445.14	699.56
445.361	613.56
445.582	611.56
445.803	660.56
446.024	665.56
446.245	678.56
446.466	611.56
446.687	553.56
446.908	523.56
447.129	535.56
447.35	511.56
447.571	519.56
447.792	500.56
448.013	519.56
448.234	521.56
448.455	525.56
448.675	600.56
448.896	659.56
449.117	576.56
449.338	594.56
449.559	622.56
449.779	685.56
450	583.56
450.221	513.56
450.442	484.56
450.662	479.56
450.883	490.56
451.104	519.56
451.324	497.56
451.545	470.56
451.766	483.56
451.986	477.56
452.207	465.56
452.428	477.56
452.648	445.56
452.869	443.56
453.089	477.56
453.31	491.56
453.53	454.56
453.751	442.56
453.971	440.56
454.192	459.56
454.412	434.56
454.633	474.56
454.853	446.56
455.073	447.56
455.294	476.56
455.514	520.56
455.734	485.56
455.955	462.56
456.175	447.56
456.395	445.56
456.616	433.56
456.836	436.56
457.056	424.56
457.276	423.56
457.497	447.56
457.717	452.56
457.937	446.56
458.157	452.56
458.377	459.56
458.598	471.56
458.818	529.56
459.038	553.56
459.258	584.56
459.478	528.56
459.698	520.56
459.918	504.56
460.138	518.56
460.358	556.56
460.578	560.56
460.798	538.56
461.018	561.56
461.238	538.56
461.458	546.56
461.678	541.56
461.898	532.56
462.118	547.56
462.338	575.56
462.558	562.56
462.777	589.56
462.997	639.56
463.217	669.56
463.437	651.56
463.657	633.56
463.876	601.56
464.096	613.56
464.316	613.56
464.536	620.56
464.755	603.56
464.975	576.56
465.195	594.56
465.414	623.56
465.634	558.56
465.854	520.56
466.073	479.56
466.293	512.56
466.512	493.56
466.732	467.56
466.951	485.56
467.171	467.56
467.391	497.56
467.61	505.56
467.829	497.56
468.049	494.56
468.268	482.56
468.488	474.56
468.707	454.56
468.927	439.56
469.146	467.56
469.365	469.56
469.585	452.56
469.804	508.56
470.023	484.56
470.243	483.56
470.462	502.56
470.681	523.56
470.901	483.56
471.12	476.56
471.339	498.56
471.558	498.56
471.777	507.56
471.997	478.56
472.216	479.56
472.435	485.56
472.654	475.56
472.873	469.56
473.092	466.56
473.311	469.56
473.53	481.56
473.749	457.56
473.968	493.56
474.187	541.56
474.406	543.56
474.625	501.56
474.844	461.56
475.063	487.56
475.282	461.56
475.501	485.56
475.72	481.56
475.939	478.56
476.158	469.56
476.377	467.56
476.596	475.56
476.814	472.56
477.033	498.56
477.252	497.56
477.471	518.56
477.69	519.56
477.908	522.56
478.127	543.56
478.346	523.56
478.564	544.56
478.783	536.56
479.002	566.56
479.22	580.56
479.439	574.56
479.658	560.56
479.876	586.56
480.095	576.56
480.313	616.56
480.532	613.56
480.751	589.56
480.969	613.56
481.188	623.56
481.406	624.56
481.624	586.56
481.843	572.56
482.061	544.56
482.28	550.56
482.498	516.56
482.717	561.56
482.935	538.56
483.153	545.56
483.372	546.56
483.59	543.56
483.808	523.56
484.027	528.56
484.245	546.56
484.463	538.56
484.681	561.56
484.9	545.56
485.118	572.56
485.336	558.56
485.554	549.56
485.772	566.56
485.99	586.56
486.209	566.56
486.427	575.56
486.645	558.56
486.863	584.56
487.081	589.56
487.299	601.56
487.517	578.56
487.735	559.56
487.953	589.56
488.171	568.56
488.389	578.56
488.607	583.56
488.825	572.56
489.043	581.56
489.261	561.56
489.479	587.56
489.696	569.56
489.914	583.56
490.132	613.56
490.35	586.56
490.568	584.56
490.786	607.56
491.003	614.56
491.221	623.56
491.439	627.56
491.657	654.56
491.874	634.56
492.092	639.56
492.31	629.56
492.527	652.56
492.745	675.56
492.963	650.56
493.18	658.56
493.398	651.56
493.615	692.56
493.833	643.56
494.05	677.56
494.268	647.56
494.485	651.56
494.703	674.56
494.92	667.56
495.138	653.56
495.355	641.56
495.573	651.56
495.79	650.56
496.008	661.56
496.225	638.56
496.442	653.56
496.66	671.56
496.877	661.56
497.094	672.56
497.312	707.56
497.529	711.56
497.746	703.56
497.963	723.56
498.181	729.56
498.398	774.56
498.615	759.56
498.832	806.56
499.049	849.56
499.267	882.56
499.484	930.56
499.701	1025.56
499.918	1094.56
500.135	1169.56
500.352	1265.56
500.569	1294.56
500.786	1330.56
501.003	1246.56
501.22	1153.56
501.437	1061.56
501.654	1008.56
501.871	965.56
