Data from 1960PennyLincolnUp.LampE6.200Scan.07172019.P1_HRD10591_13-05-40-001.txt Node
Date: Thu Jul 18 13:05:40 EDT 2019
User: cochatt
Spectrometer: HR+D1059
Trigger mode: 1
Integration Time (sec): 1.000000E-1
Scans to average: 1
Electric dark correction enabled: true
Nonlinearity correction enabled: false
Boxcar width: 0
XAxis mode: Wavelengths
Number of Pixels in Spectrum: 2048
>>>>>Begin Spectral Data<<<<<
223.165	-10.88
223.4	-10.88
223.635	-10.88
223.869	-22.88
224.104	-22.88
224.338	-17.88
224.573	-14.88
224.808	-13.88
225.042	-9.88
225.277	-10.88
225.511	-1.88
225.746	4.12
225.98	10.12
226.215	22.12
226.449	17.12
226.683	19.12
226.918	29.12
227.152	24.12
227.387	34.12
227.621	36.12
227.856	39.12
228.09	43.12
228.324	41.12
228.559	59.12
228.793	50.12
229.027	88.12
229.262	83.12
229.496	100.12
229.73	110.12
229.964	129.12
230.199	116.12
230.433	94.12
230.667	100.12
230.901	103.12
231.136	97.12
231.37	101.12
231.604	104.12
231.838	102.12
232.072	103.12
232.306	102.12
232.541	123.12
232.775	94.12
233.009	104.12
233.243	103.12
233.477	95.12
233.711	104.12
233.945	106.12
234.179	110.12
234.413	118.12
234.647	111.12
234.881	115.12
235.115	111.12
235.349	101.12
235.583	106.12
235.817	114.12
236.051	114.12
236.285	108.12
236.519	105.12
236.753	104.12
236.987	124.12
237.221	145.12
237.455	158.12
237.689	154.12
237.922	114.12
238.156	125.12
238.39	115.12
238.624	110.12
238.858	132.12
239.091	120.12
239.325	113.12
239.559	109.12
239.793	127.12
240.027	112.12
240.26	122.12
240.494	127.12
240.728	118.12
240.961	127.12
241.195	142.12
241.429	123.12
241.662	118.12
241.896	117.12
242.13	126.12
242.363	133.12
242.597	124.12
242.83	123.12
243.064	126.12
243.298	131.12
243.531	128.12
243.765	120.12
243.998	124.12
244.232	132.12
244.465	132.12
244.699	132.12
244.932	148.12
245.166	137.12
245.399	130.12
245.633	140.12
245.866	141.12
246.099	144.12
246.333	114.12
246.566	139.12
246.8	136.12
247.033	168.12
247.266	146.12
247.5	173.12
247.733	145.12
247.966	156.12
248.2	138.12
248.433	163.12
248.666	158.12
248.899	136.12
249.133	168.12
249.366	171.12
249.599	180.12
249.832	163.12
250.066	156.12
250.299	163.12
250.532	163.12
250.765	165.12
250.998	190.12
251.231	174.12
251.465	194.12
251.698	173.12
251.931	171.12
252.164	170.12
252.397	152.12
252.63	171.12
252.863	177.12
253.096	181.12
253.329	187.12
253.562	175.12
253.795	166.12
254.028	172.12
254.261	189.12
254.494	180.12
254.727	200.12
254.96	227.12
255.193	208.12
255.426	195.12
255.659	194.12
255.892	186.12
256.124	199.12
256.357	194.12
256.59	195.12
256.823	188.12
257.056	189.12
257.289	168.12
257.521	182.12
257.754	183.12
257.987	192.12
258.22	169.12
258.452	188.12
258.685	180.12
258.918	183.12
259.151	192.12
259.383	197.12
259.616	193.12
259.849	186.12
260.081	207.12
260.314	207.12
260.547	211.12
260.779	203.12
261.012	198.12
261.244	193.12
261.477	187.12
261.71	200.12
261.942	195.12
262.175	204.12
262.407	213.12
262.64	179.12
262.872	181.12
263.105	192.12
263.337	196.12
263.57	193.12
263.802	191.12
264.035	185.12
264.267	197.12
264.499	186.12
264.732	191.12
264.964	205.12
265.197	197.12
265.429	203.12
265.661	199.12
265.894	200.12
266.126	200.12
266.358	208.12
266.591	185.12
266.823	196.12
267.055	213.12
267.287	224.12
267.52	208.12
267.752	211.12
267.984	197.12
268.216	194.12
268.448	196.12
268.681	209.12
268.913	224.12
269.145	222.12
269.377	226.12
269.609	245.12
269.841	230.12
270.073	227.12
270.306	245.12
270.538	244.12
270.77	260.12
271.002	254.12
271.234	244.12
271.466	255.12
271.698	253.12
271.93	264.12
272.162	270.12
272.394	244.12
272.626	260.12
272.858	241.12
273.09	237.12
273.322	222.12
273.553	235.12
273.785	229.12
274.017	241.12
274.249	231.12
274.481	242.12
274.713	230.12
274.945	241.12
275.176	236.12
275.408	239.12
275.64	237.12
275.872	235.12
276.104	231.12
276.335	247.12
276.567	244.12
276.799	252.12
277.031	280.12
277.262	277.12
277.494	290.12
277.726	270.12
277.957	265.12
278.189	242.12
278.421	244.12
278.652	244.12
278.884	258.12
279.115	263.12
279.347	262.12
279.579	243.12
279.81	249.12
280.042	253.12
280.273	255.12
280.505	264.12
280.736	250.12
280.968	252.12
281.199	242.12
281.431	267.12
281.662	259.12
281.894	282.12
282.125	253.12
282.356	270.12
282.588	261.12
282.819	272.12
283.051	273.12
283.282	279.12
283.513	270.12
283.745	269.12
283.976	267.12
284.207	255.12
284.439	270.12
284.67	264.12
284.901	283.12
285.132	281.12
285.364	269.12
285.595	261.12
285.826	270.12
286.057	267.12
286.288	278.12
286.52	267.12
286.751	286.12
286.982	284.12
287.213	274.12
287.444	274.12
287.675	280.12
287.906	290.12
288.138	294.12
288.369	305.12
288.6	295.12
288.831	288.12
289.062	268.12
289.293	299.12
289.524	285.12
289.755	283.12
289.986	294.12
290.217	283.12
290.448	287.12
290.679	301.12
290.91	298.12
291.141	282.12
291.371	285.12
291.602	272.12
291.833	288.12
292.064	287.12
292.295	291.12
292.526	286.12
292.757	289.12
292.987	295.12
293.218	282.12
293.449	279.12
293.68	297.12
293.91	287.12
294.141	295.12
294.372	287.12
294.603	304.12
294.833	292.12
295.064	284.12
295.295	304.12
295.525	296.12
295.756	313.12
295.987	323.12
296.217	313.12
296.448	325.12
296.679	310.12
296.909	308.12
297.14	302.12
297.37	312.12
297.601	315.12
297.831	300.12
298.062	303.12
298.292	315.12
298.523	325.12
298.753	301.12
298.984	307.12
299.214	305.12
299.445	309.12
299.675	306.12
299.905	303.12
300.136	303.12
300.366	326.12
300.597	323.12
300.827	310.12
301.057	330.12
301.288	326.12
301.518	326.12
301.748	310.12
301.979	322.12
302.209	338.12
302.439	332.12
302.669	325.12
302.9	346.12
303.13	326.12
303.36	341.12
303.59	341.12
303.82	329.12
304.051	336.12
304.281	336.12
304.511	324.12
304.741	325.12
304.971	321.12
305.201	325.12
305.431	321.12
305.661	318.12
305.891	331.12
306.121	321.12
306.352	331.12
306.582	324.12
306.812	333.12
307.042	319.12
307.272	338.12
307.502	310.12
307.731	333.12
307.961	331.12
308.191	326.12
308.421	335.12
308.651	329.12
308.881	336.12
309.111	332.12
309.341	323.12
309.571	327.12
309.8	330.12
310.03	334.12
310.26	347.12
310.49	348.12
310.72	364.12
310.949	324.12
311.179	362.12
311.409	354.12
311.639	358.12
311.868	362.12
312.098	358.12
312.328	368.12
312.557	356.12
312.787	385.12
313.017	361.12
313.246	358.12
313.476	351.12
313.706	358.12
313.935	362.12
314.165	366.12
314.394	369.12
314.624	362.12
314.853	357.12
315.083	374.12
315.312	379.12
315.542	363.12
315.771	348.12
316.001	346.12
316.23	352.12
316.46	368.12
316.689	372.12
316.919	360.12
317.148	396.12
317.377	375.12
317.607	357.12
317.836	378.12
318.065	346.12
318.295	359.12
318.524	367.12
318.753	370.12
318.983	364.12
319.212	383.12
319.441	350.12
319.67	355.12
319.9	353.12
320.129	363.12
320.358	349.12
320.587	367.12
320.816	365.12
321.046	380.12
321.275	372.12
321.504	363.12
321.733	351.12
321.962	370.12
322.191	374.12
322.42	384.12
322.649	403.12
322.878	347.12
323.108	384.12
323.337	382.12
323.566	418.12
323.795	421.12
324.024	423.12
324.253	520.12
324.482	646.12
324.71	897.12
324.939	1217.12
325.168	1039.12
325.397	592.12
325.626	474.12
325.855	426.12
326.084	406.12
326.313	448.12
326.542	408.12
326.77	443.12
326.999	495.12
327.228	636.12
327.457	856.12
327.686	962.12
327.914	672.12
328.143	505.12
328.372	465.12
328.6	471.12
328.829	440.12
329.058	458.12
329.287	458.12
329.515	455.12
329.744	424.12
329.972	416.12
330.201	445.12
330.43	474.12
330.658	459.12
330.887	470.12
331.115	480.12
331.344	450.12
331.572	453.12
331.801	445.12
332.03	438.12
332.258	439.12
332.486	451.12
332.715	462.12
332.943	467.12
333.172	471.12
333.4	468.12
333.629	497.12
333.857	506.12
334.085	502.12
334.314	527.12
334.542	513.12
334.771	522.12
334.999	486.12
335.227	476.12
335.455	480.12
335.684	484.12
335.912	470.12
336.14	448.12
336.369	450.12
336.597	464.12
336.825	442.12
337.053	449.12
337.281	451.12
337.51	429.12
337.738	435.12
337.966	439.12
338.194	422.12
338.422	442.12
338.65	430.12
338.878	434.12
339.106	430.12
339.334	428.12
339.562	415.12
339.79	421.12
340.018	406.12
340.246	418.12
340.474	421.12
340.702	429.12
340.93	392.12
341.158	422.12
341.386	418.12
341.614	425.12
341.842	414.12
342.07	420.12
342.298	401.12
342.526	407.12
342.754	392.12
342.981	408.12
343.209	409.12
343.437	438.12
343.665	440.12
343.893	468.12
344.12	466.12
344.348	458.12
344.576	445.12
344.804	434.12
345.031	425.12
345.259	446.12
345.487	422.12
345.714	399.12
345.942	399.12
346.17	394.12
346.397	401.12
346.625	394.12
346.853	406.12
347.08	413.12
347.308	398.12
347.535	407.12
347.763	402.12
347.99	411.12
348.218	415.12
348.445	395.12
348.673	413.12
348.9	405.12
349.128	402.12
349.355	383.12
349.583	405.12
349.81	398.12
350.037	396.12
350.265	388.12
350.492	385.12
350.72	387.12
350.947	402.12
351.174	402.12
351.402	397.12
351.629	402.12
351.856	402.12
352.083	387.12
352.311	388.12
352.538	415.12
352.765	387.12
352.992	376.12
353.22	379.12
353.447	399.12
353.674	412.12
353.901	377.12
354.128	398.12
354.355	383.12
354.583	384.12
354.81	372.12
355.037	376.12
355.264	382.12
355.491	384.12
355.718	363.12
355.945	360.12
356.172	403.12
356.399	391.12
356.626	393.12
356.853	397.12
357.08	379.12
357.307	368.12
357.534	364.12
357.761	395.12
357.988	377.12
358.215	391.12
358.441	368.12
358.668	365.12
358.895	382.12
359.122	385.12
359.349	396.12
359.576	406.12
359.802	413.12
360.029	424.12
360.256	408.12
360.483	403.12
360.709	395.12
360.936	384.12
361.163	407.12
361.39	399.12
361.616	390.12
361.843	402.12
362.07	401.12
362.296	387.12
362.523	395.12
362.749	389.12
362.976	390.12
363.203	389.12
363.429	372.12
363.656	386.12
363.882	388.12
364.109	404.12
364.335	387.12
364.562	382.12
364.788	403.12
365.015	398.12
365.241	407.12
365.468	398.12
365.694	400.12
365.92	395.12
366.147	392.12
366.373	380.12
366.599	398.12
366.826	382.12
367.052	397.12
367.278	389.12
367.505	382.12
367.731	383.12
367.957	373.12
368.184	378.12
368.41	411.12
368.636	401.12
368.862	393.12
369.089	397.12
369.315	388.12
369.541	382.12
369.767	394.12
369.993	387.12
370.219	424.12
370.445	414.12
370.672	381.12
370.898	401.12
371.124	399.12
371.35	410.12
371.576	416.12
371.802	404.12
372.028	412.12
372.254	412.12
372.48	432.12
372.706	429.12
372.932	425.12
373.158	436.12
373.384	408.12
373.61	415.12
373.835	417.12
374.061	406.12
374.287	430.12
374.513	423.12
374.739	412.12
374.965	454.12
375.191	435.12
375.416	450.12
375.642	422.12
375.868	427.12
376.094	421.12
376.319	410.12
376.545	404.12
376.771	420.12
376.997	396.12
377.222	399.12
377.448	414.12
377.674	419.12
377.899	404.12
378.125	406.12
378.35	404.12
378.576	422.12
378.802	420.12
379.027	416.12
379.253	414.12
379.478	394.12
379.704	389.12
379.929	396.12
380.155	414.12
380.38	401.12
380.606	422.12
380.831	423.12
381.057	435.12
381.282	403.12
381.507	404.12
381.733	435.12
381.958	429.12
382.184	413.12
382.409	419.12
382.634	408.12
382.86	417.12
383.085	436.12
383.31	436.12
383.535	433.12
383.761	429.12
383.986	427.12
384.211	432.12
384.436	449.12
384.662	446.12
384.887	469.12
385.112	466.12
385.337	479.12
385.562	465.12
385.787	480.12
386.013	466.12
386.238	471.12
386.463	478.12
386.688	466.12
386.913	462.12
387.138	448.12
387.363	471.12
387.588	451.12
387.813	453.12
388.038	488.12
388.263	471.12
388.488	459.12
388.713	470.12
388.938	462.12
389.163	475.12
389.387	454.12
389.612	451.12
389.837	457.12
390.062	441.12
390.287	458.12
390.512	469.12
390.736	460.12
390.961	484.12
391.186	466.12
391.411	476.12
391.636	515.12
391.86	509.12
392.085	517.12
392.31	505.12
392.534	501.12
392.759	500.12
392.984	496.12
393.208	485.12
393.433	500.12
393.658	503.12
393.882	476.12
394.107	466.12
394.331	474.12
394.556	487.12
394.78	502.12
395.005	484.12
395.229	459.12
395.454	497.12
395.678	515.12
395.903	522.12
396.127	520.12
396.352	514.12
396.576	492.12
396.801	510.12
397.025	517.12
397.249	519.12
397.474	525.12
397.698	529.12
397.922	524.12
398.147	514.12
398.371	506.12
398.595	545.12
398.82	544.12
399.044	572.12
399.268	627.12
399.492	691.12
399.717	744.12
399.941	750.12
400.165	691.12
400.389	663.12
400.613	598.12
400.837	580.12
401.062	556.12
401.286	559.12
401.51	566.12
401.734	546.12
401.958	545.12
402.182	560.12
402.406	558.12
402.63	571.12
402.854	573.12
403.078	586.12
403.302	612.12
403.526	601.12
403.75	605.12
403.974	621.12
404.198	613.12
404.422	599.12
404.645	601.12
404.869	618.12
405.093	638.12
405.317	642.12
405.541	648.12
405.765	613.12
405.988	590.12
406.212	592.12
406.436	636.12
406.66	623.12
406.883	618.12
407.107	648.12
407.331	670.12
407.555	700.12
407.778	702.12
408.002	664.12
408.226	631.12
408.449	652.12
408.673	614.12
408.896	631.12
409.12	668.12
409.344	613.12
409.567	595.12
409.791	630.12
410.014	613.12
410.238	608.12
410.461	598.12
410.685	576.12
410.908	589.12
411.132	589.12
411.355	596.12
411.578	622.12
411.802	573.12
412.025	556.12
412.249	569.12
412.472	582.12
412.695	595.12
412.919	585.12
413.142	555.12
413.365	557.12
413.589	588.12
413.812	558.12
414.035	530.12
414.258	513.12
414.482	544.12
414.705	544.12
414.928	541.12
415.151	561.12
415.374	546.12
415.597	562.12
415.821	527.12
416.044	536.12
416.267	557.12
416.49	538.12
416.713	547.12
416.936	551.12
417.159	530.12
417.382	537.12
417.605	527.12
417.828	530.12
418.051	560.12
418.274	554.12
418.497	563.12
418.72	559.12
418.943	558.12
419.166	580.12
419.389	606.12
419.611	609.12
419.834	557.12
420.057	557.12
420.28	562.12
420.503	554.12
420.726	525.12
420.948	559.12
421.171	572.12
421.394	590.12
421.617	535.12
421.839	546.12
422.062	558.12
422.285	555.12
422.507	602.12
422.73	630.12
422.953	623.12
423.175	583.12
423.398	586.12
423.621	556.12
423.843	581.12
424.066	613.12
424.288	586.12
424.511	598.12
424.733	633.12
424.956	645.12
425.178	623.12
425.401	614.12
425.623	651.12
425.846	600.12
426.068	566.12
426.291	550.12
426.513	519.12
426.735	560.12
426.958	565.12
427.18	591.12
427.402	648.12
427.625	719.12
427.847	634.12
428.069	568.12
428.292	571.12
428.514	524.12
428.736	512.12
428.958	504.12
429.181	508.12
429.403	503.12
429.625	510.12
429.847	530.12
430.069	544.12
430.292	543.12
430.514	505.12
430.736	507.12
430.958	499.12
431.18	505.12
431.402	528.12
431.624	490.12
431.846	494.12
432.068	478.12
432.29	506.12
432.512	514.12
432.734	520.12
432.956	503.12
433.178	501.12
433.4	524.12
433.622	484.12
433.844	493.12
434.066	503.12
434.287	512.12
434.509	493.12
434.731	506.12
434.953	518.12
435.175	532.12
435.397	524.12
435.618	537.12
435.84	557.12
436.062	588.12
436.284	614.12
436.505	562.12
436.727	515.12
436.949	515.12
437.17	509.12
437.392	503.12
437.614	517.12
437.835	492.12
438.057	561.12
438.278	611.12
438.5	619.12
438.721	663.12
438.943	642.12
439.165	564.12
439.386	528.12
439.608	526.12
439.829	542.12
440.05	544.12
440.272	556.12
440.493	555.12
440.715	534.12
440.936	516.12
441.158	533.12
441.379	549.12
441.6	563.12
441.822	557.12
442.043	564.12
442.264	628.12
442.486	635.12
442.707	578.12
442.928	551.12
443.149	540.12
443.371	557.12
443.592	603.12
443.813	662.12
444.034	675.12
444.255	626.12
444.476	599.12
444.698	614.12
444.919	613.12
445.14	730.12
445.361	643.12
445.582	583.12
445.803	586.12
446.024	652.12
446.245	614.12
446.466	587.12
446.687	550.12
446.908	530.12
447.129	496.12
447.35	479.12
447.571	496.12
447.792	466.12
448.013	478.12
448.234	486.12
448.455	522.12
448.675	539.12
448.896	615.12
449.117	543.12
449.338	538.12
449.559	584.12
449.779	651.12
450	575.12
450.221	505.12
450.442	477.12
450.662	447.12
450.883	469.12
451.104	470.12
451.324	449.12
451.545	451.12
451.766	464.12
451.986	462.12
452.207	439.12
452.428	451.12
452.648	455.12
452.869	445.12
453.089	433.12
453.31	457.12
453.53	446.12
453.751	450.12
453.971	429.12
454.192	464.12
454.412	425.12
454.633	439.12
454.853	448.12
455.073	434.12
455.294	450.12
455.514	488.12
455.734	465.12
455.955	421.12
456.175	431.12
456.395	420.12
456.616	412.12
456.836	405.12
457.056	430.12
457.276	394.12
457.497	430.12
457.717	424.12
457.937	435.12
458.157	419.12
458.377	418.12
458.598	427.12
458.818	491.12
459.038	535.12
459.258	536.12
459.478	525.12
459.698	518.12
459.918	488.12
460.138	529.12
460.358	532.12
460.578	539.12
460.798	529.12
461.018	538.12
461.238	535.12
461.458	524.12
461.678	515.12
461.898	553.12
462.118	543.12
462.338	561.12
462.558	573.12
462.777	597.12
462.997	611.12
463.217	659.12
463.437	659.12
463.657	611.12
463.876	601.12
464.096	583.12
464.316	595.12
464.536	588.12
464.755	581.12
464.975	583.12
465.195	579.12
465.414	595.12
465.634	547.12
465.854	505.12
466.073	489.12
466.293	479.12
466.512	462.12
466.732	444.12
466.951	453.12
467.171	471.12
467.391	447.12
467.61	468.12
467.829	459.12
468.049	479.12
468.268	471.12
468.488	443.12
468.707	428.12
468.927	459.12
469.146	434.12
469.365	453.12
469.585	434.12
469.804	460.12
470.023	471.12
470.243	487.12
470.462	495.12
470.681	507.12
470.901	482.12
471.12	488.12
471.339	479.12
471.558	480.12
471.777	459.12
471.997	462.12
472.216	458.12
472.435	498.12
472.654	462.12
472.873	437.12
473.092	445.12
473.311	446.12
473.53	447.12
473.749	447.12
473.968	480.12
474.187	522.12
474.406	533.12
474.625	484.12
474.844	466.12
475.063	446.12
475.282	443.12
475.501	443.12
475.72	459.12
475.939	461.12
476.158	461.12
476.377	451.12
476.596	467.12
476.814	485.12
477.033	463.12
477.252	461.12
477.471	467.12
477.69	498.12
477.908	518.12
478.127	511.12
478.346	536.12
478.564	521.12
478.783	547.12
479.002	534.12
479.22	516.12
479.439	547.12
479.658	546.12
479.876	545.12
480.095	567.12
480.313	589.12
480.532	591.12
480.751	594.12
480.969	567.12
481.188	606.12
481.406	620.12
481.624	546.12
481.843	542.12
482.061	526.12
482.28	525.12
482.498	524.12
482.717	509.12
482.935	495.12
483.153	527.12
483.372	508.12
483.59	506.12
483.808	518.12
484.027	534.12
484.245	517.12
484.463	526.12
484.681	547.12
484.9	546.12
485.118	529.12
485.336	533.12
485.554	538.12
485.772	548.12
485.99	529.12
486.209	541.12
486.427	526.12
486.645	539.12
486.863	550.12
487.081	586.12
487.299	554.12
487.517	545.12
487.735	554.12
487.953	558.12
488.171	544.12
488.389	533.12
488.607	553.12
488.825	562.12
489.043	549.12
489.261	545.12
489.479	571.12
489.696	554.12
489.914	569.12
490.132	544.12
490.35	579.12
490.568	573.12
490.786	589.12
491.003	583.12
491.221	591.12
491.439	590.12
491.657	588.12
491.874	610.12
492.092	633.12
492.31	596.12
492.527	614.12
492.745	638.12
492.963	624.12
493.18	614.12
493.398	616.12
493.615	646.12
493.833	620.12
494.05	628.12
494.268	653.12
494.485	631.12
494.703	626.12
494.92	636.12
495.138	652.12
495.355	616.12
495.573	643.12
495.79	623.12
496.008	642.12
496.225	656.12
496.442	622.12
496.66	654.12
496.877	658.12
497.094	645.12
497.312	668.12
497.529	681.12
497.746	684.12
497.963	684.12
498.181	732.12
498.398	719.12
498.615	742.12
498.832	786.12
499.049	820.12
499.267	859.12
499.484	922.12
499.701	972.12
499.918	1038.12
500.135	1148.12
500.352	1219.12
500.569	1278.12
500.786	1282.12
501.003	1190.12
501.22	1120.12
501.437	1058.12
501.654	951.12
501.871	896.12
