Data from 1960PennyLincolnUp.LampE6.200Scan.07172019.P1_HRD10591_13-05-44-002.txt Node
Date: Thu Jul 18 13:05:44 EDT 2019
User: cochatt
Spectrometer: HR+D1059
Trigger mode: 1
Integration Time (sec): 1.000000E-1
Scans to average: 1
Electric dark correction enabled: true
Nonlinearity correction enabled: false
Boxcar width: 0
XAxis mode: Wavelengths
Number of Pixels in Spectrum: 2048
>>>>>Begin Spectral Data<<<<<
223.165	-10.38
223.4	-10.38
223.635	-10.38
223.869	-6.38
224.104	-21.38
224.338	-27.38
224.573	0.62
224.808	-13.38
225.042	-6.38
225.277	-7.38
225.511	-11.38
225.746	-1.38
225.98	6.62
226.215	1.62
226.449	15.62
226.683	22.62
226.918	25.62
227.152	32.62
227.387	36.62
227.621	49.62
227.856	37.62
228.09	55.62
228.324	26.62
228.559	49.62
228.793	59.62
229.027	88.62
229.262	68.62
229.496	94.62
229.73	109.62
229.964	118.62
230.199	104.62
230.433	92.62
230.667	102.62
230.901	104.62
231.136	99.62
231.37	100.62
231.604	108.62
231.838	97.62
232.072	101.62
232.306	96.62
232.541	116.62
232.775	108.62
233.009	104.62
233.243	102.62
233.477	98.62
233.711	104.62
233.945	99.62
234.179	114.62
234.413	102.62
234.647	115.62
234.881	94.62
235.115	101.62
235.349	106.62
235.583	112.62
235.817	108.62
236.051	107.62
236.285	95.62
236.519	112.62
236.753	105.62
236.987	133.62
237.221	139.62
237.455	182.62
237.689	149.62
237.922	109.62
238.156	126.62
238.39	118.62
238.624	108.62
238.858	120.62
239.091	111.62
239.325	119.62
239.559	125.62
239.793	114.62
240.027	127.62
240.26	116.62
240.494	151.62
240.728	124.62
240.961	132.62
241.195	117.62
241.429	119.62
241.662	116.62
241.896	120.62
242.13	118.62
242.363	122.62
242.597	137.62
242.83	120.62
243.064	122.62
243.298	130.62
243.531	119.62
243.765	126.62
243.998	127.62
244.232	129.62
244.465	130.62
244.699	132.62
244.932	142.62
245.166	137.62
245.399	136.62
245.633	144.62
245.866	127.62
246.099	137.62
246.333	142.62
246.566	152.62
246.8	144.62
247.033	144.62
247.266	161.62
247.5	152.62
247.733	160.62
247.966	159.62
248.2	168.62
248.433	154.62
248.666	149.62
248.899	154.62
249.133	182.62
249.366	169.62
249.599	175.62
249.832	134.62
250.066	164.62
250.299	155.62
250.532	168.62
250.765	179.62
250.998	200.62
251.231	196.62
251.465	189.62
251.698	177.62
251.931	177.62
252.164	181.62
252.397	188.62
252.63	162.62
252.863	177.62
253.096	190.62
253.329	180.62
253.562	192.62
253.795	186.62
254.028	173.62
254.261	189.62
254.494	197.62
254.727	211.62
254.96	221.62
255.193	213.62
255.426	192.62
255.659	205.62
255.892	200.62
256.124	207.62
256.357	188.62
256.59	188.62
256.823	196.62
257.056	197.62
257.289	198.62
257.521	186.62
257.754	200.62
257.987	192.62
258.22	179.62
258.452	188.62
258.685	191.62
258.918	179.62
259.151	180.62
259.383	183.62
259.616	196.62
259.849	203.62
260.081	195.62
260.314	228.62
260.547	223.62
260.779	221.62
261.012	208.62
261.244	201.62
261.477	198.62
261.71	202.62
261.942	209.62
262.175	189.62
262.407	207.62
262.64	189.62
262.872	189.62
263.105	193.62
263.337	195.62
263.57	191.62
263.802	204.62
264.035	191.62
264.267	206.62
264.499	175.62
264.732	200.62
264.964	193.62
265.197	191.62
265.429	209.62
265.661	197.62
265.894	195.62
266.126	189.62
266.358	207.62
266.591	200.62
266.823	218.62
267.055	226.62
267.287	205.62
267.52	219.62
267.752	207.62
267.984	215.62
268.216	219.62
268.448	209.62
268.681	216.62
268.913	232.62
269.145	244.62
269.377	240.62
269.609	262.62
269.841	246.62
270.073	233.62
270.306	260.62
270.538	256.62
270.77	245.62
271.002	258.62
271.234	262.62
271.466	256.62
271.698	240.62
271.93	278.62
272.162	278.62
272.394	278.62
272.626	252.62
272.858	236.62
273.09	254.62
273.322	239.62
273.553	239.62
273.785	248.62
274.017	240.62
274.249	244.62
274.481	237.62
274.713	252.62
274.945	227.62
275.176	243.62
275.408	237.62
275.64	256.62
275.872	248.62
276.104	251.62
276.335	255.62
276.567	258.62
276.799	246.62
277.031	289.62
277.262	283.62
277.494	293.62
277.726	266.62
277.957	266.62
278.189	269.62
278.421	260.62
278.652	255.62
278.884	256.62
279.115	255.62
279.347	244.62
279.579	234.62
279.81	258.62
280.042	253.62
280.273	262.62
280.505	271.62
280.736	272.62
280.968	262.62
281.199	275.62
281.431	264.62
281.662	264.62
281.894	260.62
282.125	260.62
282.356	291.62
282.588	294.62
282.819	275.62
283.051	282.62
283.282	272.62
283.513	263.62
283.745	274.62
283.976	272.62
284.207	276.62
284.439	272.62
284.67	281.62
284.901	288.62
285.132	277.62
285.364	274.62
285.595	283.62
285.826	280.62
286.057	288.62
286.288	268.62
286.52	283.62
286.751	282.62
286.982	293.62
287.213	293.62
287.444	297.62
287.675	296.62
287.906	300.62
288.138	297.62
288.369	291.62
288.6	287.62
288.831	307.62
289.062	294.62
289.293	305.62
289.524	326.62
289.755	290.62
289.986	290.62
290.217	291.62
290.448	289.62
290.679	288.62
290.91	307.62
291.141	294.62
291.371	286.62
291.602	293.62
291.833	304.62
292.064	287.62
292.295	305.62
292.526	294.62
292.757	309.62
292.987	300.62
293.218	299.62
293.449	301.62
293.68	305.62
293.91	299.62
294.141	303.62
294.372	306.62
294.603	293.62
294.833	309.62
295.064	302.62
295.295	303.62
295.525	309.62
295.756	314.62
295.987	308.62
296.217	332.62
296.448	307.62
296.679	291.62
296.909	325.62
297.14	324.62
297.37	319.62
297.601	316.62
297.831	306.62
298.062	308.62
298.292	301.62
298.523	320.62
298.753	311.62
298.984	331.62
299.214	319.62
299.445	313.62
299.675	308.62
299.905	330.62
300.136	325.62
300.366	319.62
300.597	315.62
300.827	341.62
301.057	347.62
301.288	352.62
301.518	352.62
301.748	332.62
301.979	334.62
302.209	353.62
302.439	346.62
302.669	351.62
302.9	349.62
303.13	320.62
303.36	335.62
303.59	337.62
303.82	354.62
304.051	340.62
304.281	339.62
304.511	332.62
304.741	353.62
304.971	337.62
305.201	328.62
305.431	332.62
305.661	332.62
305.891	330.62
306.121	345.62
306.352	332.62
306.582	331.62
306.812	348.62
307.042	346.62
307.272	323.62
307.502	324.62
307.731	353.62
307.961	340.62
308.191	315.62
308.421	325.62
308.651	336.62
308.881	354.62
309.111	343.62
309.341	337.62
309.571	344.62
309.8	346.62
310.03	367.62
310.26	333.62
310.49	342.62
310.72	370.62
310.949	378.62
311.179	366.62
311.409	358.62
311.639	369.62
311.868	366.62
312.098	383.62
312.328	382.62
312.557	393.62
312.787	384.62
313.017	378.62
313.246	387.62
313.476	376.62
313.706	369.62
313.935	364.62
314.165	381.62
314.394	364.62
314.624	362.62
314.853	378.62
315.083	372.62
315.312	362.62
315.542	353.62
315.771	365.62
316.001	360.62
316.23	354.62
316.46	361.62
316.689	386.62
316.919	376.62
317.148	362.62
317.377	381.62
317.607	378.62
317.836	365.62
318.065	378.62
318.295	358.62
318.524	369.62
318.753	379.62
318.983	386.62
319.212	386.62
319.441	375.62
319.67	367.62
319.9	378.62
320.129	377.62
320.358	368.62
320.587	381.62
320.816	369.62
321.046	368.62
321.275	379.62
321.504	370.62
321.733	377.62
321.962	391.62
322.191	395.62
322.42	416.62
322.649	393.62
322.878	390.62
323.108	421.62
323.337	411.62
323.566	437.62
323.795	433.62
324.024	458.62
324.253	522.62
324.482	670.62
324.71	982.62
324.939	1349.62
325.168	1092.62
325.397	610.62
325.626	480.62
325.855	439.62
326.084	433.62
326.313	431.62
326.542	444.62
326.77	471.62
326.999	547.62
327.228	653.62
327.457	885.62
327.686	1019.62
327.914	715.62
328.143	526.62
328.372	492.62
328.6	470.62
328.829	453.62
329.058	457.62
329.287	483.62
329.515	491.62
329.744	463.62
329.972	483.62
330.201	473.62
330.43	481.62
330.658	513.62
330.887	512.62
331.115	515.62
331.344	476.62
331.572	473.62
331.801	453.62
332.03	479.62
332.258	458.62
332.486	460.62
332.715	467.62
332.943	458.62
333.172	447.62
333.4	497.62
333.629	494.62
333.857	519.62
334.085	508.62
334.314	530.62
334.542	544.62
334.771	547.62
334.999	509.62
335.227	482.62
335.455	492.62
335.684	467.62
335.912	488.62
336.14	473.62
336.369	475.62
336.597	489.62
336.825	486.62
337.053	469.62
337.281	454.62
337.51	463.62
337.738	455.62
337.966	444.62
338.194	446.62
338.422	457.62
338.65	435.62
338.878	430.62
339.106	431.62
339.334	440.62
339.562	442.62
339.79	422.62
340.018	416.62
340.246	409.62
340.474	423.62
340.702	441.62
340.93	422.62
341.158	436.62
341.386	446.62
341.614	431.62
341.842	414.62
342.07	417.62
342.298	416.62
342.526	418.62
342.754	436.62
342.981	423.62
343.209	437.62
343.437	434.62
343.665	459.62
343.893	464.62
344.12	472.62
344.348	476.62
344.576	441.62
344.804	436.62
345.031	412.62
345.259	437.62
345.487	404.62
345.714	423.62
345.942	400.62
346.17	406.62
346.397	414.62
346.625	422.62
346.853	429.62
347.08	404.62
347.308	432.62
347.535	416.62
347.763	419.62
347.99	411.62
348.218	410.62
348.445	411.62
348.673	434.62
348.9	408.62
349.128	423.62
349.355	380.62
349.583	391.62
349.81	402.62
350.037	406.62
350.265	399.62
350.492	408.62
350.72	395.62
350.947	396.62
351.174	403.62
351.402	398.62
351.629	408.62
351.856	412.62
352.083	419.62
352.311	417.62
352.538	399.62
352.765	406.62
352.992	395.62
353.22	410.62
353.447	392.62
353.674	377.62
353.901	400.62
354.128	377.62
354.355	392.62
354.583	393.62
354.81	399.62
355.037	410.62
355.264	381.62
355.491	401.62
355.718	399.62
355.945	383.62
356.172	391.62
356.399	395.62
356.626	392.62
356.853	379.62
357.08	381.62
357.307	407.62
357.534	404.62
357.761	376.62
357.988	390.62
358.215	385.62
358.441	408.62
358.668	395.62
358.895	400.62
359.122	402.62
359.349	405.62
359.576	423.62
359.802	411.62
360.029	426.62
360.256	448.62
360.483	430.62
360.709	414.62
360.936	413.62
361.163	423.62
361.39	414.62
361.616	409.62
361.843	419.62
362.07	384.62
362.296	420.62
362.523	396.62
362.749	414.62
362.976	396.62
363.203	400.62
363.429	379.62
363.656	405.62
363.882	407.62
364.109	412.62
364.335	380.62
364.562	392.62
364.788	374.62
365.015	398.62
365.241	393.62
365.468	409.62
365.694	401.62
365.92	405.62
366.147	409.62
366.373	404.62
366.599	400.62
366.826	392.62
367.052	393.62
367.278	399.62
367.505	400.62
367.731	416.62
367.957	395.62
368.184	413.62
368.41	416.62
368.636	408.62
368.862	423.62
369.089	398.62
369.315	395.62
369.541	389.62
369.767	399.62
369.993	383.62
370.219	404.62
370.445	420.62
370.672	407.62
370.898	400.62
371.124	412.62
371.35	422.62
371.576	423.62
371.802	422.62
372.028	417.62
372.254	440.62
372.48	426.62
372.706	417.62
372.932	446.62
373.158	441.62
373.384	428.62
373.61	418.62
373.835	432.62
374.061	418.62
374.287	424.62
374.513	425.62
374.739	438.62
374.965	460.62
375.191	445.62
375.416	423.62
375.642	451.62
375.868	422.62
376.094	405.62
376.319	393.62
376.545	426.62
376.771	426.62
376.997	413.62
377.222	401.62
377.448	408.62
377.674	426.62
377.899	412.62
378.125	408.62
378.35	422.62
378.576	398.62
378.802	419.62
379.027	396.62
379.253	411.62
379.478	403.62
379.704	395.62
379.929	421.62
380.155	393.62
380.38	416.62
380.606	432.62
380.831	410.62
381.057	416.62
381.282	406.62
381.507	406.62
381.733	428.62
381.958	432.62
382.184	424.62
382.409	439.62
382.634	446.62
382.86	434.62
383.085	425.62
383.31	422.62
383.535	430.62
383.761	438.62
383.986	413.62
384.211	449.62
384.436	461.62
384.662	469.62
384.887	474.62
385.112	476.62
385.337	492.62
385.562	472.62
385.787	489.62
386.013	492.62
386.238	514.62
386.463	488.62
386.688	479.62
386.913	465.62
387.138	474.62
387.363	456.62
387.588	473.62
387.813	454.62
388.038	466.62
388.263	479.62
388.488	473.62
388.713	469.62
388.938	457.62
389.163	473.62
389.387	499.62
389.612	461.62
389.837	482.62
390.062	457.62
390.287	446.62
390.512	451.62
390.736	451.62
390.961	489.62
391.186	478.62
391.411	496.62
391.636	491.62
391.86	516.62
392.085	498.62
392.31	486.62
392.534	496.62
392.759	527.62
392.984	497.62
393.208	499.62
393.433	499.62
393.658	481.62
393.882	493.62
394.107	490.62
394.331	491.62
394.556	484.62
394.78	492.62
395.005	492.62
395.229	469.62
395.454	507.62
395.678	506.62
395.903	511.62
396.127	519.62
396.352	527.62
396.576	532.62
396.801	526.62
397.025	522.62
397.249	477.62
397.474	514.62
397.698	523.62
397.922	527.62
398.147	542.62
398.371	548.62
398.595	558.62
398.82	577.62
399.044	592.62
399.268	634.62
399.492	693.62
399.717	773.62
399.941	766.62
400.165	755.62
400.389	690.62
400.613	634.62
400.837	584.62
401.062	572.62
401.286	558.62
401.51	559.62
401.734	546.62
401.958	557.62
402.182	581.62
402.406	584.62
402.63	574.62
402.854	620.62
403.078	601.62
403.302	588.62
403.526	649.62
403.75	610.62
403.974	606.62
404.198	617.62
404.422	634.62
404.645	619.62
404.869	619.62
405.093	613.62
405.317	641.62
405.541	666.62
405.765	656.62
405.988	611.62
406.212	623.62
406.436	643.62
406.66	668.62
406.883	636.62
407.107	672.62
407.331	703.62
407.555	773.62
407.778	733.62
408.002	703.62
408.226	657.62
408.449	661.62
408.673	651.62
408.896	637.62
409.12	651.62
409.344	622.62
409.567	612.62
409.791	602.62
410.014	587.62
410.238	577.62
410.461	578.62
410.685	584.62
410.908	611.62
411.132	630.62
411.355	608.62
411.578	622.62
411.802	581.62
412.025	583.62
412.249	586.62
412.472	609.62
412.695	644.62
412.919	597.62
413.142	575.62
413.365	563.62
413.589	581.62
413.812	547.62
414.035	550.62
414.258	527.62
414.482	544.62
414.705	570.62
414.928	571.62
415.151	580.62
415.374	544.62
415.597	525.62
415.821	564.62
416.044	533.62
416.267	554.62
416.49	536.62
416.713	530.62
416.936	553.62
417.159	536.62
417.382	550.62
417.605	540.62
417.828	541.62
418.051	555.62
418.274	561.62
418.497	565.62
418.72	538.62
418.943	528.62
419.166	583.62
419.389	590.62
419.611	614.62
419.834	590.62
420.057	590.62
420.28	572.62
420.503	571.62
420.726	564.62
420.948	570.62
421.171	605.62
421.394	617.62
421.617	570.62
421.839	571.62
422.062	545.62
422.285	562.62
422.507	631.62
422.73	647.62
422.953	651.62
423.175	604.62
423.398	584.62
423.621	563.62
423.843	612.62
424.066	602.62
424.288	589.62
424.511	600.62
424.733	649.62
424.956	670.62
425.178	664.62
425.401	665.62
425.623	654.62
425.846	608.62
426.068	575.62
426.291	564.62
426.513	538.62
426.735	579.62
426.958	598.62
427.18	644.62
427.402	703.62
427.625	762.62
427.847	670.62
428.069	605.62
428.292	567.62
428.514	537.62
428.736	523.62
428.958	535.62
429.181	508.62
429.403	500.62
429.625	529.62
429.847	539.62
430.069	548.62
430.292	588.62
430.514	521.62
430.736	521.62
430.958	502.62
431.18	503.62
431.402	500.62
431.624	512.62
431.846	486.62
432.068	511.62
432.29	507.62
432.512	520.62
432.734	523.62
432.956	511.62
433.178	539.62
433.4	498.62
433.622	515.62
433.844	500.62
434.066	491.62
434.287	507.62
434.509	519.62
434.731	549.62
434.953	528.62
435.175	560.62
435.397	584.62
435.618	533.62
435.84	552.62
436.062	628.62
436.284	668.62
436.505	572.62
436.727	547.62
436.949	503.62
437.17	492.62
437.392	516.62
437.614	514.62
437.835	515.62
438.057	560.62
438.278	652.62
438.5	640.62
438.721	694.62
438.943	701.62
439.165	564.62
439.386	549.62
439.608	545.62
439.829	526.62
440.05	560.62
440.272	581.62
440.493	554.62
440.715	545.62
440.936	532.62
441.158	517.62
441.379	527.62
441.6	574.62
441.822	579.62
442.043	589.62
442.264	620.62
442.486	666.62
442.707	596.62
442.928	574.62
443.149	587.62
443.371	562.62
443.592	634.62
443.813	666.62
444.034	720.62
444.255	640.62
444.476	618.62
444.698	624.62
444.919	609.62
445.14	733.62
445.361	635.62
445.582	615.62
445.803	610.62
446.024	687.62
446.245	680.62
446.466	619.62
446.687	556.62
446.908	526.62
447.129	518.62
447.35	492.62
447.571	499.62
447.792	500.62
448.013	476.62
448.234	505.62
448.455	543.62
448.675	597.62
448.896	670.62
449.117	581.62
449.338	584.62
449.559	660.62
449.779	670.62
450	573.62
450.221	514.62
450.442	488.62
450.662	460.62
450.883	521.62
451.104	494.62
451.324	476.62
451.545	467.62
451.766	465.62
451.986	465.62
452.207	465.62
452.428	468.62
452.648	456.62
452.869	461.62
453.089	466.62
453.31	481.62
453.53	466.62
453.751	450.62
453.971	440.62
454.192	453.62
454.412	462.62
454.633	465.62
454.853	443.62
455.073	432.62
455.294	463.62
455.514	493.62
455.734	472.62
455.955	423.62
456.175	418.62
456.395	420.62
456.616	432.62
456.836	419.62
457.056	423.62
457.276	431.62
457.497	430.62
457.717	440.62
457.937	432.62
458.157	425.62
458.377	446.62
458.598	451.62
458.818	493.62
459.038	561.62
459.258	570.62
459.478	500.62
459.698	498.62
459.918	523.62
460.138	539.62
460.358	565.62
460.578	544.62
460.798	523.62
461.018	541.62
461.238	542.62
461.458	520.62
461.678	506.62
461.898	540.62
462.118	542.62
462.338	561.62
462.558	566.62
462.777	595.62
462.997	616.62
463.217	668.62
463.437	658.62
463.657	609.62
463.876	613.62
464.096	626.62
464.316	574.62
464.536	592.62
464.755	589.62
464.975	559.62
465.195	588.62
465.414	578.62
465.634	553.62
465.854	526.62
466.073	514.62
466.293	499.62
466.512	466.62
466.732	474.62
466.951	468.62
467.171	472.62
467.391	489.62
467.61	467.62
467.829	480.62
468.049	496.62
468.268	488.62
468.488	491.62
468.707	487.62
468.927	454.62
469.146	463.62
469.365	474.62
469.585	448.62
469.804	457.62
470.023	493.62
470.243	487.62
470.462	479.62
470.681	502.62
470.901	507.62
471.12	475.62
471.339	476.62
471.558	489.62
471.777	490.62
471.997	451.62
472.216	470.62
472.435	486.62
472.654	493.62
472.873	477.62
473.092	454.62
473.311	449.62
473.53	467.62
473.749	458.62
473.968	468.62
474.187	516.62
474.406	549.62
474.625	494.62
474.844	458.62
475.063	471.62
475.282	458.62
475.501	459.62
475.72	469.62
475.939	464.62
476.158	471.62
476.377	478.62
476.596	466.62
476.814	501.62
477.033	492.62
477.252	493.62
477.471	475.62
477.69	501.62
477.908	510.62
478.127	510.62
478.346	539.62
478.564	548.62
478.783	563.62
479.002	547.62
479.22	550.62
479.439	567.62
479.658	553.62
479.876	569.62
480.095	584.62
480.313	617.62
480.532	605.62
480.751	590.62
480.969	578.62
481.188	605.62
481.406	634.62
481.624	589.62
481.843	541.62
482.061	510.62
482.28	527.62
482.498	554.62
482.717	539.62
482.935	541.62
483.153	553.62
483.372	533.62
483.59	527.62
483.808	546.62
484.027	542.62
484.245	547.62
484.463	525.62
484.681	547.62
484.9	565.62
485.118	563.62
485.336	538.62
485.554	539.62
485.772	562.62
485.99	542.62
486.209	573.62
486.427	567.62
486.645	552.62
486.863	560.62
487.081	577.62
487.299	577.62
487.517	565.62
487.735	572.62
487.953	591.62
488.171	589.62
488.389	569.62
488.607	593.62
488.825	549.62
489.043	577.62
489.261	566.62
489.479	580.62
489.696	581.62
489.914	580.62
490.132	578.62
490.35	576.62
490.568	604.62
490.786	596.62
491.003	590.62
491.221	613.62
491.439	612.62
491.657	633.62
491.874	645.62
492.092	630.62
492.31	636.62
492.527	651.62
492.745	637.62
492.963	637.62
493.18	645.62
493.398	654.62
493.615	649.62
493.833	654.62
494.05	659.62
494.268	659.62
494.485	649.62
494.703	645.62
494.92	659.62
495.138	642.62
495.355	635.62
495.573	661.62
495.79	646.62
496.008	637.62
496.225	635.62
496.442	642.62
496.66	651.62
496.877	661.62
497.094	674.62
497.312	652.62
497.529	679.62
497.746	737.62
497.963	702.62
498.181	717.62
498.398	725.62
498.615	758.62
498.832	814.62
499.049	843.62
499.267	887.62
499.484	910.62
499.701	1004.62
499.918	1066.62
500.135	1140.62
500.352	1250.62
500.569	1297.62
500.786	1261.62
501.003	1246.62
501.22	1155.62
501.437	1067.62
501.654	1018.62
501.871	940.62
502.088	888.62
