Data from 1960PennyLincolnUp.LampE5.5.200Scan.07172019.P1.ChangedAngle_HRD10591_13-14-08-821.txt Node
Date: Thu Jul 18 13:14:08 EDT 2019
User: cochatt
Spectrometer: HR+D1059
Trigger mode: 1
Integration Time (sec): 1.000000E-1
Scans to average: 1
Electric dark correction enabled: true
Nonlinearity correction enabled: false
Boxcar width: 0
XAxis mode: Wavelengths
Number of Pixels in Spectrum: 2048
>>>>>Begin Spectral Data<<<<<
223.165	-4.69
223.4	-4.69
223.635	-4.69
223.869	-13.69
224.104	-13.69
224.338	-13.69
224.573	-18.69
224.808	-4.69
225.042	-1.69
225.277	-6.69
225.511	-6.69
225.746	-3.69
225.98	11.31
226.215	11.31
226.449	5.31
226.683	14.31
226.918	13.31
227.152	32.31
227.387	27.31
227.621	17.31
227.856	39.31
228.09	40.31
228.324	47.31
228.559	55.31
228.793	60.31
229.027	91.31
229.262	91.31
229.496	97.31
229.73	105.31
229.964	123.31
230.199	101.31
230.433	95.31
230.667	100.31
230.901	94.31
231.136	103.31
231.37	108.31
231.604	97.31
231.838	101.31
232.072	101.31
232.306	107.31
232.541	115.31
232.775	93.31
233.009	91.31
233.243	100.31
233.477	109.31
233.711	82.31
233.945	110.31
234.179	123.31
234.413	104.31
234.647	105.31
234.881	110.31
235.115	112.31
235.349	121.31
235.583	108.31
235.817	99.31
236.051	109.31
236.285	114.31
236.519	109.31
236.753	125.31
236.987	125.31
237.221	149.31
237.455	160.31
237.689	152.31
237.922	133.31
238.156	105.31
238.39	88.31
238.624	118.31
238.858	124.31
239.091	117.31
239.325	123.31
239.559	118.31
239.793	125.31
240.027	114.31
240.26	113.31
240.494	112.31
240.728	125.31
240.961	144.31
241.195	124.31
241.429	106.31
241.662	113.31
241.896	134.31
242.13	115.31
242.363	108.31
242.597	122.31
242.83	122.31
243.064	134.31
243.298	126.31
243.531	124.31
243.765	140.31
243.998	126.31
244.232	127.31
244.465	152.31
244.699	137.31
244.932	143.31
245.166	106.31
245.399	125.31
245.633	136.31
245.866	140.31
246.099	142.31
246.333	142.31
246.566	124.31
246.8	135.31
247.033	143.31
247.266	147.31
247.5	147.31
247.733	142.31
247.966	143.31
248.2	159.31
248.433	155.31
248.666	163.31
248.899	160.31
249.133	161.31
249.366	164.31
249.599	163.31
249.832	171.31
250.066	160.31
250.299	163.31
250.532	163.31
250.765	156.31
250.998	186.31
251.231	184.31
251.465	175.31
251.698	177.31
251.931	167.31
252.164	178.31
252.397	165.31
252.63	163.31
252.863	175.31
253.096	184.31
253.329	186.31
253.562	193.31
253.795	177.31
254.028	185.31
254.261	175.31
254.494	175.31
254.727	184.31
254.96	205.31
255.193	186.31
255.426	206.31
255.659	188.31
255.892	189.31
256.124	190.31
256.357	188.31
256.59	180.31
256.823	178.31
257.056	187.31
257.289	196.31
257.521	173.31
257.754	189.31
257.987	176.31
258.22	183.31
258.452	164.31
258.685	178.31
258.918	171.31
259.151	182.31
259.383	199.31
259.616	187.31
259.849	201.31
260.081	195.31
260.314	199.31
260.547	206.31
260.779	187.31
261.012	192.31
261.244	209.31
261.477	191.31
261.71	186.31
261.942	197.31
262.175	192.31
262.407	196.31
262.64	185.31
262.872	200.31
263.105	186.31
263.337	197.31
263.57	192.31
263.802	194.31
264.035	191.31
264.267	208.31
264.499	187.31
264.732	199.31
264.964	194.31
265.197	200.31
265.429	193.31
265.661	205.31
265.894	212.31
266.126	193.31
266.358	211.31
266.591	206.31
266.823	189.31
267.055	197.31
267.287	212.31
267.52	220.31
267.752	216.31
267.984	205.31
268.216	220.31
268.448	213.31
268.681	219.31
268.913	220.31
269.145	210.31
269.377	236.31
269.609	222.31
269.841	215.31
270.073	233.31
270.306	239.31
270.538	231.31
270.77	241.31
271.002	257.31
271.234	233.31
271.466	220.31
271.698	271.31
271.93	245.31
272.162	263.31
272.394	239.31
272.626	249.31
272.858	227.31
273.09	248.31
273.322	233.31
273.553	235.31
273.785	249.31
274.017	251.31
274.249	244.31
274.481	239.31
274.713	259.31
274.945	249.31
275.176	237.31
275.408	252.31
275.64	229.31
275.872	231.31
276.104	236.31
276.335	221.31
276.567	233.31
276.799	238.31
277.031	250.31
277.262	259.31
277.494	264.31
277.726	251.31
277.957	254.31
278.189	249.31
278.421	257.31
278.652	256.31
278.884	247.31
279.115	253.31
279.347	261.31
279.579	256.31
279.81	278.31
280.042	263.31
280.273	269.31
280.505	279.31
280.736	255.31
280.968	257.31
281.199	264.31
281.431	218.31
281.662	247.31
281.894	243.31
282.125	253.31
282.356	264.31
282.588	285.31
282.819	276.31
283.051	243.31
283.282	252.31
283.513	252.31
283.745	248.31
283.976	242.31
284.207	266.31
284.439	270.31
284.67	259.31
284.901	271.31
285.132	279.31
285.364	265.31
285.595	285.31
285.826	276.31
286.057	255.31
286.288	263.31
286.52	265.31
286.751	271.31
286.982	267.31
287.213	278.31
287.444	277.31
287.675	277.31
287.906	287.31
288.138	269.31
288.369	266.31
288.6	263.31
288.831	272.31
289.062	279.31
289.293	280.31
289.524	253.31
289.755	283.31
289.986	282.31
290.217	282.31
290.448	286.31
290.679	271.31
290.91	271.31
291.141	267.31
291.371	270.31
291.602	272.31
291.833	292.31
292.064	277.31
292.295	259.31
292.526	270.31
292.757	277.31
292.987	290.31
293.218	269.31
293.449	284.31
293.68	275.31
293.91	281.31
294.141	273.31
294.372	271.31
294.603	270.31
294.833	277.31
295.064	266.31
295.295	297.31
295.525	279.31
295.756	275.31
295.987	266.31
296.217	295.31
296.448	301.31
296.679	292.31
296.909	269.31
297.14	286.31
297.37	291.31
297.601	292.31
297.831	298.31
298.062	287.31
298.292	310.31
298.523	301.31
298.753	304.31
298.984	285.31
299.214	291.31
299.445	288.31
299.675	296.31
299.905	294.31
300.136	274.31
300.366	294.31
300.597	291.31
300.827	316.31
301.057	302.31
301.288	304.31
301.518	304.31
301.748	305.31
301.979	315.31
302.209	308.31
302.439	304.31
302.669	308.31
302.9	302.31
303.13	317.31
303.36	320.31
303.59	308.31
303.82	315.31
304.051	307.31
304.281	315.31
304.511	309.31
304.741	299.31
304.971	308.31
305.201	314.31
305.431	301.31
305.661	302.31
305.891	312.31
306.121	303.31
306.352	311.31
306.582	305.31
306.812	312.31
307.042	320.31
307.272	310.31
307.502	313.31
307.731	324.31
307.961	322.31
308.191	314.31
308.421	337.31
308.651	317.31
308.881	315.31
309.111	332.31
309.341	333.31
309.571	319.31
309.8	327.31
310.03	328.31
310.26	331.31
310.49	336.31
310.72	338.31
310.949	333.31
311.179	338.31
311.409	329.31
311.639	325.31
311.868	327.31
312.098	348.31
312.328	339.31
312.557	349.31
312.787	351.31
313.017	344.31
313.246	340.31
313.476	325.31
313.706	325.31
313.935	357.31
314.165	357.31
314.394	374.31
314.624	347.31
314.853	329.31
315.083	333.31
315.312	336.31
315.542	349.31
315.771	342.31
316.001	349.31
316.23	338.31
316.46	337.31
316.689	352.31
316.919	337.31
317.148	359.31
317.377	347.31
317.607	364.31
317.836	355.31
318.065	342.31
318.295	348.31
318.524	356.31
318.753	348.31
318.983	355.31
319.212	346.31
319.441	340.31
319.67	351.31
319.9	348.31
320.129	360.31
320.358	347.31
320.587	345.31
320.816	369.31
321.046	369.31
321.275	357.31
321.504	357.31
321.733	363.31
321.962	374.31
322.191	371.31
322.42	359.31
322.649	368.31
322.878	377.31
323.108	391.31
323.337	400.31
323.566	383.31
323.795	415.31
324.024	445.31
324.253	524.31
324.482	693.31
324.71	991.31
324.939	1329.31
325.168	1114.31
325.397	625.31
325.626	449.31
325.855	426.31
326.084	421.31
326.313	395.31
326.542	407.31
326.77	428.31
326.999	499.31
327.228	641.31
327.457	887.31
327.686	1006.31
327.914	706.31
328.143	525.31
328.372	487.31
328.6	430.31
328.829	448.31
329.058	444.31
329.287	443.31
329.515	414.31
329.744	415.31
329.972	415.31
330.201	414.31
330.43	447.31
330.658	450.31
330.887	464.31
331.115	466.31
331.344	430.31
331.572	438.31
331.801	409.31
332.03	400.31
332.258	393.31
332.486	397.31
332.715	413.31
332.943	404.31
333.172	400.31
333.4	411.31
333.629	419.31
333.857	439.31
334.085	410.31
334.314	435.31
334.542	440.31
334.771	447.31
334.999	436.31
335.227	440.31
335.455	411.31
335.684	399.31
335.912	400.31
336.14	391.31
336.369	385.31
336.597	413.31
336.825	403.31
337.053	411.31
337.281	375.31
337.51	388.31
337.738	391.31
337.966	409.31
338.194	412.31
338.422	413.31
338.65	396.31
338.878	391.31
339.106	384.31
339.334	379.31
339.562	376.31
339.79	384.31
340.018	365.31
340.246	389.31
340.474	378.31
340.702	374.31
340.93	378.31
341.158	375.31
341.386	361.31
341.614	382.31
341.842	379.31
342.07	383.31
342.298	385.31
342.526	381.31
342.754	369.31
342.981	376.31
343.209	378.31
343.437	381.31
343.665	395.31
343.893	385.31
344.12	399.31
344.348	400.31
344.576	398.31
344.804	388.31
345.031	397.31
345.259	416.31
345.487	375.31
345.714	377.31
345.942	379.31
346.17	388.31
346.397	358.31
346.625	357.31
346.853	335.31
347.08	359.31
347.308	361.31
347.535	382.31
347.763	379.31
347.99	372.31
348.218	377.31
348.445	378.31
348.673	375.31
348.9	363.31
349.128	366.31
349.355	355.31
349.583	355.31
349.81	344.31
350.037	355.31
350.265	361.31
350.492	346.31
350.72	351.31
350.947	363.31
351.174	363.31
351.402	359.31
351.629	367.31
351.856	335.31
352.083	366.31
352.311	357.31
352.538	384.31
352.765	357.31
352.992	348.31
353.22	347.31
353.447	354.31
353.674	336.31
353.901	361.31
354.128	352.31
354.355	349.31
354.583	332.31
354.81	345.31
355.037	361.31
355.264	350.31
355.491	347.31
355.718	351.31
355.945	330.31
356.172	335.31
356.399	340.31
356.626	340.31
356.853	337.31
357.08	333.31
357.307	335.31
357.534	360.31
357.761	347.31
357.988	352.31
358.215	341.31
358.441	364.31
358.668	346.31
358.895	350.31
359.122	347.31
359.349	357.31
359.576	347.31
359.802	367.31
360.029	373.31
360.256	393.31
360.483	365.31
360.709	360.31
360.936	346.31
361.163	366.31
361.39	344.31
361.616	349.31
361.843	358.31
362.07	346.31
362.296	337.31
362.523	341.31
362.749	342.31
362.976	351.31
363.203	345.31
363.429	341.31
363.656	367.31
363.882	342.31
364.109	341.31
364.335	339.31
364.562	334.31
364.788	344.31
365.015	349.31
365.241	340.31
365.468	357.31
365.694	335.31
365.92	328.31
366.147	331.31
366.373	340.31
366.599	347.31
366.826	332.31
367.052	333.31
367.278	342.31
367.505	349.31
367.731	343.31
367.957	339.31
368.184	343.31
368.41	340.31
368.636	357.31
368.862	365.31
369.089	358.31
369.315	343.31
369.541	344.31
369.767	347.31
369.993	351.31
370.219	347.31
370.445	348.31
370.672	342.31
370.898	345.31
371.124	356.31
371.35	342.31
371.576	345.31
371.802	368.31
372.028	342.31
372.254	343.31
372.48	351.31
372.706	367.31
372.932	336.31
373.158	329.31
373.384	356.31
373.61	367.31
373.835	342.31
374.061	367.31
374.287	355.31
374.513	349.31
374.739	367.31
374.965	350.31
375.191	365.31
375.416	367.31
375.642	369.31
375.868	364.31
376.094	349.31
376.319	352.31
376.545	343.31
376.771	340.31
376.997	340.31
377.222	341.31
377.448	364.31
377.674	329.31
377.899	334.31
378.125	332.31
378.35	334.31
378.576	343.31
378.802	350.31
379.027	357.31
379.253	343.31
379.478	331.31
379.704	363.31
379.929	341.31
380.155	334.31
380.38	344.31
380.606	341.31
380.831	351.31
381.057	364.31
381.282	357.31
381.507	355.31
381.733	330.31
381.958	334.31
382.184	349.31
382.409	365.31
382.634	352.31
382.86	355.31
383.085	347.31
383.31	360.31
383.535	359.31
383.761	347.31
383.986	365.31
384.211	360.31
384.436	369.31
384.662	340.31
384.887	365.31
385.112	352.31
385.337	384.31
385.562	376.31
385.787	382.31
386.013	398.31
386.238	381.31
386.463	368.31
386.688	374.31
386.913	369.31
387.138	377.31
387.363	381.31
387.588	369.31
387.813	367.31
388.038	369.31
388.263	382.31
388.488	403.31
388.713	375.31
388.938	364.31
389.163	361.31
389.387	375.31
389.612	355.31
389.837	368.31
390.062	369.31
390.287	368.31
390.512	377.31
390.736	364.31
390.961	368.31
391.186	370.31
391.411	366.31
391.636	365.31
391.86	377.31
392.085	393.31
392.31	364.31
392.534	378.31
392.759	362.31
392.984	380.31
393.208	417.31
393.433	431.31
393.658	433.31
393.882	384.31
394.107	365.31
394.331	380.31
394.556	372.31
394.78	363.31
395.005	367.31
395.229	358.31
395.454	377.31
395.678	387.31
395.903	411.31
396.127	416.31
396.352	382.31
396.576	402.31
396.801	411.31
397.025	416.31
397.249	401.31
397.474	394.31
397.698	383.31
397.922	412.31
398.147	400.31
398.371	413.31
398.595	389.31
398.82	397.31
399.044	413.31
399.268	415.31
399.492	468.31
399.717	513.31
399.941	517.31
400.165	500.31
400.389	479.31
400.613	442.31
400.837	439.31
401.062	446.31
401.286	421.31
401.51	417.31
401.734	413.31
401.958	403.31
402.182	407.31
402.406	437.31
402.63	410.31
402.854	431.31
403.078	420.31
403.302	407.31
403.526	414.31
403.75	408.31
403.974	412.31
404.198	412.31
404.422	422.31
404.645	424.31
404.869	431.31
405.093	448.31
405.317	430.31
405.541	472.31
405.765	442.31
405.988	443.31
406.212	452.31
406.436	450.31
406.66	440.31
406.883	438.31
407.107	473.31
407.331	489.31
407.555	515.31
407.778	515.31
408.002	500.31
408.226	448.31
408.449	468.31
408.673	452.31
408.896	457.31
409.12	486.31
409.344	476.31
409.567	435.31
409.791	428.31
410.014	426.31
410.238	419.31
410.461	436.31
410.685	416.31
410.908	425.31
411.132	440.31
411.355	445.31
411.578	467.31
411.802	432.31
412.025	425.31
412.249	429.31
412.472	411.31
412.695	443.31
412.919	434.31
413.142	423.31
413.365	415.31
413.589	403.31
413.812	405.31
414.035	396.31
414.258	415.31
414.482	403.31
414.705	384.31
414.928	399.31
415.151	402.31
415.374	381.31
415.597	385.31
415.821	405.31
416.044	407.31
416.267	395.31
416.49	384.31
416.713	393.31
416.936	398.31
417.159	368.31
417.382	376.31
417.605	400.31
417.828	411.31
418.051	386.31
418.274	408.31
418.497	406.31
418.72	373.31
418.943	388.31
419.166	389.31
419.389	419.31
419.611	384.31
419.834	406.31
420.057	412.31
420.28	391.31
420.503	385.31
420.726	409.31
420.948	408.31
421.171	416.31
421.394	448.31
421.617	408.31
421.839	376.31
422.062	388.31
422.285	397.31
422.507	440.31
422.73	498.31
422.953	497.31
423.175	439.31
423.398	424.31
423.621	400.31
423.843	419.31
424.066	443.31
424.288	419.31
424.511	399.31
424.733	437.31
424.956	487.31
425.178	486.31
425.401	461.31
425.623	479.31
425.846	436.31
426.068	405.31
426.291	427.31
426.513	391.31
426.735	415.31
426.958	448.31
427.18	472.31
427.402	575.31
427.625	631.31
427.847	520.31
428.069	463.31
428.292	448.31
428.514	414.31
428.736	384.31
428.958	374.31
429.181	383.31
429.403	416.31
429.625	379.31
429.847	391.31
430.069	434.31
430.292	446.31
430.514	427.31
430.736	384.31
430.958	382.31
431.18	366.31
431.402	377.31
431.624	364.31
431.846	373.31
432.068	373.31
432.29	361.31
432.512	381.31
432.734	395.31
432.956	385.31
433.178	391.31
433.4	375.31
433.622	372.31
433.844	368.31
434.066	386.31
434.287	383.31
434.509	397.31
434.731	391.31
434.953	377.31
435.175	391.31
435.397	400.31
435.618	394.31
435.84	427.31
436.062	487.31
436.284	505.31
436.505	483.31
436.727	399.31
436.949	390.31
437.17	386.31
437.392	379.31
437.614	391.31
437.835	416.31
438.057	459.31
438.278	521.31
438.5	517.31
438.721	572.31
438.943	520.31
439.165	470.31
439.386	423.31
439.608	392.31
439.829	405.31
440.05	422.31
440.272	455.31
440.493	423.31
440.715	396.31
440.936	389.31
441.158	387.31
441.379	382.31
441.6	387.31
441.822	382.31
442.043	416.31
442.264	475.31
442.486	488.31
442.707	414.31
442.928	412.31
443.149	448.31
443.371	405.31
443.592	454.31
443.813	496.31
444.034	537.31
444.255	449.31
444.476	419.31
444.698	408.31
444.919	421.31
445.14	536.31
445.361	482.31
445.582	435.31
445.803	460.31
446.024	512.31
446.245	508.31
446.466	487.31
446.687	430.31
446.908	411.31
447.129	379.31
447.35	385.31
447.571	392.31
447.792	386.31
448.013	386.31
448.234	392.31
448.455	421.31
448.675	487.31
448.896	526.31
449.117	462.31
449.338	456.31
449.559	506.31
449.779	547.31
450	456.31
450.221	419.31
450.442	381.31
450.662	360.31
450.883	361.31
451.104	368.31
451.324	376.31
451.545	335.31
451.766	340.31
451.986	360.31
452.207	329.31
452.428	339.31
452.648	362.31
452.869	335.31
453.089	335.31
453.31	359.31
453.53	325.31
453.751	352.31
453.971	321.31
454.192	364.31
454.412	352.31
454.633	340.31
454.853	330.31
455.073	349.31
455.294	361.31
455.514	385.31
455.734	377.31
455.955	333.31
456.175	340.31
456.395	319.31
456.616	324.31
456.836	320.31
457.056	343.31
457.276	325.31
457.497	327.31
457.717	342.31
457.937	344.31
458.157	324.31
458.377	336.31
458.598	364.31
458.818	379.31
459.038	408.31
459.258	420.31
459.478	416.31
459.698	379.31
459.918	366.31
460.138	369.31
460.358	353.31
460.578	375.31
460.798	375.31
461.018	378.31
461.238	379.31
461.458	385.31
461.678	392.31
461.898	409.31
462.118	382.31
462.338	397.31
462.558	391.31
462.777	414.31
462.997	393.31
463.217	429.31
463.437	449.31
463.657	426.31
463.876	415.31
464.096	414.31
464.316	405.31
464.536	430.31
464.755	422.31
464.975	424.31
465.195	409.31
465.414	430.31
465.634	401.31
465.854	389.31
466.073	377.31
466.293	382.31
466.512	368.31
466.732	333.31
466.951	363.31
467.171	354.31
467.391	368.31
467.61	356.31
467.829	360.31
468.049	360.31
468.268	339.31
468.488	366.31
468.707	363.31
468.927	350.31
469.146	357.31
469.365	352.31
469.585	357.31
469.804	366.31
470.023	360.31
470.243	373.31
470.462	368.31
470.681	366.31
470.901	376.31
471.12	384.31
471.339	371.31
471.558	369.31
471.777	357.31
471.997	359.31
472.216	366.31
472.435	381.31
472.654	371.31
472.873	350.31
473.092	350.31
473.311	373.31
473.53	377.31
473.749	373.31
473.968	383.31
474.187	440.31
474.406	445.31
474.625	404.31
474.844	374.31
475.063	368.31
475.282	364.31
475.501	375.31
475.72	379.31
475.939	375.31
476.158	373.31
476.377	409.31
476.596	388.31
476.814	383.31
477.033	383.31
477.252	384.31
477.471	365.31
477.69	379.31
477.908	397.31
478.127	397.31
478.346	394.31
478.564	398.31
478.783	404.31
479.002	420.31
479.22	419.31
479.439	425.31
479.658	423.31
479.876	428.31
480.095	433.31
480.313	433.31
480.532	449.31
480.751	442.31
480.969	434.31
481.188	440.31
481.406	473.31
481.624	467.31
481.843	423.31
482.061	422.31
482.28	409.31
482.498	439.31
482.717	435.31
482.935	416.31
483.153	415.31
483.372	429.31
483.59	421.31
483.808	421.31
484.027	440.31
484.245	440.31
484.463	427.31
484.681	448.31
484.9	446.31
485.118	446.31
485.336	429.31
485.554	453.31
485.772	454.31
485.99	462.31
486.209	435.31
486.427	444.31
486.645	445.31
486.863	452.31
487.081	445.31
487.299	453.31
487.517	457.31
487.735	441.31
487.953	452.31
488.171	462.31
488.389	464.31
488.607	430.31
488.825	437.31
489.043	438.31
489.261	445.31
489.479	447.31
489.696	451.31
489.914	447.31
490.132	450.31
490.35	475.31
490.568	457.31
490.786	475.31
491.003	460.31
491.221	471.31
491.439	462.31
491.657	464.31
491.874	463.31
492.092	473.31
492.31	478.31
492.527	485.31
492.745	480.31
492.963	492.31
493.18	489.31
493.398	499.31
493.615	521.31
493.833	501.31
494.05	507.31
494.268	496.31
494.485	509.31
494.703	507.31
494.92	523.31
495.138	511.31
495.355	497.31
495.573	523.31
495.79	508.31
496.008	530.31
496.225	495.31
496.442	513.31
496.66	518.31
496.877	511.31
497.094	519.31
497.312	540.31
497.529	531.31
497.746	540.31
497.963	559.31
498.181	557.31
498.398	573.31
498.615	585.31
498.832	596.31
499.049	609.31
499.267	616.31
499.484	631.31
499.701	677.31
499.918	693.31
500.135	720.31
500.352	773.31
500.569	754.31
500.786	750.31
501.003	743.31
501.22	715.31
501.437	702.31
501.654	658.31
501.871	637.31
502.088	640.31
