Data from 1960PennyLincolnUp.LampE5.5.200Scan.07172019.P1.ChangedAngle_HRD10591_13-15-17-821.txt Node
Date: Thu Jul 18 13:15:17 EDT 2019
User: cochatt
Spectrometer: HR+D1059
Trigger mode: 1
Integration Time (sec): 1.000000E-1
Scans to average: 1
Electric dark correction enabled: true
Nonlinearity correction enabled: false
Boxcar width: 0
XAxis mode: Wavelengths
Number of Pixels in Spectrum: 2048
>>>>>Begin Spectral Data<<<<<
223.165	-4.56
223.4	-4.56
223.635	-4.56
223.869	-26.56
224.104	-19.56
224.338	-8.56
224.573	-21.56
224.808	0.44
225.042	-16.56
225.277	-12.56
225.511	-0.56
225.746	5.44
225.98	10.44
226.215	16.44
226.449	5.44
226.683	22.44
226.918	17.44
227.152	32.44
227.387	39.44
227.621	41.44
227.856	47.44
228.09	52.44
228.324	42.44
228.559	64.44
228.793	80.44
229.027	95.44
229.262	104.44
229.496	91.44
229.73	112.44
229.964	127.44
230.199	121.44
230.433	88.44
230.667	80.44
230.901	91.44
231.136	94.44
231.37	108.44
231.604	107.44
231.838	129.44
232.072	115.44
232.306	98.44
232.541	113.44
232.775	107.44
233.009	108.44
233.243	106.44
233.477	111.44
233.711	109.44
233.945	102.44
234.179	107.44
234.413	119.44
234.647	123.44
234.881	101.44
235.115	112.44
235.349	122.44
235.583	120.44
235.817	106.44
236.051	131.44
236.285	125.44
236.519	132.44
236.753	128.44
236.987	140.44
237.221	159.44
237.455	184.44
237.689	166.44
237.922	136.44
238.156	125.44
238.39	125.44
238.624	129.44
238.858	123.44
239.091	123.44
239.325	126.44
239.559	125.44
239.793	119.44
240.027	129.44
240.26	130.44
240.494	147.44
240.728	125.44
240.961	129.44
241.195	149.44
241.429	130.44
241.662	126.44
241.896	136.44
242.13	127.44
242.363	132.44
242.597	129.44
242.83	115.44
243.064	148.44
243.298	131.44
243.531	130.44
243.765	124.44
243.998	141.44
244.232	139.44
244.465	132.44
244.699	158.44
244.932	131.44
245.166	139.44
245.399	128.44
245.633	139.44
245.866	153.44
246.099	156.44
246.333	140.44
246.566	151.44
246.8	145.44
247.033	142.44
247.266	164.44
247.5	159.44
247.733	156.44
247.966	167.44
248.2	171.44
248.433	152.44
248.666	163.44
248.899	157.44
249.133	175.44
249.366	189.44
249.599	177.44
249.832	175.44
250.066	159.44
250.299	163.44
250.532	190.44
250.765	200.44
250.998	183.44
251.231	189.44
251.465	195.44
251.698	178.44
251.931	195.44
252.164	168.44
252.397	197.44
252.63	200.44
252.863	205.44
253.096	196.44
253.329	211.44
253.562	213.44
253.795	203.44
254.028	198.44
254.261	213.44
254.494	208.44
254.727	215.44
254.96	243.44
255.193	209.44
255.426	221.44
255.659	200.44
255.892	218.44
256.124	214.44
256.357	217.44
256.59	199.44
256.823	215.44
257.056	204.44
257.289	208.44
257.521	210.44
257.754	184.44
257.987	214.44
258.22	213.44
258.452	212.44
258.685	212.44
258.918	196.44
259.151	186.44
259.383	214.44
259.616	200.44
259.849	214.44
260.081	228.44
260.314	224.44
260.547	236.44
260.779	217.44
261.012	216.44
261.244	214.44
261.477	220.44
261.71	200.44
261.942	207.44
262.175	216.44
262.407	211.44
262.64	193.44
262.872	207.44
263.105	205.44
263.337	206.44
263.57	216.44
263.802	213.44
264.035	215.44
264.267	209.44
264.499	201.44
264.732	208.44
264.964	208.44
265.197	207.44
265.429	218.44
265.661	220.44
265.894	215.44
266.126	226.44
266.358	211.44
266.591	223.44
266.823	223.44
267.055	209.44
267.287	208.44
267.52	232.44
267.752	226.44
267.984	241.44
268.216	226.44
268.448	231.44
268.681	240.44
268.913	224.44
269.145	259.44
269.377	252.44
269.609	275.44
269.841	271.44
270.073	259.44
270.306	273.44
270.538	299.44
270.77	283.44
271.002	288.44
271.234	283.44
271.466	271.44
271.698	294.44
271.93	291.44
272.162	295.44
272.394	291.44
272.626	282.44
272.858	293.44
273.09	277.44
273.322	260.44
273.553	277.44
273.785	256.44
274.017	273.44
274.249	265.44
274.481	260.44
274.713	273.44
274.945	261.44
275.176	280.44
275.408	262.44
275.64	257.44
275.872	261.44
276.104	265.44
276.335	262.44
276.567	259.44
276.799	267.44
277.031	282.44
277.262	287.44
277.494	275.44
277.726	280.44
277.957	277.44
278.189	279.44
278.421	257.44
278.652	264.44
278.884	289.44
279.115	264.44
279.347	270.44
279.579	261.44
279.81	266.44
280.042	278.44
280.273	277.44
280.505	265.44
280.736	274.44
280.968	297.44
281.199	260.44
281.431	285.44
281.662	287.44
281.894	281.44
282.125	269.44
282.356	289.44
282.588	302.44
282.819	293.44
283.051	287.44
283.282	272.44
283.513	291.44
283.745	283.44
283.976	281.44
284.207	261.44
284.439	284.44
284.67	288.44
284.901	299.44
285.132	283.44
285.364	283.44
285.595	302.44
285.826	279.44
286.057	281.44
286.288	281.44
286.52	289.44
286.751	290.44
286.982	281.44
287.213	288.44
287.444	280.44
287.675	303.44
287.906	315.44
288.138	289.44
288.369	299.44
288.6	316.44
288.831	287.44
289.062	324.44
289.293	305.44
289.524	307.44
289.755	282.44
289.986	292.44
290.217	309.44
290.448	287.44
290.679	296.44
290.91	297.44
291.141	276.44
291.371	279.44
291.602	309.44
291.833	288.44
292.064	298.44
292.295	304.44
292.526	292.44
292.757	295.44
292.987	298.44
293.218	304.44
293.449	296.44
293.68	301.44
293.91	302.44
294.141	295.44
294.372	306.44
294.603	309.44
294.833	302.44
295.064	289.44
295.295	310.44
295.525	299.44
295.756	301.44
295.987	304.44
296.217	327.44
296.448	317.44
296.679	312.44
296.909	311.44
297.14	319.44
297.37	305.44
297.601	295.44
297.831	308.44
298.062	312.44
298.292	319.44
298.523	324.44
298.753	329.44
298.984	314.44
299.214	312.44
299.445	321.44
299.675	338.44
299.905	320.44
300.136	337.44
300.366	314.44
300.597	316.44
300.827	344.44
301.057	336.44
301.288	335.44
301.518	324.44
301.748	335.44
301.979	331.44
302.209	329.44
302.439	337.44
302.669	313.44
302.9	333.44
303.13	338.44
303.36	335.44
303.59	351.44
303.82	355.44
304.051	350.44
304.281	350.44
304.511	337.44
304.741	330.44
304.971	316.44
305.201	350.44
305.431	346.44
305.661	344.44
305.891	321.44
306.121	356.44
306.352	346.44
306.582	335.44
306.812	331.44
307.042	360.44
307.272	339.44
307.502	329.44
307.731	344.44
307.961	331.44
308.191	335.44
308.421	325.44
308.651	348.44
308.881	326.44
309.111	336.44
309.341	340.44
309.571	350.44
309.8	355.44
310.03	355.44
310.26	364.44
310.49	366.44
310.72	377.44
310.949	370.44
311.179	375.44
311.409	375.44
311.639	368.44
311.868	382.44
312.098	376.44
312.328	373.44
312.557	379.44
312.787	389.44
313.017	400.44
313.246	383.44
313.476	387.44
313.706	395.44
313.935	371.44
314.165	391.44
314.394	363.44
314.624	367.44
314.853	377.44
315.083	384.44
315.312	383.44
315.542	355.44
315.771	369.44
316.001	379.44
316.23	379.44
316.46	340.44
316.689	377.44
316.919	370.44
317.148	386.44
317.377	382.44
317.607	389.44
317.836	373.44
318.065	389.44
318.295	377.44
318.524	378.44
318.753	383.44
318.983	381.44
319.212	389.44
319.441	372.44
319.67	379.44
319.9	385.44
320.129	377.44
320.358	397.44
320.587	364.44
320.816	387.44
321.046	386.44
321.275	389.44
321.504	379.44
321.733	403.44
321.962	425.44
322.191	404.44
322.42	419.44
322.649	435.44
322.878	417.44
323.108	435.44
323.337	449.44
323.566	452.44
323.795	488.44
324.024	523.44
324.253	599.44
324.482	777.44
324.71	1083.44
324.939	1495.44
325.168	1236.44
325.397	743.44
325.626	543.44
325.855	490.44
326.084	482.44
326.313	451.44
326.542	469.44
326.77	519.44
326.999	579.44
327.228	740.44
327.457	1005.44
327.686	1161.44
327.914	804.44
328.143	582.44
328.372	541.44
328.6	489.44
328.829	474.44
329.058	523.44
329.287	477.44
329.515	464.44
329.744	449.44
329.972	476.44
330.201	488.44
330.43	493.44
330.658	521.44
330.887	506.44
331.115	489.44
331.344	481.44
331.572	462.44
331.801	469.44
332.03	447.44
332.258	454.44
332.486	439.44
332.715	466.44
332.943	466.44
333.172	457.44
333.4	457.44
333.629	456.44
333.857	473.44
334.085	479.44
334.314	482.44
334.542	493.44
334.771	513.44
334.999	466.44
335.227	466.44
335.455	457.44
335.684	430.44
335.912	433.44
336.14	448.44
336.369	435.44
336.597	455.44
336.825	447.44
337.053	438.44
337.281	427.44
337.51	433.44
337.738	436.44
337.966	412.44
338.194	436.44
338.422	460.44
338.65	429.44
338.878	425.44
339.106	439.44
339.334	447.44
339.562	454.44
339.79	421.44
340.018	423.44
340.246	417.44
340.474	413.44
340.702	432.44
340.93	408.44
341.158	415.44
341.386	428.44
341.614	417.44
341.842	401.44
342.07	431.44
342.298	405.44
342.526	399.44
342.754	402.44
342.981	403.44
343.209	382.44
343.437	406.44
343.665	426.44
343.893	452.44
344.12	450.44
344.348	444.44
344.576	423.44
344.804	429.44
345.031	420.44
345.259	427.44
345.487	423.44
345.714	416.44
345.942	414.44
346.17	407.44
346.397	398.44
346.625	413.44
346.853	371.44
347.08	389.44
347.308	383.44
347.535	398.44
347.763	403.44
347.99	393.44
348.218	386.44
348.445	375.44
348.673	415.44
348.9	389.44
349.128	383.44
349.355	382.44
349.583	388.44
349.81	383.44
350.037	377.44
350.265	396.44
350.492	371.44
350.72	387.44
350.947	366.44
351.174	395.44
351.402	387.44
351.629	395.44
351.856	418.44
352.083	428.44
352.311	407.44
352.538	404.44
352.765	413.44
352.992	393.44
353.22	409.44
353.447	386.44
353.674	398.44
353.901	380.44
354.128	375.44
354.355	372.44
354.583	387.44
354.81	372.44
355.037	397.44
355.264	386.44
355.491	395.44
355.718	373.44
355.945	384.44
356.172	371.44
356.399	362.44
356.626	375.44
356.853	381.44
357.08	389.44
357.307	370.44
357.534	365.44
357.761	372.44
357.988	378.44
358.215	387.44
358.441	367.44
358.668	363.44
358.895	371.44
359.122	370.44
359.349	376.44
359.576	388.44
359.802	393.44
360.029	399.44
360.256	416.44
360.483	395.44
360.709	385.44
360.936	387.44
361.163	371.44
361.39	394.44
361.616	376.44
361.843	369.44
362.07	378.44
362.296	399.44
362.523	400.44
362.749	376.44
362.976	370.44
363.203	373.44
363.429	373.44
363.656	364.44
363.882	383.44
364.109	383.44
364.335	379.44
364.562	370.44
364.788	364.44
365.015	351.44
365.241	373.44
365.468	378.44
365.694	371.44
365.92	383.44
366.147	359.44
366.373	353.44
366.599	354.44
366.826	372.44
367.052	372.44
367.278	371.44
367.505	356.44
367.731	367.44
367.957	377.44
368.184	367.44
368.41	379.44
368.636	375.44
368.862	373.44
369.089	381.44
369.315	360.44
369.541	375.44
369.767	367.44
369.993	373.44
370.219	371.44
370.445	373.44
370.672	373.44
370.898	372.44
371.124	384.44
371.35	369.44
371.576	374.44
371.802	382.44
372.028	377.44
372.254	388.44
372.48	366.44
372.706	381.44
372.932	373.44
373.158	370.44
373.384	383.44
373.61	377.44
373.835	364.44
374.061	378.44
374.287	385.44
374.513	378.44
374.739	379.44
374.965	396.44
375.191	373.44
375.416	375.44
375.642	364.44
375.868	364.44
376.094	366.44
376.319	378.44
376.545	356.44
376.771	373.44
376.997	373.44
377.222	366.44
377.448	361.44
377.674	356.44
377.899	343.44
378.125	341.44
378.35	371.44
378.576	356.44
378.802	356.44
379.027	371.44
379.253	367.44
379.478	362.44
379.704	355.44
379.929	371.44
380.155	355.44
380.38	375.44
380.606	387.44
380.831	370.44
381.057	398.44
381.282	368.44
381.507	364.44
381.733	371.44
381.958	377.44
382.184	386.44
382.409	393.44
382.634	363.44
382.86	379.44
383.085	391.44
383.31	394.44
383.535	375.44
383.761	369.44
383.986	367.44
384.211	373.44
384.436	385.44
384.662	395.44
384.887	385.44
385.112	396.44
385.337	369.44
385.562	384.44
385.787	386.44
386.013	403.44
386.238	376.44
386.463	393.44
386.688	397.44
386.913	412.44
387.138	380.44
387.363	398.44
387.588	403.44
387.813	381.44
388.038	411.44
388.263	397.44
388.488	386.44
388.713	403.44
388.938	391.44
389.163	397.44
389.387	394.44
389.612	378.44
389.837	389.44
390.062	387.44
390.287	396.44
390.512	375.44
390.736	372.44
390.961	396.44
391.186	397.44
391.411	385.44
391.636	399.44
391.86	405.44
392.085	416.44
392.31	427.44
392.534	405.44
392.759	389.44
392.984	391.44
393.208	408.44
393.433	420.44
393.658	393.44
393.882	399.44
394.107	373.44
394.331	400.44
394.556	394.44
394.78	402.44
395.005	418.44
395.229	389.44
395.454	403.44
395.678	409.44
395.903	437.44
396.127	436.44
396.352	425.44
396.576	402.44
396.801	393.44
397.025	398.44
397.249	425.44
397.474	425.44
397.698	432.44
397.922	411.44
398.147	431.44
398.371	425.44
398.595	421.44
398.82	434.44
399.044	431.44
399.268	469.44
399.492	487.44
399.717	522.44
399.941	523.44
400.165	541.44
400.389	533.44
400.613	480.44
400.837	466.44
401.062	441.44
401.286	426.44
401.51	435.44
401.734	440.44
401.958	432.44
402.182	444.44
402.406	427.44
402.63	439.44
402.854	436.44
403.078	433.44
403.302	461.44
403.526	457.44
403.75	440.44
403.974	454.44
404.198	451.44
404.422	433.44
404.645	452.44
404.869	451.44
405.093	470.44
405.317	505.44
405.541	529.44
405.765	473.44
405.988	489.44
406.212	472.44
406.436	472.44
406.66	487.44
406.883	494.44
407.107	508.44
407.331	519.44
407.555	570.44
407.778	551.44
408.002	515.44
408.226	483.44
408.449	477.44
408.673	472.44
408.896	497.44
409.12	550.44
409.344	497.44
409.567	467.44
409.791	455.44
410.014	455.44
410.238	449.44
410.461	438.44
410.685	439.44
410.908	436.44
411.132	467.44
411.355	471.44
411.578	465.44
411.802	464.44
412.025	439.44
412.249	459.44
412.472	465.44
412.695	483.44
412.919	489.44
413.142	445.44
413.365	429.44
413.589	448.44
413.812	420.44
414.035	411.44
414.258	421.44
414.482	431.44
414.705	441.44
414.928	435.44
415.151	433.44
415.374	424.44
415.597	431.44
415.821	398.44
416.044	425.44
416.267	429.44
416.49	423.44
416.713	436.44
416.936	429.44
417.159	426.44
417.382	413.44
417.605	411.44
417.828	412.44
418.051	445.44
418.274	434.44
418.497	427.44
418.72	420.44
418.943	408.44
419.166	430.44
419.389	438.44
419.611	427.44
419.834	452.44
420.057	448.44
420.28	449.44
420.503	427.44
420.726	419.44
420.948	434.44
421.171	447.44
421.394	493.44
421.617	443.44
421.839	412.44
422.062	435.44
422.285	456.44
422.507	487.44
422.73	506.44
422.953	522.44
423.175	467.44
423.398	445.44
423.621	447.44
423.843	451.44
424.066	461.44
424.288	455.44
424.511	468.44
424.733	520.44
424.956	559.44
425.178	548.44
425.401	544.44
425.623	570.44
425.846	472.44
426.068	451.44
426.291	458.44
426.513	452.44
426.735	474.44
426.958	479.44
427.18	554.44
427.402	604.44
427.625	680.44
427.847	581.44
428.069	530.44
428.292	465.44
428.514	451.44
428.736	431.44
428.958	430.44
429.181	427.44
429.403	419.44
429.625	443.44
429.847	466.44
430.069	490.44
430.292	479.44
430.514	423.44
430.736	419.44
430.958	399.44
431.18	404.44
431.402	397.44
431.624	400.44
431.846	383.44
432.068	393.44
432.29	399.44
432.512	408.44
432.734	415.44
432.956	391.44
433.178	413.44
433.4	415.44
433.622	412.44
433.844	403.44
434.066	396.44
434.287	398.44
434.509	432.44
434.731	409.44
434.953	433.44
435.175	441.44
435.397	448.44
435.618	433.44
435.84	480.44
436.062	529.44
436.284	586.44
436.505	497.44
436.727	448.44
436.949	451.44
437.17	409.44
437.392	423.44
437.614	419.44
437.835	469.44
438.057	516.44
438.278	567.44
438.5	573.44
438.721	615.44
438.943	592.44
439.165	515.44
439.386	448.44
439.608	438.44
439.829	453.44
440.05	467.44
440.272	494.44
440.493	476.44
440.715	433.44
440.936	438.44
441.158	423.44
441.379	409.44
441.6	438.44
441.822	438.44
442.043	483.44
442.264	523.44
442.486	521.44
442.707	496.44
442.928	454.44
443.149	448.44
443.371	463.44
443.592	495.44
443.813	556.44
444.034	601.44
444.255	512.44
444.476	465.44
444.698	454.44
444.919	470.44
445.14	543.44
445.361	495.44
445.582	461.44
445.803	507.44
446.024	582.44
446.245	567.44
446.466	523.44
446.687	492.44
446.908	446.44
447.129	421.44
447.35	393.44
447.571	407.44
447.792	400.44
448.013	425.44
448.234	421.44
448.455	452.44
448.675	544.44
448.896	584.44
449.117	528.44
449.338	485.44
449.559	580.44
449.779	649.44
450	530.44
450.221	428.44
450.442	404.44
450.662	405.44
450.883	395.44
451.104	405.44
451.324	398.44
451.545	388.44
451.766	399.44
451.986	345.44
452.207	391.44
452.428	378.44
452.648	380.44
452.869	370.44
453.089	371.44
453.31	392.44
453.53	369.44
453.751	363.44
453.971	362.44
454.192	372.44
454.412	359.44
454.633	350.44
454.853	361.44
455.073	363.44
455.294	387.44
455.514	430.44
455.734	399.44
455.955	371.44
456.175	355.44
456.395	339.44
456.616	352.44
456.836	365.44
457.056	347.44
457.276	359.44
457.497	367.44
457.717	368.44
457.937	373.44
458.157	370.44
458.377	353.44
458.598	375.44
458.818	417.44
459.038	473.44
459.258	469.44
459.478	423.44
459.698	410.44
459.918	417.44
460.138	425.44
460.358	383.44
460.578	386.44
460.798	413.44
461.018	408.44
461.238	407.44
461.458	412.44
461.678	425.44
461.898	403.44
462.118	406.44
462.338	436.44
462.558	428.44
462.777	426.44
462.997	449.44
463.217	427.44
463.437	449.44
463.657	447.44
463.876	443.44
464.096	428.44
464.316	438.44
464.536	443.44
464.755	452.44
464.975	454.44
465.195	448.44
465.414	456.44
465.634	465.44
465.854	418.44
466.073	389.44
466.293	384.44
466.512	398.44
466.732	379.44
466.951	387.44
467.171	387.44
467.391	396.44
467.61	383.44
467.829	387.44
468.049	408.44
468.268	402.44
468.488	374.44
468.707	381.44
468.927	383.44
469.146	383.44
469.365	376.44
469.585	393.44
469.804	365.44
470.023	381.44
470.243	383.44
470.462	390.44
470.681	400.44
470.901	419.44
471.12	373.44
471.339	393.44
471.558	395.44
471.777	408.44
471.997	372.44
472.216	395.44
472.435	405.44
472.654	398.44
472.873	369.44
473.092	384.44
473.311	401.44
473.53	413.44
473.749	387.44
473.968	420.44
474.187	484.44
474.406	510.44
474.625	431.44
474.844	373.44
475.063	396.44
475.282	395.44
475.501	396.44
475.72	422.44
475.939	408.44
476.158	392.44
476.377	397.44
476.596	409.44
476.814	403.44
477.033	415.44
477.252	396.44
477.471	409.44
477.69	425.44
477.908	403.44
478.127	429.44
478.346	418.44
478.564	444.44
478.783	439.44
479.002	452.44
479.22	434.44
479.439	459.44
479.658	456.44
479.876	455.44
480.095	447.44
480.313	459.44
480.532	463.44
480.751	484.44
480.969	484.44
481.188	510.44
481.406	525.44
481.624	505.44
481.843	452.44
482.061	463.44
482.28	471.44
482.498	435.44
482.717	439.44
482.935	448.44
483.153	432.44
483.372	433.44
483.59	437.44
483.808	446.44
484.027	423.44
484.245	461.44
484.463	444.44
484.681	445.44
484.9	460.44
485.118	445.44
485.336	452.44
485.554	458.44
485.772	471.44
485.99	459.44
486.209	472.44
486.427	487.44
486.645	458.44
486.863	464.44
487.081	472.44
487.299	474.44
487.517	465.44
487.735	465.44
487.953	520.44
488.171	463.44
488.389	469.44
488.607	469.44
488.825	464.44
489.043	481.44
489.261	481.44
489.479	484.44
489.696	481.44
489.914	498.44
490.132	472.44
490.35	501.44
490.568	493.44
490.786	511.44
491.003	516.44
491.221	504.44
491.439	511.44
491.657	529.44
491.874	523.44
492.092	525.44
492.31	522.44
492.527	532.44
492.745	506.44
492.963	542.44
493.18	540.44
493.398	538.44
493.615	539.44
493.833	546.44
494.05	529.44
494.268	550.44
494.485	541.44
494.703	548.44
494.92	539.44
495.138	554.44
495.355	542.44
495.573	555.44
495.79	549.44
496.008	539.44
496.225	542.44
496.442	565.44
496.66	585.44
496.877	577.44
497.094	588.44
497.312	565.44
497.529	563.44
497.746	567.44
497.963	581.44
498.181	626.44
498.398	605.44
498.615	633.44
498.832	619.44
499.049	637.44
499.267	658.44
499.484	695.44
499.701	716.44
499.918	743.44
500.135	751.44
500.352	809.44
500.569	788.44
500.786	803.44
501.003	779.44
501.22	760.44
501.437	734.44
501.654	733.44
501.871	713.44
