Data from 1960PennyLincolnUp.LampE6.200Scan.07172019.P1_HRD10591_13-06-05-001.txt Node
Date: Thu Jul 18 13:06:05 EDT 2019
User: cochatt
Spectrometer: HR+D1059
Trigger mode: 1
Integration Time (sec): 1.000000E-1
Scans to average: 1
Electric dark correction enabled: true
Nonlinearity correction enabled: false
Boxcar width: 0
XAxis mode: Wavelengths
Number of Pixels in Spectrum: 2048
>>>>>Begin Spectral Data<<<<<
223.165	-18.5
223.4	-18.5
223.635	-18.5
223.869	-11.5
224.104	-21.5
224.338	-13.5
224.573	-13.5
224.808	-8.5
225.042	-6.5
225.277	-9.5
225.511	-18.5
225.746	8.5
225.98	5.5
226.215	19.5
226.449	20.5
226.683	7.5
226.918	28.5
227.152	31.5
227.387	38.5
227.621	35.5
227.856	33.5
228.09	59.5
228.324	55.5
228.559	69.5
228.793	64.5
229.027	86.5
229.262	85.5
229.496	103.5
229.73	122.5
229.964	125.5
230.199	120.5
230.433	115.5
230.667	102.5
230.901	115.5
231.136	112.5
231.37	109.5
231.604	111.5
231.838	100.5
232.072	106.5
232.306	108.5
232.541	115.5
232.775	110.5
233.009	121.5
233.243	113.5
233.477	112.5
233.711	109.5
233.945	115.5
234.179	111.5
234.413	114.5
234.647	118.5
234.881	117.5
235.115	120.5
235.349	112.5
235.583	112.5
235.817	113.5
236.051	106.5
236.285	104.5
236.519	107.5
236.753	112.5
236.987	132.5
237.221	153.5
237.455	191.5
237.689	164.5
237.922	135.5
238.156	126.5
238.39	123.5
238.624	119.5
238.858	128.5
239.091	111.5
239.325	128.5
239.559	128.5
239.793	128.5
240.027	122.5
240.26	137.5
240.494	131.5
240.728	136.5
240.961	130.5
241.195	147.5
241.429	130.5
241.662	140.5
241.896	133.5
242.13	136.5
242.363	143.5
242.597	136.5
242.83	126.5
243.064	122.5
243.298	130.5
243.531	139.5
243.765	129.5
243.998	148.5
244.232	132.5
244.465	138.5
244.699	151.5
244.932	145.5
245.166	124.5
245.399	166.5
245.633	141.5
245.866	150.5
246.099	143.5
246.333	153.5
246.566	145.5
246.8	150.5
247.033	149.5
247.266	166.5
247.5	162.5
247.733	148.5
247.966	173.5
248.2	162.5
248.433	149.5
248.666	184.5
248.899	172.5
249.133	174.5
249.366	168.5
249.599	183.5
249.832	164.5
250.066	174.5
250.299	142.5
250.532	178.5
250.765	184.5
250.998	197.5
251.231	206.5
251.465	210.5
251.698	180.5
251.931	180.5
252.164	193.5
252.397	173.5
252.63	180.5
252.863	193.5
253.096	186.5
253.329	216.5
253.562	202.5
253.795	191.5
254.028	194.5
254.261	199.5
254.494	203.5
254.727	224.5
254.96	241.5
255.193	232.5
255.426	201.5
255.659	205.5
255.892	213.5
256.124	210.5
256.357	216.5
256.59	192.5
256.823	192.5
257.056	175.5
257.289	186.5
257.521	193.5
257.754	192.5
257.987	197.5
258.22	197.5
258.452	202.5
258.685	185.5
258.918	205.5
259.151	205.5
259.383	196.5
259.616	206.5
259.849	222.5
260.081	203.5
260.314	228.5
260.547	244.5
260.779	222.5
261.012	218.5
261.244	211.5
261.477	203.5
261.71	198.5
261.942	207.5
262.175	213.5
262.407	208.5
262.64	211.5
262.872	210.5
263.105	203.5
263.337	196.5
263.57	212.5
263.802	208.5
264.035	196.5
264.267	208.5
264.499	201.5
264.732	202.5
264.964	189.5
265.197	201.5
265.429	209.5
265.661	212.5
265.894	212.5
266.126	210.5
266.358	227.5
266.591	218.5
266.823	238.5
267.055	216.5
267.287	228.5
267.52	229.5
267.752	242.5
267.984	214.5
268.216	228.5
268.448	224.5
268.681	235.5
268.913	235.5
269.145	246.5
269.377	263.5
269.609	244.5
269.841	242.5
270.073	259.5
270.306	260.5
270.538	282.5
270.77	270.5
271.002	273.5
271.234	270.5
271.466	288.5
271.698	252.5
271.93	272.5
272.162	278.5
272.394	272.5
272.626	256.5
272.858	265.5
273.09	262.5
273.322	233.5
273.553	262.5
273.785	262.5
274.017	246.5
274.249	274.5
274.481	241.5
274.713	256.5
274.945	263.5
275.176	257.5
275.408	265.5
275.64	255.5
275.872	248.5
276.104	264.5
276.335	272.5
276.567	262.5
276.799	295.5
277.031	284.5
277.262	274.5
277.494	297.5
277.726	269.5
277.957	258.5
278.189	258.5
278.421	252.5
278.652	267.5
278.884	267.5
279.115	271.5
279.347	264.5
279.579	277.5
279.81	272.5
280.042	252.5
280.273	266.5
280.505	292.5
280.736	265.5
280.968	257.5
281.199	255.5
281.431	267.5
281.662	286.5
281.894	270.5
282.125	290.5
282.356	298.5
282.588	282.5
282.819	286.5
283.051	272.5
283.282	247.5
283.513	286.5
283.745	270.5
283.976	278.5
284.207	282.5
284.439	279.5
284.67	272.5
284.901	297.5
285.132	280.5
285.364	283.5
285.595	276.5
285.826	286.5
286.057	274.5
286.288	279.5
286.52	289.5
286.751	286.5
286.982	295.5
287.213	293.5
287.444	291.5
287.675	329.5
287.906	301.5
288.138	292.5
288.369	325.5
288.6	337.5
288.831	296.5
289.062	313.5
289.293	317.5
289.524	314.5
289.755	297.5
289.986	302.5
290.217	302.5
290.448	292.5
290.679	286.5
290.91	303.5
291.141	308.5
291.371	302.5
291.602	310.5
291.833	299.5
292.064	288.5
292.295	304.5
292.526	299.5
292.757	292.5
292.987	300.5
293.218	306.5
293.449	311.5
293.68	311.5
293.91	315.5
294.141	291.5
294.372	310.5
294.603	302.5
294.833	312.5
295.064	302.5
295.295	294.5
295.525	304.5
295.756	306.5
295.987	311.5
296.217	328.5
296.448	337.5
296.679	317.5
296.909	311.5
297.14	320.5
297.37	310.5
297.601	332.5
297.831	326.5
298.062	335.5
298.292	319.5
298.523	315.5
298.753	311.5
298.984	338.5
299.214	327.5
299.445	307.5
299.675	312.5
299.905	328.5
300.136	333.5
300.366	339.5
300.597	317.5
300.827	358.5
301.057	362.5
301.288	347.5
301.518	339.5
301.748	342.5
301.979	359.5
302.209	359.5
302.439	328.5
302.669	343.5
302.9	355.5
303.13	339.5
303.36	336.5
303.59	355.5
303.82	359.5
304.051	328.5
304.281	358.5
304.511	353.5
304.741	340.5
304.971	350.5
305.201	343.5
305.431	344.5
305.661	335.5
305.891	352.5
306.121	345.5
306.352	342.5
306.582	327.5
306.812	329.5
307.042	335.5
307.272	334.5
307.502	351.5
307.731	345.5
307.961	358.5
308.191	358.5
308.421	342.5
308.651	355.5
308.881	350.5
309.111	360.5
309.341	349.5
309.571	344.5
309.8	368.5
310.03	378.5
310.26	382.5
310.49	363.5
310.72	356.5
310.949	379.5
311.179	376.5
311.409	356.5
311.639	345.5
311.868	362.5
312.098	372.5
312.328	372.5
312.557	384.5
312.787	388.5
313.017	399.5
313.246	390.5
313.476	364.5
313.706	379.5
313.935	393.5
314.165	379.5
314.394	384.5
314.624	402.5
314.853	388.5
315.083	362.5
315.312	380.5
315.542	387.5
315.771	374.5
316.001	386.5
316.23	374.5
316.46	388.5
316.689	382.5
316.919	368.5
317.148	393.5
317.377	388.5
317.607	386.5
317.836	373.5
318.065	386.5
318.295	380.5
318.524	378.5
318.753	375.5
318.983	367.5
319.212	366.5
319.441	384.5
319.67	387.5
319.9	385.5
320.129	372.5
320.358	372.5
320.587	385.5
320.816	399.5
321.046	371.5
321.275	380.5
321.504	404.5
321.733	384.5
321.962	376.5
322.191	408.5
322.42	393.5
322.649	424.5
322.878	412.5
323.108	425.5
323.337	428.5
323.566	436.5
323.795	455.5
324.024	471.5
324.253	554.5
324.482	726.5
324.71	1052.5
324.939	1422.5
325.168	1146.5
325.397	635.5
325.626	507.5
325.855	455.5
326.084	450.5
326.313	440.5
326.542	443.5
326.77	474.5
326.999	551.5
327.228	690.5
327.457	985.5
327.686	1094.5
327.914	738.5
328.143	550.5
328.372	479.5
328.6	496.5
328.829	497.5
329.058	483.5
329.287	504.5
329.515	482.5
329.744	458.5
329.972	469.5
330.201	473.5
330.43	482.5
330.658	522.5
330.887	540.5
331.115	503.5
331.344	481.5
331.572	465.5
331.801	475.5
332.03	481.5
332.258	480.5
332.486	478.5
332.715	471.5
332.943	486.5
333.172	494.5
333.4	511.5
333.629	539.5
333.857	513.5
334.085	558.5
334.314	542.5
334.542	557.5
334.771	569.5
334.999	536.5
335.227	499.5
335.455	514.5
335.684	494.5
335.912	479.5
336.14	485.5
336.369	485.5
336.597	473.5
336.825	485.5
337.053	469.5
337.281	444.5
337.51	450.5
337.738	438.5
337.966	460.5
338.194	473.5
338.422	466.5
338.65	454.5
338.878	460.5
339.106	468.5
339.334	452.5
339.562	455.5
339.79	441.5
340.018	424.5
340.246	448.5
340.474	414.5
340.702	424.5
340.93	429.5
341.158	426.5
341.386	437.5
341.614	435.5
341.842	436.5
342.07	428.5
342.298	435.5
342.526	445.5
342.754	424.5
342.981	428.5
343.209	434.5
343.437	427.5
343.665	460.5
343.893	457.5
344.12	496.5
344.348	476.5
344.576	454.5
344.804	461.5
345.031	472.5
345.259	459.5
345.487	451.5
345.714	435.5
345.942	441.5
346.17	407.5
346.397	423.5
346.625	431.5
346.853	435.5
347.08	391.5
347.308	414.5
347.535	424.5
347.763	434.5
347.99	432.5
348.218	427.5
348.445	442.5
348.673	418.5
348.9	414.5
349.128	418.5
349.355	408.5
349.583	417.5
349.81	422.5
350.037	398.5
350.265	411.5
350.492	410.5
350.72	407.5
350.947	420.5
351.174	416.5
351.402	416.5
351.629	418.5
351.856	425.5
352.083	434.5
352.311	422.5
352.538	424.5
352.765	434.5
352.992	428.5
353.22	422.5
353.447	416.5
353.674	394.5
353.901	415.5
354.128	400.5
354.355	389.5
354.583	404.5
354.81	404.5
355.037	390.5
355.264	403.5
355.491	414.5
355.718	394.5
355.945	406.5
356.172	401.5
356.399	406.5
356.626	406.5
356.853	416.5
357.08	394.5
357.307	394.5
357.534	402.5
357.761	406.5
357.988	407.5
358.215	390.5
358.441	396.5
358.668	410.5
358.895	416.5
359.122	401.5
359.349	410.5
359.576	396.5
359.802	435.5
360.029	452.5
360.256	437.5
360.483	447.5
360.709	411.5
360.936	404.5
361.163	410.5
361.39	425.5
361.616	425.5
361.843	431.5
362.07	427.5
362.296	401.5
362.523	415.5
362.749	409.5
362.976	409.5
363.203	420.5
363.429	409.5
363.656	394.5
363.882	409.5
364.109	421.5
364.335	411.5
364.562	410.5
364.788	397.5
365.015	396.5
365.241	402.5
365.468	410.5
365.694	417.5
365.92	407.5
366.147	418.5
366.373	390.5
366.599	421.5
366.826	390.5
367.052	407.5
367.278	409.5
367.505	397.5
367.731	411.5
367.957	424.5
368.184	408.5
368.41	416.5
368.636	442.5
368.862	428.5
369.089	415.5
369.315	416.5
369.541	423.5
369.767	412.5
369.993	418.5
370.219	410.5
370.445	430.5
370.672	414.5
370.898	422.5
371.124	425.5
371.35	441.5
371.576	431.5
371.802	450.5
372.028	440.5
372.254	419.5
372.48	435.5
372.706	450.5
372.932	421.5
373.158	435.5
373.384	432.5
373.61	425.5
373.835	423.5
374.061	422.5
374.287	427.5
374.513	435.5
374.739	457.5
374.965	452.5
375.191	450.5
375.416	442.5
375.642	416.5
375.868	439.5
376.094	431.5
376.319	431.5
376.545	441.5
376.771	425.5
376.997	419.5
377.222	407.5
377.448	425.5
377.674	423.5
377.899	415.5
378.125	421.5
378.35	430.5
378.576	438.5
378.802	433.5
379.027	419.5
379.253	428.5
379.478	422.5
379.704	431.5
379.929	423.5
380.155	419.5
380.38	423.5
380.606	425.5
380.831	417.5
381.057	430.5
381.282	420.5
381.507	435.5
381.733	438.5
381.958	418.5
382.184	416.5
382.409	435.5
382.634	429.5
382.86	416.5
383.085	434.5
383.31	422.5
383.535	460.5
383.761	436.5
383.986	459.5
384.211	475.5
384.436	451.5
384.662	480.5
384.887	494.5
385.112	485.5
385.337	467.5
385.562	490.5
385.787	490.5
386.013	490.5
386.238	479.5
386.463	506.5
386.688	503.5
386.913	469.5
387.138	481.5
387.363	492.5
387.588	490.5
387.813	471.5
388.038	474.5
388.263	478.5
388.488	482.5
388.713	455.5
388.938	471.5
389.163	476.5
389.387	479.5
389.612	510.5
389.837	499.5
390.062	462.5
390.287	482.5
390.512	469.5
390.736	460.5
390.961	499.5
391.186	500.5
391.411	491.5
391.636	494.5
391.86	508.5
392.085	530.5
392.31	504.5
392.534	502.5
392.759	500.5
392.984	503.5
393.208	526.5
393.433	498.5
393.658	499.5
393.882	508.5
394.107	513.5
394.331	512.5
394.556	498.5
394.78	510.5
395.005	505.5
395.229	522.5
395.454	494.5
395.678	522.5
395.903	529.5
396.127	545.5
396.352	511.5
396.576	506.5
396.801	521.5
397.025	521.5
397.249	524.5
397.474	520.5
397.698	545.5
397.922	546.5
398.147	532.5
398.371	542.5
398.595	555.5
398.82	593.5
399.044	601.5
399.268	637.5
399.492	710.5
399.717	762.5
399.941	772.5
400.165	722.5
400.389	691.5
400.613	646.5
400.837	618.5
401.062	579.5
401.286	579.5
401.51	553.5
401.734	578.5
401.958	570.5
402.182	599.5
402.406	595.5
402.63	606.5
402.854	577.5
403.078	592.5
403.302	620.5
403.526	610.5
403.75	636.5
403.974	626.5
404.198	641.5
404.422	620.5
404.645	633.5
404.869	622.5
405.093	652.5
405.317	676.5
405.541	682.5
405.765	641.5
405.988	626.5
406.212	619.5
406.436	636.5
406.66	671.5
406.883	654.5
407.107	683.5
407.331	738.5
407.555	779.5
407.778	762.5
408.002	722.5
408.226	687.5
408.449	655.5
408.673	646.5
408.896	654.5
409.12	678.5
409.344	677.5
409.567	624.5
409.791	634.5
410.014	602.5
410.238	611.5
410.461	600.5
410.685	590.5
410.908	625.5
411.132	635.5
411.355	636.5
411.578	639.5
411.802	598.5
412.025	588.5
412.249	601.5
412.472	603.5
412.695	630.5
412.919	638.5
413.142	592.5
413.365	567.5
413.589	591.5
413.812	554.5
414.035	552.5
414.258	590.5
414.482	553.5
414.705	552.5
414.928	575.5
415.151	588.5
415.374	567.5
415.597	565.5
415.821	575.5
416.044	540.5
416.267	554.5
416.49	563.5
416.713	541.5
416.936	556.5
417.159	559.5
417.382	567.5
417.605	559.5
417.828	575.5
418.051	578.5
418.274	564.5
418.497	578.5
418.72	560.5
418.943	571.5
419.166	601.5
419.389	634.5
419.611	648.5
419.834	595.5
420.057	602.5
420.28	593.5
420.503	576.5
420.726	571.5
420.948	591.5
421.171	620.5
421.394	593.5
421.617	612.5
421.839	590.5
422.062	563.5
422.285	552.5
422.507	652.5
422.73	660.5
422.953	650.5
423.175	625.5
423.398	572.5
423.621	594.5
423.843	626.5
424.066	607.5
424.288	618.5
424.511	624.5
424.733	664.5
424.956	704.5
425.178	681.5
425.401	668.5
425.623	678.5
425.846	601.5
426.068	574.5
426.291	572.5
426.513	586.5
426.735	599.5
426.958	614.5
427.18	640.5
427.402	746.5
427.625	776.5
427.847	693.5
428.069	619.5
428.292	575.5
428.514	549.5
428.736	523.5
428.958	558.5
429.181	529.5
429.403	514.5
429.625	542.5
429.847	564.5
430.069	610.5
430.292	555.5
430.514	536.5
430.736	536.5
430.958	527.5
431.18	512.5
431.402	515.5
431.624	509.5
431.846	519.5
432.068	514.5
432.29	539.5
432.512	514.5
432.734	531.5
432.956	502.5
433.178	535.5
433.4	532.5
433.622	515.5
433.844	504.5
434.066	521.5
434.287	507.5
434.509	536.5
434.731	545.5
434.953	546.5
435.175	579.5
435.397	586.5
435.618	582.5
435.84	615.5
436.062	618.5
436.284	667.5
436.505	599.5
436.727	555.5
436.949	578.5
437.17	548.5
437.392	534.5
437.614	514.5
437.835	550.5
438.057	592.5
438.278	657.5
438.5	660.5
438.721	723.5
438.943	691.5
439.165	592.5
439.386	525.5
439.608	564.5
439.829	548.5
440.05	554.5
440.272	592.5
440.493	569.5
440.715	539.5
440.936	545.5
441.158	540.5
441.379	553.5
441.6	568.5
441.822	592.5
442.043	612.5
442.264	637.5
442.486	704.5
442.707	610.5
442.928	587.5
443.149	583.5
443.371	621.5
443.592	636.5
443.813	692.5
444.034	719.5
444.255	664.5
444.476	635.5
444.698	632.5
444.919	642.5
445.14	733.5
445.361	634.5
445.582	642.5
445.803	652.5
446.024	707.5
446.245	708.5
446.466	662.5
446.687	571.5
446.908	548.5
447.129	535.5
447.35	523.5
447.571	515.5
447.792	498.5
448.013	499.5
448.234	523.5
448.455	572.5
448.675	621.5
448.896	694.5
449.117	598.5
449.338	590.5
449.559	670.5
449.779	704.5
450	585.5
450.221	511.5
450.442	491.5
450.662	470.5
450.883	492.5
451.104	520.5
451.324	488.5
451.545	497.5
451.766	462.5
451.986	468.5
452.207	454.5
452.428	466.5
452.648	466.5
452.869	477.5
453.089	481.5
453.31	467.5
453.53	442.5
453.751	447.5
453.971	452.5
454.192	450.5
454.412	452.5
454.633	476.5
454.853	439.5
455.073	463.5
455.294	479.5
455.514	501.5
455.734	504.5
455.955	443.5
456.175	443.5
456.395	445.5
456.616	436.5
456.836	439.5
457.056	421.5
457.276	436.5
457.497	463.5
457.717	444.5
457.937	434.5
458.157	452.5
458.377	450.5
458.598	492.5
458.818	499.5
459.038	576.5
459.258	582.5
459.478	547.5
459.698	527.5
459.918	515.5
460.138	535.5
460.358	553.5
460.578	574.5
460.798	543.5
461.018	536.5
461.238	536.5
461.458	567.5
461.678	552.5
461.898	559.5
462.118	564.5
462.338	587.5
462.558	591.5
462.777	604.5
462.997	620.5
463.217	681.5
463.437	674.5
463.657	652.5
463.876	621.5
464.096	591.5
464.316	596.5
464.536	607.5
464.755	634.5
464.975	588.5
465.195	590.5
465.414	639.5
465.634	591.5
465.854	518.5
466.073	483.5
466.293	483.5
466.512	470.5
466.732	491.5
466.951	470.5
467.171	485.5
467.391	479.5
467.61	496.5
467.829	503.5
468.049	496.5
468.268	486.5
468.488	473.5
468.707	476.5
468.927	494.5
469.146	483.5
469.365	466.5
469.585	469.5
469.804	473.5
470.023	511.5
470.243	498.5
470.462	488.5
470.681	519.5
470.901	517.5
471.12	488.5
471.339	498.5
471.558	470.5
471.777	493.5
471.997	496.5
472.216	488.5
472.435	483.5
472.654	502.5
472.873	494.5
473.092	471.5
473.311	456.5
473.53	450.5
473.749	465.5
473.968	477.5
474.187	544.5
474.406	568.5
474.625	505.5
474.844	482.5
475.063	458.5
475.282	487.5
475.501	468.5
475.72	482.5
475.939	463.5
476.158	473.5
476.377	481.5
476.596	483.5
476.814	508.5
477.033	506.5
477.252	491.5
477.471	508.5
477.69	519.5
477.908	524.5
478.127	551.5
478.346	548.5
478.564	564.5
478.783	538.5
479.002	564.5
479.22	583.5
479.439	580.5
479.658	583.5
479.876	582.5
480.095	595.5
480.313	608.5
480.532	619.5
480.751	604.5
480.969	622.5
481.188	652.5
481.406	656.5
481.624	593.5
481.843	578.5
482.061	559.5
482.28	547.5
482.498	534.5
482.717	557.5
482.935	561.5
483.153	551.5
483.372	546.5
483.59	547.5
483.808	514.5
484.027	561.5
484.245	574.5
484.463	549.5
484.681	565.5
484.9	569.5
485.118	576.5
485.336	578.5
485.554	552.5
485.772	582.5
485.99	585.5
486.209	574.5
486.427	568.5
486.645	577.5
486.863	576.5
487.081	604.5
487.299	592.5
487.517	566.5
487.735	553.5
487.953	599.5
488.171	590.5
488.389	594.5
488.607	586.5
488.825	564.5
489.043	578.5
489.261	572.5
489.479	581.5
489.696	594.5
489.914	585.5
490.132	594.5
490.35	609.5
490.568	608.5
490.786	622.5
491.003	619.5
491.221	631.5
491.439	634.5
491.657	649.5
491.874	640.5
492.092	666.5
492.31	676.5
492.527	647.5
492.745	682.5
492.963	682.5
493.18	655.5
493.398	680.5
493.615	674.5
493.833	676.5
494.05	687.5
494.268	687.5
494.485	694.5
494.703	681.5
494.92	681.5
495.138	694.5
495.355	658.5
495.573	662.5
495.79	664.5
496.008	699.5
496.225	655.5
496.442	657.5
496.66	691.5
496.877	683.5
497.094	688.5
497.312	688.5
497.529	703.5
497.746	728.5
497.963	727.5
498.181	763.5
498.398	773.5
498.615	803.5
498.832	846.5
499.049	874.5
499.267	900.5
499.484	949.5
499.701	986.5
499.918	1087.5
500.135	1166.5
500.352	1285.5
500.569	1311.5
500.786	1347.5
501.003	1250.5
501.22	1174.5
501.437	1087.5
501.654	1032.5
501.871	980.5
502.088	900.5
502.305	831.5
502.522	819.5
502.739	793.5
502.956	774.5
503.172	763.5
503.389	714.5
503.606	711.5
503.823	712.5
504.04	701.5
504.256	703.5
504.473	712.5
504.69	728.5
504.907	720.5
505.123	666.5
505.34	668.5
505.557	644.5
505.773	640.5
505.99	626.5
506.207	616.5
506.423	632.5
506.64	609.5
506.856	610.5
507.073	602.5
507.289	624.5
507.506	594.5
507.722	606.5
507.939	602.5
508.155	590.5
508.372	578.5
508.588	571.5
508.805	579.5
509.021	563.5
509.238	574.5
509.454	578.5
509.67	575.5
509.887	578.5
510.103	558.5
510.319	554.5
510.536	642.5
510.752	891.5
510.968	754.5
511.184	579.5
511.401	576.5
511.617	567.5
511.833	539.5
512.049	556.5
512.265	534.5
512.481	547.5
512.698	530.5
512.914	539.5
513.13	538.5
513.346	543.5
513.562	532.5
513.778	522.5
513.994	531.5
514.21	556.5
514.426	549.5
514.642	594.5
514.858	590.5
515.074	616.5
515.29	666.5
515.506	997.5
515.721	842.5
515.937	645.5
516.153	616.5
516.369	600.5
516.585	599.5
516.801	590.5
517.016	623.5
517.232	642.5
517.448	647.5
517.664	649.5
517.879	644.5
518.095	641.5
518.311	627.5
518.527	643.5
518.742	621.5
518.958	607.5
519.173	579.5
519.389	586.5
519.605	562.5
519.82	565.5
