Data from 1960PennyLincolnUp.LampE5.5.200Scan.07172019.P1.ChangedAngle_HRD10591_13-14-23-820.txt Node
Date: Thu Jul 18 13:14:23 EDT 2019
User: cochatt
Spectrometer: HR+D1059
Trigger mode: 1
Integration Time (sec): 1.000000E-1
Scans to average: 1
Electric dark correction enabled: true
Nonlinearity correction enabled: false
Boxcar width: 0
XAxis mode: Wavelengths
Number of Pixels in Spectrum: 2048
>>>>>Begin Spectral Data<<<<<
223.165	-25.19
223.4	-25.19
223.635	-25.19
223.869	-11.19
224.104	-17.19
224.338	-0.19
224.573	7.81
224.808	-23.19
225.042	-14.19
225.277	0.81
225.511	-0.19
225.746	13.81
225.98	-3.19
226.215	8.81
226.449	6.81
226.683	24.81
226.918	4.81
227.152	26.81
227.387	39.81
227.621	35.81
227.856	45.81
228.09	48.81
228.324	39.81
228.559	56.81
228.793	65.81
229.027	78.81
229.262	77.81
229.496	99.81
229.73	94.81
229.964	134.81
230.199	102.81
230.433	105.81
230.667	88.81
230.901	102.81
231.136	105.81
231.37	98.81
231.604	93.81
231.838	103.81
232.072	108.81
232.306	99.81
232.541	92.81
232.775	111.81
233.009	106.81
233.243	110.81
233.477	125.81
233.711	102.81
233.945	116.81
234.179	110.81
234.413	101.81
234.647	105.81
234.881	110.81
235.115	115.81
235.349	112.81
235.583	109.81
235.817	112.81
236.051	120.81
236.285	113.81
236.519	108.81
236.753	118.81
236.987	111.81
237.221	142.81
237.455	165.81
237.689	153.81
237.922	117.81
238.156	119.81
238.39	116.81
238.624	110.81
238.858	110.81
239.091	113.81
239.325	110.81
239.559	112.81
239.793	114.81
240.027	115.81
240.26	123.81
240.494	140.81
240.728	126.81
240.961	126.81
241.195	122.81
241.429	141.81
241.662	114.81
241.896	110.81
242.13	131.81
242.363	114.81
242.597	114.81
242.83	127.81
243.064	116.81
243.298	124.81
243.531	136.81
243.765	125.81
243.998	120.81
244.232	128.81
244.465	125.81
244.699	140.81
244.932	129.81
245.166	123.81
245.399	132.81
245.633	127.81
245.866	140.81
246.099	134.81
246.333	150.81
246.566	130.81
246.8	138.81
247.033	134.81
247.266	136.81
247.5	155.81
247.733	145.81
247.966	147.81
248.2	162.81
248.433	151.81
248.666	158.81
248.899	160.81
249.133	170.81
249.366	171.81
249.599	185.81
249.832	154.81
250.066	162.81
250.299	149.81
250.532	166.81
250.765	175.81
250.998	189.81
251.231	186.81
251.465	195.81
251.698	180.81
251.931	171.81
252.164	171.81
252.397	162.81
252.63	174.81
252.863	179.81
253.096	174.81
253.329	186.81
253.562	183.81
253.795	182.81
254.028	160.81
254.261	181.81
254.494	194.81
254.727	206.81
254.96	224.81
255.193	207.81
255.426	200.81
255.659	196.81
255.892	194.81
256.124	171.81
256.357	187.81
256.59	206.81
256.823	171.81
257.056	198.81
257.289	180.81
257.521	200.81
257.754	195.81
257.987	179.81
258.22	195.81
258.452	191.81
258.685	175.81
258.918	188.81
259.151	179.81
259.383	187.81
259.616	178.81
259.849	194.81
260.081	189.81
260.314	210.81
260.547	197.81
260.779	204.81
261.012	203.81
261.244	215.81
261.477	191.81
261.71	192.81
261.942	191.81
262.175	207.81
262.407	196.81
262.64	190.81
262.872	197.81
263.105	200.81
263.337	207.81
263.57	210.81
263.802	186.81
264.035	188.81
264.267	188.81
264.499	198.81
264.732	181.81
264.964	198.81
265.197	195.81
265.429	215.81
265.661	210.81
265.894	194.81
266.126	202.81
266.358	195.81
266.591	197.81
266.823	211.81
267.055	217.81
267.287	203.81
267.52	202.81
267.752	215.81
267.984	221.81
268.216	233.81
268.448	217.81
268.681	216.81
268.913	219.81
269.145	222.81
269.377	233.81
269.609	232.81
269.841	248.81
270.073	228.81
270.306	249.81
270.538	254.81
270.77	245.81
271.002	248.81
271.234	256.81
271.466	259.81
271.698	266.81
271.93	257.81
272.162	263.81
272.394	254.81
272.626	255.81
272.858	273.81
273.09	222.81
273.322	234.81
273.553	226.81
273.785	263.81
274.017	253.81
274.249	255.81
274.481	247.81
274.713	232.81
274.945	240.81
275.176	233.81
275.408	226.81
275.64	236.81
275.872	227.81
276.104	226.81
276.335	245.81
276.567	245.81
276.799	233.81
277.031	278.81
277.262	262.81
277.494	269.81
277.726	250.81
277.957	272.81
278.189	242.81
278.421	252.81
278.652	255.81
278.884	247.81
279.115	239.81
279.347	244.81
279.579	262.81
279.81	242.81
280.042	263.81
280.273	277.81
280.505	253.81
280.736	252.81
280.968	252.81
281.199	262.81
281.431	240.81
281.662	270.81
281.894	243.81
282.125	254.81
282.356	275.81
282.588	268.81
282.819	286.81
283.051	257.81
283.282	257.81
283.513	282.81
283.745	261.81
283.976	254.81
284.207	253.81
284.439	250.81
284.67	245.81
284.901	257.81
285.132	255.81
285.364	254.81
285.595	273.81
285.826	246.81
286.057	252.81
286.288	266.81
286.52	281.81
286.751	266.81
286.982	266.81
287.213	271.81
287.444	272.81
287.675	279.81
287.906	286.81
288.138	282.81
288.369	272.81
288.6	286.81
288.831	292.81
289.062	286.81
289.293	267.81
289.524	276.81
289.755	283.81
289.986	255.81
290.217	282.81
290.448	268.81
290.679	284.81
290.91	275.81
291.141	265.81
291.371	274.81
291.602	263.81
291.833	254.81
292.064	277.81
292.295	262.81
292.526	270.81
292.757	269.81
292.987	282.81
293.218	285.81
293.449	281.81
293.68	272.81
293.91	291.81
294.141	278.81
294.372	286.81
294.603	274.81
294.833	278.81
295.064	280.81
295.295	276.81
295.525	285.81
295.756	294.81
295.987	289.81
296.217	294.81
296.448	290.81
296.679	284.81
296.909	284.81
297.14	291.81
297.37	286.81
297.601	283.81
297.831	283.81
298.062	274.81
298.292	290.81
298.523	294.81
298.753	296.81
298.984	289.81
299.214	286.81
299.445	303.81
299.675	300.81
299.905	298.81
300.136	312.81
300.366	316.81
300.597	305.81
300.827	291.81
301.057	288.81
301.288	304.81
301.518	313.81
301.748	278.81
301.979	278.81
302.209	308.81
302.439	316.81
302.669	310.81
302.9	319.81
303.13	301.81
303.36	316.81
303.59	318.81
303.82	323.81
304.051	300.81
304.281	314.81
304.511	310.81
304.741	308.81
304.971	322.81
305.201	324.81
305.431	307.81
305.661	325.81
305.891	315.81
306.121	310.81
306.352	300.81
306.582	310.81
306.812	314.81
307.042	321.81
307.272	316.81
307.502	309.81
307.731	315.81
307.961	308.81
308.191	320.81
308.421	320.81
308.651	314.81
308.881	312.81
309.111	326.81
309.341	312.81
309.571	326.81
309.8	333.81
310.03	336.81
310.26	335.81
310.49	326.81
310.72	326.81
310.949	330.81
311.179	359.81
311.409	325.81
311.639	326.81
311.868	356.81
312.098	330.81
312.328	335.81
312.557	332.81
312.787	341.81
313.017	358.81
313.246	336.81
313.476	333.81
313.706	338.81
313.935	351.81
314.165	336.81
314.394	358.81
314.624	360.81
314.853	363.81
315.083	342.81
315.312	356.81
315.542	347.81
315.771	359.81
316.001	355.81
316.23	359.81
316.46	330.81
316.689	349.81
316.919	352.81
317.148	349.81
317.377	347.81
317.607	347.81
317.836	349.81
318.065	358.81
318.295	361.81
318.524	349.81
318.753	328.81
318.983	363.81
319.212	346.81
319.441	345.81
319.67	360.81
319.9	350.81
320.129	366.81
320.358	355.81
320.587	351.81
320.816	355.81
321.046	360.81
321.275	354.81
321.504	359.81
321.733	354.81
321.962	367.81
322.191	378.81
322.42	368.81
322.649	381.81
322.878	388.81
323.108	394.81
323.337	395.81
323.566	421.81
323.795	442.81
324.024	442.81
324.253	516.81
324.482	672.81
324.71	897.81
324.939	1227.81
325.168	1067.81
325.397	592.81
325.626	466.81
325.855	426.81
326.084	390.81
326.313	396.81
326.542	414.81
326.77	447.81
326.999	478.81
327.228	603.81
327.457	836.81
327.686	957.81
327.914	672.81
328.143	510.81
328.372	466.81
328.6	442.81
328.829	429.81
329.058	438.81
329.287	434.81
329.515	419.81
329.744	420.81
329.972	422.81
330.201	415.81
330.43	414.81
330.658	451.81
330.887	460.81
331.115	425.81
331.344	430.81
331.572	411.81
331.801	407.81
332.03	418.81
332.258	422.81
332.486	401.81
332.715	415.81
332.943	423.81
333.172	397.81
333.4	413.81
333.629	431.81
333.857	444.81
334.085	438.81
334.314	440.81
334.542	445.81
334.771	448.81
334.999	428.81
335.227	428.81
335.455	411.81
335.684	413.81
335.912	411.81
336.14	402.81
336.369	418.81
336.597	436.81
336.825	389.81
337.053	415.81
337.281	393.81
337.51	392.81
337.738	378.81
337.966	401.81
338.194	394.81
338.422	395.81
338.65	399.81
338.878	411.81
339.106	415.81
339.334	386.81
339.562	403.81
339.79	380.81
340.018	399.81
340.246	381.81
340.474	388.81
340.702	390.81
340.93	391.81
341.158	375.81
341.386	360.81
341.614	401.81
341.842	392.81
342.07	383.81
342.298	384.81
342.526	382.81
342.754	392.81
342.981	375.81
343.209	384.81
343.437	368.81
343.665	384.81
343.893	408.81
344.12	424.81
344.348	389.81
344.576	412.81
344.804	407.81
345.031	410.81
345.259	396.81
345.487	390.81
345.714	378.81
345.942	368.81
346.17	376.81
346.397	378.81
346.625	361.81
346.853	390.81
347.08	373.81
347.308	365.81
347.535	373.81
347.763	361.81
347.99	375.81
348.218	366.81
348.445	386.81
348.673	366.81
348.9	367.81
349.128	367.81
349.355	349.81
349.583	364.81
349.81	338.81
350.037	352.81
350.265	337.81
350.492	366.81
350.72	350.81
350.947	357.81
351.174	355.81
351.402	363.81
351.629	360.81
351.856	378.81
352.083	368.81
352.311	366.81
352.538	366.81
352.765	368.81
352.992	374.81
353.22	380.81
353.447	354.81
353.674	346.81
353.901	352.81
354.128	360.81
354.355	331.81
354.583	316.81
354.81	338.81
355.037	351.81
355.264	346.81
355.491	348.81
355.718	351.81
355.945	366.81
356.172	346.81
356.399	361.81
356.626	344.81
356.853	344.81
357.08	373.81
357.307	357.81
357.534	331.81
357.761	346.81
357.988	355.81
358.215	354.81
358.441	348.81
358.668	342.81
358.895	346.81
359.122	364.81
359.349	337.81
359.576	348.81
359.802	352.81
360.029	375.81
360.256	378.81
360.483	356.81
360.709	366.81
360.936	352.81
361.163	351.81
361.39	350.81
361.616	354.81
361.843	365.81
362.07	338.81
362.296	342.81
362.523	364.81
362.749	366.81
362.976	368.81
363.203	341.81
363.429	322.81
363.656	342.81
363.882	326.81
364.109	338.81
364.335	352.81
364.562	342.81
364.788	325.81
365.015	359.81
365.241	327.81
365.468	340.81
365.694	348.81
365.92	346.81
366.147	360.81
366.373	362.81
366.599	355.81
366.826	344.81
367.052	348.81
367.278	331.81
367.505	343.81
367.731	336.81
367.957	334.81
368.184	341.81
368.41	347.81
368.636	336.81
368.862	348.81
369.089	347.81
369.315	341.81
369.541	347.81
369.767	334.81
369.993	330.81
370.219	351.81
370.445	348.81
370.672	352.81
370.898	322.81
371.124	346.81
371.35	340.81
371.576	337.81
371.802	345.81
372.028	337.81
372.254	356.81
372.48	361.81
372.706	361.81
372.932	351.81
373.158	349.81
373.384	361.81
373.61	326.81
373.835	349.81
374.061	351.81
374.287	357.81
374.513	334.81
374.739	346.81
374.965	359.81
375.191	346.81
375.416	358.81
375.642	359.81
375.868	368.81
376.094	340.81
376.319	344.81
376.545	350.81
376.771	351.81
376.997	335.81
377.222	322.81
377.448	326.81
377.674	345.81
377.899	334.81
378.125	334.81
378.35	329.81
378.576	354.81
378.802	343.81
379.027	338.81
379.253	348.81
379.478	343.81
379.704	341.81
379.929	338.81
380.155	351.81
380.38	333.81
380.606	327.81
380.831	336.81
381.057	358.81
381.282	338.81
381.507	358.81
381.733	357.81
381.958	347.81
382.184	352.81
382.409	344.81
382.634	356.81
382.86	354.81
383.085	361.81
383.31	358.81
383.535	369.81
383.761	342.81
383.986	350.81
384.211	366.81
384.436	377.81
384.662	373.81
384.887	366.81
385.112	382.81
385.337	373.81
385.562	388.81
385.787	381.81
386.013	374.81
386.238	371.81
386.463	363.81
386.688	370.81
386.913	360.81
387.138	370.81
387.363	377.81
387.588	363.81
387.813	375.81
388.038	390.81
388.263	365.81
388.488	380.81
388.713	367.81
388.938	371.81
389.163	363.81
389.387	381.81
389.612	366.81
389.837	367.81
390.062	376.81
390.287	378.81
390.512	361.81
390.736	379.81
390.961	372.81
391.186	392.81
391.411	360.81
391.636	362.81
391.86	381.81
392.085	380.81
392.31	382.81
392.534	393.81
392.759	374.81
392.984	380.81
393.208	375.81
393.433	382.81
393.658	382.81
393.882	363.81
394.107	347.81
394.331	374.81
394.556	372.81
394.78	367.81
395.005	372.81
395.229	381.81
395.454	405.81
395.678	381.81
395.903	366.81
396.127	394.81
396.352	404.81
396.576	387.81
396.801	391.81
397.025	406.81
397.249	396.81
397.474	398.81
397.698	420.81
397.922	412.81
398.147	406.81
398.371	418.81
398.595	421.81
398.82	429.81
399.044	403.81
399.268	440.81
399.492	452.81
399.717	466.81
399.941	510.81
400.165	504.81
400.389	492.81
400.613	458.81
400.837	441.81
401.062	427.81
401.286	418.81
401.51	425.81
401.734	411.81
401.958	418.81
402.182	414.81
402.406	427.81
402.63	404.81
402.854	420.81
403.078	413.81
403.302	426.81
403.526	425.81
403.75	405.81
403.974	414.81
404.198	405.81
404.422	445.81
404.645	438.81
404.869	416.81
405.093	450.81
405.317	479.81
405.541	502.81
405.765	430.81
405.988	439.81
406.212	423.81
406.436	438.81
406.66	446.81
406.883	452.81
407.107	470.81
407.331	493.81
407.555	538.81
407.778	504.81
408.002	479.81
408.226	459.81
408.449	464.81
408.673	445.81
408.896	452.81
409.12	477.81
409.344	475.81
409.567	443.81
409.791	426.81
410.014	420.81
410.238	415.81
410.461	413.81
410.685	410.81
410.908	427.81
411.132	437.81
411.355	471.81
411.578	448.81
411.802	430.81
412.025	422.81
412.249	432.81
412.472	446.81
412.695	429.81
412.919	434.81
413.142	421.81
413.365	413.81
413.589	413.81
413.812	395.81
414.035	396.81
414.258	407.81
414.482	388.81
414.705	398.81
414.928	395.81
415.151	382.81
415.374	399.81
415.597	400.81
415.821	414.81
416.044	396.81
416.267	387.81
416.49	402.81
416.713	392.81
416.936	399.81
417.159	381.81
417.382	391.81
417.605	393.81
417.828	396.81
418.051	388.81
418.274	395.81
418.497	385.81
418.72	385.81
418.943	391.81
419.166	397.81
419.389	427.81
419.611	433.81
419.834	419.81
420.057	403.81
420.28	398.81
420.503	415.81
420.726	420.81
420.948	414.81
421.171	443.81
421.394	447.81
421.617	421.81
421.839	415.81
422.062	394.81
422.285	415.81
422.507	453.81
422.73	504.81
422.953	487.81
423.175	423.81
423.398	419.81
423.621	414.81
423.843	432.81
424.066	429.81
424.288	412.81
424.511	443.81
424.733	429.81
424.956	531.81
425.178	485.81
425.401	506.81
425.623	502.81
425.846	466.81
426.068	433.81
426.291	412.81
426.513	402.81
426.735	414.81
426.958	444.81
427.18	479.81
427.402	582.81
427.625	612.81
427.847	539.81
428.069	482.81
428.292	431.81
428.514	420.81
428.736	403.81
428.958	402.81
429.181	398.81
429.403	382.81
429.625	380.81
429.847	426.81
430.069	457.81
430.292	425.81
430.514	394.81
430.736	382.81
430.958	369.81
431.18	398.81
431.402	378.81
431.624	374.81
431.846	366.81
432.068	380.81
432.29	376.81
432.512	374.81
432.734	365.81
432.956	365.81
433.178	366.81
433.4	396.81
433.622	368.81
433.844	396.81
434.066	382.81
434.287	364.81
434.509	406.81
434.731	394.81
434.953	380.81
435.175	406.81
435.397	411.81
435.618	392.81
435.84	438.81
436.062	506.81
436.284	522.81
436.505	439.81
436.727	430.81
436.949	404.81
437.17	406.81
437.392	390.81
437.614	393.81
437.835	412.81
438.057	474.81
438.278	523.81
438.5	524.81
438.721	574.81
438.943	537.81
439.165	429.81
439.386	428.81
439.608	412.81
439.829	441.81
440.05	430.81
440.272	447.81
440.493	437.81
440.715	418.81
440.936	414.81
441.158	392.81
441.379	391.81
441.6	407.81
441.822	414.81
442.043	434.81
442.264	461.81
442.486	489.81
442.707	426.81
442.928	413.81
443.149	411.81
443.371	434.81
443.592	448.81
443.813	494.81
444.034	546.81
444.255	467.81
444.476	447.81
444.698	418.81
444.919	410.81
445.14	532.81
445.361	488.81
445.582	428.81
445.803	462.81
446.024	508.81
446.245	535.81
446.466	500.81
446.687	432.81
446.908	404.81
447.129	383.81
447.35	388.81
447.571	388.81
447.792	382.81
448.013	388.81
448.234	383.81
448.455	440.81
448.675	469.81
448.896	553.81
449.117	484.81
449.338	448.81
449.559	522.81
449.779	552.81
450	475.81
450.221	414.81
450.442	370.81
450.662	385.81
450.883	364.81
451.104	364.81
451.324	371.81
451.545	362.81
451.766	362.81
451.986	343.81
452.207	358.81
452.428	370.81
452.648	364.81
452.869	351.81
453.089	347.81
453.31	359.81
453.53	346.81
453.751	343.81
453.971	363.81
454.192	352.81
454.412	345.81
454.633	339.81
454.853	336.81
455.073	346.81
455.294	355.81
455.514	384.81
455.734	388.81
455.955	351.81
456.175	317.81
456.395	320.81
456.616	330.81
456.836	331.81
457.056	331.81
457.276	310.81
457.497	336.81
457.717	348.81
457.937	340.81
458.157	342.81
458.377	341.81
458.598	355.81
458.818	398.81
459.038	411.81
459.258	420.81
459.478	381.81
459.698	368.81
459.918	365.81
460.138	370.81
460.358	384.81
460.578	386.81
460.798	373.81
461.018	396.81
461.238	399.81
461.458	388.81
461.678	374.81
461.898	369.81
462.118	406.81
462.338	404.81
462.558	407.81
462.777	414.81
462.997	384.81
463.217	427.81
463.437	407.81
463.657	396.81
463.876	416.81
464.096	407.81
464.316	404.81
464.536	423.81
464.755	410.81
464.975	414.81
465.195	406.81
465.414	430.81
465.634	395.81
465.854	398.81
466.073	381.81
466.293	368.81
466.512	370.81
466.732	381.81
466.951	336.81
467.171	362.81
467.391	360.81
467.61	343.81
467.829	360.81
468.049	382.81
468.268	356.81
468.488	343.81
468.707	356.81
468.927	356.81
469.146	368.81
469.365	349.81
469.585	364.81
469.804	354.81
470.023	373.81
470.243	361.81
470.462	372.81
470.681	379.81
470.901	362.81
471.12	368.81
471.339	361.81
471.558	356.81
471.777	365.81
471.997	347.81
472.216	396.81
472.435	368.81
472.654	382.81
472.873	375.81
473.092	358.81
473.311	357.81
473.53	357.81
473.749	372.81
473.968	384.81
474.187	430.81
474.406	433.81
474.625	397.81
474.844	372.81
475.063	370.81
475.282	366.81
475.501	375.81
475.72	372.81
475.939	348.81
476.158	346.81
476.377	362.81
476.596	362.81
476.814	392.81
477.033	383.81
477.252	395.81
477.471	380.81
477.69	389.81
477.908	386.81
478.127	410.81
478.346	387.81
478.564	402.81
478.783	410.81
479.002	426.81
479.22	405.81
479.439	419.81
479.658	412.81
479.876	430.81
480.095	430.81
480.313	450.81
480.532	439.81
480.751	452.81
480.969	465.81
481.188	468.81
481.406	467.81
481.624	440.81
481.843	425.81
482.061	442.81
482.28	425.81
482.498	405.81
482.717	414.81
482.935	438.81
483.153	430.81
483.372	416.81
483.59	418.81
483.808	410.81
484.027	422.81
484.245	400.81
484.463	428.81
484.681	423.81
484.9	447.81
485.118	431.81
485.336	427.81
485.554	451.81
485.772	434.81
485.99	430.81
486.209	449.81
486.427	443.81
486.645	459.81
486.863	440.81
487.081	443.81
487.299	449.81
487.517	446.81
487.735	448.81
487.953	434.81
488.171	453.81
488.389	446.81
488.607	466.81
488.825	444.81
489.043	455.81
489.261	444.81
489.479	438.81
489.696	428.81
489.914	450.81
490.132	452.81
490.35	440.81
490.568	456.81
490.786	473.81
491.003	468.81
491.221	473.81
491.439	492.81
491.657	468.81
491.874	488.81
492.092	468.81
492.31	470.81
492.527	478.81
492.745	462.81
492.963	488.81
493.18	502.81
493.398	494.81
493.615	494.81
493.833	480.81
494.05	491.81
494.268	496.81
494.485	513.81
494.703	477.81
494.92	525.81
495.138	501.81
495.355	506.81
495.573	519.81
495.79	493.81
496.008	521.81
496.225	506.81
496.442	501.81
496.66	519.81
496.877	512.81
497.094	504.81
497.312	528.81
497.529	527.81
497.746	510.81
497.963	538.81
498.181	550.81
498.398	575.81
498.615	590.81
498.832	601.81
499.049	618.81
499.267	600.81
499.484	638.81
499.701	669.81
499.918	692.81
500.135	708.81
500.352	735.81
500.569	772.81
500.786	760.81
501.003	783.81
501.22	720.81
501.437	701.81
501.654	682.81
501.871	647.81
502.088	616.81
