Data from 1960PennyLincolnUp.LampE6.200Scan.07172019.P1_HRD10591_13-05-21-001.txt Node
Date: Thu Jul 18 13:05:21 EDT 2019
User: cochatt
Spectrometer: HR+D1059
Trigger mode: 1
Integration Time (sec): 1.000000E-1
Scans to average: 1
Electric dark correction enabled: true
Nonlinearity correction enabled: false
Boxcar width: 0
XAxis mode: Wavelengths
Number of Pixels in Spectrum: 2048
>>>>>Begin Spectral Data<<<<<
223.165	-10.75
223.4	-10.75
223.635	-10.75
223.869	-14.75
224.104	-25.75
224.338	-10.75
224.573	-17.75
224.808	3.25
225.042	3.25
225.277	-11.75
225.511	-9.75
225.746	2.25
225.98	7.25
226.215	1.25
226.449	16.25
226.683	13.25
226.918	26.25
227.152	28.25
227.387	38.25
227.621	29.25
227.856	44.25
228.09	49.25
228.324	58.25
228.559	52.25
228.793	68.25
229.027	79.25
229.262	112.25
229.496	105.25
229.73	104.25
229.964	105.25
230.199	102.25
230.433	97.25
230.667	93.25
230.901	104.25
231.136	97.25
231.37	91.25
231.604	104.25
231.838	116.25
232.072	117.25
232.306	95.25
232.541	108.25
232.775	101.25
233.009	102.25
233.243	102.25
233.477	103.25
233.711	106.25
233.945	104.25
234.179	105.25
234.413	107.25
234.647	112.25
234.881	113.25
235.115	103.25
235.349	121.25
235.583	113.25
235.817	108.25
236.051	120.25
236.285	123.25
236.519	123.25
236.753	117.25
236.987	122.25
237.221	138.25
237.455	163.25
237.689	144.25
237.922	118.25
238.156	127.25
238.39	115.25
238.624	101.25
238.858	100.25
239.091	109.25
239.325	115.25
239.559	110.25
239.793	105.25
240.027	127.25
240.26	126.25
240.494	134.25
240.728	118.25
240.961	122.25
241.195	131.25
241.429	130.25
241.662	123.25
241.896	123.25
242.13	136.25
242.363	147.25
242.597	123.25
242.83	125.25
243.064	133.25
243.298	136.25
243.531	134.25
243.765	146.25
243.998	128.25
244.232	130.25
244.465	135.25
244.699	152.25
244.932	147.25
245.166	142.25
245.399	136.25
245.633	139.25
245.866	143.25
246.099	120.25
246.333	127.25
246.566	148.25
246.8	140.25
247.033	144.25
247.266	140.25
247.5	150.25
247.733	162.25
247.966	149.25
248.2	155.25
248.433	162.25
248.666	155.25
248.899	167.25
249.133	170.25
249.366	161.25
249.599	176.25
249.832	158.25
250.066	168.25
250.299	155.25
250.532	162.25
250.765	181.25
250.998	180.25
251.231	189.25
251.465	184.25
251.698	168.25
251.931	178.25
252.164	186.25
252.397	171.25
252.63	177.25
252.863	180.25
253.096	196.25
253.329	184.25
253.562	206.25
253.795	189.25
254.028	186.25
254.261	186.25
254.494	198.25
254.727	201.25
254.96	212.25
255.193	226.25
255.426	198.25
255.659	181.25
255.892	185.25
256.124	211.25
256.357	197.25
256.59	199.25
256.823	200.25
257.056	193.25
257.289	184.25
257.521	177.25
257.754	187.25
257.987	196.25
258.22	191.25
258.452	177.25
258.685	193.25
258.918	188.25
259.151	171.25
259.383	183.25
259.616	196.25
259.849	191.25
260.081	209.25
260.314	213.25
260.547	219.25
260.779	219.25
261.012	185.25
261.244	207.25
261.477	201.25
261.71	203.25
261.942	207.25
262.175	195.25
262.407	194.25
262.64	200.25
262.872	194.25
263.105	202.25
263.337	191.25
263.57	193.25
263.802	188.25
264.035	197.25
264.267	204.25
264.499	178.25
264.732	206.25
264.964	202.25
265.197	208.25
265.429	206.25
265.661	197.25
265.894	214.25
266.126	187.25
266.358	199.25
266.591	189.25
266.823	202.25
267.055	204.25
267.287	213.25
267.52	211.25
267.752	207.25
267.984	210.25
268.216	213.25
268.448	215.25
268.681	211.25
268.913	229.25
269.145	227.25
269.377	227.25
269.609	237.25
269.841	235.25
270.073	247.25
270.306	237.25
270.538	266.25
270.77	256.25
271.002	268.25
271.234	251.25
271.466	241.25
271.698	250.25
271.93	266.25
272.162	248.25
272.394	257.25
272.626	247.25
272.858	244.25
273.09	233.25
273.322	234.25
273.553	228.25
273.785	227.25
274.017	234.25
274.249	256.25
274.481	255.25
274.713	245.25
274.945	257.25
275.176	252.25
275.408	246.25
275.64	245.25
275.872	241.25
276.104	252.25
276.335	230.25
276.567	243.25
276.799	264.25
277.031	268.25
277.262	273.25
277.494	284.25
277.726	265.25
277.957	261.25
278.189	265.25
278.421	265.25
278.652	249.25
278.884	282.25
279.115	254.25
279.347	259.25
279.579	243.25
279.81	251.25
280.042	258.25
280.273	247.25
280.505	271.25
280.736	273.25
280.968	261.25
281.199	249.25
281.431	268.25
281.662	268.25
281.894	281.25
282.125	270.25
282.356	270.25
282.588	285.25
282.819	255.25
283.051	265.25
283.282	283.25
283.513	280.25
283.745	260.25
283.976	273.25
284.207	294.25
284.439	275.25
284.67	266.25
284.901	281.25
285.132	267.25
285.364	296.25
285.595	261.25
285.826	265.25
286.057	281.25
286.288	280.25
286.52	277.25
286.751	283.25
286.982	290.25
287.213	281.25
287.444	277.25
287.675	261.25
287.906	278.25
288.138	293.25
288.369	287.25
288.6	287.25
288.831	298.25
289.062	299.25
289.293	300.25
289.524	280.25
289.755	302.25
289.986	293.25
290.217	273.25
290.448	273.25
290.679	299.25
290.91	303.25
291.141	288.25
291.371	281.25
291.602	303.25
291.833	293.25
292.064	286.25
292.295	296.25
292.526	310.25
292.757	296.25
292.987	295.25
293.218	285.25
293.449	282.25
293.68	289.25
293.91	289.25
294.141	299.25
294.372	301.25
294.603	305.25
294.833	296.25
295.064	315.25
295.295	310.25
295.525	294.25
295.756	318.25
295.987	314.25
296.217	303.25
296.448	312.25
296.679	303.25
296.909	304.25
297.14	299.25
297.37	312.25
297.601	317.25
297.831	299.25
298.062	321.25
298.292	298.25
298.523	318.25
298.753	322.25
298.984	317.25
299.214	314.25
299.445	322.25
299.675	324.25
299.905	302.25
300.136	324.25
300.366	311.25
300.597	326.25
300.827	323.25
301.057	331.25
301.288	333.25
301.518	344.25
301.748	335.25
301.979	343.25
302.209	329.25
302.439	336.25
302.669	347.25
302.9	322.25
303.13	330.25
303.36	322.25
303.59	326.25
303.82	312.25
304.051	341.25
304.281	341.25
304.511	342.25
304.741	335.25
304.971	345.25
305.201	334.25
305.431	323.25
305.661	331.25
305.891	345.25
306.121	334.25
306.352	325.25
306.582	342.25
306.812	326.25
307.042	340.25
307.272	331.25
307.502	343.25
307.731	308.25
307.961	332.25
308.191	299.25
308.421	339.25
308.651	339.25
308.881	327.25
309.111	343.25
309.341	338.25
309.571	343.25
309.8	351.25
310.03	344.25
310.26	354.25
310.49	347.25
310.72	317.25
310.949	345.25
311.179	363.25
311.409	361.25
311.639	355.25
311.868	361.25
312.098	371.25
312.328	363.25
312.557	379.25
312.787	362.25
313.017	356.25
313.246	382.25
313.476	362.25
313.706	369.25
313.935	358.25
314.165	362.25
314.394	378.25
314.624	360.25
314.853	365.25
315.083	377.25
315.312	382.25
315.542	364.25
315.771	372.25
316.001	374.25
316.23	366.25
316.46	357.25
316.689	368.25
316.919	370.25
317.148	361.25
317.377	379.25
317.607	366.25
317.836	371.25
318.065	371.25
318.295	371.25
318.524	360.25
318.753	352.25
318.983	380.25
319.212	365.25
319.441	365.25
319.67	394.25
319.9	365.25
320.129	361.25
320.358	361.25
320.587	369.25
320.816	375.25
321.046	393.25
321.275	377.25
321.504	361.25
321.733	377.25
321.962	379.25
322.191	387.25
322.42	393.25
322.649	385.25
322.878	405.25
323.108	395.25
323.337	396.25
323.566	423.25
323.795	405.25
324.024	435.25
324.253	512.25
324.482	619.25
324.71	853.25
324.939	1139.25
325.168	965.25
325.397	571.25
325.626	458.25
325.855	441.25
326.084	423.25
326.313	421.25
326.542	432.25
326.77	452.25
326.999	481.25
327.228	624.25
327.457	822.25
327.686	918.25
327.914	651.25
328.143	495.25
328.372	458.25
328.6	441.25
328.829	440.25
329.058	454.25
329.287	447.25
329.515	435.25
329.744	437.25
329.972	442.25
330.201	455.25
330.43	464.25
330.658	473.25
330.887	496.25
331.115	461.25
331.344	442.25
331.572	445.25
331.801	471.25
332.03	457.25
332.258	464.25
332.486	481.25
332.715	461.25
332.943	469.25
333.172	483.25
333.4	475.25
333.629	520.25
333.857	483.25
334.085	508.25
334.314	521.25
334.542	494.25
334.771	533.25
334.999	516.25
335.227	503.25
335.455	473.25
335.684	473.25
335.912	436.25
336.14	463.25
336.369	442.25
336.597	467.25
336.825	461.25
337.053	462.25
337.281	443.25
337.51	439.25
337.738	429.25
337.966	447.25
338.194	438.25
338.422	433.25
338.65	421.25
338.878	424.25
339.106	413.25
339.334	444.25
339.562	433.25
339.79	440.25
340.018	440.25
340.246	418.25
340.474	412.25
340.702	432.25
340.93	439.25
341.158	429.25
341.386	416.25
341.614	424.25
341.842	418.25
342.07	415.25
342.298	411.25
342.526	411.25
342.754	418.25
342.981	409.25
343.209	439.25
343.437	433.25
343.665	451.25
343.893	467.25
344.12	475.25
344.348	452.25
344.576	467.25
344.804	451.25
345.031	436.25
345.259	425.25
345.487	423.25
345.714	414.25
345.942	398.25
346.17	415.25
346.397	388.25
346.625	407.25
346.853	390.25
347.08	392.25
347.308	406.25
347.535	413.25
347.763	400.25
347.99	406.25
348.218	411.25
348.445	399.25
348.673	401.25
348.9	407.25
349.128	407.25
349.355	389.25
349.583	397.25
349.81	392.25
350.037	407.25
350.265	410.25
350.492	393.25
350.72	401.25
350.947	420.25
351.174	394.25
351.402	388.25
351.629	385.25
351.856	425.25
352.083	405.25
352.311	416.25
352.538	387.25
352.765	415.25
352.992	410.25
353.22	395.25
353.447	385.25
353.674	400.25
353.901	387.25
354.128	371.25
354.355	401.25
354.583	401.25
354.81	411.25
355.037	390.25
355.264	383.25
355.491	378.25
355.718	379.25
355.945	388.25
356.172	401.25
356.399	393.25
356.626	392.25
356.853	415.25
357.08	397.25
357.307	382.25
357.534	383.25
357.761	395.25
357.988	403.25
358.215	394.25
358.441	405.25
358.668	379.25
358.895	398.25
359.122	397.25
359.349	403.25
359.576	411.25
359.802	402.25
360.029	423.25
360.256	436.25
360.483	414.25
360.709	397.25
360.936	413.25
361.163	415.25
361.39	392.25
361.616	399.25
361.843	399.25
362.07	385.25
362.296	392.25
362.523	403.25
362.749	395.25
362.976	385.25
363.203	393.25
363.429	406.25
363.656	378.25
363.882	371.25
364.109	400.25
364.335	421.25
364.562	383.25
364.788	392.25
365.015	394.25
365.241	377.25
365.468	407.25
365.694	394.25
365.92	404.25
366.147	395.25
366.373	395.25
366.599	378.25
366.826	391.25
367.052	389.25
367.278	377.25
367.505	391.25
367.731	418.25
367.957	389.25
368.184	413.25
368.41	409.25
368.636	420.25
368.862	405.25
369.089	408.25
369.315	380.25
369.541	405.25
369.767	435.25
369.993	390.25
370.219	398.25
370.445	407.25
370.672	405.25
370.898	429.25
371.124	419.25
371.35	410.25
371.576	413.25
371.802	415.25
372.028	437.25
372.254	410.25
372.48	428.25
372.706	416.25
372.932	421.25
373.158	420.25
373.384	416.25
373.61	420.25
373.835	435.25
374.061	439.25
374.287	407.25
374.513	440.25
374.739	430.25
374.965	421.25
375.191	457.25
375.416	442.25
375.642	433.25
375.868	414.25
376.094	433.25
376.319	418.25
376.545	413.25
376.771	425.25
376.997	421.25
377.222	420.25
377.448	406.25
377.674	411.25
377.899	393.25
378.125	389.25
378.35	410.25
378.576	402.25
378.802	414.25
379.027	413.25
379.253	414.25
379.478	405.25
379.704	396.25
379.929	407.25
380.155	428.25
380.38	420.25
380.606	409.25
380.831	412.25
381.057	408.25
381.282	417.25
381.507	395.25
381.733	406.25
381.958	417.25
382.184	422.25
382.409	411.25
382.634	422.25
382.86	437.25
383.085	431.25
383.31	435.25
383.535	427.25
383.761	453.25
383.986	457.25
384.211	469.25
384.436	462.25
384.662	453.25
384.887	471.25
385.112	464.25
385.337	491.25
385.562	481.25
385.787	471.25
386.013	479.25
386.238	480.25
386.463	467.25
386.688	486.25
386.913	464.25
387.138	472.25
387.363	455.25
387.588	487.25
387.813	469.25
388.038	461.25
388.263	442.25
388.488	470.25
388.713	464.25
388.938	446.25
389.163	459.25
389.387	482.25
389.612	485.25
389.837	451.25
390.062	479.25
390.287	442.25
390.512	445.25
390.736	455.25
390.961	472.25
391.186	463.25
391.411	495.25
391.636	500.25
391.86	503.25
392.085	520.25
392.31	522.25
392.534	503.25
392.759	500.25
392.984	510.25
393.208	474.25
393.433	495.25
393.658	499.25
393.882	486.25
394.107	503.25
394.331	491.25
394.556	489.25
394.78	476.25
395.005	474.25
395.229	485.25
395.454	507.25
395.678	506.25
395.903	495.25
396.127	520.25
396.352	516.25
396.576	515.25
396.801	495.25
397.025	498.25
397.249	517.25
397.474	513.25
397.698	519.25
397.922	533.25
398.147	543.25
398.371	528.25
398.595	534.25
398.82	561.25
399.044	589.25
399.268	631.25
399.492	693.25
399.717	728.25
399.941	749.25
400.165	714.25
400.389	679.25
400.613	626.25
400.837	591.25
401.062	588.25
401.286	566.25
401.51	552.25
401.734	570.25
401.958	550.25
402.182	592.25
402.406	581.25
402.63	572.25
402.854	570.25
403.078	571.25
403.302	610.25
403.526	607.25
403.75	615.25
403.974	609.25
404.198	623.25
404.422	633.25
404.645	644.25
404.869	625.25
405.093	632.25
405.317	648.25
405.541	675.25
405.765	643.25
405.988	584.25
406.212	609.25
406.436	626.25
406.66	641.25
406.883	624.25
407.107	656.25
407.331	698.25
407.555	727.25
407.778	706.25
408.002	669.25
408.226	656.25
408.449	641.25
408.673	643.25
408.896	642.25
409.12	662.25
409.344	625.25
409.567	607.25
409.791	576.25
410.014	587.25
410.238	590.25
410.461	603.25
410.685	591.25
410.908	582.25
411.132	587.25
411.355	629.25
411.578	616.25
411.802	590.25
412.025	567.25
412.249	586.25
412.472	622.25
412.695	591.25
412.919	626.25
413.142	584.25
413.365	567.25
413.589	573.25
413.812	551.25
414.035	532.25
414.258	551.25
414.482	533.25
414.705	528.25
414.928	545.25
415.151	553.25
415.374	549.25
415.597	546.25
415.821	544.25
416.044	558.25
416.267	545.25
416.49	538.25
416.713	530.25
416.936	538.25
417.159	520.25
417.382	542.25
417.605	503.25
417.828	554.25
418.051	560.25
418.274	568.25
418.497	565.25
418.72	558.25
418.943	552.25
419.166	551.25
419.389	603.25
419.611	578.25
419.834	597.25
420.057	571.25
420.28	573.25
420.503	565.25
420.726	561.25
420.948	552.25
421.171	602.25
421.394	606.25
421.617	567.25
421.839	555.25
422.062	586.25
422.285	573.25
422.507	592.25
422.73	631.25
422.953	618.25
423.175	573.25
423.398	584.25
423.621	578.25
423.843	602.25
424.066	599.25
424.288	605.25
424.511	611.25
424.733	644.25
424.956	666.25
425.178	638.25
425.401	635.25
425.623	637.25
425.846	582.25
426.068	563.25
426.291	553.25
426.513	551.25
426.735	560.25
426.958	579.25
427.18	623.25
427.402	684.25
427.625	709.25
427.847	629.25
428.069	590.25
428.292	559.25
428.514	543.25
428.736	488.25
428.958	515.25
429.181	504.25
429.403	507.25
429.625	506.25
429.847	520.25
430.069	532.25
430.292	582.25
430.514	513.25
430.736	495.25
430.958	505.25
431.18	501.25
431.402	472.25
431.624	495.25
431.846	493.25
432.068	486.25
432.29	499.25
432.512	500.25
432.734	495.25
432.956	507.25
433.178	509.25
433.4	503.25
433.622	511.25
433.844	498.25
434.066	510.25
434.287	499.25
434.509	503.25
434.731	517.25
434.953	531.25
435.175	554.25
435.397	551.25
435.618	542.25
435.84	580.25
436.062	598.25
436.284	655.25
436.505	560.25
436.727	551.25
436.949	521.25
437.17	517.25
437.392	497.25
437.614	511.25
437.835	519.25
438.057	553.25
438.278	623.25
438.5	616.25
438.721	651.25
438.943	647.25
439.165	576.25
439.386	537.25
439.608	523.25
439.829	522.25
440.05	536.25
440.272	552.25
440.493	555.25
440.715	527.25
440.936	525.25
441.158	534.25
441.379	563.25
441.6	538.25
441.822	563.25
442.043	590.25
442.264	612.25
442.486	600.25
442.707	578.25
442.928	558.25
443.149	571.25
443.371	575.25
443.592	599.25
443.813	639.25
444.034	707.25
444.255	632.25
444.476	591.25
444.698	607.25
444.919	623.25
445.14	695.25
445.361	634.25
445.582	579.25
445.803	607.25
446.024	629.25
446.245	646.25
446.466	624.25
446.687	539.25
446.908	526.25
447.129	523.25
447.35	528.25
447.571	480.25
447.792	514.25
448.013	490.25
448.234	493.25
448.455	511.25
448.675	582.25
448.896	620.25
449.117	558.25
449.338	547.25
449.559	616.25
449.779	662.25
450	583.25
450.221	525.25
450.442	484.25
450.662	440.25
450.883	470.25
451.104	486.25
451.324	485.25
451.545	473.25
451.766	462.25
451.986	455.25
452.207	465.25
452.428	436.25
452.648	439.25
452.869	463.25
453.089	427.25
453.31	467.25
453.53	443.25
453.751	445.25
453.971	449.25
454.192	459.25
454.412	442.25
454.633	440.25
454.853	446.25
455.073	431.25
455.294	449.25
455.514	468.25
455.734	477.25
455.955	448.25
456.175	432.25
456.395	414.25
456.616	431.25
456.836	447.25
457.056	432.25
457.276	423.25
457.497	428.25
457.717	419.25
457.937	424.25
458.157	432.25
458.377	418.25
458.598	456.25
458.818	465.25
459.038	529.25
459.258	542.25
459.478	519.25
459.698	499.25
459.918	505.25
460.138	518.25
460.358	521.25
460.578	515.25
460.798	537.25
461.018	541.25
461.238	564.25
461.458	549.25
461.678	543.25
461.898	558.25
462.118	560.25
462.338	577.25
462.558	578.25
462.777	596.25
462.997	630.25
463.217	679.25
463.437	662.25
463.657	609.25
463.876	570.25
464.096	579.25
464.316	591.25
464.536	601.25
464.755	589.25
464.975	554.25
465.195	577.25
465.414	561.25
465.634	525.25
465.854	505.25
466.073	502.25
466.293	504.25
466.512	488.25
466.732	467.25
466.951	458.25
467.171	482.25
467.391	463.25
467.61	472.25
467.829	462.25
468.049	486.25
468.268	484.25
468.488	465.25
468.707	453.25
468.927	466.25
469.146	462.25
469.365	458.25
469.585	475.25
469.804	471.25
470.023	494.25
470.243	481.25
470.462	477.25
470.681	518.25
470.901	493.25
471.12	496.25
471.339	480.25
471.558	486.25
471.777	458.25
471.997	477.25
472.216	453.25
472.435	499.25
472.654	505.25
472.873	454.25
473.092	436.25
473.311	466.25
473.53	479.25
473.749	464.25
473.968	487.25
474.187	523.25
474.406	548.25
474.625	515.25
474.844	471.25
475.063	477.25
475.282	453.25
475.501	463.25
475.72	473.25
475.939	455.25
476.158	456.25
476.377	486.25
476.596	491.25
476.814	488.25
477.033	470.25
477.252	487.25
477.471	488.25
477.69	510.25
477.908	516.25
478.127	521.25
478.346	528.25
478.564	529.25
478.783	547.25
479.002	553.25
479.22	552.25
479.439	571.25
479.658	555.25
479.876	535.25
480.095	562.25
480.313	585.25
480.532	575.25
480.751	587.25
480.969	577.25
481.188	598.25
481.406	598.25
481.624	566.25
481.843	535.25
482.061	531.25
482.28	519.25
482.498	514.25
482.717	511.25
482.935	519.25
483.153	551.25
483.372	534.25
483.59	531.25
483.808	510.25
484.027	515.25
484.245	542.25
484.463	519.25
484.681	531.25
484.9	543.25
485.118	557.25
485.336	541.25
485.554	559.25
485.772	539.25
485.99	539.25
486.209	541.25
486.427	569.25
486.645	549.25
486.863	586.25
487.081	561.25
487.299	559.25
487.517	552.25
487.735	564.25
487.953	582.25
488.171	555.25
488.389	566.25
488.607	551.25
488.825	541.25
489.043	565.25
489.261	567.25
489.479	579.25
489.696	560.25
489.914	550.25
490.132	587.25
490.35	572.25
490.568	578.25
490.786	575.25
491.003	613.25
491.221	611.25
491.439	593.25
491.657	599.25
491.874	618.25
492.092	641.25
492.31	609.25
492.527	628.25
492.745	618.25
492.963	624.25
493.18	625.25
493.398	633.25
493.615	645.25
493.833	638.25
494.05	642.25
494.268	630.25
494.485	641.25
494.703	616.25
494.92	629.25
495.138	626.25
495.355	634.25
495.573	636.25
495.79	633.25
496.008	627.25
496.225	621.25
496.442	634.25
496.66	637.25
496.877	665.25
497.094	662.25
497.312	659.25
497.529	669.25
497.746	682.25
497.963	693.25
498.181	714.25
498.398	739.25
498.615	791.25
498.832	803.25
499.049	851.25
499.267	886.25
499.484	943.25
499.701	967.25
499.918	1081.25
500.135	1143.25
500.352	1278.25
500.569	1283.25
500.786	1297.25
501.003	1237.25
501.22	1149.25
501.437	1071.25
501.654	987.25
501.871	927.25
502.088	853.25
