Data from 1960PennyLincolnUp.LampE6.200Scan.07172019.P1_HRD10591_13-06-10-002.txt Node
Date: Thu Jul 18 13:06:10 EDT 2019
User: cochatt
Spectrometer: HR+D1059
Trigger mode: 1
Integration Time (sec): 1.000000E-1
Scans to average: 1
Electric dark correction enabled: true
Nonlinearity correction enabled: false
Boxcar width: 0
XAxis mode: Wavelengths
Number of Pixels in Spectrum: 2048
>>>>>Begin Spectral Data<<<<<
223.165	-5.56
223.4	-5.56
223.635	-5.56
223.869	-18.56
224.104	-8.56
224.338	-10.56
224.573	-11.56
224.808	-29.56
225.042	-13.56
225.277	-6.56
225.511	-6.56
225.746	1.44
225.98	6.44
226.215	23.44
226.449	19.44
226.683	17.44
226.918	25.44
227.152	17.44
227.387	32.44
227.621	30.44
227.856	38.44
228.09	36.44
228.324	46.44
228.559	50.44
228.793	57.44
229.027	73.44
229.262	93.44
229.496	112.44
229.73	106.44
229.964	115.44
230.199	114.44
230.433	98.44
230.667	97.44
230.901	112.44
231.136	98.44
231.37	106.44
231.604	109.44
231.838	108.44
232.072	108.44
232.306	109.44
232.541	102.44
232.775	120.44
233.009	111.44
233.243	96.44
233.477	113.44
233.711	105.44
233.945	122.44
234.179	119.44
234.413	109.44
234.647	112.44
234.881	112.44
235.115	103.44
235.349	123.44
235.583	94.44
235.817	110.44
236.051	122.44
236.285	101.44
236.519	122.44
236.753	125.44
236.987	115.44
237.221	161.44
237.455	166.44
237.689	135.44
237.922	124.44
238.156	112.44
238.39	116.44
238.624	98.44
238.858	120.44
239.091	112.44
239.325	124.44
239.559	109.44
239.793	112.44
240.027	137.44
240.26	125.44
240.494	146.44
240.728	117.44
240.961	130.44
241.195	123.44
241.429	120.44
241.662	125.44
241.896	139.44
242.13	122.44
242.363	133.44
242.597	134.44
242.83	130.44
243.064	153.44
243.298	132.44
243.531	130.44
243.765	144.44
243.998	139.44
244.232	136.44
244.465	137.44
244.699	145.44
244.932	128.44
245.166	123.44
245.399	147.44
245.633	136.44
245.866	134.44
246.099	128.44
246.333	130.44
246.566	139.44
246.8	133.44
247.033	148.44
247.266	136.44
247.5	154.44
247.733	152.44
247.966	152.44
248.2	135.44
248.433	149.44
248.666	161.44
248.899	172.44
249.133	163.44
249.366	185.44
249.599	169.44
249.832	152.44
250.066	164.44
250.299	161.44
250.532	163.44
250.765	174.44
250.998	199.44
251.231	188.44
251.465	176.44
251.698	167.44
251.931	174.44
252.164	180.44
252.397	169.44
252.63	166.44
252.863	178.44
253.096	184.44
253.329	190.44
253.562	193.44
253.795	177.44
254.028	201.44
254.261	181.44
254.494	200.44
254.727	196.44
254.96	226.44
255.193	203.44
255.426	201.44
255.659	205.44
255.892	196.44
256.124	197.44
256.357	192.44
256.59	195.44
256.823	181.44
257.056	176.44
257.289	175.44
257.521	173.44
257.754	184.44
257.987	176.44
258.22	204.44
258.452	182.44
258.685	181.44
258.918	177.44
259.151	184.44
259.383	209.44
259.616	201.44
259.849	193.44
260.081	197.44
260.314	215.44
260.547	200.44
260.779	209.44
261.012	218.44
261.244	188.44
261.477	191.44
261.71	201.44
261.942	213.44
262.175	204.44
262.407	195.44
262.64	173.44
262.872	190.44
263.105	190.44
263.337	209.44
263.57	200.44
263.802	208.44
264.035	183.44
264.267	217.44
264.499	196.44
264.732	194.44
264.964	190.44
265.197	198.44
265.429	206.44
265.661	196.44
265.894	201.44
266.126	225.44
266.358	192.44
266.591	185.44
266.823	210.44
267.055	202.44
267.287	206.44
267.52	209.44
267.752	207.44
267.984	220.44
268.216	227.44
268.448	219.44
268.681	239.44
268.913	213.44
269.145	241.44
269.377	243.44
269.609	263.44
269.841	232.44
270.073	252.44
270.306	265.44
270.538	265.44
270.77	270.44
271.002	247.44
271.234	236.44
271.466	256.44
271.698	276.44
271.93	260.44
272.162	272.44
272.394	264.44
272.626	240.44
272.858	246.44
273.09	254.44
273.322	250.44
273.553	239.44
273.785	247.44
274.017	248.44
274.249	257.44
274.481	230.44
274.713	239.44
274.945	234.44
275.176	251.44
275.408	227.44
275.64	252.44
275.872	254.44
276.104	249.44
276.335	257.44
276.567	252.44
276.799	257.44
277.031	271.44
277.262	267.44
277.494	288.44
277.726	266.44
277.957	261.44
278.189	268.44
278.421	257.44
278.652	260.44
278.884	252.44
279.115	261.44
279.347	250.44
279.579	257.44
279.81	242.44
280.042	268.44
280.273	257.44
280.505	277.44
280.736	254.44
280.968	266.44
281.199	251.44
281.431	254.44
281.662	267.44
281.894	280.44
282.125	278.44
282.356	285.44
282.588	286.44
282.819	269.44
283.051	260.44
283.282	258.44
283.513	285.44
283.745	276.44
283.976	269.44
284.207	284.44
284.439	278.44
284.67	264.44
284.901	269.44
285.132	291.44
285.364	275.44
285.595	267.44
285.826	283.44
286.057	269.44
286.288	275.44
286.52	268.44
286.751	254.44
286.982	280.44
287.213	273.44
287.444	286.44
287.675	273.44
287.906	283.44
288.138	285.44
288.369	304.44
288.6	296.44
288.831	297.44
289.062	288.44
289.293	292.44
289.524	272.44
289.755	291.44
289.986	285.44
290.217	286.44
290.448	301.44
290.679	305.44
290.91	292.44
291.141	306.44
291.371	272.44
291.602	296.44
291.833	293.44
292.064	275.44
292.295	282.44
292.526	292.44
292.757	302.44
292.987	317.44
293.218	296.44
293.449	281.44
293.68	277.44
293.91	276.44
294.141	283.44
294.372	284.44
294.603	289.44
294.833	280.44
295.064	281.44
295.295	304.44
295.525	303.44
295.756	304.44
295.987	310.44
296.217	318.44
296.448	320.44
296.679	298.44
296.909	311.44
297.14	291.44
297.37	318.44
297.601	309.44
297.831	318.44
298.062	303.44
298.292	313.44
298.523	324.44
298.753	327.44
298.984	320.44
299.214	305.44
299.445	301.44
299.675	336.44
299.905	325.44
300.136	316.44
300.366	306.44
300.597	321.44
300.827	318.44
301.057	333.44
301.288	340.44
301.518	341.44
301.748	335.44
301.979	325.44
302.209	349.44
302.439	341.44
302.669	322.44
302.9	332.44
303.13	322.44
303.36	330.44
303.59	344.44
303.82	337.44
304.051	338.44
304.281	334.44
304.511	346.44
304.741	321.44
304.971	335.44
305.201	339.44
305.431	338.44
305.661	333.44
305.891	346.44
306.121	330.44
306.352	339.44
306.582	336.44
306.812	345.44
307.042	334.44
307.272	335.44
307.502	324.44
307.731	323.44
307.961	342.44
308.191	328.44
308.421	352.44
308.651	336.44
308.881	338.44
309.111	323.44
309.341	345.44
309.571	336.44
309.8	356.44
310.03	334.44
310.26	358.44
310.49	358.44
310.72	353.44
310.949	356.44
311.179	350.44
311.409	366.44
311.639	348.44
311.868	381.44
312.098	349.44
312.328	362.44
312.557	389.44
312.787	379.44
313.017	367.44
313.246	370.44
313.476	349.44
313.706	348.44
313.935	372.44
314.165	397.44
314.394	383.44
314.624	374.44
314.853	384.44
315.083	371.44
315.312	364.44
315.542	368.44
315.771	364.44
316.001	358.44
316.23	339.44
316.46	354.44
316.689	378.44
316.919	367.44
317.148	374.44
317.377	370.44
317.607	370.44
317.836	354.44
318.065	360.44
318.295	369.44
318.524	366.44
318.753	369.44
318.983	365.44
319.212	369.44
319.441	386.44
319.67	367.44
319.9	356.44
320.129	361.44
320.358	381.44
320.587	383.44
320.816	380.44
321.046	381.44
321.275	392.44
321.504	372.44
321.733	375.44
321.962	373.44
322.191	385.44
322.42	401.44
322.649	397.44
322.878	380.44
323.108	386.44
323.337	401.44
323.566	414.44
323.795	423.44
324.024	465.44
324.253	545.44
324.482	670.44
324.71	948.44
324.939	1281.44
325.168	1054.44
325.397	600.44
325.626	486.44
325.855	452.44
326.084	442.44
326.313	417.44
326.542	437.44
326.77	461.44
326.999	520.44
327.228	653.44
327.457	884.44
327.686	1020.44
327.914	704.44
328.143	508.44
328.372	473.44
328.6	491.44
328.829	435.44
329.058	469.44
329.287	473.44
329.515	454.44
329.744	435.44
329.972	451.44
330.201	443.44
330.43	460.44
330.658	479.44
330.887	515.44
331.115	484.44
331.344	462.44
331.572	453.44
331.801	459.44
332.03	459.44
332.258	468.44
332.486	461.44
332.715	467.44
332.943	461.44
333.172	500.44
333.4	500.44
333.629	500.44
333.857	517.44
334.085	514.44
334.314	520.44
334.542	536.44
334.771	553.44
334.999	514.44
335.227	516.44
335.455	466.44
335.684	481.44
335.912	470.44
336.14	438.44
336.369	458.44
336.597	470.44
336.825	464.44
337.053	454.44
337.281	447.44
337.51	457.44
337.738	447.44
337.966	431.44
338.194	438.44
338.422	440.44
338.65	430.44
338.878	444.44
339.106	442.44
339.334	450.44
339.562	427.44
339.79	428.44
340.018	448.44
340.246	426.44
340.474	423.44
340.702	431.44
340.93	440.44
341.158	417.44
341.386	445.44
341.614	421.44
341.842	418.44
342.07	402.44
342.298	403.44
342.526	412.44
342.754	402.44
342.981	420.44
343.209	443.44
343.437	439.44
343.665	452.44
343.893	502.44
344.12	488.44
344.348	454.44
344.576	446.44
344.804	448.44
345.031	427.44
345.259	430.44
345.487	424.44
345.714	419.44
345.942	421.44
346.17	425.44
346.397	394.44
346.625	406.44
346.853	396.44
347.08	402.44
347.308	406.44
347.535	406.44
347.763	414.44
347.99	389.44
348.218	420.44
348.445	420.44
348.673	406.44
348.9	405.44
349.128	410.44
349.355	374.44
349.583	388.44
349.81	397.44
350.037	401.44
350.265	410.44
350.492	409.44
350.72	418.44
350.947	419.44
351.174	403.44
351.402	422.44
351.629	401.44
351.856	395.44
352.083	392.44
352.311	403.44
352.538	398.44
352.765	382.44
352.992	400.44
353.22	401.44
353.447	412.44
353.674	383.44
353.901	393.44
354.128	378.44
354.355	390.44
354.583	385.44
354.81	384.44
355.037	380.44
355.264	399.44
355.491	384.44
355.718	393.44
355.945	369.44
356.172	368.44
356.399	394.44
356.626	400.44
356.853	398.44
357.08	377.44
357.307	374.44
357.534	378.44
357.761	378.44
357.988	386.44
358.215	382.44
358.441	384.44
358.668	388.44
358.895	379.44
359.122	396.44
359.349	387.44
359.576	409.44
359.802	410.44
360.029	429.44
360.256	429.44
360.483	410.44
360.709	424.44
360.936	409.44
361.163	400.44
361.39	409.44
361.616	400.44
361.843	415.44
362.07	409.44
362.296	387.44
362.523	394.44
362.749	391.44
362.976	388.44
363.203	423.44
363.429	405.44
363.656	400.44
363.882	404.44
364.109	401.44
364.335	402.44
364.562	387.44
364.788	378.44
365.015	372.44
365.241	387.44
365.468	400.44
365.694	405.44
365.92	397.44
366.147	394.44
366.373	380.44
366.599	408.44
366.826	395.44
367.052	381.44
367.278	386.44
367.505	388.44
367.731	393.44
367.957	393.44
368.184	404.44
368.41	406.44
368.636	403.44
368.862	402.44
369.089	413.44
369.315	393.44
369.541	405.44
369.767	387.44
369.993	417.44
370.219	417.44
370.445	377.44
370.672	389.44
370.898	411.44
371.124	397.44
371.35	409.44
371.576	427.44
371.802	386.44
372.028	411.44
372.254	431.44
372.48	437.44
372.706	406.44
372.932	428.44
373.158	441.44
373.384	431.44
373.61	421.44
373.835	422.44
374.061	416.44
374.287	435.44
374.513	419.44
374.739	425.44
374.965	426.44
375.191	448.44
375.416	454.44
375.642	416.44
375.868	427.44
376.094	433.44
376.319	407.44
376.545	414.44
376.771	419.44
376.997	425.44
377.222	409.44
377.448	424.44
377.674	431.44
377.899	416.44
378.125	402.44
378.35	405.44
378.576	400.44
378.802	421.44
379.027	429.44
379.253	405.44
379.478	410.44
379.704	424.44
379.929	403.44
380.155	396.44
380.38	404.44
380.606	421.44
380.831	430.44
381.057	422.44
381.282	405.44
381.507	396.44
381.733	413.44
381.958	413.44
382.184	417.44
382.409	443.44
382.634	419.44
382.86	412.44
383.085	438.44
383.31	445.44
383.535	437.44
383.761	435.44
383.986	432.44
384.211	452.44
384.436	451.44
384.662	491.44
384.887	474.44
385.112	488.44
385.337	490.44
385.562	457.44
385.787	454.44
386.013	478.44
386.238	453.44
386.463	474.44
386.688	490.44
386.913	480.44
387.138	470.44
387.363	446.44
387.588	482.44
387.813	480.44
388.038	469.44
388.263	483.44
388.488	472.44
388.713	448.44
388.938	462.44
389.163	469.44
389.387	453.44
389.612	449.44
389.837	472.44
390.062	468.44
390.287	484.44
390.512	472.44
390.736	457.44
390.961	464.44
391.186	475.44
391.411	470.44
391.636	516.44
391.86	515.44
392.085	517.44
392.31	519.44
392.534	486.44
392.759	494.44
392.984	500.44
393.208	490.44
393.433	501.44
393.658	508.44
393.882	494.44
394.107	481.44
394.331	502.44
394.556	496.44
394.78	486.44
395.005	473.44
395.229	481.44
395.454	523.44
395.678	501.44
395.903	510.44
396.127	509.44
396.352	508.44
396.576	492.44
396.801	482.44
397.025	498.44
397.249	496.44
397.474	508.44
397.698	528.44
397.922	545.44
398.147	551.44
398.371	559.44
398.595	558.44
398.82	562.44
399.044	573.44
399.268	617.44
399.492	680.44
399.717	723.44
399.941	755.44
400.165	722.44
400.389	682.44
400.613	644.44
400.837	606.44
401.062	573.44
401.286	558.44
401.51	554.44
401.734	542.44
401.958	536.44
402.182	560.44
402.406	579.44
402.63	578.44
402.854	596.44
403.078	601.44
403.302	592.44
403.526	598.44
403.75	622.44
403.974	608.44
404.198	619.44
404.422	624.44
404.645	634.44
404.869	615.44
405.093	655.44
405.317	648.44
405.541	663.44
405.765	628.44
405.988	614.44
406.212	610.44
406.436	630.44
406.66	650.44
406.883	620.44
407.107	666.44
407.331	702.44
407.555	766.44
407.778	753.44
408.002	673.44
408.226	674.44
408.449	642.44
408.673	613.44
408.896	644.44
409.12	676.44
409.344	626.44
409.567	607.44
409.791	620.44
410.014	577.44
410.238	578.44
410.461	604.44
410.685	593.44
410.908	600.44
411.132	607.44
411.355	616.44
411.578	604.44
411.802	601.44
412.025	578.44
412.249	576.44
412.472	602.44
412.695	640.44
412.919	611.44
413.142	574.44
413.365	561.44
413.589	551.44
413.812	558.44
414.035	568.44
414.258	552.44
414.482	543.44
414.705	598.44
414.928	556.44
415.151	545.44
415.374	548.44
415.597	561.44
415.821	551.44
416.044	522.44
416.267	558.44
416.49	557.44
416.713	562.44
416.936	546.44
417.159	536.44
417.382	534.44
417.605	556.44
417.828	564.44
418.051	591.44
418.274	543.44
418.497	549.44
418.72	552.44
418.943	563.44
419.166	593.44
419.389	638.44
419.611	595.44
419.834	588.44
420.057	578.44
420.28	566.44
420.503	561.44
420.726	563.44
420.948	573.44
421.171	591.44
421.394	605.44
421.617	562.44
421.839	576.44
422.062	589.44
422.285	588.44
422.507	601.44
422.73	629.44
422.953	645.44
423.175	585.44
423.398	572.44
423.621	595.44
423.843	586.44
424.066	609.44
424.288	572.44
424.511	593.44
424.733	632.44
424.956	660.44
425.178	654.44
425.401	649.44
425.623	674.44
425.846	602.44
426.068	558.44
426.291	533.44
426.513	530.44
426.735	557.44
426.958	590.44
427.18	619.44
427.402	710.44
427.625	757.44
427.847	664.44
428.069	574.44
428.292	546.44
428.514	540.44
428.736	523.44
428.958	522.44
429.181	512.44
429.403	527.44
429.625	509.44
429.847	523.44
430.069	567.44
430.292	566.44
430.514	499.44
430.736	507.44
430.958	512.44
431.18	511.44
431.402	492.44
431.624	493.44
431.846	492.44
432.068	520.44
432.29	527.44
432.512	523.44
432.734	529.44
432.956	501.44
433.178	516.44
433.4	534.44
433.622	509.44
433.844	533.44
434.066	506.44
434.287	506.44
434.509	524.44
434.731	555.44
434.953	551.44
435.175	548.44
435.397	544.44
435.618	565.44
435.84	580.44
436.062	618.44
436.284	655.44
436.505	584.44
436.727	526.44
436.949	547.44
437.17	524.44
437.392	527.44
437.614	526.44
437.835	544.44
438.057	588.44
438.278	635.44
438.5	648.44
438.721	710.44
438.943	668.44
439.165	572.44
439.386	532.44
439.608	518.44
439.829	520.44
440.05	547.44
440.272	580.44
440.493	544.44
440.715	518.44
440.936	525.44
441.158	526.44
441.379	529.44
441.6	548.44
441.822	564.44
442.043	599.44
442.264	649.44
442.486	653.44
442.707	620.44
442.928	578.44
443.149	584.44
443.371	600.44
443.592	605.44
443.813	660.44
444.034	701.44
444.255	629.44
444.476	636.44
444.698	626.44
444.919	625.44
445.14	719.44
445.361	664.44
445.582	602.44
445.803	617.44
446.024	678.44
446.245	676.44
446.466	638.44
446.687	568.44
446.908	524.44
447.129	525.44
447.35	506.44
447.571	499.44
447.792	482.44
448.013	505.44
448.234	490.44
448.455	535.44
448.675	591.44
448.896	641.44
449.117	567.44
449.338	574.44
449.559	609.44
449.779	686.44
450	574.44
450.221	497.44
450.442	500.44
450.662	467.44
450.883	456.44
451.104	488.44
451.324	488.44
451.545	453.44
451.766	445.44
451.986	446.44
452.207	449.44
452.428	464.44
452.648	450.44
452.869	445.44
453.089	452.44
453.31	463.44
453.53	456.44
453.751	444.44
453.971	441.44
454.192	481.44
454.412	437.44
454.633	454.44
454.853	453.44
455.073	443.44
455.294	459.44
455.514	500.44
455.734	463.44
455.955	427.44
456.175	434.44
456.395	418.44
456.616	424.44
456.836	437.44
457.056	425.44
457.276	422.44
457.497	436.44
457.717	429.44
457.937	421.44
458.157	434.44
458.377	428.44
458.598	479.44
458.818	502.44
459.038	542.44
459.258	571.44
459.478	520.44
459.698	518.44
459.918	499.44
460.138	533.44
460.358	517.44
460.578	556.44
460.798	547.44
461.018	534.44
461.238	554.44
461.458	540.44
461.678	533.44
461.898	552.44
462.118	561.44
462.338	560.44
462.558	560.44
462.777	598.44
462.997	610.44
463.217	654.44
463.437	679.44
463.657	618.44
463.876	588.44
464.096	584.44
464.316	600.44
464.536	600.44
464.755	578.44
464.975	573.44
465.195	604.44
465.414	585.44
465.634	556.44
465.854	520.44
466.073	499.44
466.293	496.44
466.512	506.44
466.732	471.44
466.951	484.44
467.171	484.44
467.391	488.44
467.61	464.44
467.829	477.44
468.049	461.44
468.268	477.44
468.488	458.44
468.707	456.44
468.927	426.44
469.146	454.44
469.365	460.44
469.585	446.44
469.804	481.44
470.023	465.44
470.243	490.44
470.462	490.44
470.681	523.44
470.901	509.44
471.12	495.44
471.339	472.44
471.558	481.44
471.777	466.44
471.997	447.44
472.216	477.44
472.435	492.44
472.654	499.44
472.873	468.44
473.092	462.44
473.311	455.44
473.53	446.44
473.749	449.44
473.968	469.44
474.187	519.44
474.406	524.44
474.625	491.44
474.844	450.44
475.063	460.44
475.282	458.44
475.501	466.44
475.72	477.44
475.939	475.44
476.158	478.44
476.377	455.44
476.596	457.44
476.814	488.44
477.033	492.44
477.252	489.44
477.471	490.44
477.69	512.44
477.908	526.44
478.127	522.44
478.346	526.44
478.564	530.44
478.783	534.44
479.002	545.44
479.22	574.44
479.439	570.44
479.658	568.44
479.876	596.44
480.095	586.44
480.313	589.44
480.532	636.44
480.751	600.44
480.969	572.44
481.188	598.44
481.406	610.44
481.624	582.44
481.843	559.44
482.061	530.44
482.28	555.44
482.498	547.44
482.717	528.44
482.935	542.44
483.153	532.44
483.372	552.44
483.59	536.44
483.808	509.44
484.027	524.44
484.245	540.44
484.463	524.44
484.681	510.44
484.9	542.44
485.118	533.44
485.336	546.44
485.554	556.44
485.772	525.44
485.99	541.44
486.209	558.44
486.427	545.44
486.645	540.44
486.863	553.44
487.081	545.44
487.299	578.44
487.517	552.44
487.735	563.44
487.953	572.44
488.171	572.44
488.389	555.44
488.607	551.44
488.825	571.44
489.043	573.44
489.261	569.44
489.479	569.44
489.696	567.44
489.914	569.44
490.132	598.44
490.35	582.44
490.568	594.44
490.786	603.44
491.003	608.44
491.221	594.44
491.439	600.44
491.657	636.44
491.874	650.44
492.092	627.44
492.31	628.44
492.527	650.44
492.745	636.44
492.963	636.44
493.18	646.44
493.398	653.44
493.615	633.44
493.833	654.44
494.05	656.44
494.268	628.44
494.485	666.44
494.703	644.44
494.92	645.44
495.138	630.44
495.355	670.44
495.573	664.44
495.79	656.44
496.008	677.44
496.225	670.44
496.442	643.44
496.66	680.44
496.877	648.44
497.094	679.44
497.312	664.44
497.529	660.44
497.746	686.44
497.963	673.44
498.181	723.44
498.398	732.44
498.615	780.44
498.832	796.44
499.049	866.44
499.267	874.44
499.484	931.44
499.701	1033.44
499.918	1058.44
500.135	1130.44
500.352	1266.44
500.569	1292.44
500.786	1291.44
501.003	1217.44
501.22	1114.44
501.437	1060.44
501.654	960.44
501.871	955.44
502.088	890.44
