Data from 1960PennyLincolnUp.LampE5.5.200Scan.07172019.P1.ChangedAngle_HRD10591_13-14-15-821.txt Node
Date: Thu Jul 18 13:14:15 EDT 2019
User: cochatt
Spectrometer: HR+D1059
Trigger mode: 1
Integration Time (sec): 1.000000E-1
Scans to average: 1
Electric dark correction enabled: true
Nonlinearity correction enabled: false
Boxcar width: 0
XAxis mode: Wavelengths
Number of Pixels in Spectrum: 2048
>>>>>Begin Spectral Data<<<<<
223.165	-26.56
223.4	-26.56
223.635	-26.56
223.869	-25.56
224.104	-0.56
224.338	-30.56
224.573	5.44
224.808	-8.56
225.042	-0.56
225.277	5.44
225.511	-4.56
225.746	7.44
225.98	18.44
226.215	-7.56
226.449	15.44
226.683	6.44
226.918	17.44
227.152	28.44
227.387	39.44
227.621	35.44
227.856	37.44
228.09	36.44
228.324	46.44
228.559	44.44
228.793	46.44
229.027	77.44
229.262	77.44
229.496	106.44
229.73	103.44
229.964	114.44
230.199	107.44
230.433	104.44
230.667	105.44
230.901	86.44
231.136	93.44
231.37	97.44
231.604	106.44
231.838	111.44
232.072	77.44
232.306	106.44
232.541	93.44
232.775	97.44
233.009	97.44
233.243	103.44
233.477	103.44
233.711	112.44
233.945	108.44
234.179	110.44
234.413	107.44
234.647	110.44
234.881	113.44
235.115	106.44
235.349	96.44
235.583	106.44
235.817	104.44
236.051	106.44
236.285	102.44
236.519	108.44
236.753	118.44
236.987	110.44
237.221	133.44
237.455	156.44
237.689	144.44
237.922	121.44
238.156	119.44
238.39	105.44
238.624	120.44
238.858	108.44
239.091	111.44
239.325	122.44
239.559	121.44
239.793	109.44
240.027	119.44
240.26	117.44
240.494	137.44
240.728	135.44
240.961	118.44
241.195	127.44
241.429	119.44
241.662	117.44
241.896	120.44
242.13	122.44
242.363	115.44
242.597	125.44
242.83	122.44
243.064	112.44
243.298	127.44
243.531	113.44
243.765	116.44
243.998	128.44
244.232	137.44
244.465	145.44
244.699	123.44
244.932	129.44
245.166	125.44
245.399	130.44
245.633	155.44
245.866	136.44
246.099	142.44
246.333	122.44
246.566	123.44
246.8	132.44
247.033	127.44
247.266	139.44
247.5	142.44
247.733	162.44
247.966	149.44
248.2	154.44
248.433	145.44
248.666	150.44
248.899	151.44
249.133	153.44
249.366	172.44
249.599	153.44
249.832	161.44
250.066	161.44
250.299	134.44
250.532	161.44
250.765	161.44
250.998	176.44
251.231	181.44
251.465	173.44
251.698	163.44
251.931	173.44
252.164	171.44
252.397	179.44
252.63	178.44
252.863	173.44
253.096	161.44
253.329	181.44
253.562	181.44
253.795	169.44
254.028	198.44
254.261	165.44
254.494	177.44
254.727	206.44
254.96	197.44
255.193	197.44
255.426	189.44
255.659	195.44
255.892	194.44
256.124	196.44
256.357	188.44
256.59	187.44
256.823	183.44
257.056	194.44
257.289	189.44
257.521	180.44
257.754	178.44
257.987	169.44
258.22	193.44
258.452	182.44
258.685	193.44
258.918	189.44
259.151	190.44
259.383	198.44
259.616	190.44
259.849	187.44
260.081	195.44
260.314	199.44
260.547	197.44
260.779	198.44
261.012	186.44
261.244	191.44
261.477	198.44
261.71	192.44
261.942	179.44
262.175	197.44
262.407	197.44
262.64	190.44
262.872	193.44
263.105	171.44
263.337	200.44
263.57	190.44
263.802	201.44
264.035	190.44
264.267	193.44
264.499	189.44
264.732	202.44
264.964	195.44
265.197	179.44
265.429	199.44
265.661	199.44
265.894	211.44
266.126	213.44
266.358	202.44
266.591	194.44
266.823	194.44
267.055	206.44
267.287	210.44
267.52	214.44
267.752	208.44
267.984	221.44
268.216	218.44
268.448	215.44
268.681	199.44
268.913	219.44
269.145	226.44
269.377	234.44
269.609	216.44
269.841	230.44
270.073	219.44
270.306	238.44
270.538	253.44
270.77	253.44
271.002	250.44
271.234	237.44
271.466	233.44
271.698	247.44
271.93	253.44
272.162	261.44
272.394	248.44
272.626	247.44
272.858	229.44
273.09	242.44
273.322	232.44
273.553	245.44
273.785	241.44
274.017	227.44
274.249	244.44
274.481	240.44
274.713	218.44
274.945	223.44
275.176	240.44
275.408	226.44
275.64	237.44
275.872	226.44
276.104	248.44
276.335	252.44
276.567	247.44
276.799	246.44
277.031	261.44
277.262	257.44
277.494	270.44
277.726	235.44
277.957	250.44
278.189	277.44
278.421	234.44
278.652	251.44
278.884	262.44
279.115	248.44
279.347	239.44
279.579	250.44
279.81	245.44
280.042	249.44
280.273	236.44
280.505	259.44
280.736	241.44
280.968	246.44
281.199	280.44
281.431	247.44
281.662	254.44
281.894	257.44
282.125	249.44
282.356	271.44
282.588	250.44
282.819	273.44
283.051	259.44
283.282	253.44
283.513	267.44
283.745	254.44
283.976	272.44
284.207	257.44
284.439	259.44
284.67	259.44
284.901	245.44
285.132	246.44
285.364	276.44
285.595	248.44
285.826	260.44
286.057	263.44
286.288	230.44
286.52	261.44
286.751	256.44
286.982	257.44
287.213	258.44
287.444	260.44
287.675	252.44
287.906	281.44
288.138	273.44
288.369	273.44
288.6	281.44
288.831	260.44
289.062	279.44
289.293	265.44
289.524	262.44
289.755	295.44
289.986	279.44
290.217	280.44
290.448	274.44
290.679	275.44
290.91	259.44
291.141	275.44
291.371	248.44
291.602	276.44
291.833	254.44
292.064	260.44
292.295	265.44
292.526	271.44
292.757	251.44
292.987	276.44
293.218	275.44
293.449	276.44
293.68	265.44
293.91	285.44
294.141	278.44
294.372	278.44
294.603	266.44
294.833	283.44
295.064	275.44
295.295	285.44
295.525	289.44
295.756	281.44
295.987	285.44
296.217	289.44
296.448	285.44
296.679	289.44
296.909	268.44
297.14	264.44
297.37	287.44
297.601	292.44
297.831	267.44
298.062	259.44
298.292	269.44
298.523	290.44
298.753	281.44
298.984	300.44
299.214	295.44
299.445	273.44
299.675	295.44
299.905	315.44
300.136	282.44
300.366	287.44
300.597	290.44
300.827	303.44
301.057	303.44
301.288	290.44
301.518	290.44
301.748	314.44
301.979	313.44
302.209	306.44
302.439	305.44
302.669	310.44
302.9	319.44
303.13	321.44
303.36	295.44
303.59	311.44
303.82	294.44
304.051	303.44
304.281	313.44
304.511	317.44
304.741	294.44
304.971	315.44
305.201	309.44
305.431	315.44
305.661	292.44
305.891	300.44
306.121	316.44
306.352	313.44
306.582	315.44
306.812	309.44
307.042	310.44
307.272	314.44
307.502	305.44
307.731	312.44
307.961	319.44
308.191	308.44
308.421	314.44
308.651	312.44
308.881	298.44
309.111	329.44
309.341	311.44
309.571	314.44
309.8	316.44
310.03	332.44
310.26	302.44
310.49	338.44
310.72	342.44
310.949	332.44
311.179	352.44
311.409	313.44
311.639	334.44
311.868	330.44
312.098	339.44
312.328	339.44
312.557	344.44
312.787	362.44
313.017	337.44
313.246	329.44
313.476	332.44
313.706	335.44
313.935	339.44
314.165	344.44
314.394	349.44
314.624	335.44
314.853	348.44
315.083	367.44
315.312	332.44
315.542	345.44
315.771	336.44
316.001	318.44
316.23	356.44
316.46	319.44
316.689	363.44
316.919	347.44
317.148	360.44
317.377	366.44
317.607	354.44
317.836	359.44
318.065	344.44
318.295	366.44
318.524	315.44
318.753	360.44
318.983	355.44
319.212	355.44
319.441	338.44
319.67	323.44
319.9	341.44
320.129	344.44
320.358	349.44
320.587	345.44
320.816	347.44
321.046	345.44
321.275	355.44
321.504	356.44
321.733	351.44
321.962	347.44
322.191	348.44
322.42	361.44
322.649	381.44
322.878	367.44
323.108	388.44
323.337	383.44
323.566	389.44
323.795	419.44
324.024	445.44
324.253	487.44
324.482	651.44
324.71	883.44
324.939	1192.44
325.168	997.44
325.397	571.44
325.626	446.44
325.855	399.44
326.084	419.44
326.313	392.44
326.542	386.44
326.77	432.44
326.999	497.44
327.228	581.44
327.457	829.44
327.686	895.44
327.914	632.44
328.143	503.44
328.372	454.44
328.6	438.44
328.829	429.44
329.058	415.44
329.287	408.44
329.515	414.44
329.744	414.44
329.972	419.44
330.201	395.44
330.43	414.44
330.658	430.44
330.887	457.44
331.115	421.44
331.344	407.44
331.572	408.44
331.801	399.44
332.03	398.44
332.258	393.44
332.486	394.44
332.715	409.44
332.943	405.44
333.172	393.44
333.4	423.44
333.629	417.44
333.857	426.44
334.085	423.44
334.314	423.44
334.542	431.44
334.771	418.44
334.999	409.44
335.227	413.44
335.455	409.44
335.684	407.44
335.912	405.44
336.14	413.44
336.369	397.44
336.597	411.44
336.825	407.44
337.053	403.44
337.281	388.44
337.51	410.44
337.738	397.44
337.966	387.44
338.194	392.44
338.422	393.44
338.65	390.44
338.878	389.44
339.106	394.44
339.334	374.44
339.562	391.44
339.79	398.44
340.018	390.44
340.246	370.44
340.474	355.44
340.702	387.44
340.93	349.44
341.158	393.44
341.386	393.44
341.614	376.44
341.842	382.44
342.07	364.44
342.298	390.44
342.526	376.44
342.754	355.44
342.981	373.44
343.209	366.44
343.437	385.44
343.665	397.44
343.893	382.44
344.12	386.44
344.348	402.44
344.576	366.44
344.804	389.44
345.031	375.44
345.259	369.44
345.487	372.44
345.714	364.44
345.942	373.44
346.17	375.44
346.397	373.44
346.625	344.44
346.853	365.44
347.08	344.44
347.308	355.44
347.535	362.44
347.763	361.44
347.99	354.44
348.218	363.44
348.445	366.44
348.673	366.44
348.9	377.44
349.128	355.44
349.355	353.44
349.583	365.44
349.81	352.44
350.037	340.44
350.265	357.44
350.492	355.44
350.72	364.44
350.947	367.44
351.174	342.44
351.402	344.44
351.629	358.44
351.856	348.44
352.083	365.44
352.311	363.44
352.538	361.44
352.765	373.44
352.992	343.44
353.22	359.44
353.447	348.44
353.674	347.44
353.901	332.44
354.128	347.44
354.355	338.44
354.583	356.44
354.81	355.44
355.037	355.44
355.264	347.44
355.491	365.44
355.718	339.44
355.945	333.44
356.172	328.44
356.399	347.44
356.626	331.44
356.853	323.44
357.08	361.44
357.307	346.44
357.534	332.44
357.761	333.44
357.988	357.44
358.215	348.44
358.441	331.44
358.668	344.44
358.895	342.44
359.122	355.44
359.349	348.44
359.576	353.44
359.802	352.44
360.029	371.44
360.256	355.44
360.483	346.44
360.709	329.44
360.936	360.44
361.163	345.44
361.39	355.44
361.616	343.44
361.843	344.44
362.07	334.44
362.296	345.44
362.523	354.44
362.749	357.44
362.976	353.44
363.203	334.44
363.429	335.44
363.656	332.44
363.882	346.44
364.109	354.44
364.335	314.44
364.562	338.44
364.788	326.44
365.015	348.44
365.241	350.44
365.468	359.44
365.694	359.44
365.92	328.44
366.147	344.44
366.373	347.44
366.599	357.44
366.826	325.44
367.052	332.44
367.278	333.44
367.505	323.44
367.731	328.44
367.957	327.44
368.184	340.44
368.41	340.44
368.636	345.44
368.862	329.44
369.089	352.44
369.315	345.44
369.541	353.44
369.767	345.44
369.993	335.44
370.219	328.44
370.445	334.44
370.672	340.44
370.898	341.44
371.124	345.44
371.35	334.44
371.576	344.44
371.802	342.44
372.028	354.44
372.254	343.44
372.48	337.44
372.706	333.44
372.932	360.44
373.158	327.44
373.384	328.44
373.61	349.44
373.835	347.44
374.061	340.44
374.287	345.44
374.513	337.44
374.739	340.44
374.965	350.44
375.191	334.44
375.416	356.44
375.642	348.44
375.868	358.44
376.094	341.44
376.319	353.44
376.545	332.44
376.771	325.44
376.997	327.44
377.222	343.44
377.448	328.44
377.674	348.44
377.899	333.44
378.125	340.44
378.35	342.44
378.576	333.44
378.802	325.44
379.027	343.44
379.253	345.44
379.478	333.44
379.704	332.44
379.929	324.44
380.155	353.44
380.38	329.44
380.606	348.44
380.831	353.44
381.057	343.44
381.282	317.44
381.507	321.44
381.733	339.44
381.958	337.44
382.184	337.44
382.409	327.44
382.634	346.44
382.86	348.44
383.085	351.44
383.31	358.44
383.535	361.44
383.761	371.44
383.986	342.44
384.211	349.44
384.436	342.44
384.662	348.44
384.887	355.44
385.112	360.44
385.337	401.44
385.562	348.44
385.787	363.44
386.013	365.44
386.238	370.44
386.463	361.44
386.688	370.44
386.913	365.44
387.138	389.44
387.363	361.44
387.588	348.44
387.813	359.44
388.038	370.44
388.263	367.44
388.488	359.44
388.713	350.44
388.938	373.44
389.163	357.44
389.387	354.44
389.612	356.44
389.837	350.44
390.062	363.44
390.287	361.44
390.512	377.44
390.736	362.44
390.961	360.44
391.186	380.44
391.411	373.44
391.636	373.44
391.86	369.44
392.085	375.44
392.31	356.44
392.534	369.44
392.759	380.44
392.984	354.44
393.208	373.44
393.433	392.44
393.658	389.44
393.882	362.44
394.107	339.44
394.331	358.44
394.556	371.44
394.78	362.44
395.005	375.44
395.229	381.44
395.454	359.44
395.678	368.44
395.903	379.44
396.127	393.44
396.352	373.44
396.576	382.44
396.801	379.44
397.025	391.44
397.249	385.44
397.474	393.44
397.698	389.44
397.922	376.44
398.147	389.44
398.371	411.44
398.595	406.44
398.82	409.44
399.044	421.44
399.268	436.44
399.492	440.44
399.717	452.44
399.941	474.44
400.165	503.44
400.389	479.44
400.613	462.44
400.837	441.44
401.062	405.44
401.286	410.44
401.51	406.44
401.734	395.44
401.958	402.44
402.182	390.44
402.406	411.44
402.63	407.44
402.854	399.44
403.078	403.44
403.302	401.44
403.526	429.44
403.75	408.44
403.974	404.44
404.198	401.44
404.422	404.44
404.645	434.44
404.869	418.44
405.093	441.44
405.317	464.44
405.541	498.44
405.765	443.44
405.988	437.44
406.212	447.44
406.436	428.44
406.66	449.44
406.883	451.44
407.107	459.44
407.331	478.44
407.555	527.44
407.778	523.44
408.002	483.44
408.226	452.44
408.449	460.44
408.673	442.44
408.896	459.44
409.12	513.44
409.344	463.44
409.567	443.44
409.791	414.44
410.014	407.44
410.238	433.44
410.461	414.44
410.685	438.44
410.908	421.44
411.132	435.44
411.355	461.44
411.578	437.44
411.802	421.44
412.025	406.44
412.249	420.44
412.472	418.44
412.695	435.44
412.919	429.44
413.142	417.44
413.365	431.44
413.589	389.44
413.812	373.44
414.035	391.44
414.258	406.44
414.482	388.44
414.705	404.44
414.928	381.44
415.151	389.44
415.374	378.44
415.597	377.44
415.821	377.44
416.044	374.44
416.267	404.44
416.49	377.44
416.713	389.44
416.936	383.44
417.159	373.44
417.382	411.44
417.605	385.44
417.828	387.44
418.051	405.44
418.274	385.44
418.497	389.44
418.72	396.44
418.943	394.44
419.166	397.44
419.389	421.44
419.611	418.44
419.834	408.44
420.057	389.44
420.28	371.44
420.503	386.44
420.726	409.44
420.948	417.44
421.171	402.44
421.394	421.44
421.617	423.44
421.839	401.44
422.062	395.44
422.285	407.44
422.507	429.44
422.73	476.44
422.953	452.44
423.175	424.44
423.398	413.44
423.621	423.44
423.843	430.44
424.066	412.44
424.288	421.44
424.511	409.44
424.733	439.44
424.956	489.44
425.178	471.44
425.401	474.44
425.623	493.44
425.846	441.44
426.068	419.44
426.291	423.44
426.513	424.44
426.735	414.44
426.958	445.44
427.18	475.44
427.402	550.44
427.625	609.44
427.847	520.44
428.069	455.44
428.292	436.44
428.514	405.44
428.736	393.44
428.958	386.44
429.181	372.44
429.403	400.44
429.625	375.44
429.847	397.44
430.069	445.44
430.292	452.44
430.514	369.44
430.736	364.44
430.958	369.44
431.18	380.44
431.402	385.44
431.624	365.44
431.846	365.44
432.068	359.44
432.29	360.44
432.512	354.44
432.734	366.44
432.956	361.44
433.178	363.44
433.4	382.44
433.622	378.44
433.844	359.44
434.066	376.44
434.287	386.44
434.509	373.44
434.731	363.44
434.953	391.44
435.175	408.44
435.397	406.44
435.618	425.44
435.84	426.44
436.062	478.44
436.284	501.44
436.505	446.44
436.727	390.44
436.949	381.44
437.17	387.44
437.392	383.44
437.614	381.44
437.835	397.44
438.057	432.44
438.278	497.44
438.5	494.44
438.721	549.44
438.943	551.44
439.165	446.44
439.386	404.44
439.608	427.44
439.829	396.44
440.05	405.44
440.272	412.44
440.493	420.44
440.715	380.44
440.936	369.44
441.158	357.44
441.379	359.44
441.6	394.44
441.822	408.44
442.043	404.44
442.264	467.44
442.486	477.44
442.707	418.44
442.928	413.44
443.149	396.44
443.371	430.44
443.592	443.44
443.813	498.44
444.034	534.44
444.255	449.44
444.476	408.44
444.698	406.44
444.919	414.44
445.14	539.44
445.361	462.44
445.582	423.44
445.803	455.44
446.024	512.44
446.245	496.44
446.466	458.44
446.687	415.44
446.908	411.44
447.129	392.44
447.35	366.44
447.571	348.44
447.792	376.44
448.013	393.44
448.234	382.44
448.455	409.44
448.675	460.44
448.896	525.44
449.117	445.44
449.338	440.44
449.559	511.44
449.779	553.44
450	460.44
450.221	405.44
450.442	383.44
450.662	367.44
450.883	366.44
451.104	359.44
451.324	363.44
451.545	331.44
451.766	343.44
451.986	336.44
452.207	330.44
452.428	328.44
452.648	336.44
452.869	354.44
453.089	355.44
453.31	346.44
453.53	326.44
453.751	345.44
453.971	330.44
454.192	346.44
454.412	327.44
454.633	333.44
454.853	332.44
455.073	340.44
455.294	347.44
455.514	367.44
455.734	378.44
455.955	335.44
456.175	353.44
456.395	337.44
456.616	337.44
456.836	349.44
457.056	332.44
457.276	325.44
457.497	344.44
457.717	337.44
457.937	325.44
458.157	338.44
458.377	346.44
458.598	346.44
458.818	363.44
459.038	395.44
459.258	400.44
459.478	381.44
459.698	351.44
459.918	360.44
460.138	367.44
460.358	360.44
460.578	383.44
460.798	389.44
461.018	392.44
461.238	379.44
461.458	389.44
461.678	381.44
461.898	402.44
462.118	393.44
462.338	402.44
462.558	417.44
462.777	400.44
462.997	444.44
463.217	418.44
463.437	427.44
463.657	425.44
463.876	400.44
464.096	417.44
464.316	419.44
464.536	425.44
464.755	391.44
464.975	393.44
465.195	398.44
465.414	419.44
465.634	389.44
465.854	397.44
466.073	370.44
466.293	376.44
466.512	366.44
466.732	359.44
466.951	371.44
467.171	345.44
467.391	354.44
467.61	355.44
467.829	382.44
468.049	371.44
468.268	369.44
468.488	355.44
468.707	329.44
468.927	355.44
469.146	332.44
469.365	357.44
469.585	357.44
469.804	354.44
470.023	355.44
470.243	358.44
470.462	358.44
470.681	351.44
470.901	361.44
471.12	353.44
471.339	358.44
471.558	366.44
471.777	358.44
471.997	363.44
472.216	369.44
472.435	373.44
472.654	368.44
472.873	368.44
473.092	363.44
473.311	343.44
473.53	353.44
473.749	355.44
473.968	368.44
474.187	412.44
474.406	438.44
474.625	388.44
474.844	358.44
475.063	367.44
475.282	373.44
475.501	372.44
475.72	383.44
475.939	354.44
476.158	381.44
476.377	371.44
476.596	379.44
476.814	383.44
477.033	378.44
477.252	378.44
477.471	408.44
477.69	388.44
477.908	398.44
478.127	387.44
478.346	382.44
478.564	407.44
478.783	393.44
479.002	399.44
479.22	406.44
479.439	412.44
479.658	410.44
479.876	414.44
480.095	432.44
480.313	446.44
480.532	439.44
480.751	436.44
480.969	436.44
481.188	449.44
481.406	421.44
481.624	431.44
481.843	405.44
482.061	406.44
482.28	428.44
482.498	414.44
482.717	433.44
482.935	417.44
483.153	402.44
483.372	411.44
483.59	421.44
483.808	407.44
484.027	419.44
484.245	410.44
484.463	431.44
484.681	428.44
484.9	428.44
485.118	427.44
485.336	431.44
485.554	419.44
485.772	413.44
485.99	429.44
486.209	421.44
486.427	412.44
486.645	435.44
486.863	441.44
487.081	438.44
487.299	453.44
487.517	435.44
487.735	444.44
487.953	437.44
488.171	466.44
488.389	449.44
488.607	427.44
488.825	462.44
489.043	460.44
489.261	436.44
489.479	454.44
489.696	437.44
489.914	437.44
490.132	444.44
490.35	460.44
490.568	461.44
490.786	467.44
491.003	456.44
491.221	462.44
491.439	481.44
491.657	470.44
491.874	478.44
492.092	470.44
492.31	506.44
492.527	474.44
492.745	477.44
492.963	486.44
493.18	481.44
493.398	483.44
493.615	476.44
493.833	488.44
494.05	501.44
494.268	481.44
494.485	472.44
494.703	491.44
494.92	500.44
495.138	489.44
495.355	509.44
495.573	497.44
495.79	481.44
496.008	509.44
496.225	523.44
496.442	507.44
496.66	505.44
496.877	500.44
497.094	529.44
497.312	527.44
497.529	504.44
497.746	541.44
497.963	529.44
498.181	549.44
498.398	564.44
498.615	578.44
498.832	583.44
499.049	591.44
499.267	624.44
499.484	637.44
499.701	660.44
499.918	686.44
500.135	713.44
500.352	763.44
500.569	737.44
500.786	773.44
501.003	713.44
501.22	700.44
501.437	693.44
501.654	655.44
501.871	657.44
502.088	615.44
