Data from 1960PennyLincolnUp.LampE5.5.200Scan.07172019.P1.ChangedAngle_HRD10591_13-14-59-822.txt Node
Date: Thu Jul 18 13:14:59 EDT 2019
User: cochatt
Spectrometer: HR+D1059
Trigger mode: 1
Integration Time (sec): 1.000000E-1
Scans to average: 1
Electric dark correction enabled: true
Nonlinearity correction enabled: false
Boxcar width: 0
XAxis mode: Wavelengths
Number of Pixels in Spectrum: 2048
>>>>>Begin Spectral Data<<<<<
223.165	-10.06
223.4	-10.06
223.635	-10.06
223.869	-16.06
224.104	-27.06
224.338	-13.06
224.573	-17.06
224.808	-6.06
225.042	-12.06
225.277	-5.06
225.511	0.94
225.746	1.94
225.98	2.94
226.215	-0.06
226.449	9.94
226.683	20.94
226.918	25.94
227.152	43.94
227.387	36.94
227.621	41.94
227.856	43.94
228.09	36.94
228.324	52.94
228.559	61.94
228.793	76.94
229.027	77.94
229.262	89.94
229.496	93.94
229.73	97.94
229.964	130.94
230.199	108.94
230.433	100.94
230.667	116.94
230.901	108.94
231.136	104.94
231.37	108.94
231.604	114.94
231.838	118.94
232.072	116.94
232.306	111.94
232.541	98.94
232.775	98.94
233.009	96.94
233.243	96.94
233.477	98.94
233.711	112.94
233.945	120.94
234.179	102.94
234.413	116.94
234.647	103.94
234.881	108.94
235.115	102.94
235.349	113.94
235.583	117.94
235.817	123.94
236.051	115.94
236.285	116.94
236.519	119.94
236.753	100.94
236.987	120.94
237.221	158.94
237.455	162.94
237.689	148.94
237.922	127.94
238.156	115.94
238.39	111.94
238.624	102.94
238.858	98.94
239.091	118.94
239.325	112.94
239.559	117.94
239.793	130.94
240.027	117.94
240.26	125.94
240.494	154.94
240.728	130.94
240.961	128.94
241.195	118.94
241.429	122.94
241.662	113.94
241.896	115.94
242.13	114.94
242.363	120.94
242.597	114.94
242.83	120.94
243.064	143.94
243.298	134.94
243.531	119.94
243.765	134.94
243.998	137.94
244.232	140.94
244.465	138.94
244.699	133.94
244.932	142.94
245.166	120.94
245.399	127.94
245.633	131.94
245.866	130.94
246.099	139.94
246.333	146.94
246.566	151.94
246.8	140.94
247.033	148.94
247.266	155.94
247.5	160.94
247.733	170.94
247.966	148.94
248.2	144.94
248.433	163.94
248.666	165.94
248.899	173.94
249.133	149.94
249.366	167.94
249.599	183.94
249.832	184.94
250.066	184.94
250.299	159.94
250.532	165.94
250.765	181.94
250.998	190.94
251.231	197.94
251.465	192.94
251.698	164.94
251.931	185.94
252.164	169.94
252.397	175.94
252.63	173.94
252.863	186.94
253.096	189.94
253.329	192.94
253.562	187.94
253.795	197.94
254.028	184.94
254.261	214.94
254.494	208.94
254.727	229.94
254.96	228.94
255.193	221.94
255.426	198.94
255.659	191.94
255.892	211.94
256.124	201.94
256.357	212.94
256.59	201.94
256.823	208.94
257.056	193.94
257.289	196.94
257.521	187.94
257.754	181.94
257.987	203.94
258.22	199.94
258.452	204.94
258.685	196.94
258.918	201.94
259.151	190.94
259.383	189.94
259.616	211.94
259.849	203.94
260.081	217.94
260.314	225.94
260.547	233.94
260.779	206.94
261.012	214.94
261.244	186.94
261.477	215.94
261.71	200.94
261.942	197.94
262.175	199.94
262.407	206.94
262.64	208.94
262.872	203.94
263.105	210.94
263.337	201.94
263.57	217.94
263.802	211.94
264.035	204.94
264.267	216.94
264.499	200.94
264.732	198.94
264.964	186.94
265.197	208.94
265.429	196.94
265.661	190.94
265.894	188.94
266.126	201.94
266.358	222.94
266.591	219.94
266.823	215.94
267.055	209.94
267.287	228.94
267.52	221.94
267.752	198.94
267.984	224.94
268.216	228.94
268.448	227.94
268.681	224.94
268.913	244.94
269.145	246.94
269.377	239.94
269.609	246.94
269.841	243.94
270.073	254.94
270.306	245.94
270.538	280.94
270.77	272.94
271.002	278.94
271.234	264.94
271.466	278.94
271.698	290.94
271.93	277.94
272.162	254.94
272.394	284.94
272.626	281.94
272.858	260.94
273.09	265.94
273.322	251.94
273.553	246.94
273.785	246.94
274.017	272.94
274.249	253.94
274.481	240.94
274.713	263.94
274.945	261.94
275.176	252.94
275.408	254.94
275.64	258.94
275.872	257.94
276.104	254.94
276.335	255.94
276.567	261.94
276.799	245.94
277.031	286.94
277.262	273.94
277.494	299.94
277.726	273.94
277.957	284.94
278.189	262.94
278.421	256.94
278.652	264.94
278.884	244.94
279.115	264.94
279.347	268.94
279.579	264.94
279.81	263.94
280.042	274.94
280.273	261.94
280.505	252.94
280.736	257.94
280.968	264.94
281.199	254.94
281.431	266.94
281.662	250.94
281.894	264.94
282.125	253.94
282.356	262.94
282.588	277.94
282.819	292.94
283.051	285.94
283.282	258.94
283.513	271.94
283.745	281.94
283.976	283.94
284.207	270.94
284.439	271.94
284.67	258.94
284.901	268.94
285.132	264.94
285.364	267.94
285.595	254.94
285.826	282.94
286.057	280.94
286.288	268.94
286.52	264.94
286.751	282.94
286.982	277.94
287.213	274.94
287.444	286.94
287.675	294.94
287.906	282.94
288.138	284.94
288.369	267.94
288.6	293.94
288.831	271.94
289.062	283.94
289.293	282.94
289.524	283.94
289.755	283.94
289.986	284.94
290.217	290.94
290.448	294.94
290.679	266.94
290.91	278.94
291.141	297.94
291.371	276.94
291.602	281.94
291.833	274.94
292.064	279.94
292.295	278.94
292.526	287.94
292.757	291.94
292.987	262.94
293.218	290.94
293.449	288.94
293.68	281.94
293.91	286.94
294.141	298.94
294.372	298.94
294.603	285.94
294.833	275.94
295.064	276.94
295.295	290.94
295.525	288.94
295.756	293.94
295.987	287.94
296.217	296.94
296.448	307.94
296.679	315.94
296.909	288.94
297.14	297.94
297.37	301.94
297.601	309.94
297.831	287.94
298.062	287.94
298.292	301.94
298.523	316.94
298.753	288.94
298.984	279.94
299.214	316.94
299.445	320.94
299.675	294.94
299.905	300.94
300.136	302.94
300.366	310.94
300.597	307.94
300.827	296.94
301.057	302.94
301.288	327.94
301.518	312.94
301.748	312.94
301.979	325.94
302.209	306.94
302.439	325.94
302.669	320.94
302.9	310.94
303.13	316.94
303.36	338.94
303.59	319.94
303.82	324.94
304.051	326.94
304.281	318.94
304.511	313.94
304.741	319.94
304.971	334.94
305.201	340.94
305.431	314.94
305.661	324.94
305.891	309.94
306.121	317.94
306.352	306.94
306.582	327.94
306.812	310.94
307.042	323.94
307.272	322.94
307.502	318.94
307.731	330.94
307.961	334.94
308.191	313.94
308.421	320.94
308.651	300.94
308.881	324.94
309.111	324.94
309.341	345.94
309.571	353.94
309.8	342.94
310.03	360.94
310.26	346.94
310.49	339.94
310.72	349.94
310.949	356.94
311.179	372.94
311.409	344.94
311.639	358.94
311.868	344.94
312.098	335.94
312.328	357.94
312.557	349.94
312.787	362.94
313.017	368.94
313.246	373.94
313.476	354.94
313.706	360.94
313.935	359.94
314.165	356.94
314.394	359.94
314.624	365.94
314.853	381.94
315.083	361.94
315.312	359.94
315.542	346.94
315.771	359.94
316.001	365.94
316.23	356.94
316.46	351.94
316.689	368.94
316.919	374.94
317.148	364.94
317.377	367.94
317.607	372.94
317.836	364.94
318.065	359.94
318.295	368.94
318.524	376.94
318.753	361.94
318.983	361.94
319.212	356.94
319.441	374.94
319.67	369.94
319.9	379.94
320.129	370.94
320.358	335.94
320.587	339.94
320.816	352.94
321.046	376.94
321.275	388.94
321.504	376.94
321.733	372.94
321.962	410.94
322.191	400.94
322.42	391.94
322.649	411.94
322.878	388.94
323.108	416.94
323.337	426.94
323.566	428.94
323.795	457.94
324.024	492.94
324.253	564.94
324.482	759.94
324.71	1032.94
324.939	1389.94
325.168	1176.94
325.397	695.94
325.626	493.94
325.855	464.94
326.084	440.94
326.313	442.94
326.542	441.94
326.77	454.94
326.999	525.94
327.228	686.94
327.457	943.94
327.686	1049.94
327.914	734.94
328.143	553.94
328.372	497.94
328.6	474.94
328.829	446.94
329.058	463.94
329.287	480.94
329.515	475.94
329.744	467.94
329.972	456.94
330.201	464.94
330.43	462.94
330.658	470.94
330.887	492.94
331.115	485.94
331.344	457.94
331.572	431.94
331.801	445.94
332.03	430.94
332.258	411.94
332.486	408.94
332.715	425.94
332.943	429.94
333.172	434.94
333.4	421.94
333.629	436.94
333.857	432.94
334.085	452.94
334.314	461.94
334.542	481.94
334.771	471.94
334.999	466.94
335.227	438.94
335.455	446.94
335.684	439.94
335.912	415.94
336.14	431.94
336.369	407.94
336.597	408.94
336.825	415.94
337.053	416.94
337.281	424.94
337.51	415.94
337.738	432.94
337.966	430.94
338.194	409.94
338.422	413.94
338.65	400.94
338.878	429.94
339.106	413.94
339.334	407.94
339.562	394.94
339.79	423.94
340.018	415.94
340.246	397.94
340.474	390.94
340.702	392.94
340.93	405.94
341.158	397.94
341.386	394.94
341.614	396.94
341.842	410.94
342.07	392.94
342.298	403.94
342.526	394.94
342.754	409.94
342.981	396.94
343.209	382.94
343.437	391.94
343.665	409.94
343.893	408.94
344.12	418.94
344.348	417.94
344.576	418.94
344.804	404.94
345.031	420.94
345.259	401.94
345.487	406.94
345.714	420.94
345.942	400.94
346.17	390.94
346.397	373.94
346.625	380.94
346.853	373.94
347.08	365.94
347.308	381.94
347.535	389.94
347.763	379.94
347.99	384.94
348.218	376.94
348.445	382.94
348.673	389.94
348.9	399.94
349.128	393.94
349.355	360.94
349.583	368.94
349.81	385.94
350.037	362.94
350.265	384.94
350.492	366.94
350.72	358.94
350.947	363.94
351.174	384.94
351.402	387.94
351.629	366.94
351.856	376.94
352.083	380.94
352.311	406.94
352.538	376.94
352.765	381.94
352.992	364.94
353.22	375.94
353.447	348.94
353.674	359.94
353.901	373.94
354.128	357.94
354.355	373.94
354.583	346.94
354.81	347.94
355.037	367.94
355.264	368.94
355.491	370.94
355.718	355.94
355.945	357.94
356.172	366.94
356.399	370.94
356.626	370.94
356.853	357.94
357.08	366.94
357.307	362.94
357.534	357.94
357.761	367.94
357.988	370.94
358.215	361.94
358.441	366.94
358.668	364.94
358.895	352.94
359.122	362.94
359.349	349.94
359.576	374.94
359.802	372.94
360.029	398.94
360.256	395.94
360.483	390.94
360.709	386.94
360.936	377.94
361.163	373.94
361.39	365.94
361.616	363.94
361.843	346.94
362.07	365.94
362.296	366.94
362.523	361.94
362.749	368.94
362.976	358.94
363.203	372.94
363.429	353.94
363.656	359.94
363.882	348.94
364.109	370.94
364.335	352.94
364.562	362.94
364.788	346.94
365.015	340.94
365.241	347.94
365.468	348.94
365.694	344.94
365.92	343.94
366.147	350.94
366.373	374.94
366.599	354.94
366.826	362.94
367.052	351.94
367.278	349.94
367.505	346.94
367.731	352.94
367.957	358.94
368.184	352.94
368.41	359.94
368.636	366.94
368.862	372.94
369.089	357.94
369.315	335.94
369.541	364.94
369.767	366.94
369.993	351.94
370.219	364.94
370.445	360.94
370.672	368.94
370.898	372.94
371.124	353.94
371.35	362.94
371.576	372.94
371.802	380.94
372.028	369.94
372.254	358.94
372.48	347.94
372.706	372.94
372.932	361.94
373.158	360.94
373.384	364.94
373.61	351.94
373.835	353.94
374.061	352.94
374.287	348.94
374.513	360.94
374.739	379.94
374.965	357.94
375.191	366.94
375.416	346.94
375.642	362.94
375.868	374.94
376.094	348.94
376.319	358.94
376.545	348.94
376.771	348.94
376.997	346.94
377.222	334.94
377.448	352.94
377.674	349.94
377.899	354.94
378.125	349.94
378.35	351.94
378.576	336.94
378.802	362.94
379.027	338.94
379.253	380.94
379.478	357.94
379.704	352.94
379.929	356.94
380.155	346.94
380.38	362.94
380.606	360.94
380.831	352.94
381.057	344.94
381.282	349.94
381.507	348.94
381.733	358.94
381.958	346.94
382.184	352.94
382.409	351.94
382.634	369.94
382.86	368.94
383.085	360.94
383.31	366.94
383.535	365.94
383.761	362.94
383.986	353.94
384.211	378.94
384.436	374.94
384.662	351.94
384.887	360.94
385.112	374.94
385.337	390.94
385.562	380.94
385.787	365.94
386.013	394.94
386.238	393.94
386.463	370.94
386.688	381.94
386.913	366.94
387.138	375.94
387.363	359.94
387.588	361.94
387.813	378.94
388.038	379.94
388.263	380.94
388.488	375.94
388.713	383.94
388.938	404.94
389.163	404.94
389.387	373.94
389.612	382.94
389.837	384.94
390.062	374.94
390.287	371.94
390.512	379.94
390.736	374.94
390.961	357.94
391.186	380.94
391.411	361.94
391.636	383.94
391.86	381.94
392.085	408.94
392.31	387.94
392.534	359.94
392.759	383.94
392.984	365.94
393.208	403.94
393.433	380.94
393.658	388.94
393.882	383.94
394.107	387.94
394.331	390.94
394.556	404.94
394.78	382.94
395.005	372.94
395.229	386.94
395.454	383.94
395.678	402.94
395.903	384.94
396.127	401.94
396.352	412.94
396.576	392.94
396.801	402.94
397.025	401.94
397.249	382.94
397.474	402.94
397.698	384.94
397.922	418.94
398.147	407.94
398.371	420.94
398.595	443.94
398.82	416.94
399.044	446.94
399.268	446.94
399.492	464.94
399.717	476.94
399.941	501.94
400.165	496.94
400.389	490.94
400.613	464.94
400.837	452.94
401.062	439.94
401.286	440.94
401.51	413.94
401.734	415.94
401.958	433.94
402.182	423.94
402.406	427.94
402.63	446.94
402.854	429.94
403.078	441.94
403.302	440.94
403.526	453.94
403.75	429.94
403.974	422.94
404.198	428.94
404.422	437.94
404.645	424.94
404.869	441.94
405.093	473.94
405.317	455.94
405.541	501.94
405.765	488.94
405.988	441.94
406.212	442.94
406.436	461.94
406.66	474.94
406.883	468.94
407.107	468.94
407.331	489.94
407.555	543.94
407.778	534.94
408.002	504.94
408.226	476.94
408.449	488.94
408.673	498.94
408.896	477.94
409.12	488.94
409.344	465.94
409.567	447.94
409.791	452.94
410.014	428.94
410.238	442.94
410.461	427.94
410.685	430.94
410.908	436.94
411.132	463.94
411.355	475.94
411.578	457.94
411.802	438.94
412.025	428.94
412.249	426.94
412.472	456.94
412.695	459.94
412.919	461.94
413.142	424.94
413.365	416.94
413.589	428.94
413.812	406.94
414.035	412.94
414.258	404.94
414.482	406.94
414.705	409.94
414.928	419.94
415.151	399.94
415.374	394.94
415.597	381.94
415.821	403.94
416.044	392.94
416.267	384.94
416.49	391.94
416.713	404.94
416.936	415.94
417.159	382.94
417.382	409.94
417.605	391.94
417.828	412.94
418.051	422.94
418.274	408.94
418.497	375.94
418.72	401.94
418.943	399.94
419.166	412.94
419.389	436.94
419.611	408.94
419.834	409.94
420.057	415.94
420.28	428.94
420.503	426.94
420.726	397.94
420.948	401.94
421.171	453.94
421.394	457.94
421.617	432.94
421.839	417.94
422.062	420.94
422.285	428.94
422.507	461.94
422.73	485.94
422.953	513.94
423.175	454.94
423.398	430.94
423.621	408.94
423.843	436.94
424.066	434.94
424.288	430.94
424.511	433.94
424.733	490.94
424.956	524.94
425.178	520.94
425.401	513.94
425.623	536.94
425.846	443.94
426.068	462.94
426.291	411.94
426.513	430.94
426.735	448.94
426.958	478.94
427.18	497.94
427.402	576.94
427.625	646.94
427.847	560.94
428.069	512.94
428.292	442.94
428.514	428.94
428.736	425.94
428.958	410.94
429.181	405.94
429.403	396.94
429.625	401.94
429.847	431.94
430.069	452.94
430.292	446.94
430.514	411.94
430.736	385.94
430.958	401.94
431.18	397.94
431.402	393.94
431.624	365.94
431.846	376.94
432.068	375.94
432.29	383.94
432.512	379.94
432.734	397.94
432.956	385.94
433.178	405.94
433.4	400.94
433.622	398.94
433.844	382.94
434.066	389.94
434.287	396.94
434.509	376.94
434.731	402.94
434.953	407.94
435.175	401.94
435.397	448.94
435.618	430.94
435.84	469.94
436.062	525.94
436.284	550.94
436.505	465.94
436.727	431.94
436.949	420.94
437.17	397.94
437.392	409.94
437.614	422.94
437.835	409.94
438.057	501.94
438.278	545.94
438.5	566.94
438.721	584.94
438.943	558.94
439.165	486.94
439.386	434.94
439.608	420.94
439.829	414.94
440.05	441.94
440.272	448.94
440.493	470.94
440.715	408.94
440.936	399.94
441.158	388.94
441.379	416.94
441.6	398.94
441.822	424.94
442.043	426.94
442.264	494.94
442.486	516.94
442.707	467.94
442.928	443.94
443.149	436.94
443.371	425.94
443.592	478.94
443.813	540.94
444.034	567.94
444.255	482.94
444.476	437.94
444.698	450.94
444.919	437.94
445.14	544.94
445.361	460.94
445.582	439.94
445.803	470.94
446.024	553.94
446.245	561.94
446.466	515.94
446.687	445.94
446.908	425.94
447.129	407.94
447.35	405.94
447.571	397.94
447.792	395.94
448.013	394.94
448.234	420.94
448.455	428.94
448.675	503.94
448.896	596.94
449.117	503.94
449.338	470.94
449.559	550.94
449.779	594.94
450	503.94
450.221	415.94
450.442	412.94
450.662	369.94
450.883	383.94
451.104	401.94
451.324	386.94
451.545	385.94
451.766	375.94
451.986	336.94
452.207	360.94
452.428	338.94
452.648	359.94
452.869	362.94
453.089	350.94
453.31	363.94
453.53	349.94
453.751	352.94
453.971	360.94
454.192	368.94
454.412	350.94
454.633	343.94
454.853	356.94
455.073	375.94
455.294	373.94
455.514	406.94
455.734	398.94
455.955	348.94
456.175	345.94
456.395	337.94
456.616	349.94
456.836	343.94
457.056	330.94
457.276	322.94
457.497	351.94
457.717	339.94
457.937	347.94
458.157	343.94
458.377	353.94
458.598	351.94
458.818	385.94
459.038	433.94
459.258	441.94
459.478	397.94
459.698	392.94
459.918	397.94
460.138	376.94
460.358	382.94
460.578	389.94
460.798	368.94
461.018	374.94
461.238	394.94
461.458	399.94
461.678	386.94
461.898	404.94
462.118	404.94
462.338	405.94
462.558	418.94
462.777	436.94
462.997	421.94
463.217	433.94
463.437	437.94
463.657	437.94
463.876	438.94
464.096	431.94
464.316	410.94
464.536	413.94
464.755	444.94
464.975	411.94
465.195	416.94
465.414	452.94
465.634	415.94
465.854	389.94
466.073	412.94
466.293	384.94
466.512	365.94
466.732	364.94
466.951	390.94
467.171	361.94
467.391	393.94
467.61	372.94
467.829	386.94
468.049	393.94
468.268	371.94
468.488	349.94
468.707	357.94
468.927	364.94
469.146	343.94
469.365	362.94
469.585	357.94
469.804	364.94
470.023	370.94
470.243	374.94
470.462	385.94
470.681	392.94
470.901	350.94
471.12	378.94
471.339	376.94
471.558	402.94
471.777	384.94
471.997	358.94
472.216	392.94
472.435	409.94
472.654	371.94
472.873	366.94
473.092	372.94
473.311	366.94
473.53	388.94
473.749	379.94
473.968	396.94
474.187	468.94
474.406	462.94
474.625	410.94
474.844	369.94
475.063	372.94
475.282	372.94
475.501	373.94
475.72	377.94
475.939	378.94
476.158	374.94
476.377	394.94
476.596	385.94
476.814	406.94
477.033	421.94
477.252	398.94
477.471	407.94
477.69	404.94
477.908	412.94
478.127	408.94
478.346	414.94
478.564	410.94
478.783	414.94
479.002	432.94
479.22	414.94
479.439	417.94
479.658	445.94
479.876	427.94
480.095	429.94
480.313	450.94
480.532	465.94
480.751	445.94
480.969	440.94
481.188	482.94
481.406	510.94
481.624	448.94
481.843	434.94
482.061	441.94
482.28	435.94
482.498	429.94
482.717	415.94
482.935	426.94
483.153	420.94
483.372	410.94
483.59	424.94
483.808	442.94
484.027	453.94
484.245	439.94
484.463	440.94
484.681	431.94
484.9	432.94
485.118	436.94
485.336	438.94
485.554	439.94
485.772	440.94
485.99	421.94
486.209	459.94
486.427	475.94
486.645	448.94
486.863	455.94
487.081	443.94
487.299	457.94
487.517	464.94
487.735	459.94
487.953	488.94
488.171	456.94
488.389	454.94
488.607	461.94
488.825	440.94
489.043	449.94
489.261	458.94
489.479	441.94
489.696	438.94
489.914	477.94
490.132	472.94
490.35	487.94
490.568	477.94
490.786	494.94
491.003	478.94
491.221	469.94
491.439	502.94
491.657	507.94
491.874	486.94
492.092	489.94
492.31	452.94
492.527	489.94
492.745	510.94
492.963	480.94
493.18	514.94
493.398	523.94
493.615	514.94
493.833	502.94
494.05	509.94
494.268	511.94
494.485	508.94
494.703	522.94
494.92	539.94
495.138	496.94
495.355	528.94
495.573	504.94
495.79	515.94
496.008	532.94
496.225	537.94
496.442	533.94
496.66	538.94
496.877	517.94
497.094	543.94
497.312	549.94
497.529	514.94
497.746	539.94
497.963	559.94
498.181	578.94
498.398	576.94
498.615	600.94
498.832	625.94
499.049	607.94
499.267	639.94
499.484	648.94
499.701	678.94
499.918	728.94
500.135	740.94
500.352	776.94
500.569	742.94
500.786	806.94
501.003	785.94
501.22	721.94
501.437	726.94
501.654	701.94
501.871	678.94
