Data from 1960PennyLincolnUp.LampE6.200Scan.07172019.P1_HRD10591_13-05-24-002.txt Node
Date: Thu Jul 18 13:05:24 EDT 2019
User: cochatt
Spectrometer: HR+D1059
Trigger mode: 1
Integration Time (sec): 1.000000E-1
Scans to average: 1
Electric dark correction enabled: true
Nonlinearity correction enabled: false
Boxcar width: 0
XAxis mode: Wavelengths
Number of Pixels in Spectrum: 2048
>>>>>Begin Spectral Data<<<<<
223.165	-1.81
223.4	-1.81
223.635	-1.81
223.869	-23.81
224.104	-12.81
224.338	-4.81
224.573	-8.81
224.808	-18.81
225.042	-18.81
225.277	-6.81
225.511	-0.81
225.746	3.19
225.98	2.19
226.215	10.19
226.449	9.19
226.683	17.19
226.918	31.19
227.152	24.19
227.387	29.19
227.621	45.19
227.856	36.19
228.09	55.19
228.324	52.19
228.559	51.19
228.793	64.19
229.027	75.19
229.262	83.19
229.496	85.19
229.73	98.19
229.964	113.19
230.199	104.19
230.433	102.19
230.667	83.19
230.901	97.19
231.136	101.19
231.37	107.19
231.604	109.19
231.838	100.19
232.072	110.19
232.306	114.19
232.541	97.19
232.775	101.19
233.009	111.19
233.243	113.19
233.477	107.19
233.711	103.19
233.945	107.19
234.179	105.19
234.413	107.19
234.647	95.19
234.881	116.19
235.115	98.19
235.349	103.19
235.583	110.19
235.817	109.19
236.051	114.19
236.285	122.19
236.519	115.19
236.753	119.19
236.987	124.19
237.221	129.19
237.455	147.19
237.689	127.19
237.922	129.19
238.156	121.19
238.39	111.19
238.624	120.19
238.858	110.19
239.091	115.19
239.325	103.19
239.559	114.19
239.793	116.19
240.027	122.19
240.26	128.19
240.494	136.19
240.728	136.19
240.961	134.19
241.195	129.19
241.429	107.19
241.662	119.19
241.896	124.19
242.13	114.19
242.363	127.19
242.597	109.19
242.83	115.19
243.064	148.19
243.298	128.19
243.531	130.19
243.765	147.19
243.998	120.19
244.232	115.19
244.465	139.19
244.699	125.19
244.932	136.19
245.166	145.19
245.399	117.19
245.633	129.19
245.866	143.19
246.099	130.19
246.333	142.19
246.566	127.19
246.8	138.19
247.033	134.19
247.266	155.19
247.5	154.19
247.733	145.19
247.966	151.19
248.2	134.19
248.433	148.19
248.666	151.19
248.899	168.19
249.133	165.19
249.366	165.19
249.599	160.19
249.832	159.19
250.066	153.19
250.299	165.19
250.532	165.19
250.765	164.19
250.998	169.19
251.231	183.19
251.465	180.19
251.698	165.19
251.931	177.19
252.164	152.19
252.397	153.19
252.63	180.19
252.863	159.19
253.096	185.19
253.329	184.19
253.562	178.19
253.795	174.19
254.028	176.19
254.261	195.19
254.494	182.19
254.727	209.19
254.96	193.19
255.193	192.19
255.426	188.19
255.659	211.19
255.892	199.19
256.124	186.19
256.357	184.19
256.59	175.19
256.823	172.19
257.056	197.19
257.289	173.19
257.521	182.19
257.754	189.19
257.987	187.19
258.22	200.19
258.452	184.19
258.685	195.19
258.918	193.19
259.151	185.19
259.383	203.19
259.616	167.19
259.849	202.19
260.081	189.19
260.314	194.19
260.547	213.19
260.779	208.19
261.012	170.19
261.244	194.19
261.477	189.19
261.71	189.19
261.942	208.19
262.175	213.19
262.407	198.19
262.64	189.19
262.872	195.19
263.105	193.19
263.337	185.19
263.57	181.19
263.802	196.19
264.035	211.19
264.267	191.19
264.499	178.19
264.732	193.19
264.964	189.19
265.197	197.19
265.429	196.19
265.661	181.19
265.894	196.19
266.126	187.19
266.358	203.19
266.591	207.19
266.823	219.19
267.055	196.19
267.287	212.19
267.52	213.19
267.752	206.19
267.984	208.19
268.216	206.19
268.448	192.19
268.681	222.19
268.913	210.19
269.145	225.19
269.377	240.19
269.609	224.19
269.841	224.19
270.073	239.19
270.306	220.19
270.538	236.19
270.77	239.19
271.002	254.19
271.234	234.19
271.466	228.19
271.698	259.19
271.93	257.19
272.162	250.19
272.394	243.19
272.626	246.19
272.858	246.19
273.09	233.19
273.322	235.19
273.553	218.19
273.785	226.19
274.017	238.19
274.249	231.19
274.481	235.19
274.713	240.19
274.945	231.19
275.176	218.19
275.408	228.19
275.64	239.19
275.872	235.19
276.104	235.19
276.335	234.19
276.567	255.19
276.799	223.19
277.031	247.19
277.262	264.19
277.494	257.19
277.726	261.19
277.957	259.19
278.189	241.19
278.421	216.19
278.652	241.19
278.884	246.19
279.115	222.19
279.347	257.19
279.579	254.19
279.81	250.19
280.042	245.19
280.273	267.19
280.505	246.19
280.736	251.19
280.968	237.19
281.199	249.19
281.431	262.19
281.662	257.19
281.894	241.19
282.125	260.19
282.356	272.19
282.588	274.19
282.819	264.19
283.051	290.19
283.282	253.19
283.513	260.19
283.745	263.19
283.976	266.19
284.207	265.19
284.439	264.19
284.67	269.19
284.901	280.19
285.132	250.19
285.364	269.19
285.595	259.19
285.826	271.19
286.057	278.19
286.288	282.19
286.52	275.19
286.751	278.19
286.982	282.19
287.213	278.19
287.444	289.19
287.675	290.19
287.906	276.19
288.138	274.19
288.369	295.19
288.6	278.19
288.831	281.19
289.062	276.19
289.293	277.19
289.524	285.19
289.755	269.19
289.986	292.19
290.217	280.19
290.448	277.19
290.679	286.19
290.91	301.19
291.141	282.19
291.371	298.19
291.602	278.19
291.833	273.19
292.064	286.19
292.295	291.19
292.526	286.19
292.757	293.19
292.987	279.19
293.218	272.19
293.449	296.19
293.68	289.19
293.91	296.19
294.141	292.19
294.372	269.19
294.603	298.19
294.833	301.19
295.064	297.19
295.295	291.19
295.525	279.19
295.756	298.19
295.987	314.19
296.217	282.19
296.448	306.19
296.679	295.19
296.909	310.19
297.14	300.19
297.37	303.19
297.601	303.19
297.831	298.19
298.062	302.19
298.292	317.19
298.523	302.19
298.753	310.19
298.984	301.19
299.214	304.19
299.445	294.19
299.675	297.19
299.905	312.19
300.136	297.19
300.366	318.19
300.597	301.19
300.827	307.19
301.057	339.19
301.288	318.19
301.518	314.19
301.748	312.19
301.979	321.19
302.209	336.19
302.439	323.19
302.669	322.19
302.9	314.19
303.13	320.19
303.36	346.19
303.59	314.19
303.82	315.19
304.051	330.19
304.281	320.19
304.511	316.19
304.741	308.19
304.971	314.19
305.201	333.19
305.431	316.19
305.661	314.19
305.891	329.19
306.121	313.19
306.352	341.19
306.582	333.19
306.812	330.19
307.042	333.19
307.272	329.19
307.502	314.19
307.731	333.19
307.961	316.19
308.191	321.19
308.421	344.19
308.651	318.19
308.881	333.19
309.111	321.19
309.341	324.19
309.571	351.19
309.8	347.19
310.03	328.19
310.26	331.19
310.49	325.19
310.72	329.19
310.949	354.19
311.179	338.19
311.409	346.19
311.639	343.19
311.868	338.19
312.098	349.19
312.328	355.19
312.557	361.19
312.787	361.19
313.017	353.19
313.246	342.19
313.476	334.19
313.706	354.19
313.935	355.19
314.165	376.19
314.394	362.19
314.624	349.19
314.853	361.19
315.083	361.19
315.312	327.19
315.542	355.19
315.771	392.19
316.001	363.19
316.23	346.19
316.46	354.19
316.689	346.19
316.919	344.19
317.148	351.19
317.377	369.19
317.607	352.19
317.836	352.19
318.065	351.19
318.295	377.19
318.524	349.19
318.753	355.19
318.983	368.19
319.212	350.19
319.441	355.19
319.67	359.19
319.9	349.19
320.129	349.19
320.358	359.19
320.587	356.19
320.816	342.19
321.046	374.19
321.275	354.19
321.504	375.19
321.733	369.19
321.962	350.19
322.191	367.19
322.42	390.19
322.649	365.19
322.878	388.19
323.108	391.19
323.337	376.19
323.566	389.19
323.795	423.19
324.024	419.19
324.253	462.19
324.482	583.19
324.71	800.19
324.939	1061.19
325.168	910.19
325.397	530.19
325.626	447.19
325.855	415.19
326.084	394.19
326.313	409.19
326.542	409.19
326.77	429.19
326.999	468.19
327.228	577.19
327.457	772.19
327.686	863.19
327.914	613.19
328.143	493.19
328.372	443.19
328.6	413.19
328.829	435.19
329.058	438.19
329.287	437.19
329.515	417.19
329.744	431.19
329.972	414.19
330.201	438.19
330.43	451.19
330.658	466.19
330.887	475.19
331.115	450.19
331.344	426.19
331.572	420.19
331.801	452.19
332.03	427.19
332.258	438.19
332.486	446.19
332.715	457.19
332.943	456.19
333.172	468.19
333.4	469.19
333.629	475.19
333.857	492.19
334.085	495.19
334.314	518.19
334.542	495.19
334.771	494.19
334.999	486.19
335.227	468.19
335.455	459.19
335.684	450.19
335.912	458.19
336.14	441.19
336.369	449.19
336.597	445.19
336.825	449.19
337.053	442.19
337.281	415.19
337.51	431.19
337.738	411.19
337.966	424.19
338.194	399.19
338.422	425.19
338.65	437.19
338.878	422.19
339.106	406.19
339.334	426.19
339.562	440.19
339.79	399.19
340.018	395.19
340.246	385.19
340.474	403.19
340.702	405.19
340.93	414.19
341.158	410.19
341.386	397.19
341.614	394.19
341.842	383.19
342.07	404.19
342.298	401.19
342.526	379.19
342.754	397.19
342.981	403.19
343.209	417.19
343.437	417.19
343.665	438.19
343.893	448.19
344.12	470.19
344.348	457.19
344.576	446.19
344.804	438.19
345.031	409.19
345.259	406.19
345.487	410.19
345.714	400.19
345.942	385.19
346.17	416.19
346.397	401.19
346.625	390.19
346.853	374.19
347.08	382.19
347.308	398.19
347.535	387.19
347.763	383.19
347.99	383.19
348.218	391.19
348.445	388.19
348.673	394.19
348.9	386.19
349.128	363.19
349.355	397.19
349.583	389.19
349.81	376.19
350.037	383.19
350.265	385.19
350.492	369.19
350.72	392.19
350.947	379.19
351.174	383.19
351.402	387.19
351.629	390.19
351.856	390.19
352.083	403.19
352.311	392.19
352.538	381.19
352.765	377.19
352.992	390.19
353.22	383.19
353.447	372.19
353.674	378.19
353.901	371.19
354.128	365.19
354.355	375.19
354.583	368.19
354.81	388.19
355.037	377.19
355.264	390.19
355.491	400.19
355.718	373.19
355.945	383.19
356.172	377.19
356.399	397.19
356.626	383.19
356.853	385.19
357.08	377.19
357.307	382.19
357.534	379.19
357.761	381.19
357.988	383.19
358.215	382.19
358.441	363.19
358.668	372.19
358.895	393.19
359.122	379.19
359.349	373.19
359.576	392.19
359.802	405.19
360.029	394.19
360.256	415.19
360.483	396.19
360.709	397.19
360.936	385.19
361.163	378.19
361.39	390.19
361.616	379.19
361.843	380.19
362.07	394.19
362.296	373.19
362.523	379.19
362.749	386.19
362.976	379.19
363.203	382.19
363.429	370.19
363.656	404.19
363.882	385.19
364.109	363.19
364.335	383.19
364.562	405.19
364.788	384.19
365.015	401.19
365.241	375.19
365.468	373.19
365.694	383.19
365.92	397.19
366.147	377.19
366.373	378.19
366.599	362.19
366.826	373.19
367.052	361.19
367.278	388.19
367.505	391.19
367.731	386.19
367.957	402.19
368.184	384.19
368.41	384.19
368.636	413.19
368.862	399.19
369.089	382.19
369.315	370.19
369.541	394.19
369.767	389.19
369.993	403.19
370.219	394.19
370.445	399.19
370.672	393.19
370.898	402.19
371.124	399.19
371.35	415.19
371.576	414.19
371.802	391.19
372.028	413.19
372.254	397.19
372.48	409.19
372.706	406.19
372.932	406.19
373.158	411.19
373.384	399.19
373.61	395.19
373.835	398.19
374.061	407.19
374.287	395.19
374.513	429.19
374.739	399.19
374.965	413.19
375.191	415.19
375.416	418.19
375.642	440.19
375.868	413.19
376.094	393.19
376.319	417.19
376.545	384.19
376.771	400.19
376.997	402.19
377.222	415.19
377.448	415.19
377.674	408.19
377.899	409.19
378.125	418.19
378.35	401.19
378.576	391.19
378.802	388.19
379.027	398.19
379.253	408.19
379.478	391.19
379.704	391.19
379.929	400.19
380.155	395.19
380.38	392.19
380.606	399.19
380.831	393.19
381.057	412.19
381.282	414.19
381.507	409.19
381.733	403.19
381.958	406.19
382.184	403.19
382.409	420.19
382.634	422.19
382.86	421.19
383.085	408.19
383.31	395.19
383.535	405.19
383.761	445.19
383.986	433.19
384.211	441.19
384.436	453.19
384.662	454.19
384.887	462.19
385.112	454.19
385.337	434.19
385.562	450.19
385.787	452.19
386.013	466.19
386.238	466.19
386.463	458.19
386.688	457.19
386.913	450.19
387.138	479.19
387.363	445.19
387.588	449.19
387.813	455.19
388.038	451.19
388.263	433.19
388.488	445.19
388.713	461.19
388.938	447.19
389.163	441.19
389.387	462.19
389.612	437.19
389.837	447.19
390.062	430.19
390.287	445.19
390.512	464.19
390.736	437.19
390.961	453.19
391.186	453.19
391.411	467.19
391.636	479.19
391.86	497.19
392.085	485.19
392.31	501.19
392.534	481.19
392.759	489.19
392.984	466.19
393.208	455.19
393.433	490.19
393.658	481.19
393.882	459.19
394.107	464.19
394.331	463.19
394.556	483.19
394.78	479.19
395.005	470.19
395.229	484.19
395.454	491.19
395.678	499.19
395.903	503.19
396.127	497.19
396.352	490.19
396.576	471.19
396.801	473.19
397.025	479.19
397.249	507.19
397.474	508.19
397.698	507.19
397.922	522.19
398.147	487.19
398.371	516.19
398.595	508.19
398.82	531.19
399.044	573.19
399.268	614.19
399.492	682.19
399.717	712.19
399.941	702.19
400.165	688.19
400.389	664.19
400.613	601.19
400.837	563.19
401.062	574.19
401.286	557.19
401.51	534.19
401.734	527.19
401.958	548.19
402.182	568.19
402.406	576.19
402.63	571.19
402.854	562.19
403.078	586.19
403.302	594.19
403.526	571.19
403.75	589.19
403.974	581.19
404.198	586.19
404.422	586.19
404.645	606.19
404.869	610.19
405.093	622.19
405.317	625.19
405.541	643.19
405.765	617.19
405.988	581.19
406.212	605.19
406.436	577.19
406.66	634.19
406.883	611.19
407.107	653.19
407.331	669.19
407.555	709.19
407.778	715.19
408.002	688.19
408.226	634.19
408.449	623.19
408.673	597.19
408.896	619.19
409.12	633.19
409.344	631.19
409.567	593.19
409.791	589.19
410.014	557.19
410.238	554.19
410.461	581.19
410.685	555.19
410.908	576.19
411.132	597.19
411.355	581.19
411.578	571.19
411.802	564.19
412.025	561.19
412.249	578.19
412.472	603.19
412.695	585.19
412.919	588.19
413.142	562.19
413.365	575.19
413.589	563.19
413.812	549.19
414.035	517.19
414.258	543.19
414.482	528.19
414.705	547.19
414.928	556.19
415.151	539.19
415.374	535.19
415.597	528.19
415.821	521.19
416.044	520.19
416.267	529.19
416.49	523.19
416.713	521.19
416.936	529.19
417.159	549.19
417.382	532.19
417.605	523.19
417.828	560.19
418.051	552.19
418.274	541.19
418.497	530.19
418.72	557.19
418.943	535.19
419.166	529.19
419.389	593.19
419.611	574.19
419.834	573.19
420.057	551.19
420.28	529.19
420.503	532.19
420.726	538.19
420.948	544.19
421.171	559.19
421.394	565.19
421.617	540.19
421.839	553.19
422.062	552.19
422.285	537.19
422.507	592.19
422.73	596.19
422.953	619.19
423.175	561.19
423.398	551.19
423.621	541.19
423.843	602.19
424.066	593.19
424.288	570.19
424.511	579.19
424.733	597.19
424.956	635.19
425.178	609.19
425.401	597.19
425.623	602.19
425.846	563.19
426.068	550.19
426.291	559.19
426.513	521.19
426.735	519.19
426.958	543.19
427.18	581.19
427.402	638.19
427.625	709.19
427.847	613.19
428.069	548.19
428.292	537.19
428.514	494.19
428.736	487.19
428.958	505.19
429.181	489.19
429.403	492.19
429.625	496.19
429.847	521.19
430.069	541.19
430.292	547.19
430.514	505.19
430.736	484.19
430.958	479.19
431.18	479.19
431.402	474.19
431.624	464.19
431.846	479.19
432.068	479.19
432.29	486.19
432.512	499.19
432.734	486.19
432.956	485.19
433.178	489.19
433.4	486.19
433.622	499.19
433.844	496.19
434.066	491.19
434.287	495.19
434.509	514.19
434.731	522.19
434.953	533.19
435.175	544.19
435.397	554.19
435.618	533.19
435.84	543.19
436.062	565.19
436.284	613.19
436.505	546.19
436.727	524.19
436.949	502.19
437.17	492.19
437.392	495.19
437.614	477.19
437.835	500.19
438.057	551.19
438.278	579.19
438.5	583.19
438.721	629.19
438.943	607.19
439.165	551.19
439.386	504.19
439.608	522.19
439.829	514.19
440.05	544.19
440.272	563.19
440.493	534.19
440.715	521.19
440.936	514.19
441.158	516.19
441.379	511.19
441.6	553.19
441.822	546.19
442.043	571.19
442.264	592.19
442.486	617.19
442.707	553.19
442.928	535.19
443.149	552.19
443.371	551.19
443.592	579.19
443.813	619.19
444.034	655.19
444.255	596.19
444.476	578.19
444.698	593.19
444.919	588.19
445.14	682.19
445.361	639.19
445.582	551.19
445.803	591.19
446.024	607.19
446.245	609.19
446.466	577.19
446.687	532.19
446.908	501.19
447.129	505.19
447.35	474.19
447.571	472.19
447.792	455.19
448.013	460.19
448.234	478.19
448.455	501.19
448.675	577.19
448.896	607.19
449.117	524.19
449.338	528.19
449.559	591.19
449.779	645.19
450	528.19
450.221	483.19
450.442	462.19
450.662	462.19
450.883	466.19
451.104	473.19
451.324	467.19
451.545	463.19
451.766	440.19
451.986	426.19
452.207	452.19
452.428	443.19
452.648	405.19
452.869	443.19
453.089	423.19
453.31	419.19
453.53	442.19
453.751	407.19
453.971	429.19
454.192	432.19
454.412	425.19
454.633	421.19
454.853	425.19
455.073	413.19
455.294	448.19
455.514	465.19
455.734	459.19
455.955	435.19
456.175	404.19
456.395	411.19
456.616	424.19
456.836	408.19
457.056	414.19
457.276	409.19
457.497	433.19
457.717	414.19
457.937	425.19
458.157	433.19
458.377	426.19
458.598	445.19
458.818	444.19
459.038	506.19
459.258	519.19
459.478	497.19
459.698	461.19
459.918	507.19
460.138	497.19
460.358	513.19
460.578	511.19
460.798	508.19
461.018	520.19
461.238	518.19
461.458	518.19
461.678	516.19
461.898	545.19
462.118	535.19
462.338	569.19
462.558	534.19
462.777	578.19
462.997	589.19
463.217	615.19
463.437	644.19
463.657	579.19
463.876	576.19
464.096	587.19
464.316	600.19
464.536	581.19
464.755	579.19
464.975	550.19
465.195	532.19
465.414	545.19
465.634	527.19
465.854	484.19
466.073	449.19
466.293	481.19
466.512	483.19
466.732	467.19
466.951	456.19
467.171	461.19
467.391	467.19
467.61	455.19
467.829	481.19
468.049	497.19
468.268	455.19
468.488	442.19
468.707	448.19
468.927	461.19
469.146	432.19
469.365	449.19
469.585	448.19
469.804	451.19
470.023	480.19
470.243	464.19
470.462	485.19
470.681	482.19
470.901	485.19
471.12	485.19
471.339	471.19
471.558	457.19
471.777	449.19
471.997	464.19
472.216	431.19
472.435	477.19
472.654	462.19
472.873	426.19
473.092	434.19
473.311	449.19
473.53	449.19
473.749	447.19
473.968	449.19
474.187	495.19
474.406	486.19
474.625	471.19
474.844	445.19
475.063	445.19
475.282	459.19
475.501	451.19
475.72	464.19
475.939	457.19
476.158	457.19
476.377	459.19
476.596	458.19
476.814	458.19
477.033	458.19
477.252	469.19
477.471	475.19
477.69	505.19
477.908	488.19
478.127	496.19
478.346	503.19
478.564	508.19
478.783	509.19
479.002	535.19
479.22	530.19
479.439	564.19
479.658	559.19
479.876	550.19
480.095	555.19
480.313	584.19
480.532	592.19
480.751	569.19
480.969	583.19
481.188	581.19
481.406	597.19
481.624	529.19
481.843	530.19
482.061	549.19
482.28	483.19
482.498	516.19
482.717	486.19
482.935	519.19
483.153	480.19
483.372	486.19
483.59	504.19
483.808	527.19
484.027	520.19
484.245	507.19
484.463	505.19
484.681	532.19
484.9	508.19
485.118	515.19
485.336	527.19
485.554	519.19
485.772	536.19
485.99	526.19
486.209	525.19
486.427	519.19
486.645	558.19
486.863	561.19
487.081	559.19
487.299	562.19
487.517	540.19
487.735	560.19
487.953	543.19
488.171	527.19
488.389	560.19
488.607	538.19
488.825	523.19
489.043	543.19
489.261	548.19
489.479	547.19
489.696	563.19
489.914	539.19
490.132	558.19
490.35	566.19
490.568	546.19
490.786	569.19
491.003	599.19
491.221	571.19
491.439	587.19
491.657	582.19
491.874	599.19
492.092	600.19
492.31	594.19
492.527	584.19
492.745	606.19
492.963	631.19
493.18	610.19
493.398	616.19
493.615	587.19
493.833	636.19
494.05	619.19
494.268	595.19
494.485	613.19
494.703	604.19
494.92	611.19
495.138	595.19
495.355	623.19
495.573	607.19
495.79	614.19
496.008	617.19
496.225	595.19
496.442	619.19
496.66	618.19
496.877	590.19
497.094	633.19
497.312	625.19
497.529	638.19
497.746	664.19
497.963	680.19
498.181	685.19
498.398	723.19
498.615	697.19
498.832	749.19
499.049	802.19
499.267	850.19
499.484	883.19
499.701	972.19
499.918	1033.19
500.135	1109.19
500.352	1209.19
500.569	1278.19
500.786	1257.19
501.003	1206.19
501.22	1104.19
501.437	1003.19
501.654	974.19
501.871	882.19
502.088	839.19
