Data from 1960PennyLincolnUp.LampE5.5.200Scan.07172019.P1.ChangedAngle_HRD10591_13-14-10-821.txt Node
Date: Thu Jul 18 13:14:10 EDT 2019
User: cochatt
Spectrometer: HR+D1059
Trigger mode: 1
Integration Time (sec): 1.000000E-1
Scans to average: 1
Electric dark correction enabled: true
Nonlinearity correction enabled: false
Boxcar width: 0
XAxis mode: Wavelengths
Number of Pixels in Spectrum: 2048
>>>>>Begin Spectral Data<<<<<
223.165	-24.5
223.4	-24.5
223.635	-24.5
223.869	-10.5
224.104	-13.5
224.338	-5.5
224.573	-17.5
224.808	-22.5
225.042	-8.5
225.277	4.5
225.511	-2.5
225.746	-10.5
225.98	2.5
226.215	14.5
226.449	3.5
226.683	32.5
226.918	31.5
227.152	26.5
227.387	39.5
227.621	37.5
227.856	40.5
228.09	55.5
228.324	61.5
228.559	61.5
228.793	65.5
229.027	74.5
229.262	83.5
229.496	71.5
229.73	95.5
229.964	111.5
230.199	97.5
230.433	104.5
230.667	91.5
230.901	87.5
231.136	94.5
231.37	86.5
231.604	101.5
231.838	100.5
232.072	103.5
232.306	100.5
232.541	90.5
232.775	106.5
233.009	97.5
233.243	116.5
233.477	110.5
233.711	95.5
233.945	93.5
234.179	107.5
234.413	104.5
234.647	102.5
234.881	101.5
235.115	107.5
235.349	103.5
235.583	94.5
235.817	110.5
236.051	100.5
236.285	112.5
236.519	102.5
236.753	109.5
236.987	113.5
237.221	137.5
237.455	149.5
237.689	139.5
237.922	112.5
238.156	100.5
238.39	120.5
238.624	93.5
238.858	106.5
239.091	102.5
239.325	102.5
239.559	106.5
239.793	120.5
240.027	113.5
240.26	117.5
240.494	123.5
240.728	116.5
240.961	115.5
241.195	121.5
241.429	120.5
241.662	110.5
241.896	121.5
242.13	133.5
242.363	114.5
242.597	131.5
242.83	123.5
243.064	126.5
243.298	130.5
243.531	126.5
243.765	128.5
243.998	125.5
244.232	129.5
244.465	115.5
244.699	127.5
244.932	132.5
245.166	114.5
245.399	141.5
245.633	129.5
245.866	124.5
246.099	126.5
246.333	129.5
246.566	135.5
246.8	128.5
247.033	128.5
247.266	135.5
247.5	128.5
247.733	137.5
247.966	140.5
248.2	140.5
248.433	136.5
248.666	152.5
248.899	169.5
249.133	161.5
249.366	151.5
249.599	153.5
249.832	139.5
250.066	146.5
250.299	145.5
250.532	151.5
250.765	155.5
250.998	155.5
251.231	180.5
251.465	157.5
251.698	153.5
251.931	168.5
252.164	165.5
252.397	165.5
252.63	151.5
252.863	156.5
253.096	160.5
253.329	177.5
253.562	168.5
253.795	177.5
254.028	160.5
254.261	160.5
254.494	172.5
254.727	187.5
254.96	200.5
255.193	206.5
255.426	195.5
255.659	184.5
255.892	171.5
256.124	197.5
256.357	175.5
256.59	178.5
256.823	177.5
257.056	171.5
257.289	173.5
257.521	187.5
257.754	169.5
257.987	161.5
258.22	182.5
258.452	195.5
258.685	184.5
258.918	179.5
259.151	166.5
259.383	178.5
259.616	171.5
259.849	184.5
260.081	190.5
260.314	201.5
260.547	202.5
260.779	180.5
261.012	188.5
261.244	184.5
261.477	180.5
261.71	187.5
261.942	192.5
262.175	175.5
262.407	180.5
262.64	192.5
262.872	168.5
263.105	174.5
263.337	193.5
263.57	178.5
263.802	190.5
264.035	187.5
264.267	203.5
264.499	191.5
264.732	179.5
264.964	180.5
265.197	180.5
265.429	198.5
265.661	196.5
265.894	191.5
266.126	202.5
266.358	176.5
266.591	197.5
266.823	188.5
267.055	197.5
267.287	208.5
267.52	196.5
267.752	184.5
267.984	200.5
268.216	189.5
268.448	204.5
268.681	197.5
268.913	209.5
269.145	215.5
269.377	216.5
269.609	211.5
269.841	227.5
270.073	203.5
270.306	212.5
270.538	227.5
270.77	223.5
271.002	237.5
271.234	232.5
271.466	231.5
271.698	218.5
271.93	239.5
272.162	232.5
272.394	246.5
272.626	226.5
272.858	223.5
273.09	231.5
273.322	220.5
273.553	221.5
273.785	213.5
274.017	233.5
274.249	209.5
274.481	218.5
274.713	239.5
274.945	214.5
275.176	209.5
275.408	225.5
275.64	226.5
275.872	224.5
276.104	226.5
276.335	236.5
276.567	247.5
276.799	222.5
277.031	242.5
277.262	252.5
277.494	259.5
277.726	250.5
277.957	219.5
278.189	235.5
278.421	228.5
278.652	239.5
278.884	239.5
279.115	244.5
279.347	225.5
279.579	230.5
279.81	251.5
280.042	237.5
280.273	242.5
280.505	259.5
280.736	242.5
280.968	230.5
281.199	237.5
281.431	225.5
281.662	251.5
281.894	244.5
282.125	221.5
282.356	255.5
282.588	239.5
282.819	248.5
283.051	241.5
283.282	244.5
283.513	234.5
283.745	249.5
283.976	240.5
284.207	241.5
284.439	251.5
284.67	230.5
284.901	251.5
285.132	246.5
285.364	250.5
285.595	261.5
285.826	257.5
286.057	262.5
286.288	229.5
286.52	262.5
286.751	257.5
286.982	249.5
287.213	255.5
287.444	258.5
287.675	261.5
287.906	249.5
288.138	263.5
288.369	272.5
288.6	271.5
288.831	260.5
289.062	248.5
289.293	268.5
289.524	245.5
289.755	248.5
289.986	259.5
290.217	243.5
290.448	251.5
290.679	258.5
290.91	252.5
291.141	258.5
291.371	248.5
291.602	256.5
291.833	259.5
292.064	261.5
292.295	261.5
292.526	259.5
292.757	270.5
292.987	260.5
293.218	268.5
293.449	259.5
293.68	258.5
293.91	259.5
294.141	272.5
294.372	254.5
294.603	235.5
294.833	259.5
295.064	266.5
295.295	274.5
295.525	264.5
295.756	265.5
295.987	253.5
296.217	267.5
296.448	274.5
296.679	260.5
296.909	258.5
297.14	274.5
297.37	257.5
297.601	263.5
297.831	260.5
298.062	263.5
298.292	284.5
298.523	278.5
298.753	282.5
298.984	277.5
299.214	293.5
299.445	276.5
299.675	267.5
299.905	273.5
300.136	284.5
300.366	284.5
300.597	297.5
300.827	285.5
301.057	283.5
301.288	277.5
301.518	288.5
301.748	291.5
301.979	288.5
302.209	276.5
302.439	284.5
302.669	301.5
302.9	296.5
303.13	277.5
303.36	305.5
303.59	291.5
303.82	290.5
304.051	296.5
304.281	305.5
304.511	281.5
304.741	287.5
304.971	274.5
305.201	298.5
305.431	296.5
305.661	299.5
305.891	298.5
306.121	293.5
306.352	293.5
306.582	290.5
306.812	300.5
307.042	301.5
307.272	310.5
307.502	281.5
307.731	291.5
307.961	296.5
308.191	308.5
308.421	305.5
308.651	282.5
308.881	279.5
309.111	284.5
309.341	301.5
309.571	310.5
309.8	333.5
310.03	297.5
310.26	289.5
310.49	304.5
310.72	320.5
310.949	314.5
311.179	321.5
311.409	307.5
311.639	309.5
311.868	312.5
312.098	314.5
312.328	306.5
312.557	340.5
312.787	321.5
313.017	330.5
313.246	319.5
313.476	325.5
313.706	321.5
313.935	308.5
314.165	320.5
314.394	356.5
314.624	337.5
314.853	321.5
315.083	331.5
315.312	330.5
315.542	320.5
315.771	305.5
316.001	316.5
316.23	311.5
316.46	329.5
316.689	327.5
316.919	323.5
317.148	310.5
317.377	332.5
317.607	312.5
317.836	333.5
318.065	326.5
318.295	333.5
318.524	346.5
318.753	324.5
318.983	329.5
319.212	331.5
319.441	325.5
319.67	317.5
319.9	329.5
320.129	327.5
320.358	326.5
320.587	322.5
320.816	341.5
321.046	343.5
321.275	346.5
321.504	337.5
321.733	325.5
321.962	345.5
322.191	346.5
322.42	351.5
322.649	350.5
322.878	364.5
323.108	354.5
323.337	360.5
323.566	362.5
323.795	387.5
324.024	415.5
324.253	454.5
324.482	596.5
324.71	862.5
324.939	1115.5
325.168	941.5
325.397	567.5
325.626	417.5
325.855	402.5
326.084	390.5
326.313	367.5
326.542	381.5
326.77	405.5
326.999	438.5
327.228	560.5
327.457	780.5
327.686	899.5
327.914	635.5
328.143	476.5
328.372	432.5
328.6	405.5
328.829	421.5
329.058	394.5
329.287	395.5
329.515	396.5
329.744	369.5
329.972	376.5
330.201	405.5
330.43	409.5
330.658	410.5
330.887	415.5
331.115	420.5
331.344	392.5
331.572	374.5
331.801	367.5
332.03	378.5
332.258	371.5
332.486	378.5
332.715	371.5
332.943	363.5
333.172	368.5
333.4	388.5
333.629	400.5
333.857	386.5
334.085	400.5
334.314	408.5
334.542	399.5
334.771	408.5
334.999	407.5
335.227	389.5
335.455	393.5
335.684	416.5
335.912	402.5
336.14	393.5
336.369	375.5
336.597	365.5
336.825	371.5
337.053	377.5
337.281	357.5
337.51	385.5
337.738	360.5
337.966	370.5
338.194	367.5
338.422	372.5
338.65	371.5
338.878	373.5
339.106	374.5
339.334	380.5
339.562	358.5
339.79	355.5
340.018	369.5
340.246	356.5
340.474	375.5
340.702	359.5
340.93	341.5
341.158	345.5
341.386	355.5
341.614	342.5
341.842	358.5
342.07	348.5
342.298	357.5
342.526	347.5
342.754	352.5
342.981	356.5
343.209	352.5
343.437	364.5
343.665	360.5
343.893	378.5
344.12	392.5
344.348	370.5
344.576	380.5
344.804	367.5
345.031	368.5
345.259	362.5
345.487	370.5
345.714	349.5
345.942	332.5
346.17	353.5
346.397	346.5
346.625	351.5
346.853	344.5
347.08	341.5
347.308	331.5
347.535	352.5
347.763	345.5
347.99	345.5
348.218	357.5
348.445	313.5
348.673	344.5
348.9	347.5
349.128	340.5
349.355	342.5
349.583	330.5
349.81	321.5
350.037	323.5
350.265	323.5
350.492	340.5
350.72	328.5
350.947	325.5
351.174	336.5
351.402	354.5
351.629	326.5
351.856	323.5
352.083	340.5
352.311	325.5
352.538	312.5
352.765	339.5
352.992	347.5
353.22	341.5
353.447	341.5
353.674	330.5
353.901	313.5
354.128	326.5
354.355	320.5
354.583	315.5
354.81	332.5
355.037	319.5
355.264	321.5
355.491	323.5
355.718	324.5
355.945	328.5
356.172	326.5
356.399	317.5
356.626	309.5
356.853	321.5
357.08	319.5
357.307	321.5
357.534	333.5
357.761	327.5
357.988	311.5
358.215	328.5
358.441	328.5
358.668	316.5
358.895	318.5
359.122	311.5
359.349	314.5
359.576	320.5
359.802	337.5
360.029	339.5
360.256	356.5
360.483	339.5
360.709	346.5
360.936	333.5
361.163	338.5
361.39	326.5
361.616	323.5
361.843	323.5
362.07	331.5
362.296	338.5
362.523	330.5
362.749	324.5
362.976	329.5
363.203	330.5
363.429	321.5
363.656	327.5
363.882	317.5
364.109	305.5
364.335	306.5
364.562	312.5
364.788	337.5
365.015	326.5
365.241	335.5
365.468	329.5
365.694	326.5
365.92	333.5
366.147	342.5
366.373	324.5
366.599	317.5
366.826	314.5
367.052	315.5
367.278	318.5
367.505	326.5
367.731	324.5
367.957	323.5
368.184	325.5
368.41	336.5
368.636	323.5
368.862	329.5
369.089	322.5
369.315	341.5
369.541	314.5
369.767	336.5
369.993	324.5
370.219	315.5
370.445	323.5
370.672	299.5
370.898	295.5
371.124	326.5
371.35	322.5
371.576	337.5
371.802	316.5
372.028	319.5
372.254	299.5
372.48	315.5
372.706	344.5
372.932	332.5
373.158	327.5
373.384	316.5
373.61	316.5
373.835	332.5
374.061	325.5
374.287	310.5
374.513	324.5
374.739	345.5
374.965	344.5
375.191	333.5
375.416	334.5
375.642	334.5
375.868	328.5
376.094	329.5
376.319	310.5
376.545	323.5
376.771	316.5
376.997	313.5
377.222	313.5
377.448	325.5
377.674	335.5
377.899	342.5
378.125	304.5
378.35	316.5
378.576	327.5
378.802	322.5
379.027	319.5
379.253	314.5
379.478	326.5
379.704	328.5
379.929	325.5
380.155	310.5
380.38	321.5
380.606	332.5
380.831	329.5
381.057	342.5
381.282	307.5
381.507	321.5
381.733	317.5
381.958	327.5
382.184	314.5
382.409	333.5
382.634	341.5
382.86	341.5
383.085	344.5
383.31	325.5
383.535	347.5
383.761	331.5
383.986	321.5
384.211	352.5
384.436	356.5
384.662	343.5
384.887	366.5
385.112	339.5
385.337	340.5
385.562	343.5
385.787	334.5
386.013	355.5
386.238	367.5
386.463	343.5
386.688	351.5
386.913	361.5
387.138	344.5
387.363	360.5
387.588	353.5
387.813	335.5
388.038	361.5
388.263	357.5
388.488	346.5
388.713	360.5
388.938	353.5
389.163	343.5
389.387	347.5
389.612	328.5
389.837	332.5
390.062	325.5
390.287	346.5
390.512	342.5
390.736	340.5
390.961	333.5
391.186	340.5
391.411	336.5
391.636	345.5
391.86	350.5
392.085	353.5
392.31	347.5
392.534	346.5
392.759	343.5
392.984	352.5
393.208	357.5
393.433	374.5
393.658	382.5
393.882	352.5
394.107	358.5
394.331	356.5
394.556	354.5
394.78	335.5
395.005	335.5
395.229	370.5
395.454	363.5
395.678	367.5
395.903	346.5
396.127	366.5
396.352	368.5
396.576	365.5
396.801	392.5
397.025	373.5
397.249	382.5
397.474	389.5
397.698	361.5
397.922	392.5
398.147	398.5
398.371	377.5
398.595	406.5
398.82	381.5
399.044	389.5
399.268	412.5
399.492	444.5
399.717	438.5
399.941	455.5
400.165	450.5
400.389	455.5
400.613	426.5
400.837	406.5
401.062	399.5
401.286	367.5
401.51	372.5
401.734	373.5
401.958	395.5
402.182	381.5
402.406	379.5
402.63	380.5
402.854	387.5
403.078	379.5
403.302	375.5
403.526	405.5
403.75	388.5
403.974	389.5
404.198	404.5
404.422	406.5
404.645	384.5
404.869	402.5
405.093	430.5
405.317	408.5
405.541	450.5
405.765	413.5
405.988	409.5
406.212	420.5
406.436	401.5
406.66	432.5
406.883	423.5
407.107	420.5
407.331	464.5
407.555	479.5
407.778	480.5
408.002	448.5
408.226	428.5
408.449	440.5
408.673	413.5
408.896	451.5
409.12	455.5
409.344	425.5
409.567	403.5
409.791	402.5
410.014	396.5
410.238	389.5
410.461	396.5
410.685	386.5
410.908	388.5
411.132	415.5
411.355	418.5
411.578	427.5
411.802	399.5
412.025	393.5
412.249	409.5
412.472	410.5
412.695	421.5
412.919	410.5
413.142	394.5
413.365	389.5
413.589	385.5
413.812	365.5
414.035	395.5
414.258	394.5
414.482	370.5
414.705	371.5
414.928	386.5
415.151	361.5
415.374	371.5
415.597	374.5
415.821	356.5
416.044	364.5
416.267	354.5
416.49	361.5
416.713	362.5
416.936	366.5
417.159	355.5
417.382	379.5
417.605	376.5
417.828	356.5
418.051	359.5
418.274	357.5
418.497	359.5
418.72	336.5
418.943	363.5
419.166	363.5
419.389	400.5
419.611	392.5
419.834	381.5
420.057	381.5
420.28	361.5
420.503	372.5
420.726	364.5
420.948	372.5
421.171	386.5
421.394	396.5
421.617	396.5
421.839	395.5
422.062	369.5
422.285	396.5
422.507	412.5
422.73	455.5
422.953	461.5
423.175	423.5
423.398	391.5
423.621	374.5
423.843	398.5
424.066	379.5
424.288	401.5
424.511	396.5
424.733	432.5
424.956	469.5
425.178	456.5
425.401	450.5
425.623	469.5
425.846	439.5
426.068	385.5
426.291	395.5
426.513	393.5
426.735	387.5
426.958	409.5
427.18	446.5
427.402	527.5
427.625	538.5
427.847	487.5
428.069	428.5
428.292	406.5
428.514	383.5
428.736	372.5
428.958	363.5
429.181	372.5
429.403	367.5
429.625	375.5
429.847	385.5
430.069	428.5
430.292	399.5
430.514	363.5
430.736	365.5
430.958	364.5
431.18	364.5
431.402	343.5
431.624	338.5
431.846	337.5
432.068	330.5
432.29	343.5
432.512	362.5
432.734	362.5
432.956	366.5
433.178	348.5
433.4	359.5
433.622	351.5
433.844	368.5
434.066	363.5
434.287	351.5
434.509	345.5
434.731	359.5
434.953	367.5
435.175	380.5
435.397	392.5
435.618	388.5
435.84	392.5
436.062	435.5
436.284	485.5
436.505	422.5
436.727	399.5
436.949	372.5
437.17	363.5
437.392	365.5
437.614	385.5
437.835	373.5
438.057	428.5
438.278	472.5
438.5	464.5
438.721	510.5
438.943	496.5
439.165	410.5
439.386	372.5
439.608	384.5
439.829	377.5
440.05	396.5
440.272	400.5
440.493	387.5
440.715	376.5
440.936	367.5
441.158	358.5
441.379	355.5
441.6	365.5
441.822	387.5
442.043	382.5
442.264	454.5
442.486	464.5
442.707	424.5
442.928	389.5
443.149	405.5
443.371	405.5
443.592	435.5
443.813	498.5
444.034	495.5
444.255	444.5
444.476	411.5
444.698	401.5
444.919	379.5
445.14	521.5
445.361	440.5
445.582	400.5
445.803	444.5
446.024	481.5
446.245	480.5
446.466	457.5
446.687	404.5
446.908	383.5
447.129	353.5
447.35	362.5
447.571	337.5
447.792	342.5
448.013	355.5
448.234	356.5
448.455	393.5
448.675	440.5
448.896	513.5
449.117	449.5
449.338	444.5
449.559	492.5
449.779	528.5
450	441.5
450.221	373.5
450.442	345.5
450.662	354.5
450.883	349.5
451.104	351.5
451.324	346.5
451.545	351.5
451.766	322.5
451.986	329.5
452.207	332.5
452.428	334.5
452.648	331.5
452.869	320.5
453.089	339.5
453.31	333.5
453.53	344.5
453.751	319.5
453.971	311.5
454.192	323.5
454.412	325.5
454.633	337.5
454.853	316.5
455.073	319.5
455.294	335.5
455.514	364.5
455.734	357.5
455.955	325.5
456.175	311.5
456.395	318.5
456.616	326.5
456.836	333.5
457.056	313.5
457.276	305.5
457.497	314.5
457.717	324.5
457.937	319.5
458.157	317.5
458.377	314.5
458.598	327.5
458.818	366.5
459.038	380.5
459.258	400.5
459.478	359.5
459.698	338.5
459.918	338.5
460.138	348.5
460.358	356.5
460.578	357.5
460.798	362.5
461.018	369.5
461.238	339.5
461.458	363.5
461.678	354.5
461.898	357.5
462.118	366.5
462.338	396.5
462.558	377.5
462.777	376.5
462.997	375.5
463.217	385.5
463.437	397.5
463.657	391.5
463.876	386.5
464.096	395.5
464.316	396.5
464.536	394.5
464.755	386.5
464.975	373.5
465.195	382.5
465.414	391.5
465.634	376.5
465.854	351.5
466.073	377.5
466.293	340.5
466.512	355.5
466.732	329.5
466.951	329.5
467.171	347.5
467.391	340.5
467.61	322.5
467.829	345.5
468.049	346.5
468.268	345.5
468.488	329.5
468.707	344.5
468.927	332.5
469.146	333.5
469.365	345.5
469.585	322.5
469.804	325.5
470.023	332.5
470.243	343.5
470.462	332.5
470.681	343.5
470.901	340.5
471.12	339.5
471.339	336.5
471.558	339.5
471.777	346.5
471.997	345.5
472.216	343.5
472.435	342.5
472.654	334.5
472.873	334.5
473.092	337.5
473.311	353.5
473.53	339.5
473.749	341.5
473.968	359.5
474.187	415.5
474.406	436.5
474.625	366.5
474.844	336.5
475.063	347.5
475.282	331.5
475.501	341.5
475.72	361.5
475.939	356.5
476.158	356.5
476.377	342.5
476.596	353.5
476.814	372.5
477.033	356.5
477.252	377.5
477.471	355.5
477.69	368.5
477.908	357.5
478.127	361.5
478.346	376.5
478.564	371.5
478.783	383.5
479.002	380.5
479.22	383.5
479.439	394.5
479.658	390.5
479.876	398.5
480.095	407.5
480.313	419.5
480.532	399.5
480.751	392.5
480.969	395.5
481.188	435.5
481.406	438.5
481.624	415.5
481.843	405.5
482.061	393.5
482.28	396.5
482.498	401.5
482.717	400.5
482.935	401.5
483.153	370.5
483.372	397.5
483.59	413.5
483.808	402.5
484.027	398.5
484.245	416.5
484.463	415.5
484.681	399.5
484.9	400.5
485.118	409.5
485.336	408.5
485.554	394.5
485.772	404.5
485.99	405.5
486.209	399.5
486.427	413.5
486.645	409.5
486.863	429.5
487.081	437.5
487.299	413.5
487.517	420.5
487.735	397.5
487.953	426.5
488.171	407.5
488.389	421.5
488.607	407.5
488.825	425.5
489.043	429.5
489.261	419.5
489.479	430.5
489.696	407.5
489.914	409.5
490.132	437.5
490.35	438.5
490.568	442.5
490.786	450.5
491.003	429.5
491.221	453.5
491.439	442.5
491.657	446.5
491.874	464.5
492.092	455.5
492.31	464.5
492.527	459.5
492.745	451.5
492.963	477.5
493.18	468.5
493.398	458.5
493.615	453.5
493.833	461.5
494.05	484.5
494.268	479.5
494.485	479.5
494.703	483.5
494.92	450.5
495.138	465.5
495.355	460.5
495.573	469.5
495.79	459.5
496.008	479.5
496.225	496.5
496.442	473.5
496.66	480.5
496.877	483.5
497.094	497.5
497.312	491.5
497.529	467.5
497.746	515.5
497.963	498.5
498.181	538.5
498.398	549.5
498.615	565.5
498.832	551.5
499.049	587.5
499.267	599.5
499.484	587.5
499.701	623.5
499.918	644.5
500.135	680.5
500.352	706.5
500.569	717.5
500.786	704.5
501.003	683.5
501.22	652.5
501.437	637.5
501.654	644.5
501.871	627.5
502.088	583.5
502.305	574.5
502.522	554.5
502.739	546.5
502.956	512.5
503.172	499.5
503.389	513.5
503.606	491.5
503.823	481.5
504.04	498.5
504.256	470.5
504.473	501.5
504.69	489.5
504.907	479.5
505.123	484.5
505.34	456.5
505.557	460.5
505.773	450.5
505.99	439.5
506.207	458.5
506.423	435.5
506.64	433.5
506.856	457.5
507.073	445.5
507.289	454.5
507.506	414.5
507.722	437.5
507.939	429.5
508.155	431.5
508.372	432.5
508.588	428.5
508.805	431.5
509.021	436.5
509.238	429.5
509.454	408.5
509.67	421.5
509.887	429.5
510.103	415.5
510.319	420.5
510.536	464.5
510.752	610.5
510.968	539.5
511.184	433.5
511.401	403.5
511.617	398.5
511.833	392.5
512.049	423.5
512.265	417.5
512.481	396.5
512.698	417.5
512.914	399.5
513.13	400.5
513.346	403.5
513.562	405.5
513.778	412.5
513.994	382.5
514.21	369.5
514.426	419.5
514.642	431.5
514.858	439.5
515.074	433.5
515.29	495.5
515.506	615.5
515.721	541.5
515.937	443.5
516.153	424.5
516.369	412.5
516.585	415.5
516.801	420.5
517.016	427.5
517.232	437.5
517.448	415.5
517.664	429.5
517.879	417.5
518.095	438.5
518.311	413.5
518.527	432.5
518.742	409.5
518.958	434.5
519.173	421.5
519.389	415.5
519.605	425.5
519.82	377.5
520.036	420.5
