Data from 1960PennyLincolnUp.LampE5.5.200Scan.07172019.P1.ChangedAngle_HRD10591_13-15-44-822.txt Node
Date: Thu Jul 18 13:15:44 EDT 2019
User: cochatt
Spectrometer: HR+D1059
Trigger mode: 1
Integration Time (sec): 1.000000E-1
Scans to average: 1
Electric dark correction enabled: true
Nonlinearity correction enabled: false
Boxcar width: 0
XAxis mode: Wavelengths
Number of Pixels in Spectrum: 2048
>>>>>Begin Spectral Data<<<<<
223.165	-11.5
223.4	-11.5
223.635	-11.5
223.869	-20.5
224.104	-11.5
224.338	-29.5
224.573	-7.5
224.808	-3.5
225.042	-4.5
225.277	-13.5
225.511	-7.5
225.746	4.5
225.98	4.5
226.215	6.5
226.449	18.5
226.683	16.5
226.918	30.5
227.152	28.5
227.387	33.5
227.621	54.5
227.856	54.5
228.09	49.5
228.324	44.5
228.559	44.5
228.793	56.5
229.027	92.5
229.262	97.5
229.496	99.5
229.73	127.5
229.964	136.5
230.199	108.5
230.433	112.5
230.667	110.5
230.901	101.5
231.136	112.5
231.37	104.5
231.604	112.5
231.838	129.5
232.072	108.5
232.306	129.5
232.541	112.5
232.775	109.5
233.009	120.5
233.243	118.5
233.477	113.5
233.711	107.5
233.945	118.5
234.179	114.5
234.413	103.5
234.647	104.5
234.881	112.5
235.115	105.5
235.349	102.5
235.583	129.5
235.817	114.5
236.051	114.5
236.285	120.5
236.519	107.5
236.753	122.5
236.987	129.5
237.221	175.5
237.455	188.5
237.689	169.5
237.922	140.5
238.156	132.5
238.39	135.5
238.624	116.5
238.858	117.5
239.091	118.5
239.325	106.5
239.559	110.5
239.793	134.5
240.027	121.5
240.26	129.5
240.494	141.5
240.728	133.5
240.961	134.5
241.195	129.5
241.429	136.5
241.662	121.5
241.896	125.5
242.13	130.5
242.363	133.5
242.597	148.5
242.83	132.5
243.064	138.5
243.298	112.5
243.531	123.5
243.765	136.5
243.998	133.5
244.232	139.5
244.465	132.5
244.699	134.5
244.932	138.5
245.166	144.5
245.399	135.5
245.633	124.5
245.866	132.5
246.099	136.5
246.333	149.5
246.566	156.5
246.8	147.5
247.033	144.5
247.266	168.5
247.5	143.5
247.733	153.5
247.966	161.5
248.2	166.5
248.433	141.5
248.666	154.5
248.899	185.5
249.133	169.5
249.366	181.5
249.599	188.5
249.832	166.5
250.066	173.5
250.299	165.5
250.532	161.5
250.765	199.5
250.998	180.5
251.231	202.5
251.465	192.5
251.698	177.5
251.931	187.5
252.164	194.5
252.397	174.5
252.63	168.5
252.863	178.5
253.096	205.5
253.329	222.5
253.562	200.5
253.795	206.5
254.028	192.5
254.261	208.5
254.494	217.5
254.727	236.5
254.96	247.5
255.193	219.5
255.426	214.5
255.659	217.5
255.892	213.5
256.124	210.5
256.357	214.5
256.59	196.5
256.823	186.5
257.056	197.5
257.289	194.5
257.521	199.5
257.754	199.5
257.987	199.5
258.22	188.5
258.452	195.5
258.685	200.5
258.918	193.5
259.151	218.5
259.383	197.5
259.616	199.5
259.849	215.5
260.081	217.5
260.314	246.5
260.547	244.5
260.779	235.5
261.012	216.5
261.244	209.5
261.477	223.5
261.71	216.5
261.942	201.5
262.175	193.5
262.407	214.5
262.64	220.5
262.872	206.5
263.105	210.5
263.337	199.5
263.57	200.5
263.802	201.5
264.035	204.5
264.267	209.5
264.499	206.5
264.732	219.5
264.964	209.5
265.197	220.5
265.429	201.5
265.661	211.5
265.894	224.5
266.126	218.5
266.358	214.5
266.591	215.5
266.823	208.5
267.055	222.5
267.287	214.5
267.52	219.5
267.752	218.5
267.984	216.5
268.216	221.5
268.448	213.5
268.681	252.5
268.913	230.5
269.145	253.5
269.377	272.5
269.609	278.5
269.841	266.5
270.073	265.5
270.306	271.5
270.538	287.5
270.77	266.5
271.002	293.5
271.234	279.5
271.466	272.5
271.698	291.5
271.93	274.5
272.162	295.5
272.394	289.5
272.626	280.5
272.858	274.5
273.09	284.5
273.322	276.5
273.553	252.5
273.785	252.5
274.017	262.5
274.249	269.5
274.481	258.5
274.713	246.5
274.945	266.5
275.176	252.5
275.408	273.5
275.64	263.5
275.872	278.5
276.104	254.5
276.335	254.5
276.567	267.5
276.799	251.5
277.031	292.5
277.262	289.5
277.494	300.5
277.726	278.5
277.957	276.5
278.189	290.5
278.421	268.5
278.652	243.5
278.884	268.5
279.115	260.5
279.347	266.5
279.579	264.5
279.81	273.5
280.042	249.5
280.273	286.5
280.505	264.5
280.736	259.5
280.968	286.5
281.199	262.5
281.431	265.5
281.662	286.5
281.894	270.5
282.125	268.5
282.356	290.5
282.588	286.5
282.819	285.5
283.051	303.5
283.282	290.5
283.513	257.5
283.745	269.5
283.976	284.5
284.207	279.5
284.439	271.5
284.67	289.5
284.901	292.5
285.132	285.5
285.364	270.5
285.595	297.5
285.826	282.5
286.057	282.5
286.288	282.5
286.52	284.5
286.751	282.5
286.982	279.5
287.213	278.5
287.444	289.5
287.675	280.5
287.906	294.5
288.138	307.5
288.369	299.5
288.6	317.5
288.831	301.5
289.062	305.5
289.293	292.5
289.524	301.5
289.755	301.5
289.986	285.5
290.217	289.5
290.448	281.5
290.679	300.5
290.91	302.5
291.141	281.5
291.371	288.5
291.602	298.5
291.833	292.5
292.064	297.5
292.295	296.5
292.526	319.5
292.757	281.5
292.987	297.5
293.218	294.5
293.449	301.5
293.68	301.5
293.91	311.5
294.141	285.5
294.372	298.5
294.603	296.5
294.833	280.5
295.064	300.5
295.295	308.5
295.525	294.5
295.756	300.5
295.987	303.5
296.217	316.5
296.448	337.5
296.679	308.5
296.909	320.5
297.14	318.5
297.37	307.5
297.601	319.5
297.831	310.5
298.062	303.5
298.292	312.5
298.523	316.5
298.753	310.5
298.984	324.5
299.214	316.5
299.445	326.5
299.675	312.5
299.905	322.5
300.136	288.5
300.366	313.5
300.597	320.5
300.827	326.5
301.057	341.5
301.288	316.5
301.518	321.5
301.748	315.5
301.979	330.5
302.209	317.5
302.439	312.5
302.669	342.5
302.9	341.5
303.13	333.5
303.36	332.5
303.59	344.5
303.82	341.5
304.051	336.5
304.281	336.5
304.511	337.5
304.741	321.5
304.971	321.5
305.201	336.5
305.431	326.5
305.661	312.5
305.891	344.5
306.121	323.5
306.352	350.5
306.582	324.5
306.812	325.5
307.042	321.5
307.272	351.5
307.502	346.5
307.731	344.5
307.961	334.5
308.191	339.5
308.421	360.5
308.651	352.5
308.881	319.5
309.111	347.5
309.341	360.5
309.571	342.5
309.8	368.5
310.03	366.5
310.26	363.5
310.49	359.5
310.72	362.5
310.949	375.5
311.179	370.5
311.409	360.5
311.639	368.5
311.868	378.5
312.098	384.5
312.328	368.5
312.557	387.5
312.787	395.5
313.017	393.5
313.246	360.5
313.476	370.5
313.706	382.5
313.935	359.5
314.165	374.5
314.394	390.5
314.624	390.5
314.853	386.5
315.083	374.5
315.312	367.5
315.542	362.5
315.771	367.5
316.001	363.5
316.23	379.5
316.46	383.5
316.689	387.5
316.919	390.5
317.148	356.5
317.377	395.5
317.607	378.5
317.836	392.5
318.065	369.5
318.295	369.5
318.524	372.5
318.753	368.5
318.983	379.5
319.212	371.5
319.441	384.5
319.67	397.5
319.9	364.5
320.129	368.5
320.358	380.5
320.587	399.5
320.816	405.5
321.046	394.5
321.275	410.5
321.504	402.5
321.733	416.5
321.962	408.5
322.191	413.5
322.42	412.5
322.649	415.5
322.878	436.5
323.108	452.5
323.337	465.5
323.566	467.5
323.795	480.5
324.024	526.5
324.253	614.5
324.482	840.5
324.71	1187.5
324.939	1614.5
325.168	1382.5
325.397	768.5
325.626	559.5
325.855	525.5
326.084	464.5
326.313	457.5
326.542	475.5
326.77	500.5
326.999	576.5
327.228	761.5
327.457	1076.5
327.686	1196.5
327.914	838.5
328.143	591.5
328.372	550.5
328.6	532.5
328.829	514.5
329.058	500.5
329.287	505.5
329.515	499.5
329.744	473.5
329.972	464.5
330.201	495.5
330.43	526.5
330.658	534.5
330.887	533.5
331.115	523.5
331.344	476.5
331.572	468.5
331.801	468.5
332.03	448.5
332.258	445.5
332.486	436.5
332.715	445.5
332.943	434.5
333.172	450.5
333.4	435.5
333.629	451.5
333.857	458.5
334.085	454.5
334.314	497.5
334.542	496.5
334.771	510.5
334.999	475.5
335.227	454.5
335.455	458.5
335.684	445.5
335.912	425.5
336.14	456.5
336.369	439.5
336.597	447.5
336.825	429.5
337.053	460.5
337.281	439.5
337.51	414.5
337.738	428.5
337.966	406.5
338.194	441.5
338.422	437.5
338.65	421.5
338.878	409.5
339.106	410.5
339.334	408.5
339.562	426.5
339.79	411.5
340.018	398.5
340.246	424.5
340.474	409.5
340.702	441.5
340.93	421.5
341.158	400.5
341.386	424.5
341.614	400.5
341.842	425.5
342.07	431.5
342.298	410.5
342.526	396.5
342.754	408.5
342.981	403.5
343.209	400.5
343.437	428.5
343.665	407.5
343.893	412.5
344.12	452.5
344.348	429.5
344.576	420.5
344.804	410.5
345.031	407.5
345.259	441.5
345.487	428.5
345.714	428.5
345.942	399.5
346.17	404.5
346.397	411.5
346.625	377.5
346.853	392.5
347.08	396.5
347.308	385.5
347.535	420.5
347.763	413.5
347.99	396.5
348.218	395.5
348.445	404.5
348.673	415.5
348.9	408.5
349.128	391.5
349.355	386.5
349.583	380.5
349.81	385.5
350.037	377.5
350.265	394.5
350.492	386.5
350.72	386.5
350.947	400.5
351.174	377.5
351.402	397.5
351.629	409.5
351.856	394.5
352.083	420.5
352.311	398.5
352.538	399.5
352.765	375.5
352.992	402.5
353.22	384.5
353.447	377.5
353.674	358.5
353.901	382.5
354.128	381.5
354.355	380.5
354.583	394.5
354.81	382.5
355.037	362.5
355.264	347.5
355.491	374.5
355.718	376.5
355.945	372.5
356.172	377.5
356.399	368.5
356.626	377.5
356.853	375.5
357.08	382.5
357.307	382.5
357.534	375.5
357.761	375.5
357.988	373.5
358.215	352.5
358.441	386.5
358.668	378.5
358.895	363.5
359.122	380.5
359.349	382.5
359.576	395.5
359.802	396.5
360.029	412.5
360.256	411.5
360.483	403.5
360.709	366.5
360.936	377.5
361.163	407.5
361.39	387.5
361.616	374.5
361.843	388.5
362.07	364.5
362.296	355.5
362.523	376.5
362.749	380.5
362.976	381.5
363.203	382.5
363.429	366.5
363.656	372.5
363.882	365.5
364.109	357.5
364.335	372.5
364.562	379.5
364.788	384.5
365.015	373.5
365.241	356.5
365.468	391.5
365.694	365.5
365.92	369.5
366.147	358.5
366.373	365.5
366.599	365.5
366.826	361.5
367.052	368.5
367.278	380.5
367.505	362.5
367.731	360.5
367.957	352.5
368.184	368.5
368.41	368.5
368.636	370.5
368.862	378.5
369.089	379.5
369.315	376.5
369.541	354.5
369.767	376.5
369.993	365.5
370.219	359.5
370.445	364.5
370.672	369.5
370.898	369.5
371.124	373.5
371.35	377.5
371.576	370.5
371.802	366.5
372.028	361.5
372.254	364.5
372.48	372.5
372.706	358.5
372.932	366.5
373.158	366.5
373.384	364.5
373.61	352.5
373.835	359.5
374.061	366.5
374.287	386.5
374.513	381.5
374.739	369.5
374.965	370.5
375.191	367.5
375.416	365.5
375.642	357.5
375.868	378.5
376.094	376.5
376.319	351.5
376.545	363.5
376.771	372.5
376.997	370.5
377.222	354.5
377.448	344.5
377.674	351.5
377.899	370.5
378.125	364.5
378.35	359.5
378.576	360.5
378.802	343.5
379.027	358.5
379.253	364.5
379.478	361.5
379.704	376.5
379.929	366.5
380.155	368.5
380.38	348.5
380.606	364.5
380.831	343.5
381.057	371.5
381.282	334.5
381.507	358.5
381.733	360.5
381.958	363.5
382.184	376.5
382.409	366.5
382.634	358.5
382.86	375.5
383.085	377.5
383.31	363.5
383.535	382.5
383.761	369.5
383.986	368.5
384.211	383.5
384.436	364.5
384.662	383.5
384.887	386.5
385.112	393.5
385.337	393.5
385.562	397.5
385.787	386.5
386.013	407.5
386.238	399.5
386.463	383.5
386.688	397.5
386.913	367.5
387.138	390.5
387.363	379.5
387.588	391.5
387.813	376.5
388.038	395.5
388.263	402.5
388.488	384.5
388.713	380.5
388.938	394.5
389.163	394.5
389.387	381.5
389.612	377.5
389.837	391.5
390.062	395.5
390.287	389.5
390.512	385.5
390.736	411.5
390.961	378.5
391.186	386.5
391.411	415.5
391.636	393.5
391.86	401.5
392.085	399.5
392.31	417.5
392.534	386.5
392.759	405.5
392.984	398.5
393.208	394.5
393.433	398.5
393.658	399.5
393.882	398.5
394.107	386.5
394.331	388.5
394.556	396.5
394.78	398.5
395.005	394.5
395.229	385.5
395.454	399.5
395.678	392.5
395.903	410.5
396.127	428.5
396.352	422.5
396.576	408.5
396.801	395.5
397.025	410.5
397.249	405.5
397.474	402.5
397.698	422.5
397.922	433.5
398.147	422.5
398.371	440.5
398.595	432.5
398.82	446.5
399.044	453.5
399.268	457.5
399.492	483.5
399.717	490.5
399.941	517.5
400.165	525.5
400.389	542.5
400.613	492.5
400.837	477.5
401.062	462.5
401.286	441.5
401.51	443.5
401.734	413.5
401.958	434.5
402.182	429.5
402.406	449.5
402.63	441.5
402.854	431.5
403.078	440.5
403.302	440.5
403.526	443.5
403.75	435.5
403.974	453.5
404.198	447.5
404.422	435.5
404.645	444.5
404.869	457.5
405.093	461.5
405.317	503.5
405.541	524.5
405.765	502.5
405.988	470.5
406.212	460.5
406.436	473.5
406.66	479.5
406.883	454.5
407.107	478.5
407.331	532.5
407.555	581.5
407.778	564.5
408.002	510.5
408.226	484.5
408.449	500.5
408.673	480.5
408.896	514.5
409.12	529.5
409.344	519.5
409.567	451.5
409.791	432.5
410.014	450.5
410.238	465.5
410.461	422.5
410.685	468.5
410.908	461.5
411.132	489.5
411.355	498.5
411.578	481.5
411.802	456.5
412.025	452.5
412.249	437.5
412.472	460.5
412.695	473.5
412.919	488.5
413.142	435.5
413.365	418.5
413.589	438.5
413.812	421.5
414.035	449.5
414.258	431.5
414.482	425.5
414.705	402.5
414.928	423.5
415.151	397.5
415.374	409.5
415.597	416.5
415.821	413.5
416.044	436.5
416.267	415.5
416.49	402.5
416.713	410.5
416.936	400.5
417.159	407.5
417.382	412.5
417.605	412.5
417.828	406.5
418.051	421.5
418.274	439.5
418.497	425.5
418.72	412.5
418.943	408.5
419.166	441.5
419.389	442.5
419.611	446.5
419.834	440.5
420.057	427.5
420.28	431.5
420.503	423.5
420.726	424.5
420.948	439.5
421.171	449.5
421.394	476.5
421.617	442.5
421.839	425.5
422.062	424.5
422.285	440.5
422.507	439.5
422.73	538.5
422.953	528.5
423.175	468.5
423.398	473.5
423.621	451.5
423.843	465.5
424.066	463.5
424.288	459.5
424.511	468.5
424.733	504.5
424.956	581.5
425.178	554.5
425.401	544.5
425.623	524.5
425.846	484.5
426.068	461.5
426.291	474.5
426.513	441.5
426.735	460.5
426.958	504.5
427.18	550.5
427.402	627.5
427.625	673.5
427.847	585.5
428.069	521.5
428.292	485.5
428.514	440.5
428.736	427.5
428.958	434.5
429.181	415.5
429.403	419.5
429.625	410.5
429.847	437.5
430.069	501.5
430.292	492.5
430.514	432.5
430.736	420.5
430.958	392.5
431.18	421.5
431.402	428.5
431.624	390.5
431.846	402.5
432.068	425.5
432.29	401.5
432.512	389.5
432.734	406.5
432.956	397.5
433.178	421.5
433.4	407.5
433.622	400.5
433.844	429.5
434.066	420.5
434.287	408.5
434.509	399.5
434.731	420.5
434.953	408.5
435.175	415.5
435.397	461.5
435.618	431.5
435.84	470.5
436.062	537.5
436.284	604.5
436.505	485.5
436.727	438.5
436.949	440.5
437.17	426.5
437.392	431.5
437.614	435.5
437.835	447.5
438.057	497.5
438.278	573.5
438.5	571.5
438.721	650.5
438.943	626.5
439.165	497.5
439.386	469.5
439.608	456.5
439.829	446.5
440.05	462.5
440.272	465.5
440.493	476.5
440.715	424.5
440.936	399.5
441.158	413.5
441.379	410.5
441.6	424.5
441.822	432.5
442.043	468.5
442.264	522.5
442.486	556.5
442.707	488.5
442.928	442.5
443.149	482.5
443.371	459.5
443.592	489.5
443.813	576.5
444.034	587.5
444.255	519.5
444.476	474.5
444.698	481.5
444.919	450.5
445.14	572.5
445.361	502.5
445.582	493.5
445.803	519.5
446.024	595.5
446.245	590.5
446.466	538.5
446.687	479.5
446.908	440.5
447.129	442.5
447.35	424.5
447.571	425.5
447.792	398.5
448.013	414.5
448.234	407.5
448.455	458.5
448.675	528.5
448.896	623.5
449.117	544.5
449.338	514.5
449.559	597.5
449.779	624.5
450	526.5
450.221	445.5
450.442	428.5
450.662	397.5
450.883	407.5
451.104	414.5
451.324	406.5
451.545	386.5
451.766	374.5
451.986	382.5
452.207	370.5
452.428	351.5
452.648	382.5
452.869	358.5
453.089	375.5
453.31	349.5
453.53	370.5
453.751	392.5
453.971	365.5
454.192	398.5
454.412	381.5
454.633	377.5
454.853	365.5
455.073	375.5
455.294	382.5
455.514	417.5
455.734	408.5
455.955	370.5
456.175	372.5
456.395	333.5
456.616	356.5
456.836	365.5
457.056	346.5
457.276	336.5
457.497	360.5
457.717	356.5
457.937	367.5
458.157	368.5
458.377	348.5
458.598	367.5
458.818	422.5
459.038	461.5
459.258	478.5
459.478	420.5
459.698	390.5
459.918	393.5
460.138	404.5
460.358	388.5
460.578	412.5
460.798	405.5
461.018	415.5
461.238	422.5
461.458	411.5
461.678	407.5
461.898	415.5
462.118	385.5
462.338	413.5
462.558	425.5
462.777	441.5
462.997	437.5
463.217	429.5
463.437	450.5
463.657	458.5
463.876	429.5
464.096	410.5
464.316	416.5
464.536	423.5
464.755	434.5
464.975	438.5
465.195	454.5
465.414	486.5
465.634	450.5
465.854	392.5
466.073	398.5
466.293	386.5
466.512	388.5
466.732	396.5
466.951	393.5
467.171	401.5
467.391	383.5
467.61	372.5
467.829	391.5
468.049	382.5
468.268	376.5
468.488	377.5
468.707	360.5
468.927	370.5
469.146	365.5
469.365	379.5
469.585	381.5
469.804	363.5
470.023	373.5
470.243	378.5
470.462	397.5
470.681	380.5
470.901	391.5
471.12	381.5
471.339	394.5
471.558	390.5
471.777	390.5
471.997	400.5
472.216	386.5
472.435	430.5
472.654	391.5
472.873	391.5
473.092	391.5
473.311	392.5
473.53	391.5
473.749	384.5
473.968	425.5
474.187	504.5
474.406	490.5
474.625	448.5
474.844	398.5
475.063	386.5
475.282	398.5
475.501	390.5
475.72	390.5
475.939	367.5
476.158	392.5
476.377	393.5
476.596	405.5
476.814	404.5
477.033	408.5
477.252	400.5
477.471	406.5
477.69	425.5
477.908	418.5
478.127	429.5
478.346	421.5
478.564	417.5
478.783	427.5
479.002	436.5
479.22	432.5
479.439	454.5
479.658	435.5
479.876	455.5
480.095	468.5
480.313	476.5
480.532	490.5
480.751	462.5
480.969	456.5
481.188	522.5
481.406	535.5
481.624	472.5
481.843	462.5
482.061	460.5
482.28	458.5
482.498	449.5
482.717	450.5
482.935	460.5
483.153	442.5
483.372	437.5
483.59	439.5
483.808	427.5
484.027	436.5
484.245	425.5
484.463	436.5
484.681	471.5
484.9	465.5
485.118	468.5
485.336	461.5
485.554	469.5
485.772	460.5
485.99	459.5
486.209	456.5
486.427	473.5
486.645	459.5
486.863	470.5
487.081	485.5
487.299	473.5
487.517	452.5
487.735	467.5
487.953	461.5
488.171	494.5
488.389	484.5
488.607	481.5
488.825	466.5
489.043	496.5
489.261	481.5
489.479	498.5
489.696	494.5
489.914	493.5
490.132	500.5
490.35	490.5
490.568	484.5
490.786	499.5
491.003	518.5
491.221	506.5
491.439	510.5
491.657	536.5
491.874	530.5
492.092	505.5
492.31	536.5
492.527	553.5
492.745	548.5
492.963	541.5
493.18	570.5
493.398	542.5
493.615	536.5
493.833	545.5
494.05	552.5
494.268	545.5
494.485	534.5
494.703	559.5
494.92	540.5
495.138	553.5
495.355	556.5
495.573	569.5
495.79	535.5
496.008	544.5
496.225	559.5
496.442	536.5
496.66	550.5
496.877	565.5
497.094	569.5
497.312	571.5
497.529	564.5
497.746	594.5
497.963	586.5
498.181	605.5
498.398	600.5
498.615	642.5
498.832	653.5
499.049	628.5
499.267	656.5
499.484	662.5
499.701	686.5
499.918	719.5
500.135	759.5
500.352	811.5
500.569	786.5
500.786	798.5
501.003	779.5
501.22	772.5
501.437	758.5
501.654	721.5
501.871	694.5
502.088	675.5
502.305	638.5
502.522	644.5
502.739	629.5
502.956	598.5
503.172	573.5
503.389	570.5
503.606	582.5
503.823	568.5
504.04	570.5
504.256	578.5
504.473	544.5
504.69	562.5
504.907	561.5
505.123	536.5
505.34	534.5
505.557	536.5
505.773	548.5
505.99	553.5
506.207	530.5
506.423	528.5
506.64	519.5
506.856	508.5
507.073	526.5
507.289	504.5
507.506	507.5
507.722	510.5
507.939	509.5
508.155	499.5
508.372	499.5
508.588	498.5
508.805	490.5
509.021	486.5
509.238	517.5
509.454	486.5
509.67	505.5
509.887	508.5
510.103	480.5
510.319	510.5
510.536	567.5
510.752	854.5
510.968	673.5
511.184	495.5
511.401	477.5
511.617	497.5
511.833	460.5
512.049	496.5
512.265	455.5
512.481	453.5
512.698	461.5
512.914	463.5
513.13	459.5
513.346	466.5
513.562	466.5
513.778	464.5
513.994	450.5
514.21	478.5
514.426	469.5
514.642	504.5
514.858	536.5
515.074	525.5
515.29	621.5
515.506	829.5
515.721	707.5
515.937	555.5
516.153	496.5
516.369	495.5
516.585	486.5
516.801	488.5
517.016	502.5
517.232	502.5
517.448	486.5
517.664	489.5
517.879	502.5
518.095	492.5
518.311	473.5
518.527	492.5
518.742	489.5
518.958	451.5
519.173	477.5
519.389	474.5
519.605	480.5
519.82	466.5
