Data from 1960PennyLincolnUp.LampE6.200Scan.07172019.P1_HRD10591_13-05-38-002.txt Node
Date: Thu Jul 18 13:05:38 EDT 2019
User: cochatt
Spectrometer: HR+D1059
Trigger mode: 1
Integration Time (sec): 1.000000E-1
Scans to average: 1
Electric dark correction enabled: true
Nonlinearity correction enabled: false
Boxcar width: 0
XAxis mode: Wavelengths
Number of Pixels in Spectrum: 2048
>>>>>Begin Spectral Data<<<<<
223.165	-7.69
223.4	-7.69
223.635	-7.69
223.869	-20.69
224.104	-12.69
224.338	-21.69
224.573	-20.69
224.808	-7.69
225.042	-9.69
225.277	-17.69
225.511	1.31
225.746	2.31
225.98	13.31
226.215	11.31
226.449	24.31
226.683	15.31
226.918	18.31
227.152	32.31
227.387	39.31
227.621	37.31
227.856	48.31
228.09	48.31
228.324	52.31
228.559	59.31
228.793	50.31
229.027	75.31
229.262	61.31
229.496	92.31
229.73	114.31
229.964	118.31
230.199	105.31
230.433	107.31
230.667	84.31
230.901	95.31
231.136	101.31
231.37	103.31
231.604	100.31
231.838	87.31
232.072	108.31
232.306	108.31
232.541	109.31
232.775	97.31
233.009	116.31
233.243	87.31
233.477	103.31
233.711	121.31
233.945	118.31
234.179	110.31
234.413	119.31
234.647	100.31
234.881	103.31
235.115	99.31
235.349	100.31
235.583	113.31
235.817	118.31
236.051	111.31
236.285	109.31
236.519	130.31
236.753	110.31
236.987	117.31
237.221	141.31
237.455	155.31
237.689	141.31
237.922	128.31
238.156	119.31
238.39	116.31
238.624	130.31
238.858	104.31
239.091	110.31
239.325	126.31
239.559	107.31
239.793	128.31
240.027	114.31
240.26	116.31
240.494	136.31
240.728	123.31
240.961	122.31
241.195	127.31
241.429	120.31
241.662	116.31
241.896	124.31
242.13	120.31
242.363	113.31
242.597	125.31
242.83	128.31
243.064	123.31
243.298	130.31
243.531	139.31
243.765	122.31
243.998	150.31
244.232	106.31
244.465	124.31
244.699	151.31
244.932	115.31
245.166	140.31
245.399	142.31
245.633	136.31
245.866	140.31
246.099	127.31
246.333	145.31
246.566	132.31
246.8	127.31
247.033	150.31
247.266	143.31
247.5	142.31
247.733	158.31
247.966	155.31
248.2	155.31
248.433	148.31
248.666	165.31
248.899	168.31
249.133	160.31
249.366	181.31
249.599	148.31
249.832	154.31
250.066	156.31
250.299	174.31
250.532	167.31
250.765	176.31
250.998	167.31
251.231	175.31
251.465	183.31
251.698	181.31
251.931	161.31
252.164	178.31
252.397	181.31
252.63	181.31
252.863	165.31
253.096	177.31
253.329	178.31
253.562	181.31
253.795	178.31
254.028	190.31
254.261	195.31
254.494	171.31
254.727	192.31
254.96	221.31
255.193	226.31
255.426	183.31
255.659	174.31
255.892	177.31
256.124	186.31
256.357	183.31
256.59	189.31
256.823	172.31
257.056	190.31
257.289	180.31
257.521	180.31
257.754	181.31
257.987	188.31
258.22	183.31
258.452	181.31
258.685	179.31
258.918	181.31
259.151	187.31
259.383	182.31
259.616	196.31
259.849	197.31
260.081	196.31
260.314	223.31
260.547	203.31
260.779	203.31
261.012	207.31
261.244	199.31
261.477	195.31
261.71	183.31
261.942	186.31
262.175	205.31
262.407	180.31
262.64	186.31
262.872	191.31
263.105	196.31
263.337	206.31
263.57	197.31
263.802	170.31
264.035	194.31
264.267	187.31
264.499	176.31
264.732	204.31
264.964	210.31
265.197	187.31
265.429	192.31
265.661	196.31
265.894	187.31
266.126	219.31
266.358	211.31
266.591	214.31
266.823	198.31
267.055	215.31
267.287	196.31
267.52	209.31
267.752	205.31
267.984	188.31
268.216	211.31
268.448	237.31
268.681	204.31
268.913	231.31
269.145	203.31
269.377	254.31
269.609	220.31
269.841	229.31
270.073	242.31
270.306	222.31
270.538	252.31
270.77	252.31
271.002	252.31
271.234	236.31
271.466	255.31
271.698	248.31
271.93	246.31
272.162	263.31
272.394	252.31
272.626	243.31
272.858	245.31
273.09	252.31
273.322	234.31
273.553	234.31
273.785	244.31
274.017	236.31
274.249	240.31
274.481	241.31
274.713	244.31
274.945	252.31
275.176	240.31
275.408	221.31
275.64	231.31
275.872	240.31
276.104	223.31
276.335	237.31
276.567	246.31
276.799	245.31
277.031	266.31
277.262	257.31
277.494	274.31
277.726	255.31
277.957	238.31
278.189	240.31
278.421	261.31
278.652	250.31
278.884	259.31
279.115	254.31
279.347	258.31
279.579	253.31
279.81	246.31
280.042	267.31
280.273	261.31
280.505	252.31
280.736	267.31
280.968	260.31
281.199	250.31
281.431	265.31
281.662	259.31
281.894	242.31
282.125	256.31
282.356	274.31
282.588	267.31
282.819	275.31
283.051	258.31
283.282	258.31
283.513	272.31
283.745	267.31
283.976	268.31
284.207	278.31
284.439	285.31
284.67	283.31
284.901	268.31
285.132	263.31
285.364	266.31
285.595	276.31
285.826	264.31
286.057	276.31
286.288	275.31
286.52	285.31
286.751	276.31
286.982	270.31
287.213	298.31
287.444	292.31
287.675	290.31
287.906	283.31
288.138	292.31
288.369	298.31
288.6	289.31
288.831	289.31
289.062	296.31
289.293	286.31
289.524	305.31
289.755	294.31
289.986	282.31
290.217	303.31
290.448	305.31
290.679	274.31
290.91	284.31
291.141	279.31
291.371	266.31
291.602	294.31
291.833	268.31
292.064	273.31
292.295	283.31
292.526	294.31
292.757	287.31
292.987	286.31
293.218	287.31
293.449	291.31
293.68	298.31
293.91	297.31
294.141	273.31
294.372	286.31
294.603	290.31
294.833	294.31
295.064	306.31
295.295	307.31
295.525	284.31
295.756	303.31
295.987	297.31
296.217	306.31
296.448	311.31
296.679	293.31
296.909	301.31
297.14	298.31
297.37	319.31
297.601	310.31
297.831	300.31
298.062	291.31
298.292	318.31
298.523	315.31
298.753	311.31
298.984	326.31
299.214	317.31
299.445	323.31
299.675	316.31
299.905	330.31
300.136	315.31
300.366	330.31
300.597	306.31
300.827	329.31
301.057	332.31
301.288	336.31
301.518	331.31
301.748	338.31
301.979	337.31
302.209	331.31
302.439	340.31
302.669	328.31
302.9	339.31
303.13	312.31
303.36	324.31
303.59	321.31
303.82	324.31
304.051	319.31
304.281	328.31
304.511	319.31
304.741	313.31
304.971	333.31
305.201	302.31
305.431	342.31
305.661	332.31
305.891	334.31
306.121	324.31
306.352	328.31
306.582	333.31
306.812	316.31
307.042	317.31
307.272	344.31
307.502	330.31
307.731	327.31
307.961	344.31
308.191	339.31
308.421	329.31
308.651	341.31
308.881	333.31
309.111	330.31
309.341	344.31
309.571	338.31
309.8	349.31
310.03	333.31
310.26	336.31
310.49	311.31
310.72	320.31
310.949	344.31
311.179	360.31
311.409	348.31
311.639	363.31
311.868	357.31
312.098	364.31
312.328	357.31
312.557	359.31
312.787	359.31
313.017	373.31
313.246	359.31
313.476	351.31
313.706	362.31
313.935	354.31
314.165	379.31
314.394	392.31
314.624	373.31
314.853	368.31
315.083	378.31
315.312	370.31
315.542	368.31
315.771	357.31
316.001	342.31
316.23	343.31
316.46	356.31
316.689	358.31
316.919	352.31
317.148	369.31
317.377	391.31
317.607	377.31
317.836	368.31
318.065	342.31
318.295	352.31
318.524	341.31
318.753	358.31
318.983	364.31
319.212	357.31
319.441	374.31
319.67	364.31
319.9	368.31
320.129	363.31
320.358	371.31
320.587	374.31
320.816	368.31
321.046	359.31
321.275	367.31
321.504	373.31
321.733	372.31
321.962	370.31
322.191	384.31
322.42	390.31
322.649	391.31
322.878	399.31
323.108	394.31
323.337	396.31
323.566	423.31
323.795	420.31
324.024	435.31
324.253	483.31
324.482	626.31
324.71	867.31
324.939	1152.31
325.168	968.31
325.397	555.31
325.626	458.31
325.855	408.31
326.084	426.31
326.313	411.31
326.542	416.31
326.77	449.31
326.999	472.31
327.228	599.31
327.457	831.31
327.686	920.31
327.914	613.31
328.143	481.31
328.372	467.31
328.6	447.31
328.829	436.31
329.058	439.31
329.287	474.31
329.515	440.31
329.744	428.31
329.972	429.31
330.201	431.31
330.43	456.31
330.658	460.31
330.887	469.31
331.115	477.31
331.344	434.31
331.572	430.31
331.801	435.31
332.03	453.31
332.258	445.31
332.486	464.31
332.715	450.31
332.943	459.31
333.172	474.31
333.4	494.31
333.629	489.31
333.857	492.31
334.085	503.31
334.314	530.31
334.542	518.31
334.771	523.31
334.999	510.31
335.227	467.31
335.455	456.31
335.684	468.31
335.912	459.31
336.14	443.31
336.369	460.31
336.597	450.31
336.825	454.31
337.053	433.31
337.281	424.31
337.51	445.31
337.738	439.31
337.966	421.31
338.194	427.31
338.422	418.31
338.65	422.31
338.878	426.31
339.106	424.31
339.334	435.31
339.562	414.31
339.79	428.31
340.018	419.31
340.246	406.31
340.474	410.31
340.702	405.31
340.93	422.31
341.158	427.31
341.386	418.31
341.614	404.31
341.842	406.31
342.07	420.31
342.298	396.31
342.526	413.31
342.754	406.31
342.981	394.31
343.209	423.31
343.437	432.31
343.665	440.31
343.893	452.31
344.12	447.31
344.348	456.31
344.576	431.31
344.804	426.31
345.031	443.31
345.259	418.31
345.487	424.31
345.714	420.31
345.942	393.31
346.17	405.31
346.397	391.31
346.625	407.31
346.853	392.31
347.08	412.31
347.308	412.31
347.535	398.31
347.763	398.31
347.99	406.31
348.218	400.31
348.445	374.31
348.673	405.31
348.9	395.31
349.128	410.31
349.355	398.31
349.583	378.31
349.81	405.31
350.037	375.31
350.265	391.31
350.492	390.31
350.72	391.31
350.947	387.31
351.174	399.31
351.402	386.31
351.629	403.31
351.856	383.31
352.083	397.31
352.311	404.31
352.538	392.31
352.765	397.31
352.992	399.31
353.22	373.31
353.447	377.31
353.674	393.31
353.901	391.31
354.128	395.31
354.355	378.31
354.583	403.31
354.81	396.31
355.037	393.31
355.264	393.31
355.491	403.31
355.718	385.31
355.945	394.31
356.172	375.31
356.399	383.31
356.626	383.31
356.853	373.31
357.08	378.31
357.307	385.31
357.534	362.31
357.761	366.31
357.988	389.31
358.215	398.31
358.441	398.31
358.668	403.31
358.895	395.31
359.122	394.31
359.349	389.31
359.576	413.31
359.802	406.31
360.029	429.31
360.256	407.31
360.483	405.31
360.709	398.31
360.936	398.31
361.163	380.31
361.39	399.31
361.616	397.31
361.843	387.31
362.07	403.31
362.296	404.31
362.523	384.31
362.749	399.31
362.976	399.31
363.203	384.31
363.429	399.31
363.656	374.31
363.882	407.31
364.109	401.31
364.335	372.31
364.562	376.31
364.788	369.31
365.015	378.31
365.241	382.31
365.468	390.31
365.694	386.31
365.92	377.31
366.147	374.31
366.373	415.31
366.599	396.31
366.826	374.31
367.052	380.31
367.278	390.31
367.505	366.31
367.731	388.31
367.957	389.31
368.184	388.31
368.41	388.31
368.636	383.31
368.862	394.31
369.089	390.31
369.315	396.31
369.541	383.31
369.767	373.31
369.993	396.31
370.219	392.31
370.445	389.31
370.672	398.31
370.898	380.31
371.124	418.31
371.35	402.31
371.576	421.31
371.802	414.31
372.028	411.31
372.254	405.31
372.48	408.31
372.706	423.31
372.932	412.31
373.158	411.31
373.384	431.31
373.61	414.31
373.835	407.31
374.061	422.31
374.287	416.31
374.513	429.31
374.739	421.31
374.965	440.31
375.191	416.31
375.416	434.31
375.642	408.31
375.868	430.31
376.094	414.31
376.319	415.31
376.545	407.31
376.771	399.31
376.997	412.31
377.222	402.31
377.448	405.31
377.674	412.31
377.899	407.31
378.125	422.31
378.35	400.31
378.576	416.31
378.802	394.31
379.027	388.31
379.253	391.31
379.478	395.31
379.704	399.31
379.929	409.31
380.155	418.31
380.38	406.31
380.606	402.31
380.831	405.31
381.057	431.31
381.282	412.31
381.507	411.31
381.733	395.31
381.958	408.31
382.184	399.31
382.409	416.31
382.634	427.31
382.86	419.31
383.085	426.31
383.31	429.31
383.535	449.31
383.761	440.31
383.986	449.31
384.211	426.31
384.436	470.31
384.662	462.31
384.887	476.31
385.112	461.31
385.337	459.31
385.562	460.31
385.787	456.31
386.013	487.31
386.238	470.31
386.463	475.31
386.688	471.31
386.913	460.31
387.138	458.31
387.363	460.31
387.588	454.31
387.813	456.31
388.038	450.31
388.263	461.31
388.488	459.31
388.713	470.31
388.938	455.31
389.163	467.31
389.387	456.31
389.612	460.31
389.837	462.31
390.062	455.31
390.287	443.31
390.512	441.31
390.736	479.31
390.961	486.31
391.186	472.31
391.411	476.31
391.636	483.31
391.86	462.31
392.085	493.31
392.31	489.31
392.534	510.31
392.759	467.31
392.984	461.31
393.208	507.31
393.433	496.31
393.658	515.31
393.882	466.31
394.107	468.31
394.331	460.31
394.556	475.31
394.78	460.31
395.005	492.31
395.229	478.31
395.454	516.31
395.678	504.31
395.903	495.31
396.127	520.31
396.352	514.31
396.576	490.31
396.801	482.31
397.025	491.31
397.249	474.31
397.474	509.31
397.698	530.31
397.922	522.31
398.147	510.31
398.371	536.31
398.595	541.31
398.82	533.31
399.044	546.31
399.268	599.31
399.492	684.31
399.717	740.31
399.941	742.31
400.165	706.31
400.389	686.31
400.613	627.31
400.837	575.31
401.062	542.31
401.286	549.31
401.51	552.31
401.734	551.31
401.958	560.31
402.182	597.31
402.406	561.31
402.63	579.31
402.854	571.31
403.078	564.31
403.302	582.31
403.526	590.31
403.75	588.31
403.974	625.31
404.198	618.31
404.422	599.31
404.645	595.31
404.869	592.31
405.093	629.31
405.317	649.31
405.541	663.31
405.765	600.31
405.988	605.31
406.212	620.31
406.436	616.31
406.66	632.31
406.883	614.31
407.107	622.31
407.331	684.31
407.555	715.31
407.778	727.31
408.002	682.31
408.226	645.31
408.449	626.31
408.673	622.31
408.896	637.31
409.12	642.31
409.344	642.31
409.567	588.31
409.791	595.31
410.014	575.31
410.238	547.31
410.461	572.31
410.685	580.31
410.908	587.31
411.132	588.31
411.355	622.31
411.578	607.31
411.802	577.31
412.025	566.31
412.249	573.31
412.472	615.31
412.695	596.31
412.919	576.31
413.142	570.31
413.365	563.31
413.589	526.31
413.812	544.31
414.035	543.31
414.258	564.31
414.482	549.31
414.705	528.31
414.928	550.31
415.151	561.31
415.374	544.31
415.597	538.31
415.821	551.31
416.044	547.31
416.267	541.31
416.49	543.31
416.713	541.31
416.936	538.31
417.159	535.31
417.382	563.31
417.605	552.31
417.828	552.31
418.051	550.31
418.274	564.31
418.497	545.31
418.72	541.31
418.943	546.31
419.166	563.31
419.389	609.31
419.611	581.31
419.834	562.31
420.057	571.31
420.28	566.31
420.503	542.31
420.726	524.31
420.948	554.31
421.171	582.31
421.394	586.31
421.617	556.31
421.839	538.31
422.062	541.31
422.285	567.31
422.507	592.31
422.73	648.31
422.953	605.31
423.175	558.31
423.398	566.31
423.621	581.31
423.843	588.31
424.066	611.31
424.288	580.31
424.511	606.31
424.733	623.31
424.956	650.31
425.178	624.31
425.401	620.31
425.623	645.31
425.846	575.31
426.068	556.31
426.291	538.31
426.513	551.31
426.735	544.31
426.958	574.31
427.18	611.31
427.402	694.31
427.625	707.31
427.847	629.31
428.069	558.31
428.292	528.31
428.514	531.31
428.736	499.31
428.958	471.31
429.181	491.31
429.403	498.31
429.625	502.31
429.847	512.31
430.069	563.31
430.292	542.31
430.514	524.31
430.736	509.31
430.958	498.31
431.18	498.31
431.402	468.31
431.624	510.31
431.846	490.31
432.068	500.31
432.29	513.31
432.512	499.31
432.734	511.31
432.956	500.31
433.178	504.31
433.4	503.31
433.622	499.31
433.844	486.31
434.066	516.31
434.287	491.31
434.509	505.31
434.731	522.31
434.953	542.31
435.175	548.31
435.397	544.31
435.618	560.31
435.84	566.31
436.062	587.31
436.284	616.31
436.505	546.31
436.727	526.31
436.949	486.31
437.17	513.31
437.392	510.31
437.614	510.31
437.835	519.31
438.057	578.31
438.278	609.31
438.5	606.31
438.721	639.31
438.943	645.31
439.165	553.31
439.386	510.31
439.608	531.31
439.829	523.31
440.05	544.31
440.272	564.31
440.493	538.31
440.715	511.31
440.936	514.31
441.158	510.31
441.379	512.31
441.6	548.31
441.822	546.31
442.043	590.31
442.264	628.31
442.486	626.31
442.707	569.31
442.928	572.31
443.149	548.31
443.371	571.31
443.592	613.31
443.813	647.31
444.034	683.31
444.255	586.31
444.476	604.31
444.698	613.31
444.919	629.31
445.14	728.31
445.361	644.31
445.582	572.31
445.803	582.31
446.024	639.31
446.245	640.31
446.466	588.31
446.687	547.31
446.908	524.31
447.129	500.31
447.35	499.31
447.571	508.31
447.792	475.31
448.013	475.31
448.234	469.31
448.455	506.31
448.675	574.31
448.896	615.31
449.117	538.31
449.338	538.31
449.559	587.31
449.779	664.31
450	560.31
450.221	506.31
450.442	477.31
450.662	475.31
450.883	461.31
451.104	466.31
451.324	491.31
451.545	462.31
451.766	472.31
451.986	449.31
452.207	448.31
452.428	436.31
452.648	437.31
452.869	440.31
453.089	430.31
453.31	448.31
453.53	438.31
453.751	442.31
453.971	419.31
454.192	423.31
454.412	439.31
454.633	430.31
454.853	432.31
455.073	415.31
455.294	436.31
455.514	482.31
455.734	488.31
455.955	439.31
456.175	412.31
456.395	410.31
456.616	436.31
456.836	416.31
457.056	428.31
457.276	398.31
457.497	415.31
457.717	422.31
457.937	437.31
458.157	424.31
458.377	426.31
458.598	446.31
458.818	468.31
459.038	504.31
459.258	506.31
459.478	499.31
459.698	498.31
459.918	476.31
460.138	484.31
460.358	520.31
460.578	531.31
460.798	525.31
461.018	530.31
461.238	530.31
461.458	504.31
461.678	527.31
461.898	532.31
462.118	531.31
462.338	562.31
462.558	567.31
462.777	551.31
462.997	594.31
463.217	644.31
463.437	671.31
463.657	603.31
463.876	596.31
464.096	595.31
464.316	595.31
464.536	601.31
464.755	583.31
464.975	573.31
465.195	578.31
465.414	580.31
465.634	522.31
465.854	507.31
466.073	484.31
466.293	499.31
466.512	482.31
466.732	463.31
466.951	454.31
467.171	467.31
467.391	454.31
467.61	456.31
467.829	488.31
468.049	465.31
468.268	472.31
468.488	453.31
468.707	438.31
468.927	451.31
469.146	443.31
469.365	444.31
469.585	460.31
469.804	467.31
470.023	461.31
470.243	484.31
470.462	485.31
470.681	501.31
470.901	512.31
471.12	472.31
471.339	467.31
471.558	464.31
471.777	462.31
471.997	477.31
472.216	472.31
472.435	464.31
472.654	458.31
472.873	440.31
473.092	434.31
473.311	433.31
473.53	455.31
473.749	434.31
473.968	455.31
474.187	514.31
474.406	518.31
474.625	482.31
474.844	463.31
475.063	447.31
475.282	465.31
475.501	469.31
475.72	469.31
475.939	461.31
476.158	454.31
476.377	471.31
476.596	449.31
476.814	469.31
477.033	479.31
477.252	479.31
477.471	495.31
477.69	504.31
477.908	509.31
478.127	511.31
478.346	517.31
478.564	538.31
478.783	550.31
479.002	550.31
479.22	561.31
479.439	536.31
479.658	545.31
479.876	554.31
480.095	556.31
480.313	594.31
480.532	580.31
480.751	565.31
480.969	579.31
481.188	585.31
481.406	599.31
481.624	573.31
481.843	523.31
482.061	521.31
482.28	495.31
482.498	522.31
482.717	504.31
482.935	512.31
483.153	531.31
483.372	527.31
483.59	531.31
483.808	518.31
484.027	538.31
484.245	534.31
484.463	520.31
484.681	522.31
484.9	522.31
485.118	518.31
485.336	551.31
485.554	550.31
485.772	531.31
485.99	545.31
486.209	541.31
486.427	529.31
486.645	544.31
486.863	530.31
487.081	547.31
487.299	540.31
487.517	549.31
487.735	578.31
487.953	524.31
488.171	560.31
488.389	541.31
488.607	541.31
488.825	547.31
489.043	547.31
489.261	541.31
489.479	548.31
489.696	575.31
489.914	553.31
490.132	583.31
490.35	578.31
490.568	568.31
490.786	567.31
491.003	588.31
491.221	594.31
491.439	607.31
491.657	624.31
491.874	644.31
492.092	637.31
492.31	604.31
492.527	619.31
492.745	627.31
492.963	612.31
493.18	616.31
493.398	615.31
493.615	633.31
493.833	642.31
494.05	632.31
494.268	654.31
494.485	631.31
494.703	623.31
494.92	633.31
495.138	648.31
495.355	638.31
495.573	641.31
495.79	626.31
496.008	622.31
496.225	653.31
496.442	647.31
496.66	655.31
496.877	646.31
497.094	648.31
497.312	633.31
497.529	688.31
497.746	668.31
497.963	685.31
498.181	703.31
498.398	718.31
498.615	752.31
498.832	779.31
499.049	794.31
499.267	853.31
499.484	899.31
499.701	970.31
499.918	1052.31
500.135	1126.31
500.352	1219.31
500.569	1278.31
500.786	1258.31
501.003	1235.31
501.22	1123.31
501.437	1056.31
501.654	990.31
501.871	895.31
502.088	839.31
