Data from 1960PennyLincolnUp.LampE6.200Scan.07172019.P1_HRD10591_13-05-52-002.txt Node
Date: Thu Jul 18 13:05:52 EDT 2019
User: cochatt
Spectrometer: HR+D1059
Trigger mode: 1
Integration Time (sec): 1.000000E-1
Scans to average: 1
Electric dark correction enabled: true
Nonlinearity correction enabled: false
Boxcar width: 0
XAxis mode: Wavelengths
Number of Pixels in Spectrum: 2048
>>>>>Begin Spectral Data<<<<<
223.165	-24.69
223.4	-24.69
223.635	-24.69
223.869	-11.69
224.104	-5.69
224.338	-16.69
224.573	-3.69
224.808	-7.69
225.042	-4.69
225.277	9.31
225.511	-10.69
225.746	-11.69
225.98	9.31
226.215	12.31
226.449	7.31
226.683	12.31
226.918	26.31
227.152	20.31
227.387	19.31
227.621	46.31
227.856	50.31
228.09	49.31
228.324	49.31
228.559	55.31
228.793	78.31
229.027	102.31
229.262	108.31
229.496	88.31
229.73	128.31
229.964	132.31
230.199	117.31
230.433	108.31
230.667	110.31
230.901	104.31
231.136	102.31
231.37	112.31
231.604	110.31
231.838	108.31
232.072	104.31
232.306	114.31
232.541	114.31
232.775	127.31
233.009	102.31
233.243	120.31
233.477	116.31
233.711	115.31
233.945	119.31
234.179	112.31
234.413	118.31
234.647	107.31
234.881	104.31
235.115	115.31
235.349	108.31
235.583	116.31
235.817	121.31
236.051	122.31
236.285	133.31
236.519	122.31
236.753	118.31
236.987	111.31
237.221	143.31
237.455	185.31
237.689	145.31
237.922	148.31
238.156	127.31
238.39	123.31
238.624	117.31
238.858	118.31
239.091	120.31
239.325	122.31
239.559	124.31
239.793	126.31
240.027	113.31
240.26	136.31
240.494	138.31
240.728	140.31
240.961	136.31
241.195	121.31
241.429	140.31
241.662	131.31
241.896	111.31
242.13	115.31
242.363	130.31
242.597	124.31
242.83	134.31
243.064	130.31
243.298	134.31
243.531	129.31
243.765	125.31
243.998	130.31
244.232	143.31
244.465	151.31
244.699	146.31
244.932	139.31
245.166	130.31
245.399	141.31
245.633	151.31
245.866	154.31
246.099	143.31
246.333	133.31
246.566	160.31
246.8	156.31
247.033	146.31
247.266	144.31
247.5	153.31
247.733	162.31
247.966	162.31
248.2	159.31
248.433	159.31
248.666	140.31
248.899	171.31
249.133	179.31
249.366	167.31
249.599	171.31
249.832	177.31
250.066	173.31
250.299	164.31
250.532	166.31
250.765	175.31
250.998	194.31
251.231	194.31
251.465	185.31
251.698	176.31
251.931	183.31
252.164	174.31
252.397	183.31
252.63	177.31
252.863	158.31
253.096	204.31
253.329	196.31
253.562	177.31
253.795	183.31
254.028	188.31
254.261	187.31
254.494	203.31
254.727	225.31
254.96	244.31
255.193	230.31
255.426	201.31
255.659	189.31
255.892	188.31
256.124	199.31
256.357	212.31
256.59	193.31
256.823	191.31
257.056	194.31
257.289	187.31
257.521	188.31
257.754	200.31
257.987	190.31
258.22	184.31
258.452	197.31
258.685	198.31
258.918	204.31
259.151	207.31
259.383	189.31
259.616	187.31
259.849	182.31
260.081	208.31
260.314	209.31
260.547	238.31
260.779	215.31
261.012	199.31
261.244	206.31
261.477	215.31
261.71	179.31
261.942	215.31
262.175	211.31
262.407	207.31
262.64	196.31
262.872	203.31
263.105	206.31
263.337	215.31
263.57	199.31
263.802	205.31
264.035	210.31
264.267	201.31
264.499	214.31
264.732	212.31
264.964	209.31
265.197	203.31
265.429	209.31
265.661	198.31
265.894	197.31
266.126	199.31
266.358	208.31
266.591	211.31
266.823	208.31
267.055	226.31
267.287	222.31
267.52	222.31
267.752	215.31
267.984	214.31
268.216	215.31
268.448	231.31
268.681	225.31
268.913	225.31
269.145	216.31
269.377	251.31
269.609	241.31
269.841	252.31
270.073	250.31
270.306	282.31
270.538	274.31
270.77	259.31
271.002	260.31
271.234	252.31
271.466	256.31
271.698	268.31
271.93	289.31
272.162	273.31
272.394	282.31
272.626	263.31
272.858	259.31
273.09	260.31
273.322	247.31
273.553	249.31
273.785	256.31
274.017	251.31
274.249	252.31
274.481	259.31
274.713	250.31
274.945	240.31
275.176	256.31
275.408	250.31
275.64	263.31
275.872	258.31
276.104	262.31
276.335	243.31
276.567	279.31
276.799	262.31
277.031	278.31
277.262	288.31
277.494	277.31
277.726	288.31
277.957	286.31
278.189	268.31
278.421	247.31
278.652	253.31
278.884	275.31
279.115	261.31
279.347	272.31
279.579	260.31
279.81	253.31
280.042	262.31
280.273	279.31
280.505	270.31
280.736	271.31
280.968	262.31
281.199	261.31
281.431	272.31
281.662	266.31
281.894	278.31
282.125	280.31
282.356	280.31
282.588	296.31
282.819	288.31
283.051	270.31
283.282	288.31
283.513	272.31
283.745	259.31
283.976	282.31
284.207	286.31
284.439	259.31
284.67	274.31
284.901	294.31
285.132	295.31
285.364	301.31
285.595	298.31
285.826	286.31
286.057	283.31
286.288	274.31
286.52	281.31
286.751	282.31
286.982	299.31
287.213	290.31
287.444	305.31
287.675	291.31
287.906	283.31
288.138	299.31
288.369	294.31
288.6	314.31
288.831	319.31
289.062	304.31
289.293	308.31
289.524	298.31
289.755	304.31
289.986	296.31
290.217	286.31
290.448	282.31
290.679	300.31
290.91	294.31
291.141	301.31
291.371	299.31
291.602	291.31
291.833	274.31
292.064	312.31
292.295	313.31
292.526	302.31
292.757	308.31
292.987	304.31
293.218	287.31
293.449	310.31
293.68	304.31
293.91	308.31
294.141	298.31
294.372	297.31
294.603	282.31
294.833	281.31
295.064	289.31
295.295	315.31
295.525	303.31
295.756	315.31
295.987	307.31
296.217	311.31
296.448	322.31
296.679	316.31
296.909	327.31
297.14	315.31
297.37	310.31
297.601	307.31
297.831	311.31
298.062	309.31
298.292	311.31
298.523	319.31
298.753	334.31
298.984	327.31
299.214	320.31
299.445	316.31
299.675	303.31
299.905	337.31
300.136	324.31
300.366	306.31
300.597	327.31
300.827	348.31
301.057	320.31
301.288	346.31
301.518	356.31
301.748	339.31
301.979	358.31
302.209	347.31
302.439	347.31
302.669	333.31
302.9	327.31
303.13	334.31
303.36	370.31
303.59	342.31
303.82	350.31
304.051	354.31
304.281	352.31
304.511	340.31
304.741	350.31
304.971	349.31
305.201	327.31
305.431	341.31
305.661	340.31
305.891	338.31
306.121	315.31
306.352	354.31
306.582	322.31
306.812	358.31
307.042	338.31
307.272	340.31
307.502	332.31
307.731	341.31
307.961	336.31
308.191	347.31
308.421	351.31
308.651	342.31
308.881	341.31
309.111	360.31
309.341	338.31
309.571	351.31
309.8	357.31
310.03	350.31
310.26	360.31
310.49	365.31
310.72	356.31
310.949	357.31
311.179	386.31
311.409	372.31
311.639	361.31
311.868	366.31
312.098	345.31
312.328	368.31
312.557	382.31
312.787	394.31
313.017	380.31
313.246	362.31
313.476	377.31
313.706	373.31
313.935	376.31
314.165	385.31
314.394	392.31
314.624	414.31
314.853	375.31
315.083	374.31
315.312	370.31
315.542	386.31
315.771	380.31
316.001	378.31
316.23	387.31
316.46	372.31
316.689	361.31
316.919	369.31
317.148	380.31
317.377	379.31
317.607	365.31
317.836	392.31
318.065	362.31
318.295	394.31
318.524	379.31
318.753	387.31
318.983	375.31
319.212	356.31
319.441	396.31
319.67	385.31
319.9	374.31
320.129	370.31
320.358	379.31
320.587	368.31
320.816	398.31
321.046	415.31
321.275	398.31
321.504	394.31
321.733	383.31
321.962	390.31
322.191	382.31
322.42	382.31
322.649	395.31
322.878	401.31
323.108	411.31
323.337	430.31
323.566	439.31
323.795	434.31
324.024	464.31
324.253	542.31
324.482	697.31
324.71	1016.31
324.939	1360.31
325.168	1143.31
325.397	632.31
325.626	475.31
325.855	450.31
326.084	429.31
326.313	430.31
326.542	438.31
326.77	479.31
326.999	519.31
327.228	675.31
327.457	936.31
327.686	1031.31
327.914	743.31
328.143	513.31
328.372	492.31
328.6	468.31
328.829	479.31
329.058	468.31
329.287	503.31
329.515	462.31
329.744	478.31
329.972	448.31
330.201	475.31
330.43	484.31
330.658	500.31
330.887	527.31
331.115	514.31
331.344	472.31
331.572	465.31
331.801	458.31
332.03	455.31
332.258	462.31
332.486	469.31
332.715	486.31
332.943	480.31
333.172	486.31
333.4	495.31
333.629	504.31
333.857	526.31
334.085	518.31
334.314	529.31
334.542	549.31
334.771	513.31
334.999	515.31
335.227	484.31
335.455	490.31
335.684	475.31
335.912	473.31
336.14	482.31
336.369	466.31
336.597	453.31
336.825	484.31
337.053	465.31
337.281	443.31
337.51	434.31
337.738	462.31
337.966	440.31
338.194	452.31
338.422	453.31
338.65	452.31
338.878	434.31
339.106	447.31
339.334	435.31
339.562	454.31
339.79	431.31
340.018	417.31
340.246	434.31
340.474	435.31
340.702	433.31
340.93	435.31
341.158	422.31
341.386	448.31
341.614	436.31
341.842	433.31
342.07	424.31
342.298	450.31
342.526	408.31
342.754	434.31
342.981	427.31
343.209	428.31
343.437	458.31
343.665	456.31
343.893	482.31
344.12	486.31
344.348	456.31
344.576	476.31
344.804	473.31
345.031	437.31
345.259	437.31
345.487	432.31
345.714	426.31
345.942	424.31
346.17	412.31
346.397	429.31
346.625	408.31
346.853	400.31
347.08	418.31
347.308	416.31
347.535	395.31
347.763	426.31
347.99	417.31
348.218	418.31
348.445	436.31
348.673	423.31
348.9	416.31
349.128	405.31
349.355	401.31
349.583	415.31
349.81	415.31
350.037	400.31
350.265	410.31
350.492	414.31
350.72	418.31
350.947	378.31
351.174	426.31
351.402	414.31
351.629	416.31
351.856	411.31
352.083	408.31
352.311	415.31
352.538	403.31
352.765	405.31
352.992	405.31
353.22	415.31
353.447	414.31
353.674	394.31
353.901	392.31
354.128	372.31
354.355	402.31
354.583	398.31
354.81	418.31
355.037	399.31
355.264	402.31
355.491	409.31
355.718	410.31
355.945	389.31
356.172	406.31
356.399	410.31
356.626	407.31
356.853	393.31
357.08	382.31
357.307	399.31
357.534	410.31
357.761	403.31
357.988	380.31
358.215	398.31
358.441	418.31
358.668	420.31
358.895	419.31
359.122	416.31
359.349	404.31
359.576	409.31
359.802	417.31
360.029	424.31
360.256	436.31
360.483	424.31
360.709	415.31
360.936	399.31
361.163	408.31
361.39	420.31
361.616	436.31
361.843	411.31
362.07	402.31
362.296	407.31
362.523	410.31
362.749	414.31
362.976	419.31
363.203	398.31
363.429	405.31
363.656	405.31
363.882	414.31
364.109	417.31
364.335	400.31
364.562	390.31
364.788	403.31
365.015	418.31
365.241	418.31
365.468	406.31
365.694	402.31
365.92	412.31
366.147	404.31
366.373	406.31
366.599	406.31
366.826	408.31
367.052	397.31
367.278	419.31
367.505	408.31
367.731	420.31
367.957	393.31
368.184	390.31
368.41	393.31
368.636	417.31
368.862	425.31
369.089	399.31
369.315	416.31
369.541	411.31
369.767	400.31
369.993	418.31
370.219	405.31
370.445	400.31
370.672	409.31
370.898	409.31
371.124	430.31
371.35	425.31
371.576	423.31
371.802	414.31
372.028	433.31
372.254	416.31
372.48	422.31
372.706	433.31
372.932	418.31
373.158	416.31
373.384	419.31
373.61	423.31
373.835	448.31
374.061	423.31
374.287	442.31
374.513	430.31
374.739	441.31
374.965	451.31
375.191	448.31
375.416	438.31
375.642	454.31
375.868	451.31
376.094	426.31
376.319	448.31
376.545	412.31
376.771	415.31
376.997	416.31
377.222	412.31
377.448	413.31
377.674	402.31
377.899	417.31
378.125	403.31
378.35	441.31
378.576	435.31
378.802	425.31
379.027	424.31
379.253	419.31
379.478	412.31
379.704	416.31
379.929	418.31
380.155	420.31
380.38	427.31
380.606	429.31
380.831	442.31
381.057	411.31
381.282	422.31
381.507	422.31
381.733	422.31
381.958	411.31
382.184	421.31
382.409	412.31
382.634	426.31
382.86	430.31
383.085	427.31
383.31	443.31
383.535	448.31
383.761	459.31
383.986	435.31
384.211	459.31
384.436	476.31
384.662	483.31
384.887	489.31
385.112	476.31
385.337	495.31
385.562	460.31
385.787	464.31
386.013	486.31
386.238	476.31
386.463	462.31
386.688	482.31
386.913	476.31
387.138	494.31
387.363	466.31
387.588	460.31
387.813	478.31
388.038	481.31
388.263	457.31
388.488	475.31
388.713	455.31
388.938	485.31
389.163	507.31
389.387	498.31
389.612	479.31
389.837	492.31
390.062	479.31
390.287	485.31
390.512	482.31
390.736	476.31
390.961	480.31
391.186	485.31
391.411	494.31
391.636	513.31
391.86	503.31
392.085	498.31
392.31	531.31
392.534	506.31
392.759	515.31
392.984	518.31
393.208	500.31
393.433	498.31
393.658	491.31
393.882	515.31
394.107	492.31
394.331	486.31
394.556	488.31
394.78	496.31
395.005	516.31
395.229	498.31
395.454	514.31
395.678	522.31
395.903	525.31
396.127	532.31
396.352	518.31
396.576	521.31
396.801	509.31
397.025	493.31
397.249	496.31
397.474	543.31
397.698	525.31
397.922	539.31
398.147	548.31
398.371	553.31
398.595	521.31
398.82	572.31
399.044	606.31
399.268	618.31
399.492	696.31
399.717	771.31
399.941	774.31
400.165	753.31
400.389	695.31
400.613	636.31
400.837	601.31
401.062	565.31
401.286	571.31
401.51	590.31
401.734	563.31
401.958	584.31
402.182	580.31
402.406	596.31
402.63	596.31
402.854	579.31
403.078	583.31
403.302	604.31
403.526	609.31
403.75	624.31
403.974	644.31
404.198	615.31
404.422	641.31
404.645	632.31
404.869	624.31
405.093	645.31
405.317	665.31
405.541	680.31
405.765	626.31
405.988	617.31
406.212	619.31
406.436	628.31
406.66	671.31
406.883	645.31
407.107	692.31
407.331	725.31
407.555	762.31
407.778	742.31
408.002	702.31
408.226	660.31
408.449	678.31
408.673	631.31
408.896	658.31
409.12	666.31
409.344	629.31
409.567	593.31
409.791	624.31
410.014	622.31
410.238	577.31
410.461	584.31
410.685	590.31
410.908	616.31
411.132	615.31
411.355	625.31
411.578	622.31
411.802	589.31
412.025	560.31
412.249	585.31
412.472	611.31
412.695	634.31
412.919	624.31
413.142	587.31
413.365	578.31
413.589	592.31
413.812	560.31
414.035	558.31
414.258	580.31
414.482	557.31
414.705	559.31
414.928	576.31
415.151	571.31
415.374	572.31
415.597	557.31
415.821	549.31
416.044	546.31
416.267	563.31
416.49	550.31
416.713	548.31
416.936	562.31
417.159	549.31
417.382	568.31
417.605	558.31
417.828	562.31
418.051	588.31
418.274	555.31
418.497	573.31
418.72	565.31
418.943	577.31
419.166	590.31
419.389	597.31
419.611	601.31
419.834	602.31
420.057	588.31
420.28	566.31
420.503	561.31
420.726	585.31
420.948	579.31
421.171	596.31
421.394	615.31
421.617	585.31
421.839	570.31
422.062	574.31
422.285	578.31
422.507	608.31
422.73	657.31
422.953	639.31
423.175	595.31
423.398	583.31
423.621	601.31
423.843	616.31
424.066	590.31
424.288	605.31
424.511	626.31
424.733	626.31
424.956	683.31
425.178	624.31
425.401	646.31
425.623	680.31
425.846	621.31
426.068	569.31
426.291	565.31
426.513	583.31
426.735	577.31
426.958	557.31
427.18	647.31
427.402	727.31
427.625	780.31
427.847	684.31
428.069	638.31
428.292	582.31
428.514	529.31
428.736	542.31
428.958	559.31
429.181	518.31
429.403	491.31
429.625	525.31
429.847	544.31
430.069	583.31
430.292	572.31
430.514	523.31
430.736	516.31
430.958	512.31
431.18	515.31
431.402	505.31
431.624	498.31
431.846	502.31
432.068	508.31
432.29	512.31
432.512	509.31
432.734	528.31
432.956	518.31
433.178	543.31
433.4	544.31
433.622	538.31
433.844	529.31
434.066	521.31
434.287	526.31
434.509	551.31
434.731	550.31
434.953	564.31
435.175	595.31
435.397	585.31
435.618	581.31
435.84	601.31
436.062	640.31
436.284	684.31
436.505	615.31
436.727	557.31
436.949	515.31
437.17	519.31
437.392	516.31
437.614	516.31
437.835	550.31
438.057	575.31
438.278	646.31
438.5	652.31
438.721	675.31
438.943	680.31
439.165	606.31
439.386	536.31
439.608	553.31
439.829	569.31
440.05	572.31
440.272	633.31
440.493	568.31
440.715	551.31
440.936	523.31
441.158	526.31
441.379	522.31
441.6	577.31
441.822	578.31
442.043	606.31
442.264	663.31
442.486	659.31
442.707	595.31
442.928	598.31
443.149	595.31
443.371	619.31
443.592	639.31
443.813	681.31
444.034	699.31
444.255	637.31
444.476	616.31
444.698	636.31
444.919	638.31
445.14	740.31
445.361	658.31
445.582	620.31
445.803	660.31
446.024	678.31
446.245	680.31
446.466	645.31
446.687	579.31
446.908	555.31
447.129	503.31
447.35	510.31
447.571	526.31
447.792	513.31
448.013	507.31
448.234	539.31
448.455	539.31
448.675	614.31
448.896	645.31
449.117	575.31
449.338	566.31
449.559	622.31
449.779	705.31
450	597.31
450.221	500.31
450.442	490.31
450.662	485.31
450.883	514.31
451.104	504.31
451.324	493.31
451.545	479.31
451.766	459.31
451.986	460.31
452.207	459.31
452.428	462.31
452.648	456.31
452.869	477.31
453.089	464.31
453.31	464.31
453.53	468.31
453.751	465.31
453.971	460.31
454.192	467.31
454.412	450.31
454.633	454.31
454.853	452.31
455.073	443.31
455.294	474.31
455.514	523.31
455.734	506.31
455.955	444.31
456.175	452.31
456.395	427.31
456.616	432.31
456.836	429.31
457.056	443.31
457.276	428.31
457.497	427.31
457.717	429.31
457.937	438.31
458.157	437.31
458.377	455.31
458.598	465.31
458.818	515.31
459.038	564.31
459.258	575.31
459.478	528.31
459.698	500.31
459.918	508.31
460.138	549.31
460.358	546.31
460.578	534.31
460.798	545.31
461.018	538.31
461.238	544.31
461.458	536.31
461.678	565.31
461.898	553.31
462.118	556.31
462.338	545.31
462.558	591.31
462.777	617.31
462.997	630.31
463.217	646.31
463.437	665.31
463.657	626.31
463.876	631.31
464.096	611.31
464.316	591.31
464.536	602.31
464.755	595.31
464.975	599.31
465.195	613.31
465.414	610.31
465.634	544.31
465.854	502.31
466.073	491.31
466.293	510.31
466.512	484.31
466.732	491.31
466.951	482.31
467.171	458.31
467.391	467.31
467.61	482.31
467.829	477.31
468.049	507.31
468.268	463.31
468.488	478.31
468.707	443.31
468.927	471.31
469.146	468.31
469.365	468.31
469.585	470.31
469.804	471.31
470.023	507.31
470.243	492.31
470.462	494.31
470.681	525.31
470.901	505.31
471.12	492.31
471.339	500.31
471.558	481.31
471.777	501.31
471.997	467.31
472.216	492.31
472.435	504.31
472.654	486.31
472.873	465.31
473.092	472.31
473.311	461.31
473.53	469.31
473.749	468.31
473.968	500.31
474.187	537.31
474.406	568.31
474.625	488.31
474.844	485.31
475.063	476.31
475.282	462.31
475.501	464.31
475.72	488.31
475.939	459.31
476.158	479.31
476.377	485.31
476.596	482.31
476.814	475.31
477.033	492.31
477.252	492.31
477.471	508.31
477.69	516.31
477.908	530.31
478.127	550.31
478.346	546.31
478.564	534.31
478.783	554.31
479.002	546.31
479.22	586.31
479.439	588.31
479.658	580.31
479.876	565.31
480.095	584.31
480.313	618.31
480.532	616.31
480.751	602.31
480.969	597.31
481.188	630.31
481.406	636.31
481.624	572.31
481.843	579.31
482.061	547.31
482.28	565.31
482.498	541.31
482.717	540.31
482.935	554.31
483.153	554.31
483.372	548.31
483.59	542.31
483.808	524.31
484.027	532.31
484.245	530.31
484.463	560.31
484.681	578.31
484.9	563.31
485.118	572.31
485.336	566.31
485.554	582.31
485.772	568.31
485.99	560.31
486.209	548.31
486.427	566.31
486.645	555.31
486.863	575.31
487.081	597.31
487.299	559.31
487.517	583.31
487.735	582.31
487.953	578.31
488.171	582.31
488.389	588.31
488.607	571.31
488.825	564.31
489.043	584.31
489.261	576.31
489.479	579.31
489.696	582.31
489.914	574.31
490.132	579.31
490.35	592.31
490.568	597.31
490.786	607.31
491.003	610.31
491.221	638.31
491.439	641.31
491.657	622.31
491.874	641.31
492.092	648.31
492.31	645.31
492.527	630.31
492.745	670.31
492.963	659.31
493.18	638.31
493.398	666.31
493.615	678.31
493.833	659.31
494.05	644.31
494.268	658.31
494.485	656.31
494.703	648.31
494.92	690.31
495.138	680.31
495.355	655.31
495.573	662.31
495.79	660.31
496.008	648.31
496.225	679.31
496.442	678.31
496.66	688.31
496.877	656.31
497.094	676.31
497.312	664.31
497.529	680.31
497.746	718.31
497.963	719.31
498.181	761.31
498.398	747.31
498.615	806.31
498.832	827.31
499.049	862.31
499.267	912.31
499.484	949.31
499.701	1006.31
499.918	1050.31
500.135	1147.31
500.352	1270.31
500.569	1334.31
500.786	1297.31
501.003	1274.31
501.22	1180.31
501.437	1073.31
501.654	1001.31
501.871	977.31
