Data from 1960PennyLincolnUp.LampE5.5.200Scan.07172019.P1.ChangedAngle_HRD10591_13-14-56-821.txt Node
Date: Thu Jul 18 13:14:56 EDT 2019
User: cochatt
Spectrometer: HR+D1059
Trigger mode: 1
Integration Time (sec): 1.000000E-1
Scans to average: 1
Electric dark correction enabled: true
Nonlinearity correction enabled: false
Boxcar width: 0
XAxis mode: Wavelengths
Number of Pixels in Spectrum: 2048
>>>>>Begin Spectral Data<<<<<
223.165	-10.06
223.4	-10.06
223.635	-10.06
223.869	-14.06
224.104	-9.06
224.338	-7.06
224.573	-5.06
224.808	-8.06
225.042	-5.06
225.277	-5.06
225.511	-16.06
225.746	-9.06
225.98	-0.06
226.215	8.94
226.449	21.94
226.683	13.94
226.918	13.94
227.152	29.94
227.387	26.94
227.621	45.94
227.856	53.94
228.09	41.94
228.324	52.94
228.559	49.94
228.793	59.94
229.027	79.94
229.262	93.94
229.496	93.94
229.73	108.94
229.964	123.94
230.199	98.94
230.433	86.94
230.667	100.94
230.901	106.94
231.136	108.94
231.37	105.94
231.604	110.94
231.838	121.94
232.072	98.94
232.306	98.94
232.541	109.94
232.775	123.94
233.009	105.94
233.243	104.94
233.477	112.94
233.711	106.94
233.945	119.94
234.179	103.94
234.413	103.94
234.647	110.94
234.881	123.94
235.115	111.94
235.349	117.94
235.583	106.94
235.817	126.94
236.051	116.94
236.285	115.94
236.519	96.94
236.753	123.94
236.987	140.94
237.221	162.94
237.455	186.94
237.689	159.94
237.922	123.94
238.156	117.94
238.39	111.94
238.624	121.94
238.858	119.94
239.091	129.94
239.325	114.94
239.559	119.94
239.793	117.94
240.027	129.94
240.26	110.94
240.494	125.94
240.728	127.94
240.961	136.94
241.195	132.94
241.429	126.94
241.662	115.94
241.896	134.94
242.13	132.94
242.363	123.94
242.597	142.94
242.83	125.94
243.064	134.94
243.298	131.94
243.531	125.94
243.765	135.94
243.998	139.94
244.232	129.94
244.465	127.94
244.699	131.94
244.932	139.94
245.166	135.94
245.399	135.94
245.633	140.94
245.866	150.94
246.099	135.94
246.333	137.94
246.566	151.94
246.8	158.94
247.033	166.94
247.266	149.94
247.5	143.94
247.733	157.94
247.966	147.94
248.2	160.94
248.433	167.94
248.666	146.94
248.899	168.94
249.133	175.94
249.366	188.94
249.599	192.94
249.832	155.94
250.066	166.94
250.299	167.94
250.532	163.94
250.765	189.94
250.998	201.94
251.231	191.94
251.465	204.94
251.698	161.94
251.931	199.94
252.164	194.94
252.397	156.94
252.63	198.94
252.863	188.94
253.096	191.94
253.329	190.94
253.562	194.94
253.795	190.94
254.028	184.94
254.261	189.94
254.494	211.94
254.727	209.94
254.96	237.94
255.193	215.94
255.426	206.94
255.659	203.94
255.892	195.94
256.124	212.94
256.357	220.94
256.59	209.94
256.823	201.94
257.056	190.94
257.289	173.94
257.521	191.94
257.754	191.94
257.987	205.94
258.22	198.94
258.452	212.94
258.685	198.94
258.918	192.94
259.151	192.94
259.383	206.94
259.616	206.94
259.849	216.94
260.081	227.94
260.314	229.94
260.547	217.94
260.779	194.94
261.012	212.94
261.244	199.94
261.477	199.94
261.71	193.94
261.942	188.94
262.175	211.94
262.407	217.94
262.64	201.94
262.872	213.94
263.105	206.94
263.337	204.94
263.57	216.94
263.802	206.94
264.035	201.94
264.267	203.94
264.499	190.94
264.732	195.94
264.964	186.94
265.197	201.94
265.429	216.94
265.661	202.94
265.894	195.94
266.126	190.94
266.358	213.94
266.591	209.94
266.823	216.94
267.055	205.94
267.287	215.94
267.52	206.94
267.752	217.94
267.984	221.94
268.216	220.94
268.448	213.94
268.681	221.94
268.913	215.94
269.145	233.94
269.377	252.94
269.609	254.94
269.841	233.94
270.073	241.94
270.306	269.94
270.538	278.94
270.77	265.94
271.002	270.94
271.234	256.94
271.466	271.94
271.698	261.94
271.93	254.94
272.162	245.94
272.394	264.94
272.626	233.94
272.858	253.94
273.09	250.94
273.322	258.94
273.553	253.94
273.785	255.94
274.017	260.94
274.249	240.94
274.481	252.94
274.713	254.94
274.945	259.94
275.176	242.94
275.408	254.94
275.64	246.94
275.872	245.94
276.104	257.94
276.335	240.94
276.567	249.94
276.799	253.94
277.031	271.94
277.262	277.94
277.494	280.94
277.726	269.94
277.957	269.94
278.189	243.94
278.421	239.94
278.652	263.94
278.884	253.94
279.115	256.94
279.347	260.94
279.579	272.94
279.81	260.94
280.042	253.94
280.273	253.94
280.505	265.94
280.736	276.94
280.968	251.94
281.199	257.94
281.431	249.94
281.662	264.94
281.894	246.94
282.125	251.94
282.356	271.94
282.588	281.94
282.819	257.94
283.051	290.94
283.282	277.94
283.513	267.94
283.745	276.94
283.976	258.94
284.207	256.94
284.439	285.94
284.67	265.94
284.901	258.94
285.132	256.94
285.364	272.94
285.595	257.94
285.826	265.94
286.057	286.94
286.288	270.94
286.52	274.94
286.751	290.94
286.982	289.94
287.213	272.94
287.444	266.94
287.675	278.94
287.906	295.94
288.138	295.94
288.369	284.94
288.6	280.94
288.831	289.94
289.062	293.94
289.293	286.94
289.524	276.94
289.755	269.94
289.986	289.94
290.217	284.94
290.448	294.94
290.679	286.94
290.91	287.94
291.141	275.94
291.371	286.94
291.602	277.94
291.833	294.94
292.064	288.94
292.295	277.94
292.526	285.94
292.757	270.94
292.987	277.94
293.218	271.94
293.449	290.94
293.68	287.94
293.91	304.94
294.141	301.94
294.372	280.94
294.603	290.94
294.833	285.94
295.064	298.94
295.295	280.94
295.525	288.94
295.756	295.94
295.987	279.94
296.217	313.94
296.448	300.94
296.679	299.94
296.909	285.94
297.14	291.94
297.37	287.94
297.601	277.94
297.831	288.94
298.062	290.94
298.292	283.94
298.523	289.94
298.753	280.94
298.984	297.94
299.214	293.94
299.445	285.94
299.675	295.94
299.905	317.94
300.136	312.94
300.366	302.94
300.597	293.94
300.827	320.94
301.057	302.94
301.288	315.94
301.518	324.94
301.748	319.94
301.979	312.94
302.209	302.94
302.439	321.94
302.669	321.94
302.9	310.94
303.13	313.94
303.36	326.94
303.59	319.94
303.82	317.94
304.051	314.94
304.281	312.94
304.511	329.94
304.741	291.94
304.971	317.94
305.201	320.94
305.431	305.94
305.661	307.94
305.891	318.94
306.121	320.94
306.352	306.94
306.582	322.94
306.812	319.94
307.042	332.94
307.272	330.94
307.502	317.94
307.731	327.94
307.961	332.94
308.191	321.94
308.421	314.94
308.651	335.94
308.881	316.94
309.111	329.94
309.341	332.94
309.571	357.94
309.8	333.94
310.03	334.94
310.26	350.94
310.49	349.94
310.72	359.94
310.949	341.94
311.179	361.94
311.409	350.94
311.639	357.94
311.868	350.94
312.098	347.94
312.328	336.94
312.557	366.94
312.787	356.94
313.017	378.94
313.246	352.94
313.476	344.94
313.706	347.94
313.935	360.94
314.165	368.94
314.394	366.94
314.624	361.94
314.853	369.94
315.083	362.94
315.312	354.94
315.542	349.94
315.771	369.94
316.001	351.94
316.23	359.94
316.46	350.94
316.689	359.94
316.919	357.94
317.148	376.94
317.377	388.94
317.607	368.94
317.836	364.94
318.065	348.94
318.295	357.94
318.524	363.94
318.753	367.94
318.983	359.94
319.212	373.94
319.441	371.94
319.67	367.94
319.9	376.94
320.129	359.94
320.358	359.94
320.587	364.94
320.816	370.94
321.046	367.94
321.275	377.94
321.504	381.94
321.733	358.94
321.962	373.94
322.191	369.94
322.42	394.94
322.649	401.94
322.878	411.94
323.108	400.94
323.337	429.94
323.566	419.94
323.795	437.94
324.024	463.94
324.253	561.94
324.482	739.94
324.71	1065.94
324.939	1345.94
325.168	1146.94
325.397	666.94
325.626	482.94
325.855	464.94
326.084	442.94
326.313	441.94
326.542	425.94
326.77	458.94
326.999	527.94
327.228	667.94
327.457	929.94
327.686	1047.94
327.914	712.94
328.143	535.94
328.372	501.94
328.6	485.94
328.829	459.94
329.058	460.94
329.287	449.94
329.515	439.94
329.744	436.94
329.972	431.94
330.201	451.94
330.43	493.94
330.658	483.94
330.887	482.94
331.115	459.94
331.344	432.94
331.572	409.94
331.801	417.94
332.03	451.94
332.258	429.94
332.486	403.94
332.715	403.94
332.943	417.94
333.172	409.94
333.4	434.94
333.629	435.94
333.857	426.94
334.085	451.94
334.314	437.94
334.542	466.94
334.771	482.94
334.999	453.94
335.227	443.94
335.455	431.94
335.684	424.94
335.912	416.94
336.14	430.94
336.369	395.94
336.597	418.94
336.825	399.94
337.053	407.94
337.281	415.94
337.51	395.94
337.738	409.94
337.966	392.94
338.194	417.94
338.422	417.94
338.65	408.94
338.878	404.94
339.106	401.94
339.334	400.94
339.562	401.94
339.79	405.94
340.018	405.94
340.246	407.94
340.474	421.94
340.702	400.94
340.93	391.94
341.158	384.94
341.386	398.94
341.614	392.94
341.842	413.94
342.07	393.94
342.298	397.94
342.526	407.94
342.754	369.94
342.981	385.94
343.209	372.94
343.437	387.94
343.665	392.94
343.893	409.94
344.12	429.94
344.348	402.94
344.576	408.94
344.804	411.94
345.031	408.94
345.259	392.94
345.487	406.94
345.714	387.94
345.942	411.94
346.17	395.94
346.397	378.94
346.625	373.94
346.853	369.94
347.08	373.94
347.308	371.94
347.535	387.94
347.763	387.94
347.99	372.94
348.218	370.94
348.445	365.94
348.673	366.94
348.9	378.94
349.128	376.94
349.355	379.94
349.583	380.94
349.81	360.94
350.037	358.94
350.265	375.94
350.492	371.94
350.72	380.94
350.947	383.94
351.174	380.94
351.402	353.94
351.629	354.94
351.856	379.94
352.083	377.94
352.311	363.94
352.538	382.94
352.765	383.94
352.992	391.94
353.22	363.94
353.447	353.94
353.674	322.94
353.901	357.94
354.128	343.94
354.355	341.94
354.583	348.94
354.81	354.94
355.037	361.94
355.264	351.94
355.491	350.94
355.718	363.94
355.945	361.94
356.172	380.94
356.399	358.94
356.626	351.94
356.853	349.94
357.08	348.94
357.307	341.94
357.534	353.94
357.761	349.94
357.988	351.94
358.215	351.94
358.441	363.94
358.668	350.94
358.895	351.94
359.122	372.94
359.349	374.94
359.576	372.94
359.802	391.94
360.029	373.94
360.256	383.94
360.483	371.94
360.709	364.94
360.936	369.94
361.163	370.94
361.39	366.94
361.616	374.94
361.843	362.94
362.07	362.94
362.296	368.94
362.523	337.94
362.749	357.94
362.976	357.94
363.203	348.94
363.429	345.94
363.656	357.94
363.882	349.94
364.109	367.94
364.335	347.94
364.562	345.94
364.788	350.94
365.015	358.94
365.241	376.94
365.468	349.94
365.694	362.94
365.92	348.94
366.147	349.94
366.373	338.94
366.599	353.94
366.826	352.94
367.052	322.94
367.278	347.94
367.505	344.94
367.731	354.94
367.957	343.94
368.184	350.94
368.41	366.94
368.636	387.94
368.862	353.94
369.089	347.94
369.315	349.94
369.541	344.94
369.767	348.94
369.993	362.94
370.219	364.94
370.445	362.94
370.672	336.94
370.898	349.94
371.124	360.94
371.35	351.94
371.576	361.94
371.802	355.94
372.028	341.94
372.254	367.94
372.48	343.94
372.706	359.94
372.932	358.94
373.158	348.94
373.384	367.94
373.61	355.94
373.835	339.94
374.061	382.94
374.287	357.94
374.513	365.94
374.739	359.94
374.965	374.94
375.191	358.94
375.416	357.94
375.642	353.94
375.868	367.94
376.094	364.94
376.319	339.94
376.545	371.94
376.771	338.94
376.997	323.94
377.222	353.94
377.448	355.94
377.674	343.94
377.899	333.94
378.125	359.94
378.35	344.94
378.576	342.94
378.802	335.94
379.027	343.94
379.253	365.94
379.478	352.94
379.704	328.94
379.929	340.94
380.155	352.94
380.38	347.94
380.606	366.94
380.831	330.94
381.057	343.94
381.282	355.94
381.507	357.94
381.733	340.94
381.958	349.94
382.184	351.94
382.409	334.94
382.634	353.94
382.86	362.94
383.085	361.94
383.31	341.94
383.535	358.94
383.761	352.94
383.986	373.94
384.211	364.94
384.436	356.94
384.662	369.94
384.887	367.94
385.112	377.94
385.337	367.94
385.562	377.94
385.787	366.94
386.013	381.94
386.238	389.94
386.463	381.94
386.688	393.94
386.913	375.94
387.138	377.94
387.363	393.94
387.588	356.94
387.813	354.94
388.038	373.94
388.263	362.94
388.488	384.94
388.713	379.94
388.938	378.94
389.163	376.94
389.387	383.94
389.612	375.94
389.837	366.94
390.062	367.94
390.287	346.94
390.512	369.94
390.736	375.94
390.961	364.94
391.186	365.94
391.411	383.94
391.636	395.94
391.86	393.94
392.085	399.94
392.31	386.94
392.534	386.94
392.759	381.94
392.984	378.94
393.208	385.94
393.433	377.94
393.658	392.94
393.882	369.94
394.107	376.94
394.331	381.94
394.556	367.94
394.78	380.94
395.005	377.94
395.229	377.94
395.454	378.94
395.678	382.94
395.903	398.94
396.127	397.94
396.352	389.94
396.576	391.94
396.801	373.94
397.025	377.94
397.249	397.94
397.474	393.94
397.698	381.94
397.922	407.94
398.147	403.94
398.371	403.94
398.595	417.94
398.82	429.94
399.044	436.94
399.268	450.94
399.492	464.94
399.717	458.94
399.941	502.94
400.165	521.94
400.389	507.94
400.613	469.94
400.837	457.94
401.062	432.94
401.286	425.94
401.51	424.94
401.734	401.94
401.958	415.94
402.182	403.94
402.406	401.94
402.63	414.94
402.854	397.94
403.078	416.94
403.302	431.94
403.526	451.94
403.75	435.94
403.974	428.94
404.198	425.94
404.422	442.94
404.645	432.94
404.869	442.94
405.093	446.94
405.317	494.94
405.541	487.94
405.765	473.94
405.988	459.94
406.212	485.94
406.436	448.94
406.66	468.94
406.883	450.94
407.107	444.94
407.331	498.94
407.555	535.94
407.778	529.94
408.002	493.94
408.226	465.94
408.449	452.94
408.673	462.94
408.896	472.94
409.12	501.94
409.344	507.94
409.567	456.94
409.791	433.94
410.014	438.94
410.238	414.94
410.461	434.94
410.685	441.94
410.908	460.94
411.132	475.94
411.355	473.94
411.578	453.94
411.802	435.94
412.025	427.94
412.249	409.94
412.472	428.94
412.695	472.94
412.919	455.94
413.142	432.94
413.365	405.94
413.589	417.94
413.812	413.94
414.035	394.94
414.258	420.94
414.482	397.94
414.705	399.94
414.928	411.94
415.151	420.94
415.374	412.94
415.597	406.94
415.821	401.94
416.044	405.94
416.267	410.94
416.49	398.94
416.713	397.94
416.936	403.94
417.159	405.94
417.382	410.94
417.605	429.94
417.828	409.94
418.051	399.94
418.274	395.94
418.497	391.94
418.72	415.94
418.943	378.94
419.166	398.94
419.389	428.94
419.611	435.94
419.834	407.94
420.057	405.94
420.28	402.94
420.503	409.94
420.726	393.94
420.948	419.94
421.171	434.94
421.394	466.94
421.617	410.94
421.839	415.94
422.062	416.94
422.285	416.94
422.507	458.94
422.73	478.94
422.953	481.94
423.175	445.94
423.398	409.94
423.621	426.94
423.843	399.94
424.066	431.94
424.288	426.94
424.511	433.94
424.733	484.94
424.956	517.94
425.178	513.94
425.401	505.94
425.623	518.94
425.846	448.94
426.068	423.94
426.291	403.94
426.513	428.94
426.735	447.94
426.958	448.94
427.18	531.94
427.402	599.94
427.625	625.94
427.847	562.94
428.069	476.94
428.292	453.94
428.514	435.94
428.736	403.94
428.958	413.94
429.181	411.94
429.403	391.94
429.625	414.94
429.847	419.94
430.069	443.94
430.292	446.94
430.514	390.94
430.736	421.94
430.958	402.94
431.18	385.94
431.402	381.94
431.624	374.94
431.846	395.94
432.068	386.94
432.29	376.94
432.512	376.94
432.734	391.94
432.956	378.94
433.178	388.94
433.4	385.94
433.622	384.94
433.844	385.94
434.066	386.94
434.287	372.94
434.509	383.94
434.731	387.94
434.953	413.94
435.175	408.94
435.397	418.94
435.618	419.94
435.84	468.94
436.062	507.94
436.284	541.94
436.505	473.94
436.727	416.94
436.949	406.94
437.17	395.94
437.392	405.94
437.614	409.94
437.835	421.94
438.057	470.94
438.278	521.94
438.5	527.94
438.721	594.94
438.943	560.94
439.165	474.94
439.386	435.94
439.608	434.94
439.829	433.94
440.05	446.94
440.272	439.94
440.493	430.94
440.715	393.94
440.936	395.94
441.158	389.94
441.379	410.94
441.6	412.94
441.822	435.94
442.043	460.94
442.264	505.94
442.486	497.94
442.707	439.94
442.928	429.94
443.149	438.94
443.371	456.94
443.592	462.94
443.813	539.94
444.034	583.94
444.255	480.94
444.476	451.94
444.698	439.94
444.919	417.94
445.14	542.94
445.361	485.94
445.582	463.94
445.803	477.94
446.024	559.94
446.245	561.94
446.466	494.94
446.687	440.94
446.908	409.94
447.129	396.94
447.35	403.94
447.571	396.94
447.792	398.94
448.013	378.94
448.234	403.94
448.455	446.94
448.675	508.94
448.896	582.94
449.117	492.94
449.338	477.94
449.559	524.94
449.779	607.94
450	493.94
450.221	415.94
450.442	397.94
450.662	377.94
450.883	386.94
451.104	399.94
451.324	374.94
451.545	381.94
451.766	373.94
451.986	361.94
452.207	336.94
452.428	361.94
452.648	346.94
452.869	345.94
453.089	364.94
453.31	359.94
453.53	362.94
453.751	353.94
453.971	346.94
454.192	345.94
454.412	335.94
454.633	360.94
454.853	345.94
455.073	357.94
455.294	375.94
455.514	402.94
455.734	395.94
455.955	381.94
456.175	340.94
456.395	340.94
456.616	350.94
456.836	345.94
457.056	350.94
457.276	328.94
457.497	336.94
457.717	343.94
457.937	357.94
458.157	335.94
458.377	349.94
458.598	338.94
458.818	402.94
459.038	426.94
459.258	437.94
459.478	404.94
459.698	371.94
459.918	374.94
460.138	398.94
460.358	379.94
460.578	395.94
460.798	411.94
461.018	413.94
461.238	409.94
461.458	376.94
461.678	383.94
461.898	399.94
462.118	391.94
462.338	399.94
462.558	398.94
462.777	405.94
462.997	409.94
463.217	427.94
463.437	424.94
463.657	425.94
463.876	415.94
464.096	427.94
464.316	425.94
464.536	431.94
464.755	425.94
464.975	405.94
465.195	421.94
465.414	436.94
465.634	413.94
465.854	398.94
466.073	375.94
466.293	389.94
466.512	369.94
466.732	347.94
466.951	365.94
467.171	367.94
467.391	385.94
467.61	385.94
467.829	394.94
468.049	373.94
468.268	379.94
468.488	371.94
468.707	364.94
468.927	357.94
469.146	354.94
469.365	368.94
469.585	352.94
469.804	359.94
470.023	362.94
470.243	357.94
470.462	379.94
470.681	385.94
470.901	365.94
471.12	357.94
471.339	371.94
471.558	376.94
471.777	386.94
471.997	381.94
472.216	376.94
472.435	385.94
472.654	382.94
472.873	362.94
473.092	386.94
473.311	384.94
473.53	371.94
473.749	370.94
473.968	384.94
474.187	449.94
474.406	466.94
474.625	416.94
474.844	377.94
475.063	364.94
475.282	376.94
475.501	365.94
475.72	384.94
475.939	379.94
476.158	391.94
476.377	373.94
476.596	401.94
476.814	376.94
477.033	397.94
477.252	406.94
477.471	396.94
477.69	399.94
477.908	397.94
478.127	405.94
478.346	429.94
478.564	402.94
478.783	393.94
479.002	410.94
479.22	409.94
479.439	413.94
479.658	444.94
479.876	443.94
480.095	457.94
480.313	457.94
480.532	448.94
480.751	452.94
480.969	438.94
481.188	479.94
481.406	482.94
481.624	451.94
481.843	426.94
482.061	433.94
482.28	446.94
482.498	442.94
482.717	439.94
482.935	441.94
483.153	437.94
483.372	439.94
483.59	418.94
483.808	434.94
484.027	428.94
484.245	440.94
484.463	434.94
484.681	456.94
484.9	453.94
485.118	444.94
485.336	433.94
485.554	432.94
485.772	450.94
485.99	449.94
486.209	451.94
486.427	425.94
486.645	449.94
486.863	459.94
487.081	448.94
487.299	466.94
487.517	463.94
487.735	432.94
487.953	434.94
488.171	460.94
488.389	458.94
488.607	443.94
488.825	451.94
489.043	424.94
489.261	475.94
489.479	469.94
489.696	481.94
489.914	458.94
490.132	448.94
490.35	456.94
490.568	464.94
490.786	470.94
491.003	499.94
491.221	488.94
491.439	494.94
491.657	496.94
491.874	502.94
492.092	519.94
492.31	515.94
492.527	525.94
492.745	489.94
492.963	509.94
493.18	504.94
493.398	489.94
493.615	507.94
493.833	493.94
494.05	513.94
494.268	546.94
494.485	525.94
494.703	525.94
494.92	535.94
495.138	514.94
495.355	558.94
495.573	527.94
495.79	529.94
496.008	524.94
496.225	532.94
496.442	523.94
496.66	551.94
496.877	535.94
497.094	530.94
497.312	532.94
497.529	541.94
497.746	529.94
497.963	553.94
498.181	558.94
498.398	569.94
498.615	593.94
498.832	591.94
499.049	585.94
499.267	627.94
499.484	649.94
499.701	673.94
499.918	717.94
500.135	738.94
500.352	754.94
500.569	736.94
500.786	747.94
501.003	743.94
501.22	728.94
501.437	714.94
501.654	698.94
501.871	680.94
