Data from 1960PennyLincolnUp.LampE6.200Scan.07172019.P1_HRD10591_13-06-19-002.txt Node
Date: Thu Jul 18 13:06:19 EDT 2019
User: cochatt
Spectrometer: HR+D1059
Trigger mode: 1
Integration Time (sec): 1.000000E-1
Scans to average: 1
Electric dark correction enabled: true
Nonlinearity correction enabled: false
Boxcar width: 0
XAxis mode: Wavelengths
Number of Pixels in Spectrum: 2048
>>>>>Begin Spectral Data<<<<<
223.165	-6.5
223.4	-6.5
223.635	-6.5
223.869	-9.5
224.104	-12.5
224.338	-22.5
224.573	-22.5
224.808	-8.5
225.042	-10.5
225.277	1.5
225.511	-11.5
225.746	-1.5
225.98	1.5
226.215	10.5
226.449	20.5
226.683	24.5
226.918	17.5
227.152	29.5
227.387	37.5
227.621	35.5
227.856	42.5
228.09	49.5
228.324	51.5
228.559	65.5
228.793	65.5
229.027	86.5
229.262	99.5
229.496	105.5
229.73	109.5
229.964	105.5
230.199	104.5
230.433	117.5
230.667	106.5
230.901	116.5
231.136	117.5
231.37	106.5
231.604	105.5
231.838	97.5
232.072	107.5
232.306	111.5
232.541	113.5
232.775	116.5
233.009	106.5
233.243	105.5
233.477	104.5
233.711	117.5
233.945	121.5
234.179	113.5
234.413	123.5
234.647	113.5
234.881	119.5
235.115	123.5
235.349	112.5
235.583	104.5
235.817	110.5
236.051	131.5
236.285	123.5
236.519	112.5
236.753	126.5
236.987	129.5
237.221	143.5
237.455	176.5
237.689	143.5
237.922	123.5
238.156	134.5
238.39	121.5
238.624	139.5
238.858	125.5
239.091	121.5
239.325	115.5
239.559	125.5
239.793	128.5
240.027	111.5
240.26	138.5
240.494	148.5
240.728	104.5
240.961	143.5
241.195	133.5
241.429	133.5
241.662	128.5
241.896	137.5
242.13	136.5
242.363	138.5
242.597	124.5
242.83	129.5
243.064	141.5
243.298	153.5
243.531	140.5
243.765	150.5
243.998	140.5
244.232	139.5
244.465	143.5
244.699	137.5
244.932	131.5
245.166	137.5
245.399	150.5
245.633	135.5
245.866	150.5
246.099	145.5
246.333	146.5
246.566	160.5
246.8	149.5
247.033	145.5
247.266	139.5
247.5	161.5
247.733	166.5
247.966	163.5
248.2	160.5
248.433	145.5
248.666	151.5
248.899	167.5
249.133	180.5
249.366	162.5
249.599	168.5
249.832	165.5
250.066	176.5
250.299	162.5
250.532	178.5
250.765	186.5
250.998	196.5
251.231	198.5
251.465	194.5
251.698	190.5
251.931	169.5
252.164	180.5
252.397	176.5
252.63	186.5
252.863	174.5
253.096	176.5
253.329	196.5
253.562	182.5
253.795	196.5
254.028	186.5
254.261	197.5
254.494	193.5
254.727	209.5
254.96	218.5
255.193	221.5
255.426	217.5
255.659	211.5
255.892	200.5
256.124	206.5
256.357	198.5
256.59	202.5
256.823	196.5
257.056	195.5
257.289	186.5
257.521	199.5
257.754	197.5
257.987	200.5
258.22	198.5
258.452	200.5
258.685	201.5
258.918	180.5
259.151	185.5
259.383	198.5
259.616	173.5
259.849	217.5
260.081	219.5
260.314	208.5
260.547	245.5
260.779	206.5
261.012	208.5
261.244	218.5
261.477	214.5
261.71	210.5
261.942	214.5
262.175	202.5
262.407	204.5
262.64	197.5
262.872	205.5
263.105	207.5
263.337	200.5
263.57	202.5
263.802	200.5
264.035	193.5
264.267	208.5
264.499	204.5
264.732	227.5
264.964	199.5
265.197	211.5
265.429	206.5
265.661	206.5
265.894	216.5
266.126	212.5
266.358	207.5
266.591	209.5
266.823	225.5
267.055	222.5
267.287	241.5
267.52	208.5
267.752	214.5
267.984	223.5
268.216	225.5
268.448	230.5
268.681	215.5
268.913	247.5
269.145	242.5
269.377	260.5
269.609	257.5
269.841	217.5
270.073	267.5
270.306	270.5
270.538	279.5
270.77	283.5
271.002	265.5
271.234	270.5
271.466	263.5
271.698	259.5
271.93	270.5
272.162	271.5
272.394	264.5
272.626	269.5
272.858	245.5
273.09	255.5
273.322	257.5
273.553	240.5
273.785	247.5
274.017	248.5
274.249	249.5
274.481	262.5
274.713	249.5
274.945	252.5
275.176	245.5
275.408	251.5
275.64	240.5
275.872	247.5
276.104	267.5
276.335	265.5
276.567	246.5
276.799	272.5
277.031	272.5
277.262	285.5
277.494	290.5
277.726	279.5
277.957	269.5
278.189	264.5
278.421	257.5
278.652	259.5
278.884	271.5
279.115	251.5
279.347	264.5
279.579	273.5
279.81	276.5
280.042	259.5
280.273	271.5
280.505	264.5
280.736	243.5
280.968	260.5
281.199	289.5
281.431	263.5
281.662	271.5
281.894	285.5
282.125	281.5
282.356	285.5
282.588	283.5
282.819	285.5
283.051	276.5
283.282	280.5
283.513	272.5
283.745	283.5
283.976	291.5
284.207	302.5
284.439	279.5
284.67	285.5
284.901	287.5
285.132	289.5
285.364	303.5
285.595	285.5
285.826	269.5
286.057	289.5
286.288	290.5
286.52	286.5
286.751	299.5
286.982	297.5
287.213	275.5
287.444	297.5
287.675	292.5
287.906	292.5
288.138	295.5
288.369	287.5
288.6	306.5
288.831	291.5
289.062	305.5
289.293	296.5
289.524	297.5
289.755	302.5
289.986	294.5
290.217	304.5
290.448	285.5
290.679	292.5
290.91	293.5
291.141	299.5
291.371	306.5
291.602	311.5
291.833	303.5
292.064	306.5
292.295	290.5
292.526	301.5
292.757	317.5
292.987	277.5
293.218	309.5
293.449	313.5
293.68	312.5
293.91	304.5
294.141	308.5
294.372	313.5
294.603	312.5
294.833	304.5
295.064	293.5
295.295	309.5
295.525	299.5
295.756	323.5
295.987	313.5
296.217	334.5
296.448	323.5
296.679	318.5
296.909	330.5
297.14	317.5
297.37	305.5
297.601	325.5
297.831	322.5
298.062	340.5
298.292	323.5
298.523	328.5
298.753	330.5
298.984	311.5
299.214	332.5
299.445	318.5
299.675	320.5
299.905	332.5
300.136	343.5
300.366	341.5
300.597	335.5
300.827	322.5
301.057	347.5
301.288	335.5
301.518	353.5
301.748	340.5
301.979	356.5
302.209	331.5
302.439	332.5
302.669	330.5
302.9	346.5
303.13	329.5
303.36	353.5
303.59	348.5
303.82	361.5
304.051	346.5
304.281	325.5
304.511	333.5
304.741	357.5
304.971	349.5
305.201	342.5
305.431	339.5
305.661	326.5
305.891	352.5
306.121	345.5
306.352	337.5
306.582	349.5
306.812	341.5
307.042	341.5
307.272	341.5
307.502	325.5
307.731	346.5
307.961	341.5
308.191	329.5
308.421	349.5
308.651	331.5
308.881	319.5
309.111	351.5
309.341	344.5
309.571	340.5
309.8	350.5
310.03	361.5
310.26	371.5
310.49	346.5
310.72	358.5
310.949	365.5
311.179	370.5
311.409	343.5
311.639	368.5
311.868	362.5
312.098	373.5
312.328	379.5
312.557	374.5
312.787	392.5
313.017	378.5
313.246	382.5
313.476	353.5
313.706	361.5
313.935	362.5
314.165	373.5
314.394	372.5
314.624	399.5
314.853	377.5
315.083	359.5
315.312	362.5
315.542	363.5
315.771	349.5
316.001	365.5
316.23	397.5
316.46	359.5
316.689	373.5
316.919	374.5
317.148	386.5
317.377	385.5
317.607	368.5
317.836	389.5
318.065	379.5
318.295	383.5
318.524	362.5
318.753	366.5
318.983	390.5
319.212	381.5
319.441	379.5
319.67	383.5
319.9	367.5
320.129	390.5
320.358	379.5
320.587	398.5
320.816	378.5
321.046	389.5
321.275	383.5
321.504	383.5
321.733	387.5
321.962	393.5
322.191	374.5
322.42	414.5
322.649	391.5
322.878	394.5
323.108	398.5
323.337	414.5
323.566	428.5
323.795	442.5
324.024	449.5
324.253	522.5
324.482	694.5
324.71	989.5
324.939	1355.5
325.168	1108.5
325.397	630.5
325.626	493.5
325.855	435.5
326.084	466.5
326.313	451.5
326.542	449.5
326.77	468.5
326.999	523.5
327.228	675.5
327.457	932.5
327.686	1049.5
327.914	716.5
328.143	516.5
328.372	481.5
328.6	480.5
328.829	474.5
329.058	483.5
329.287	495.5
329.515	482.5
329.744	466.5
329.972	454.5
330.201	471.5
330.43	495.5
330.658	508.5
330.887	525.5
331.115	516.5
331.344	479.5
331.572	467.5
331.801	463.5
332.03	467.5
332.258	469.5
332.486	441.5
332.715	487.5
332.943	477.5
333.172	483.5
333.4	506.5
333.629	506.5
333.857	534.5
334.085	506.5
334.314	533.5
334.542	541.5
334.771	578.5
334.999	506.5
335.227	504.5
335.455	503.5
335.684	478.5
335.912	475.5
336.14	463.5
336.369	478.5
336.597	469.5
336.825	472.5
337.053	458.5
337.281	467.5
337.51	474.5
337.738	447.5
337.966	448.5
338.194	459.5
338.422	463.5
338.65	431.5
338.878	442.5
339.106	451.5
339.334	437.5
339.562	429.5
339.79	415.5
340.018	420.5
340.246	392.5
340.474	454.5
340.702	433.5
340.93	432.5
341.158	433.5
341.386	433.5
341.614	425.5
341.842	446.5
342.07	421.5
342.298	414.5
342.526	433.5
342.754	402.5
342.981	414.5
343.209	433.5
343.437	450.5
343.665	467.5
343.893	487.5
344.12	483.5
344.348	451.5
344.576	464.5
344.804	438.5
345.031	428.5
345.259	420.5
345.487	439.5
345.714	416.5
345.942	431.5
346.17	419.5
346.397	403.5
346.625	402.5
346.853	420.5
347.08	429.5
347.308	392.5
347.535	413.5
347.763	399.5
347.99	417.5
348.218	406.5
348.445	417.5
348.673	413.5
348.9	402.5
349.128	415.5
349.355	423.5
349.583	395.5
349.81	391.5
350.037	413.5
350.265	398.5
350.492	403.5
350.72	403.5
350.947	426.5
351.174	410.5
351.402	419.5
351.629	415.5
351.856	407.5
352.083	422.5
352.311	428.5
352.538	409.5
352.765	426.5
352.992	424.5
353.22	403.5
353.447	413.5
353.674	399.5
353.901	399.5
354.128	395.5
354.355	387.5
354.583	391.5
354.81	394.5
355.037	392.5
355.264	399.5
355.491	391.5
355.718	380.5
355.945	403.5
356.172	385.5
356.399	390.5
356.626	390.5
356.853	367.5
357.08	379.5
357.307	404.5
357.534	401.5
357.761	394.5
357.988	393.5
358.215	401.5
358.441	389.5
358.668	398.5
358.895	385.5
359.122	385.5
359.349	398.5
359.576	399.5
359.802	417.5
360.029	431.5
360.256	451.5
360.483	452.5
360.709	410.5
360.936	412.5
361.163	410.5
361.39	412.5
361.616	421.5
361.843	385.5
362.07	401.5
362.296	386.5
362.523	406.5
362.749	407.5
362.976	434.5
363.203	426.5
363.429	421.5
363.656	405.5
363.882	395.5
364.109	401.5
364.335	394.5
364.562	383.5
364.788	393.5
365.015	420.5
365.241	406.5
365.468	402.5
365.694	384.5
365.92	384.5
366.147	403.5
366.373	399.5
366.599	402.5
366.826	399.5
367.052	387.5
367.278	400.5
367.505	408.5
367.731	390.5
367.957	393.5
368.184	379.5
368.41	436.5
368.636	400.5
368.862	417.5
369.089	404.5
369.315	409.5
369.541	388.5
369.767	403.5
369.993	410.5
370.219	402.5
370.445	437.5
370.672	435.5
370.898	416.5
371.124	410.5
371.35	412.5
371.576	421.5
371.802	423.5
372.028	416.5
372.254	421.5
372.48	420.5
372.706	401.5
372.932	425.5
373.158	435.5
373.384	438.5
373.61	434.5
373.835	432.5
374.061	428.5
374.287	423.5
374.513	427.5
374.739	441.5
374.965	439.5
375.191	432.5
375.416	448.5
375.642	442.5
375.868	440.5
376.094	429.5
376.319	444.5
376.545	437.5
376.771	422.5
376.997	415.5
377.222	427.5
377.448	406.5
377.674	436.5
377.899	385.5
378.125	423.5
378.35	430.5
378.576	394.5
378.802	419.5
379.027	422.5
379.253	417.5
379.478	413.5
379.704	408.5
379.929	409.5
380.155	409.5
380.38	421.5
380.606	422.5
380.831	422.5
381.057	414.5
381.282	395.5
381.507	428.5
381.733	408.5
381.958	422.5
382.184	431.5
382.409	443.5
382.634	435.5
382.86	435.5
383.085	437.5
383.31	438.5
383.535	456.5
383.761	433.5
383.986	470.5
384.211	468.5
384.436	470.5
384.662	498.5
384.887	486.5
385.112	458.5
385.337	478.5
385.562	477.5
385.787	467.5
386.013	477.5
386.238	484.5
386.463	484.5
386.688	482.5
386.913	461.5
387.138	461.5
387.363	485.5
387.588	473.5
387.813	457.5
388.038	471.5
388.263	502.5
388.488	459.5
388.713	475.5
388.938	490.5
389.163	474.5
389.387	470.5
389.612	449.5
389.837	445.5
390.062	456.5
390.287	471.5
390.512	473.5
390.736	466.5
390.961	479.5
391.186	497.5
391.411	500.5
391.636	497.5
391.86	517.5
392.085	527.5
392.31	512.5
392.534	518.5
392.759	505.5
392.984	497.5
393.208	509.5
393.433	470.5
393.658	485.5
393.882	488.5
394.107	487.5
394.331	494.5
394.556	488.5
394.78	497.5
395.005	484.5
395.229	506.5
395.454	501.5
395.678	514.5
395.903	520.5
396.127	497.5
396.352	521.5
396.576	507.5
396.801	498.5
397.025	508.5
397.249	506.5
397.474	526.5
397.698	521.5
397.922	520.5
398.147	528.5
398.371	543.5
398.595	545.5
398.82	554.5
399.044	575.5
399.268	622.5
399.492	687.5
399.717	772.5
399.941	769.5
400.165	728.5
400.389	690.5
400.613	634.5
400.837	609.5
401.062	563.5
401.286	571.5
401.51	562.5
401.734	575.5
401.958	557.5
402.182	599.5
402.406	601.5
402.63	595.5
402.854	611.5
403.078	582.5
403.302	597.5
403.526	605.5
403.75	621.5
403.974	620.5
404.198	611.5
404.422	628.5
404.645	633.5
404.869	619.5
405.093	646.5
405.317	655.5
405.541	685.5
405.765	623.5
405.988	614.5
406.212	619.5
406.436	623.5
406.66	651.5
406.883	653.5
407.107	676.5
407.331	730.5
407.555	753.5
407.778	752.5
408.002	721.5
408.226	643.5
408.449	653.5
408.673	645.5
408.896	635.5
409.12	664.5
409.344	677.5
409.567	632.5
409.791	623.5
410.014	590.5
410.238	605.5
410.461	567.5
410.685	583.5
410.908	580.5
411.132	594.5
411.355	617.5
411.578	599.5
411.802	577.5
412.025	592.5
412.249	630.5
412.472	623.5
412.695	625.5
412.919	609.5
413.142	621.5
413.365	566.5
413.589	570.5
413.812	571.5
414.035	564.5
414.258	556.5
414.482	539.5
414.705	556.5
414.928	555.5
415.151	574.5
415.374	576.5
415.597	538.5
415.821	575.5
416.044	531.5
416.267	558.5
416.49	559.5
416.713	546.5
416.936	558.5
417.159	568.5
417.382	529.5
417.605	538.5
417.828	565.5
418.051	594.5
418.274	559.5
418.497	548.5
418.72	570.5
418.943	572.5
419.166	605.5
419.389	613.5
419.611	634.5
419.834	586.5
420.057	603.5
420.28	578.5
420.503	559.5
420.726	555.5
420.948	589.5
421.171	607.5
421.394	606.5
421.617	562.5
421.839	557.5
422.062	564.5
422.285	580.5
422.507	618.5
422.73	644.5
422.953	626.5
423.175	600.5
423.398	597.5
423.621	582.5
423.843	617.5
424.066	633.5
424.288	622.5
424.511	593.5
424.733	644.5
424.956	685.5
425.178	673.5
425.401	664.5
425.623	651.5
425.846	583.5
426.068	570.5
426.291	565.5
426.513	573.5
426.735	560.5
426.958	621.5
427.18	656.5
427.402	713.5
427.625	786.5
427.847	679.5
428.069	621.5
428.292	588.5
428.514	529.5
428.736	534.5
428.958	516.5
429.181	513.5
429.403	516.5
429.625	537.5
429.847	527.5
430.069	581.5
430.292	573.5
430.514	526.5
430.736	535.5
430.958	518.5
431.18	526.5
431.402	506.5
431.624	512.5
431.846	487.5
432.068	509.5
432.29	518.5
432.512	509.5
432.734	516.5
432.956	517.5
433.178	514.5
433.4	515.5
433.622	527.5
433.844	516.5
434.066	516.5
434.287	507.5
434.509	535.5
434.731	534.5
434.953	578.5
435.175	555.5
435.397	575.5
435.618	574.5
435.84	576.5
436.062	625.5
436.284	651.5
436.505	567.5
436.727	534.5
436.949	530.5
437.17	525.5
437.392	518.5
437.614	529.5
437.835	537.5
438.057	611.5
438.278	633.5
438.5	633.5
438.721	696.5
438.943	659.5
439.165	555.5
439.386	525.5
439.608	539.5
439.829	568.5
440.05	571.5
440.272	594.5
440.493	563.5
440.715	544.5
440.936	554.5
441.158	554.5
441.379	551.5
441.6	567.5
441.822	596.5
442.043	591.5
442.264	635.5
442.486	673.5
442.707	593.5
442.928	581.5
443.149	585.5
443.371	596.5
443.592	617.5
443.813	690.5
444.034	703.5
444.255	643.5
444.476	629.5
444.698	643.5
444.919	629.5
445.14	714.5
445.361	661.5
445.582	602.5
445.803	663.5
446.024	674.5
446.245	671.5
446.466	618.5
446.687	570.5
446.908	541.5
447.129	511.5
447.35	493.5
447.571	496.5
447.792	487.5
448.013	497.5
448.234	502.5
448.455	538.5
448.675	596.5
448.896	676.5
449.117	562.5
449.338	567.5
449.559	633.5
449.779	700.5
450	566.5
450.221	520.5
450.442	491.5
450.662	466.5
450.883	483.5
451.104	489.5
451.324	499.5
451.545	467.5
451.766	466.5
451.986	477.5
452.207	453.5
452.428	440.5
452.648	457.5
452.869	457.5
453.089	454.5
453.31	462.5
453.53	460.5
453.751	461.5
453.971	453.5
454.192	463.5
454.412	465.5
454.633	434.5
454.853	450.5
455.073	486.5
455.294	477.5
455.514	510.5
455.734	480.5
455.955	438.5
456.175	447.5
456.395	433.5
456.616	442.5
456.836	433.5
457.056	425.5
457.276	426.5
457.497	442.5
457.717	448.5
457.937	443.5
458.157	441.5
458.377	445.5
458.598	464.5
458.818	510.5
459.038	540.5
459.258	582.5
459.478	543.5
459.698	522.5
459.918	507.5
460.138	512.5
460.358	537.5
460.578	542.5
460.798	583.5
461.018	559.5
461.238	546.5
461.458	539.5
461.678	539.5
461.898	543.5
462.118	553.5
462.338	591.5
462.558	601.5
462.777	580.5
462.997	605.5
463.217	663.5
463.437	673.5
463.657	623.5
463.876	598.5
464.096	631.5
464.316	593.5
464.536	623.5
464.755	615.5
464.975	597.5
465.195	568.5
465.414	624.5
465.634	547.5
465.854	518.5
466.073	509.5
466.293	493.5
466.512	479.5
466.732	482.5
466.951	474.5
467.171	486.5
467.391	493.5
467.61	497.5
467.829	504.5
468.049	477.5
468.268	480.5
468.488	445.5
468.707	446.5
468.927	463.5
469.146	450.5
469.365	458.5
469.585	473.5
469.804	472.5
470.023	504.5
470.243	501.5
470.462	478.5
470.681	500.5
470.901	501.5
471.12	468.5
471.339	496.5
471.558	490.5
471.777	508.5
471.997	465.5
472.216	488.5
472.435	493.5
472.654	471.5
472.873	465.5
473.092	456.5
473.311	442.5
473.53	453.5
473.749	467.5
473.968	482.5
474.187	526.5
474.406	563.5
474.625	480.5
474.844	474.5
475.063	445.5
475.282	464.5
475.501	463.5
475.72	477.5
475.939	482.5
476.158	486.5
476.377	485.5
476.596	474.5
476.814	481.5
477.033	484.5
477.252	518.5
477.471	506.5
477.69	518.5
477.908	527.5
478.127	527.5
478.346	528.5
478.564	553.5
478.783	533.5
479.002	578.5
479.22	565.5
479.439	584.5
479.658	579.5
479.876	566.5
480.095	584.5
480.313	592.5
480.532	624.5
480.751	611.5
480.969	602.5
481.188	642.5
481.406	630.5
481.624	582.5
481.843	541.5
482.061	545.5
482.28	525.5
482.498	536.5
482.717	508.5
482.935	530.5
483.153	543.5
483.372	556.5
483.59	544.5
483.808	506.5
484.027	524.5
484.245	558.5
484.463	552.5
484.681	561.5
484.9	558.5
485.118	558.5
485.336	574.5
485.554	546.5
485.772	560.5
485.99	538.5
486.209	573.5
486.427	580.5
486.645	575.5
486.863	568.5
487.081	589.5
487.299	560.5
487.517	565.5
487.735	557.5
487.953	558.5
488.171	595.5
488.389	581.5
488.607	532.5
488.825	576.5
489.043	562.5
489.261	587.5
489.479	572.5
489.696	563.5
489.914	577.5
490.132	579.5
490.35	593.5
490.568	597.5
490.786	610.5
491.003	617.5
491.221	599.5
491.439	640.5
491.657	645.5
491.874	631.5
492.092	651.5
492.31	640.5
492.527	649.5
492.745	676.5
492.963	670.5
493.18	653.5
493.398	662.5
493.615	639.5
493.833	639.5
494.05	651.5
494.268	655.5
494.485	661.5
494.703	675.5
494.92	649.5
495.138	657.5
495.355	645.5
495.573	657.5
495.79	659.5
496.008	666.5
496.225	655.5
496.442	663.5
496.66	660.5
496.877	659.5
497.094	666.5
497.312	673.5
497.529	690.5
497.746	686.5
497.963	714.5
498.181	750.5
498.398	722.5
498.615	770.5
498.832	785.5
499.049	846.5
499.267	910.5
499.484	954.5
499.701	983.5
499.918	1055.5
500.135	1151.5
500.352	1278.5
500.569	1284.5
500.786	1282.5
501.003	1261.5
501.22	1157.5
501.437	1047.5
501.654	1008.5
501.871	927.5
502.088	874.5
502.305	840.5
502.522	773.5
502.739	778.5
502.956	764.5
503.172	743.5
503.389	740.5
503.606	703.5
503.823	698.5
504.04	691.5
504.256	683.5
504.473	689.5
504.69	712.5
504.907	704.5
505.123	648.5
505.34	639.5
505.557	640.5
505.773	629.5
505.99	615.5
506.207	610.5
506.423	622.5
506.64	615.5
506.856	595.5
507.073	590.5
507.289	584.5
507.506	598.5
507.722	605.5
507.939	590.5
508.155	571.5
508.372	577.5
508.588	561.5
508.805	572.5
509.021	551.5
509.238	567.5
509.454	575.5
509.67	556.5
509.887	557.5
510.103	547.5
510.319	571.5
510.536	592.5
510.752	913.5
510.968	753.5
511.184	555.5
511.401	553.5
511.617	536.5
511.833	523.5
512.049	537.5
512.265	528.5
512.481	527.5
512.698	526.5
512.914	511.5
513.13	520.5
513.346	523.5
513.562	529.5
513.778	530.5
513.994	508.5
514.21	518.5
514.426	557.5
514.642	575.5
514.858	555.5
515.074	581.5
515.29	673.5
515.506	951.5
515.721	794.5
515.937	597.5
516.153	575.5
516.369	594.5
516.585	568.5
516.801	562.5
517.016	592.5
517.232	613.5
517.448	634.5
517.664	629.5
517.879	633.5
518.095	629.5
518.311	633.5
518.527	625.5
518.742	590.5
518.958	575.5
519.173	547.5
519.389	552.5
519.605	568.5
519.82	526.5
