Data from 1960PennyLincolnUp.LampE5.5.200Scan.07172019.P1.ChangedAngle_HRD10591_13-15-12-821.txt Node
Date: Thu Jul 18 13:15:12 EDT 2019
User: cochatt
Spectrometer: HR+D1059
Trigger mode: 1
Integration Time (sec): 1.000000E-1
Scans to average: 1
Electric dark correction enabled: true
Nonlinearity correction enabled: false
Boxcar width: 0
XAxis mode: Wavelengths
Number of Pixels in Spectrum: 2048
>>>>>Begin Spectral Data<<<<<
223.165	-12.12
223.4	-12.12
223.635	-12.12
223.869	-7.12
224.104	-27.12
224.338	-23.12
224.573	-18.12
224.808	-16.12
225.042	-13.12
225.277	4.88
225.511	4.88
225.746	-6.12
225.98	5.88
226.215	10.88
226.449	7.88
226.683	20.88
226.918	37.88
227.152	29.88
227.387	41.88
227.621	36.88
227.856	48.88
228.09	49.88
228.324	38.88
228.559	57.88
228.793	59.88
229.027	91.88
229.262	94.88
229.496	86.88
229.73	114.88
229.964	132.88
230.199	99.88
230.433	105.88
230.667	107.88
230.901	102.88
231.136	104.88
231.37	90.88
231.604	81.88
231.838	91.88
232.072	92.88
232.306	109.88
232.541	105.88
232.775	105.88
233.009	111.88
233.243	84.88
233.477	107.88
233.711	95.88
233.945	104.88
234.179	105.88
234.413	108.88
234.647	128.88
234.881	116.88
235.115	116.88
235.349	99.88
235.583	108.88
235.817	90.88
236.051	104.88
236.285	106.88
236.519	122.88
236.753	107.88
236.987	126.88
237.221	134.88
237.455	166.88
237.689	144.88
237.922	129.88
238.156	124.88
238.39	115.88
238.624	116.88
238.858	102.88
239.091	113.88
239.325	117.88
239.559	119.88
239.793	108.88
240.027	117.88
240.26	115.88
240.494	128.88
240.728	123.88
240.961	126.88
241.195	133.88
241.429	122.88
241.662	132.88
241.896	133.88
242.13	125.88
242.363	126.88
242.597	108.88
242.83	120.88
243.064	132.88
243.298	116.88
243.531	125.88
243.765	137.88
243.998	122.88
244.232	135.88
244.465	141.88
244.699	137.88
244.932	126.88
245.166	148.88
245.399	150.88
245.633	146.88
245.866	145.88
246.099	130.88
246.333	136.88
246.566	138.88
246.8	141.88
247.033	132.88
247.266	141.88
247.5	140.88
247.733	140.88
247.966	144.88
248.2	161.88
248.433	158.88
248.666	150.88
248.899	149.88
249.133	184.88
249.366	178.88
249.599	168.88
249.832	168.88
250.066	166.88
250.299	172.88
250.532	172.88
250.765	179.88
250.998	195.88
251.231	221.88
251.465	178.88
251.698	173.88
251.931	177.88
252.164	183.88
252.397	170.88
252.63	165.88
252.863	193.88
253.096	181.88
253.329	186.88
253.562	198.88
253.795	195.88
254.028	180.88
254.261	194.88
254.494	196.88
254.727	209.88
254.96	215.88
255.193	239.88
255.426	205.88
255.659	180.88
255.892	200.88
256.124	198.88
256.357	219.88
256.59	203.88
256.823	188.88
257.056	184.88
257.289	197.88
257.521	202.88
257.754	186.88
257.987	190.88
258.22	196.88
258.452	182.88
258.685	191.88
258.918	173.88
259.151	186.88
259.383	198.88
259.616	209.88
259.849	216.88
260.081	202.88
260.314	204.88
260.547	213.88
260.779	230.88
261.012	210.88
261.244	217.88
261.477	210.88
261.71	199.88
261.942	215.88
262.175	217.88
262.407	198.88
262.64	217.88
262.872	188.88
263.105	197.88
263.337	198.88
263.57	188.88
263.802	198.88
264.035	196.88
264.267	193.88
264.499	197.88
264.732	213.88
264.964	199.88
265.197	206.88
265.429	222.88
265.661	208.88
265.894	211.88
266.126	214.88
266.358	209.88
266.591	203.88
266.823	209.88
267.055	196.88
267.287	205.88
267.52	203.88
267.752	207.88
267.984	206.88
268.216	207.88
268.448	216.88
268.681	221.88
268.913	223.88
269.145	238.88
269.377	247.88
269.609	240.88
269.841	237.88
270.073	253.88
270.306	262.88
270.538	264.88
270.77	267.88
271.002	283.88
271.234	260.88
271.466	268.88
271.698	256.88
271.93	252.88
272.162	276.88
272.394	274.88
272.626	245.88
272.858	273.88
273.09	264.88
273.322	247.88
273.553	244.88
273.785	258.88
274.017	261.88
274.249	253.88
274.481	228.88
274.713	238.88
274.945	260.88
275.176	248.88
275.408	245.88
275.64	260.88
275.872	235.88
276.104	254.88
276.335	248.88
276.567	267.88
276.799	257.88
277.031	274.88
277.262	290.88
277.494	272.88
277.726	290.88
277.957	260.88
278.189	257.88
278.421	248.88
278.652	252.88
278.884	255.88
279.115	254.88
279.347	252.88
279.579	243.88
279.81	236.88
280.042	257.88
280.273	254.88
280.505	263.88
280.736	250.88
280.968	244.88
281.199	232.88
281.431	272.88
281.662	247.88
281.894	252.88
282.125	261.88
282.356	273.88
282.588	261.88
282.819	283.88
283.051	268.88
283.282	251.88
283.513	261.88
283.745	258.88
283.976	266.88
284.207	266.88
284.439	275.88
284.67	268.88
284.901	264.88
285.132	251.88
285.364	262.88
285.595	268.88
285.826	270.88
286.057	270.88
286.288	264.88
286.52	281.88
286.751	276.88
286.982	262.88
287.213	268.88
287.444	283.88
287.675	266.88
287.906	267.88
288.138	282.88
288.369	281.88
288.6	283.88
288.831	285.88
289.062	266.88
289.293	285.88
289.524	286.88
289.755	278.88
289.986	280.88
290.217	284.88
290.448	288.88
290.679	276.88
290.91	273.88
291.141	258.88
291.371	253.88
291.602	280.88
291.833	277.88
292.064	283.88
292.295	280.88
292.526	275.88
292.757	276.88
292.987	281.88
293.218	282.88
293.449	286.88
293.68	272.88
293.91	289.88
294.141	275.88
294.372	288.88
294.603	291.88
294.833	300.88
295.064	273.88
295.295	285.88
295.525	281.88
295.756	292.88
295.987	296.88
296.217	296.88
296.448	299.88
296.679	293.88
296.909	292.88
297.14	285.88
297.37	289.88
297.601	304.88
297.831	290.88
298.062	301.88
298.292	290.88
298.523	291.88
298.753	288.88
298.984	282.88
299.214	288.88
299.445	291.88
299.675	301.88
299.905	303.88
300.136	301.88
300.366	302.88
300.597	293.88
300.827	303.88
301.057	288.88
301.288	312.88
301.518	311.88
301.748	297.88
301.979	327.88
302.209	316.88
302.439	313.88
302.669	314.88
302.9	326.88
303.13	307.88
303.36	324.88
303.59	308.88
303.82	300.88
304.051	323.88
304.281	314.88
304.511	302.88
304.741	315.88
304.971	316.88
305.201	318.88
305.431	291.88
305.661	304.88
305.891	307.88
306.121	323.88
306.352	309.88
306.582	325.88
306.812	317.88
307.042	325.88
307.272	312.88
307.502	321.88
307.731	310.88
307.961	300.88
308.191	307.88
308.421	309.88
308.651	329.88
308.881	318.88
309.111	312.88
309.341	323.88
309.571	323.88
309.8	333.88
310.03	316.88
310.26	337.88
310.49	322.88
310.72	347.88
310.949	337.88
311.179	348.88
311.409	360.88
311.639	332.88
311.868	332.88
312.098	342.88
312.328	357.88
312.557	358.88
312.787	348.88
313.017	366.88
313.246	360.88
313.476	349.88
313.706	330.88
313.935	363.88
314.165	337.88
314.394	372.88
314.624	352.88
314.853	354.88
315.083	348.88
315.312	354.88
315.542	363.88
315.771	345.88
316.001	342.88
316.23	345.88
316.46	374.88
316.689	356.88
316.919	343.88
317.148	354.88
317.377	368.88
317.607	344.88
317.836	356.88
318.065	344.88
318.295	356.88
318.524	360.88
318.753	345.88
318.983	335.88
319.212	341.88
319.441	356.88
319.67	366.88
319.9	331.88
320.129	348.88
320.358	359.88
320.587	368.88
320.816	390.88
321.046	380.88
321.275	354.88
321.504	360.88
321.733	352.88
321.962	376.88
322.191	362.88
322.42	393.88
322.649	405.88
322.878	373.88
323.108	392.88
323.337	418.88
323.566	440.88
323.795	437.88
324.024	447.88
324.253	562.88
324.482	748.88
324.71	1062.88
324.939	1435.88
325.168	1204.88
325.397	697.88
325.626	496.88
325.855	445.88
326.084	440.88
326.313	435.88
326.542	433.88
326.77	461.88
326.999	536.88
327.228	676.88
327.457	925.88
327.686	1073.88
327.914	773.88
328.143	536.88
328.372	506.88
328.6	470.88
328.829	462.88
329.058	469.88
329.287	457.88
329.515	439.88
329.744	422.88
329.972	449.88
330.201	453.88
330.43	475.88
330.658	476.88
330.887	478.88
331.115	486.88
331.344	439.88
331.572	437.88
331.801	442.88
332.03	422.88
332.258	443.88
332.486	432.88
332.715	397.88
332.943	402.88
333.172	408.88
333.4	442.88
333.629	452.88
333.857	411.88
334.085	436.88
334.314	451.88
334.542	457.88
334.771	453.88
334.999	436.88
335.227	437.88
335.455	419.88
335.684	410.88
335.912	414.88
336.14	421.88
336.369	396.88
336.597	409.88
336.825	409.88
337.053	413.88
337.281	418.88
337.51	411.88
337.738	406.88
337.966	386.88
338.194	412.88
338.422	430.88
338.65	405.88
338.878	406.88
339.106	419.88
339.334	388.88
339.562	383.88
339.79	385.88
340.018	398.88
340.246	399.88
340.474	370.88
340.702	407.88
340.93	366.88
341.158	397.88
341.386	362.88
341.614	393.88
341.842	382.88
342.07	380.88
342.298	384.88
342.526	379.88
342.754	374.88
342.981	393.88
343.209	378.88
343.437	396.88
343.665	365.88
343.893	389.88
344.12	383.88
344.348	392.88
344.576	375.88
344.804	380.88
345.031	406.88
345.259	415.88
345.487	374.88
345.714	386.88
345.942	396.88
346.17	374.88
346.397	365.88
346.625	372.88
346.853	357.88
347.08	360.88
347.308	362.88
347.535	348.88
347.763	389.88
347.99	376.88
348.218	376.88
348.445	377.88
348.673	379.88
348.9	382.88
349.128	364.88
349.355	352.88
349.583	357.88
349.81	356.88
350.037	358.88
350.265	369.88
350.492	377.88
350.72	360.88
350.947	375.88
351.174	384.88
351.402	385.88
351.629	368.88
351.856	368.88
352.083	372.88
352.311	388.88
352.538	379.88
352.765	372.88
352.992	363.88
353.22	361.88
353.447	368.88
353.674	365.88
353.901	354.88
354.128	342.88
354.355	358.88
354.583	370.88
354.81	337.88
355.037	363.88
355.264	364.88
355.491	346.88
355.718	340.88
355.945	349.88
356.172	339.88
356.399	341.88
356.626	348.88
356.853	359.88
357.08	358.88
357.307	340.88
357.534	346.88
357.761	340.88
357.988	345.88
358.215	350.88
358.441	356.88
358.668	324.88
358.895	356.88
359.122	369.88
359.349	358.88
359.576	367.88
359.802	370.88
360.029	367.88
360.256	380.88
360.483	373.88
360.709	342.88
360.936	360.88
361.163	365.88
361.39	353.88
361.616	361.88
361.843	364.88
362.07	377.88
362.296	354.88
362.523	358.88
362.749	368.88
362.976	340.88
363.203	352.88
363.429	335.88
363.656	343.88
363.882	344.88
364.109	353.88
364.335	353.88
364.562	363.88
364.788	337.88
365.015	351.88
365.241	348.88
365.468	355.88
365.694	348.88
365.92	352.88
366.147	345.88
366.373	343.88
366.599	342.88
366.826	344.88
367.052	330.88
367.278	360.88
367.505	357.88
367.731	354.88
367.957	342.88
368.184	343.88
368.41	345.88
368.636	358.88
368.862	349.88
369.089	350.88
369.315	378.88
369.541	366.88
369.767	347.88
369.993	344.88
370.219	360.88
370.445	331.88
370.672	335.88
370.898	327.88
371.124	324.88
371.35	354.88
371.576	342.88
371.802	345.88
372.028	338.88
372.254	342.88
372.48	339.88
372.706	342.88
372.932	358.88
373.158	347.88
373.384	344.88
373.61	333.88
373.835	341.88
374.061	363.88
374.287	352.88
374.513	341.88
374.739	343.88
374.965	339.88
375.191	345.88
375.416	343.88
375.642	360.88
375.868	352.88
376.094	343.88
376.319	326.88
376.545	356.88
376.771	344.88
376.997	348.88
377.222	350.88
377.448	358.88
377.674	344.88
377.899	338.88
378.125	329.88
378.35	342.88
378.576	362.88
378.802	334.88
379.027	342.88
379.253	334.88
379.478	349.88
379.704	339.88
379.929	342.88
380.155	326.88
380.38	337.88
380.606	344.88
380.831	334.88
381.057	341.88
381.282	342.88
381.507	336.88
381.733	356.88
381.958	337.88
382.184	336.88
382.409	333.88
382.634	346.88
382.86	345.88
383.085	375.88
383.31	358.88
383.535	342.88
383.761	346.88
383.986	344.88
384.211	352.88
384.436	354.88
384.662	348.88
384.887	364.88
385.112	366.88
385.337	366.88
385.562	357.88
385.787	351.88
386.013	358.88
386.238	373.88
386.463	376.88
386.688	384.88
386.913	368.88
387.138	361.88
387.363	369.88
387.588	370.88
387.813	366.88
388.038	366.88
388.263	347.88
388.488	364.88
388.713	384.88
388.938	370.88
389.163	357.88
389.387	362.88
389.612	358.88
389.837	345.88
390.062	358.88
390.287	362.88
390.512	369.88
390.736	371.88
390.961	373.88
391.186	360.88
391.411	385.88
391.636	366.88
391.86	364.88
392.085	371.88
392.31	361.88
392.534	375.88
392.759	389.88
392.984	372.88
393.208	369.88
393.433	379.88
393.658	379.88
393.882	390.88
394.107	358.88
394.331	377.88
394.556	358.88
394.78	362.88
395.005	355.88
395.229	366.88
395.454	386.88
395.678	373.88
395.903	386.88
396.127	402.88
396.352	408.88
396.576	385.88
396.801	374.88
397.025	387.88
397.249	390.88
397.474	396.88
397.698	386.88
397.922	405.88
398.147	396.88
398.371	404.88
398.595	413.88
398.82	386.88
399.044	390.88
399.268	429.88
399.492	449.88
399.717	475.88
399.941	498.88
400.165	488.88
400.389	529.88
400.613	480.88
400.837	438.88
401.062	404.88
401.286	417.88
401.51	413.88
401.734	412.88
401.958	421.88
402.182	401.88
402.406	404.88
402.63	430.88
402.854	419.88
403.078	424.88
403.302	441.88
403.526	438.88
403.75	410.88
403.974	426.88
404.198	398.88
404.422	424.88
404.645	435.88
404.869	428.88
405.093	421.88
405.317	477.88
405.541	476.88
405.765	463.88
405.988	457.88
406.212	449.88
406.436	457.88
406.66	461.88
406.883	450.88
407.107	459.88
407.331	486.88
407.555	526.88
407.778	518.88
408.002	480.88
408.226	471.88
408.449	431.88
408.673	441.88
408.896	470.88
409.12	514.88
409.344	482.88
409.567	450.88
409.791	397.88
410.014	416.88
410.238	426.88
410.461	431.88
410.685	452.88
410.908	443.88
411.132	461.88
411.355	475.88
411.578	437.88
411.802	427.88
412.025	423.88
412.249	413.88
412.472	445.88
412.695	447.88
412.919	446.88
413.142	410.88
413.365	431.88
413.589	392.88
413.812	420.88
414.035	408.88
414.258	384.88
414.482	389.88
414.705	405.88
414.928	408.88
415.151	398.88
415.374	403.88
415.597	409.88
415.821	379.88
416.044	387.88
416.267	391.88
416.49	396.88
416.713	385.88
416.936	382.88
417.159	409.88
417.382	383.88
417.605	397.88
417.828	394.88
418.051	416.88
418.274	391.88
418.497	397.88
418.72	407.88
418.943	406.88
419.166	408.88
419.389	431.88
419.611	429.88
419.834	406.88
420.057	403.88
420.28	405.88
420.503	398.88
420.726	425.88
420.948	412.88
421.171	431.88
421.394	432.88
421.617	414.88
421.839	413.88
422.062	418.88
422.285	397.88
422.507	451.88
422.73	506.88
422.953	463.88
423.175	436.88
423.398	414.88
423.621	401.88
423.843	416.88
424.066	437.88
424.288	415.88
424.511	436.88
424.733	475.88
424.956	506.88
425.178	517.88
425.401	498.88
425.623	514.88
425.846	466.88
426.068	436.88
426.291	400.88
426.513	420.88
426.735	428.88
426.958	426.88
427.18	476.88
427.402	574.88
427.625	632.88
427.847	547.88
428.069	475.88
428.292	444.88
428.514	419.88
428.736	410.88
428.958	372.88
429.181	377.88
429.403	384.88
429.625	420.88
429.847	423.88
430.069	468.88
430.292	442.88
430.514	411.88
430.736	400.88
430.958	372.88
431.18	386.88
431.402	385.88
431.624	363.88
431.846	378.88
432.068	402.88
432.29	375.88
432.512	360.88
432.734	380.88
432.956	387.88
433.178	388.88
433.4	393.88
433.622	377.88
433.844	354.88
434.066	363.88
434.287	374.88
434.509	365.88
434.731	395.88
434.953	384.88
435.175	392.88
435.397	410.88
435.618	425.88
435.84	462.88
436.062	510.88
436.284	524.88
436.505	467.88
436.727	416.88
436.949	411.88
437.17	390.88
437.392	416.88
437.614	406.88
437.835	402.88
438.057	473.88
438.278	538.88
438.5	550.88
438.721	578.88
438.943	557.88
439.165	452.88
439.386	445.88
439.608	409.88
439.829	428.88
440.05	430.88
440.272	444.88
440.493	430.88
440.715	418.88
440.936	391.88
441.158	393.88
441.379	405.88
441.6	388.88
441.822	424.88
442.043	427.88
442.264	467.88
442.486	550.88
442.707	425.88
442.928	418.88
443.149	439.88
443.371	442.88
443.592	461.88
443.813	529.88
444.034	574.88
444.255	477.88
444.476	424.88
444.698	428.88
444.919	409.88
445.14	504.88
445.361	474.88
445.582	446.88
445.803	477.88
446.024	532.88
446.245	528.88
446.466	492.88
446.687	423.88
446.908	412.88
447.129	397.88
447.35	390.88
447.571	381.88
447.792	382.88
448.013	389.88
448.234	397.88
448.455	432.88
448.675	516.88
448.896	578.88
449.117	491.88
449.338	480.88
449.559	547.88
449.779	596.88
450	501.88
450.221	421.88
450.442	382.88
450.662	386.88
450.883	373.88
451.104	389.88
451.324	383.88
451.545	362.88
451.766	363.88
451.986	360.88
452.207	327.88
452.428	345.88
452.648	353.88
452.869	349.88
453.089	340.88
453.31	354.88
453.53	356.88
453.751	353.88
453.971	344.88
454.192	345.88
454.412	359.88
454.633	348.88
454.853	316.88
455.073	339.88
455.294	366.88
455.514	414.88
455.734	388.88
455.955	368.88
456.175	360.88
456.395	325.88
456.616	327.88
456.836	342.88
457.056	339.88
457.276	336.88
457.497	339.88
457.717	326.88
457.937	340.88
458.157	337.88
458.377	347.88
458.598	369.88
458.818	403.88
459.038	444.88
459.258	440.88
459.478	403.88
459.698	375.88
459.918	352.88
460.138	374.88
460.358	369.88
460.578	382.88
460.798	389.88
461.018	382.88
461.238	384.88
461.458	382.88
461.678	388.88
461.898	383.88
462.118	379.88
462.338	407.88
462.558	401.88
462.777	404.88
462.997	403.88
463.217	427.88
463.437	424.88
463.657	401.88
463.876	417.88
464.096	425.88
464.316	420.88
464.536	412.88
464.755	404.88
464.975	422.88
465.195	418.88
465.414	452.88
465.634	400.88
465.854	377.88
466.073	402.88
466.293	385.88
466.512	365.88
466.732	344.88
466.951	352.88
467.171	366.88
467.391	360.88
467.61	360.88
467.829	369.88
468.049	357.88
468.268	363.88
468.488	352.88
468.707	354.88
468.927	335.88
469.146	328.88
469.365	339.88
469.585	357.88
469.804	361.88
470.023	372.88
470.243	341.88
470.462	380.88
470.681	384.88
470.901	358.88
471.12	387.88
471.339	379.88
471.558	365.88
471.777	373.88
471.997	354.88
472.216	376.88
472.435	381.88
472.654	380.88
472.873	368.88
473.092	393.88
473.311	375.88
473.53	357.88
473.749	397.88
473.968	393.88
474.187	449.88
474.406	457.88
474.625	392.88
474.844	386.88
475.063	379.88
475.282	378.88
475.501	349.88
475.72	362.88
475.939	366.88
476.158	378.88
476.377	376.88
476.596	374.88
476.814	383.88
477.033	370.88
477.252	402.88
477.471	400.88
477.69	368.88
477.908	388.88
478.127	416.88
478.346	411.88
478.564	426.88
478.783	409.88
479.002	422.88
479.22	406.88
479.439	422.88
479.658	435.88
479.876	421.88
480.095	437.88
480.313	443.88
480.532	444.88
480.751	453.88
480.969	438.88
481.188	488.88
481.406	511.88
481.624	452.88
481.843	438.88
482.061	413.88
482.28	423.88
482.498	412.88
482.717	421.88
482.935	432.88
483.153	428.88
483.372	426.88
483.59	424.88
483.808	416.88
484.027	422.88
484.245	431.88
484.463	422.88
484.681	434.88
484.9	426.88
485.118	432.88
485.336	412.88
485.554	425.88
485.772	430.88
485.99	422.88
486.209	425.88
486.427	414.88
486.645	430.88
486.863	446.88
487.081	468.88
487.299	455.88
487.517	468.88
487.735	459.88
487.953	462.88
488.171	430.88
488.389	460.88
488.607	447.88
488.825	440.88
489.043	428.88
489.261	435.88
489.479	465.88
489.696	445.88
489.914	431.88
490.132	469.88
490.35	466.88
490.568	462.88
490.786	469.88
491.003	503.88
491.221	488.88
491.439	490.88
491.657	490.88
491.874	462.88
492.092	481.88
492.31	487.88
492.527	506.88
492.745	511.88
492.963	504.88
493.18	505.88
493.398	515.88
493.615	515.88
493.833	519.88
494.05	522.88
494.268	496.88
494.485	504.88
494.703	503.88
494.92	514.88
495.138	501.88
495.355	505.88
495.573	503.88
495.79	513.88
496.008	524.88
496.225	505.88
496.442	518.88
496.66	536.88
496.877	533.88
497.094	499.88
497.312	535.88
497.529	550.88
497.746	550.88
497.963	546.88
498.181	562.88
498.398	558.88
498.615	592.88
498.832	587.88
499.049	603.88
499.267	603.88
499.484	647.88
499.701	660.88
499.918	672.88
500.135	719.88
500.352	724.88
500.569	739.88
500.786	746.88
501.003	732.88
501.22	716.88
501.437	690.88
501.654	668.88
501.871	646.88
