Data from 1960PennyLincolnUp.LampE6.200Scan.07172019.P1_HRD10591_13-05-15-002.txt Node
Date: Thu Jul 18 13:05:15 EDT 2019
User: cochatt
Spectrometer: HR+D1059
Trigger mode: 1
Integration Time (sec): 1.000000E-1
Scans to average: 1
Electric dark correction enabled: true
Nonlinearity correction enabled: false
Boxcar width: 0
XAxis mode: Wavelengths
Number of Pixels in Spectrum: 2048
>>>>>Begin Spectral Data<<<<<
223.165	-11.81
223.4	-11.81
223.635	-11.81
223.869	-12.81
224.104	-9.81
224.338	-15.81
224.573	-21.81
224.808	-6.81
225.042	-16.81
225.277	-3.81
225.511	7.19
225.746	9.19
225.98	-4.81
226.215	4.19
226.449	17.19
226.683	17.19
226.918	26.19
227.152	23.19
227.387	46.19
227.621	49.19
227.856	55.19
228.09	42.19
228.324	40.19
228.559	46.19
228.793	81.19
229.027	98.19
229.262	94.19
229.496	102.19
229.73	112.19
229.964	112.19
230.199	106.19
230.433	106.19
230.667	97.19
230.901	107.19
231.136	113.19
231.37	108.19
231.604	111.19
231.838	106.19
232.072	109.19
232.306	123.19
232.541	115.19
232.775	104.19
233.009	115.19
233.243	113.19
233.477	108.19
233.711	116.19
233.945	103.19
234.179	108.19
234.413	106.19
234.647	118.19
234.881	120.19
235.115	120.19
235.349	113.19
235.583	119.19
235.817	110.19
236.051	126.19
236.285	114.19
236.519	118.19
236.753	124.19
236.987	138.19
237.221	163.19
237.455	157.19
237.689	135.19
237.922	136.19
238.156	131.19
238.39	129.19
238.624	114.19
238.858	117.19
239.091	127.19
239.325	124.19
239.559	127.19
239.793	112.19
240.027	127.19
240.26	120.19
240.494	124.19
240.728	135.19
240.961	127.19
241.195	133.19
241.429	125.19
241.662	145.19
241.896	123.19
242.13	139.19
242.363	134.19
242.597	132.19
242.83	131.19
243.064	147.19
243.298	140.19
243.531	136.19
243.765	130.19
243.998	130.19
244.232	124.19
244.465	135.19
244.699	129.19
244.932	147.19
245.166	136.19
245.399	142.19
245.633	152.19
245.866	139.19
246.099	137.19
246.333	147.19
246.566	148.19
246.8	152.19
247.033	148.19
247.266	139.19
247.5	149.19
247.733	160.19
247.966	166.19
248.2	163.19
248.433	187.19
248.666	172.19
248.899	166.19
249.133	158.19
249.366	159.19
249.599	169.19
249.832	162.19
250.066	168.19
250.299	155.19
250.532	168.19
250.765	187.19
250.998	186.19
251.231	193.19
251.465	182.19
251.698	170.19
251.931	179.19
252.164	171.19
252.397	172.19
252.63	177.19
252.863	174.19
253.096	162.19
253.329	182.19
253.562	185.19
253.795	199.19
254.028	189.19
254.261	189.19
254.494	193.19
254.727	208.19
254.96	209.19
255.193	224.19
255.426	208.19
255.659	199.19
255.892	210.19
256.124	212.19
256.357	202.19
256.59	209.19
256.823	182.19
257.056	179.19
257.289	194.19
257.521	196.19
257.754	198.19
257.987	172.19
258.22	187.19
258.452	182.19
258.685	181.19
258.918	178.19
259.151	190.19
259.383	207.19
259.616	203.19
259.849	211.19
260.081	204.19
260.314	222.19
260.547	216.19
260.779	200.19
261.012	200.19
261.244	225.19
261.477	204.19
261.71	198.19
261.942	206.19
262.175	210.19
262.407	196.19
262.64	200.19
262.872	202.19
263.105	199.19
263.337	197.19
263.57	195.19
263.802	188.19
264.035	216.19
264.267	207.19
264.499	209.19
264.732	228.19
264.964	215.19
265.197	194.19
265.429	198.19
265.661	197.19
265.894	210.19
266.126	208.19
266.358	210.19
266.591	194.19
266.823	215.19
267.055	199.19
267.287	201.19
267.52	212.19
267.752	206.19
267.984	216.19
268.216	209.19
268.448	217.19
268.681	222.19
268.913	230.19
269.145	247.19
269.377	259.19
269.609	253.19
269.841	244.19
270.073	236.19
270.306	256.19
270.538	270.19
270.77	258.19
271.002	258.19
271.234	238.19
271.466	271.19
271.698	259.19
271.93	281.19
272.162	260.19
272.394	268.19
272.626	253.19
272.858	258.19
273.09	268.19
273.322	235.19
273.553	239.19
273.785	245.19
274.017	240.19
274.249	260.19
274.481	254.19
274.713	229.19
274.945	263.19
275.176	243.19
275.408	238.19
275.64	239.19
275.872	241.19
276.104	243.19
276.335	249.19
276.567	251.19
276.799	261.19
277.031	274.19
277.262	269.19
277.494	291.19
277.726	278.19
277.957	269.19
278.189	266.19
278.421	263.19
278.652	249.19
278.884	250.19
279.115	248.19
279.347	234.19
279.579	251.19
279.81	259.19
280.042	258.19
280.273	266.19
280.505	270.19
280.736	278.19
280.968	271.19
281.199	257.19
281.431	270.19
281.662	271.19
281.894	266.19
282.125	270.19
282.356	288.19
282.588	294.19
282.819	275.19
283.051	264.19
283.282	286.19
283.513	289.19
283.745	289.19
283.976	288.19
284.207	271.19
284.439	260.19
284.67	278.19
284.901	278.19
285.132	257.19
285.364	261.19
285.595	295.19
285.826	309.19
286.057	278.19
286.288	278.19
286.52	290.19
286.751	263.19
286.982	280.19
287.213	302.19
287.444	286.19
287.675	291.19
287.906	298.19
288.138	297.19
288.369	309.19
288.6	302.19
288.831	288.19
289.062	315.19
289.293	284.19
289.524	297.19
289.755	308.19
289.986	294.19
290.217	290.19
290.448	293.19
290.679	303.19
290.91	296.19
291.141	296.19
291.371	297.19
291.602	307.19
291.833	278.19
292.064	293.19
292.295	296.19
292.526	290.19
292.757	311.19
292.987	299.19
293.218	312.19
293.449	292.19
293.68	306.19
293.91	298.19
294.141	290.19
294.372	313.19
294.603	297.19
294.833	308.19
295.064	323.19
295.295	302.19
295.525	291.19
295.756	301.19
295.987	314.19
296.217	321.19
296.448	320.19
296.679	314.19
296.909	304.19
297.14	298.19
297.37	315.19
297.601	318.19
297.831	320.19
298.062	313.19
298.292	303.19
298.523	326.19
298.753	303.19
298.984	316.19
299.214	324.19
299.445	323.19
299.675	309.19
299.905	315.19
300.136	311.19
300.366	327.19
300.597	322.19
300.827	329.19
301.057	329.19
301.288	328.19
301.518	324.19
301.748	330.19
301.979	347.19
302.209	329.19
302.439	324.19
302.669	337.19
302.9	330.19
303.13	350.19
303.36	354.19
303.59	353.19
303.82	355.19
304.051	370.19
304.281	357.19
304.511	345.19
304.741	336.19
304.971	363.19
305.201	347.19
305.431	354.19
305.661	344.19
305.891	343.19
306.121	337.19
306.352	352.19
306.582	331.19
306.812	323.19
307.042	343.19
307.272	346.19
307.502	340.19
307.731	330.19
307.961	328.19
308.191	339.19
308.421	347.19
308.651	335.19
308.881	332.19
309.111	326.19
309.341	337.19
309.571	342.19
309.8	355.19
310.03	358.19
310.26	371.19
310.49	350.19
310.72	353.19
310.949	350.19
311.179	365.19
311.409	345.19
311.639	358.19
311.868	368.19
312.098	364.19
312.328	372.19
312.557	382.19
312.787	374.19
313.017	364.19
313.246	363.19
313.476	351.19
313.706	376.19
313.935	368.19
314.165	362.19
314.394	371.19
314.624	382.19
314.853	374.19
315.083	393.19
315.312	360.19
315.542	366.19
315.771	373.19
316.001	374.19
316.23	376.19
316.46	382.19
316.689	386.19
316.919	374.19
317.148	397.19
317.377	361.19
317.607	377.19
317.836	369.19
318.065	385.19
318.295	377.19
318.524	357.19
318.753	364.19
318.983	374.19
319.212	367.19
319.441	377.19
319.67	361.19
319.9	370.19
320.129	368.19
320.358	368.19
320.587	353.19
320.816	382.19
321.046	373.19
321.275	369.19
321.504	379.19
321.733	390.19
321.962	383.19
322.191	397.19
322.42	395.19
322.649	398.19
322.878	399.19
323.108	404.19
323.337	404.19
323.566	417.19
323.795	428.19
324.024	449.19
324.253	485.19
324.482	626.19
324.71	882.19
324.939	1175.19
325.168	1001.19
325.397	561.19
325.626	469.19
325.855	431.19
326.084	435.19
326.313	440.19
326.542	432.19
326.77	446.19
326.999	494.19
327.228	625.19
327.457	818.19
327.686	915.19
327.914	653.19
328.143	527.19
328.372	486.19
328.6	463.19
328.829	462.19
329.058	452.19
329.287	469.19
329.515	448.19
329.744	447.19
329.972	428.19
330.201	451.19
330.43	474.19
330.658	478.19
330.887	469.19
331.115	464.19
331.344	451.19
331.572	421.19
331.801	452.19
332.03	459.19
332.258	455.19
332.486	466.19
332.715	476.19
332.943	508.19
333.172	497.19
333.4	489.19
333.629	502.19
333.857	518.19
334.085	515.19
334.314	528.19
334.542	537.19
334.771	530.19
334.999	511.19
335.227	496.19
335.455	481.19
335.684	492.19
335.912	487.19
336.14	459.19
336.369	479.19
336.597	459.19
336.825	442.19
337.053	459.19
337.281	459.19
337.51	435.19
337.738	436.19
337.966	445.19
338.194	448.19
338.422	444.19
338.65	446.19
338.878	442.19
339.106	459.19
339.334	451.19
339.562	427.19
339.79	423.19
340.018	420.19
340.246	417.19
340.474	426.19
340.702	426.19
340.93	426.19
341.158	441.19
341.386	436.19
341.614	424.19
341.842	420.19
342.07	400.19
342.298	438.19
342.526	408.19
342.754	407.19
342.981	414.19
343.209	429.19
343.437	444.19
343.665	438.19
343.893	455.19
344.12	465.19
344.348	473.19
344.576	453.19
344.804	435.19
345.031	437.19
345.259	425.19
345.487	428.19
345.714	417.19
345.942	410.19
346.17	405.19
346.397	400.19
346.625	430.19
346.853	390.19
347.08	424.19
347.308	404.19
347.535	425.19
347.763	445.19
347.99	395.19
348.218	402.19
348.445	416.19
348.673	406.19
348.9	409.19
349.128	407.19
349.355	389.19
349.583	410.19
349.81	390.19
350.037	379.19
350.265	399.19
350.492	388.19
350.72	384.19
350.947	411.19
351.174	398.19
351.402	400.19
351.629	399.19
351.856	408.19
352.083	397.19
352.311	408.19
352.538	398.19
352.765	406.19
352.992	401.19
353.22	390.19
353.447	399.19
353.674	412.19
353.901	395.19
354.128	419.19
354.355	390.19
354.583	402.19
354.81	387.19
355.037	405.19
355.264	383.19
355.491	381.19
355.718	393.19
355.945	391.19
356.172	402.19
356.399	389.19
356.626	387.19
356.853	384.19
357.08	402.19
357.307	381.19
357.534	401.19
357.761	395.19
357.988	388.19
358.215	396.19
358.441	408.19
358.668	389.19
358.895	395.19
359.122	414.19
359.349	392.19
359.576	386.19
359.802	412.19
360.029	447.19
360.256	425.19
360.483	414.19
360.709	416.19
360.936	428.19
361.163	394.19
361.39	408.19
361.616	416.19
361.843	398.19
362.07	420.19
362.296	390.19
362.523	393.19
362.749	404.19
362.976	388.19
363.203	407.19
363.429	392.19
363.656	396.19
363.882	403.19
364.109	395.19
364.335	401.19
364.562	389.19
364.788	371.19
365.015	402.19
365.241	404.19
365.468	413.19
365.694	406.19
365.92	392.19
366.147	386.19
366.373	403.19
366.599	418.19
366.826	411.19
367.052	384.19
367.278	410.19
367.505	400.19
367.731	420.19
367.957	406.19
368.184	406.19
368.41	405.19
368.636	400.19
368.862	434.19
369.089	394.19
369.315	405.19
369.541	420.19
369.767	399.19
369.993	404.19
370.219	394.19
370.445	417.19
370.672	386.19
370.898	409.19
371.124	421.19
371.35	418.19
371.576	411.19
371.802	440.19
372.028	409.19
372.254	415.19
372.48	425.19
372.706	426.19
372.932	431.19
373.158	420.19
373.384	438.19
373.61	412.19
373.835	418.19
374.061	414.19
374.287	418.19
374.513	432.19
374.739	434.19
374.965	434.19
375.191	428.19
375.416	440.19
375.642	433.19
375.868	424.19
376.094	438.19
376.319	421.19
376.545	414.19
376.771	419.19
376.997	405.19
377.222	400.19
377.448	406.19
377.674	435.19
377.899	418.19
378.125	411.19
378.35	426.19
378.576	420.19
378.802	393.19
379.027	412.19
379.253	432.19
379.478	400.19
379.704	422.19
379.929	409.19
380.155	419.19
380.38	410.19
380.606	422.19
380.831	406.19
381.057	422.19
381.282	411.19
381.507	420.19
381.733	422.19
381.958	432.19
382.184	431.19
382.409	450.19
382.634	424.19
382.86	432.19
383.085	452.19
383.31	452.19
383.535	464.19
383.761	438.19
383.986	455.19
384.211	432.19
384.436	445.19
384.662	478.19
384.887	461.19
385.112	470.19
385.337	480.19
385.562	486.19
385.787	471.19
386.013	507.19
386.238	472.19
386.463	480.19
386.688	485.19
386.913	462.19
387.138	483.19
387.363	505.19
387.588	481.19
387.813	473.19
388.038	475.19
388.263	484.19
388.488	492.19
388.713	464.19
388.938	475.19
389.163	483.19
389.387	469.19
389.612	503.19
389.837	475.19
390.062	465.19
390.287	468.19
390.512	471.19
390.736	482.19
390.961	484.19
391.186	503.19
391.411	493.19
391.636	503.19
391.86	495.19
392.085	506.19
392.31	515.19
392.534	523.19
392.759	484.19
392.984	479.19
393.208	502.19
393.433	510.19
393.658	514.19
393.882	498.19
394.107	492.19
394.331	505.19
394.556	515.19
394.78	497.19
395.005	480.19
395.229	480.19
395.454	482.19
395.678	506.19
395.903	493.19
396.127	509.19
396.352	515.19
396.576	489.19
396.801	487.19
397.025	506.19
397.249	535.19
397.474	530.19
397.698	545.19
397.922	506.19
398.147	504.19
398.371	541.19
398.595	528.19
398.82	558.19
399.044	589.19
399.268	625.19
399.492	657.19
399.717	763.19
399.941	759.19
400.165	710.19
400.389	667.19
400.613	624.19
400.837	588.19
401.062	571.19
401.286	559.19
401.51	567.19
401.734	556.19
401.958	552.19
402.182	569.19
402.406	565.19
402.63	582.19
402.854	567.19
403.078	587.19
403.302	587.19
403.526	595.19
403.75	615.19
403.974	622.19
404.198	618.19
404.422	628.19
404.645	634.19
404.869	622.19
405.093	629.19
405.317	666.19
405.541	666.19
405.765	633.19
405.988	628.19
406.212	600.19
406.436	646.19
406.66	636.19
406.883	626.19
407.107	675.19
407.331	700.19
407.555	737.19
407.778	746.19
408.002	689.19
408.226	649.19
408.449	650.19
408.673	649.19
408.896	628.19
409.12	664.19
409.344	633.19
409.567	591.19
409.791	574.19
410.014	586.19
410.238	613.19
410.461	588.19
410.685	596.19
410.908	583.19
411.132	611.19
411.355	615.19
411.578	601.19
411.802	575.19
412.025	572.19
412.249	593.19
412.472	602.19
412.695	652.19
412.919	607.19
413.142	588.19
413.365	574.19
413.589	566.19
413.812	535.19
414.035	553.19
414.258	530.19
414.482	551.19
414.705	554.19
414.928	579.19
415.151	552.19
415.374	583.19
415.597	564.19
415.821	564.19
416.044	551.19
416.267	536.19
416.49	528.19
416.713	540.19
416.936	548.19
417.159	539.19
417.382	526.19
417.605	554.19
417.828	572.19
418.051	561.19
418.274	532.19
418.497	552.19
418.72	543.19
418.943	581.19
419.166	568.19
419.389	606.19
419.611	611.19
419.834	558.19
420.057	576.19
420.28	568.19
420.503	570.19
420.726	565.19
420.948	575.19
421.171	586.19
421.394	592.19
421.617	582.19
421.839	558.19
422.062	578.19
422.285	568.19
422.507	585.19
422.73	649.19
422.953	631.19
423.175	615.19
423.398	586.19
423.621	564.19
423.843	606.19
424.066	595.19
424.288	610.19
424.511	599.19
424.733	637.19
424.956	640.19
425.178	618.19
425.401	622.19
425.623	640.19
425.846	600.19
426.068	553.19
426.291	542.19
426.513	530.19
426.735	562.19
426.958	577.19
427.18	610.19
427.402	674.19
427.625	715.19
427.847	652.19
428.069	627.19
428.292	587.19
428.514	544.19
428.736	520.19
428.958	535.19
429.181	516.19
429.403	499.19
429.625	505.19
429.847	522.19
430.069	544.19
430.292	560.19
430.514	518.19
430.736	532.19
430.958	520.19
431.18	512.19
431.402	521.19
431.624	493.19
431.846	492.19
432.068	518.19
432.29	507.19
432.512	506.19
432.734	528.19
432.956	517.19
433.178	511.19
433.4	528.19
433.622	512.19
433.844	507.19
434.066	498.19
434.287	498.19
434.509	508.19
434.731	545.19
434.953	559.19
435.175	549.19
435.397	565.19
435.618	546.19
435.84	565.19
436.062	581.19
436.284	635.19
436.505	567.19
436.727	520.19
436.949	520.19
437.17	518.19
437.392	505.19
437.614	518.19
437.835	531.19
438.057	607.19
438.278	640.19
438.5	630.19
438.721	670.19
438.943	647.19
439.165	552.19
439.386	536.19
439.608	544.19
439.829	533.19
440.05	560.19
440.272	563.19
440.493	545.19
440.715	523.19
440.936	514.19
441.158	514.19
441.379	542.19
441.6	575.19
441.822	563.19
442.043	604.19
442.264	609.19
442.486	642.19
442.707	590.19
442.928	560.19
443.149	565.19
443.371	590.19
443.592	609.19
443.813	649.19
444.034	668.19
444.255	634.19
444.476	616.19
444.698	620.19
444.919	602.19
445.14	674.19
445.361	624.19
445.582	606.19
445.803	628.19
446.024	647.19
446.245	625.19
446.466	602.19
446.687	564.19
446.908	540.19
447.129	515.19
447.35	494.19
447.571	500.19
447.792	495.19
448.013	503.19
448.234	487.19
448.455	537.19
448.675	590.19
448.896	629.19
449.117	568.19
449.338	563.19
449.559	618.19
449.779	647.19
450	554.19
450.221	498.19
450.442	472.19
450.662	479.19
450.883	456.19
451.104	487.19
451.324	471.19
451.545	469.19
451.766	446.19
451.986	453.19
452.207	436.19
452.428	448.19
452.648	454.19
452.869	460.19
453.089	430.19
453.31	464.19
453.53	440.19
453.751	449.19
453.971	446.19
454.192	439.19
454.412	440.19
454.633	427.19
454.853	445.19
455.073	436.19
455.294	455.19
455.514	494.19
455.734	470.19
455.955	440.19
456.175	433.19
456.395	424.19
456.616	434.19
456.836	420.19
457.056	420.19
457.276	410.19
457.497	448.19
457.717	420.19
457.937	442.19
458.157	440.19
458.377	444.19
458.598	447.19
458.818	499.19
459.038	533.19
459.258	540.19
459.478	508.19
459.698	492.19
459.918	520.19
460.138	510.19
460.358	534.19
460.578	536.19
460.798	556.19
461.018	539.19
461.238	533.19
461.458	544.19
461.678	538.19
461.898	537.19
462.118	552.19
462.338	572.19
462.558	569.19
462.777	577.19
462.997	626.19
463.217	661.19
463.437	656.19
463.657	621.19
463.876	601.19
464.096	585.19
464.316	613.19
464.536	611.19
464.755	589.19
464.975	571.19
465.195	566.19
465.414	584.19
465.634	542.19
465.854	518.19
466.073	499.19
466.293	505.19
466.512	486.19
466.732	496.19
466.951	453.19
467.171	451.19
467.391	483.19
467.61	474.19
467.829	465.19
468.049	473.19
468.268	479.19
468.488	465.19
468.707	454.19
468.927	444.19
469.146	434.19
469.365	474.19
469.585	466.19
469.804	469.19
470.023	497.19
470.243	517.19
470.462	495.19
470.681	500.19
470.901	474.19
471.12	477.19
471.339	496.19
471.558	486.19
471.777	470.19
471.997	464.19
472.216	456.19
472.435	454.19
472.654	471.19
472.873	466.19
473.092	452.19
473.311	463.19
473.53	464.19
473.749	447.19
473.968	488.19
474.187	534.19
474.406	523.19
474.625	496.19
474.844	474.19
475.063	462.19
475.282	482.19
475.501	486.19
475.72	459.19
475.939	498.19
476.158	480.19
476.377	474.19
476.596	494.19
476.814	495.19
477.033	499.19
477.252	504.19
477.471	504.19
477.69	522.19
477.908	526.19
478.127	508.19
478.346	537.19
478.564	519.19
478.783	537.19
479.002	549.19
479.22	559.19
479.439	555.19
479.658	587.19
479.876	560.19
480.095	570.19
480.313	613.19
480.532	606.19
480.751	613.19
480.969	583.19
481.188	609.19
481.406	612.19
481.624	570.19
481.843	546.19
482.061	539.19
482.28	524.19
482.498	515.19
482.717	524.19
482.935	524.19
483.153	527.19
483.372	550.19
483.59	547.19
483.808	532.19
484.027	522.19
484.245	550.19
484.463	518.19
484.681	556.19
484.9	544.19
485.118	571.19
485.336	545.19
485.554	546.19
485.772	564.19
485.99	558.19
486.209	568.19
486.427	556.19
486.645	566.19
486.863	573.19
487.081	585.19
487.299	584.19
487.517	583.19
487.735	561.19
487.953	576.19
488.171	570.19
488.389	570.19
488.607	575.19
488.825	567.19
489.043	560.19
489.261	559.19
489.479	561.19
489.696	579.19
489.914	554.19
490.132	562.19
490.35	564.19
490.568	571.19
490.786	590.19
491.003	580.19
491.221	604.19
491.439	612.19
491.657	640.19
491.874	633.19
492.092	638.19
492.31	630.19
492.527	648.19
492.745	626.19
492.963	627.19
493.18	636.19
493.398	636.19
493.615	660.19
493.833	658.19
494.05	647.19
494.268	691.19
494.485	634.19
494.703	639.19
494.92	647.19
495.138	647.19
495.355	663.19
495.573	640.19
495.79	644.19
496.008	652.19
496.225	660.19
496.442	639.19
496.66	664.19
496.877	659.19
497.094	648.19
497.312	673.19
497.529	676.19
497.746	703.19
497.963	738.19
498.181	729.19
498.398	727.19
498.615	764.19
498.832	824.19
499.049	819.19
499.267	900.19
499.484	935.19
499.701	992.19
499.918	1102.19
500.135	1209.19
500.352	1271.19
500.569	1312.19
500.786	1318.19
501.003	1262.19
501.22	1156.19
501.437	1071.19
501.654	974.19
501.871	957.19
