Data from 1960PennyLincolnUp.LampE5.5.200Scan.07172019.P1.ChangedAngle_HRD10591_13-14-35-822.txt Node
Date: Thu Jul 18 13:14:35 EDT 2019
User: cochatt
Spectrometer: HR+D1059
Trigger mode: 1
Integration Time (sec): 1.000000E-1
Scans to average: 1
Electric dark correction enabled: true
Nonlinearity correction enabled: false
Boxcar width: 0
XAxis mode: Wavelengths
Number of Pixels in Spectrum: 2048
>>>>>Begin Spectral Data<<<<<
223.165	9.5
223.4	9.5
223.635	9.5
223.869	-30.5
224.104	-31.5
224.338	-12.5
224.573	-17.5
224.808	-12.5
225.042	-13.5
225.277	-8.5
225.511	-6.5
225.746	-5.5
225.98	12.5
226.215	25.5
226.449	7.5
226.683	17.5
226.918	27.5
227.152	38.5
227.387	37.5
227.621	48.5
227.856	29.5
228.09	47.5
228.324	47.5
228.559	50.5
228.793	65.5
229.027	80.5
229.262	81.5
229.496	78.5
229.73	103.5
229.964	110.5
230.199	113.5
230.433	101.5
230.667	103.5
230.901	108.5
231.136	98.5
231.37	78.5
231.604	120.5
231.838	100.5
232.072	84.5
232.306	105.5
232.541	108.5
232.775	103.5
233.009	111.5
233.243	99.5
233.477	114.5
233.711	107.5
233.945	102.5
234.179	113.5
234.413	105.5
234.647	94.5
234.881	113.5
235.115	105.5
235.349	116.5
235.583	113.5
235.817	113.5
236.051	112.5
236.285	111.5
236.519	117.5
236.753	120.5
236.987	109.5
237.221	138.5
237.455	159.5
237.689	146.5
237.922	113.5
238.156	125.5
238.39	110.5
238.624	114.5
238.858	102.5
239.091	101.5
239.325	116.5
239.559	125.5
239.793	135.5
240.027	108.5
240.26	119.5
240.494	127.5
240.728	118.5
240.961	126.5
241.195	141.5
241.429	126.5
241.662	122.5
241.896	125.5
242.13	117.5
242.363	109.5
242.597	113.5
242.83	108.5
243.064	128.5
243.298	133.5
243.531	126.5
243.765	121.5
243.998	134.5
244.232	121.5
244.465	128.5
244.699	125.5
244.932	139.5
245.166	132.5
245.399	133.5
245.633	123.5
245.866	145.5
246.099	137.5
246.333	145.5
246.566	131.5
246.8	139.5
247.033	140.5
247.266	124.5
247.5	155.5
247.733	156.5
247.966	151.5
248.2	149.5
248.433	158.5
248.666	157.5
248.899	163.5
249.133	171.5
249.366	175.5
249.599	176.5
249.832	150.5
250.066	161.5
250.299	164.5
250.532	171.5
250.765	181.5
250.998	171.5
251.231	181.5
251.465	189.5
251.698	182.5
251.931	162.5
252.164	172.5
252.397	166.5
252.63	161.5
252.863	176.5
253.096	174.5
253.329	196.5
253.562	182.5
253.795	190.5
254.028	172.5
254.261	184.5
254.494	196.5
254.727	208.5
254.96	212.5
255.193	213.5
255.426	203.5
255.659	197.5
255.892	199.5
256.124	189.5
256.357	195.5
256.59	203.5
256.823	187.5
257.056	192.5
257.289	174.5
257.521	190.5
257.754	180.5
257.987	188.5
258.22	197.5
258.452	185.5
258.685	188.5
258.918	188.5
259.151	183.5
259.383	204.5
259.616	197.5
259.849	194.5
260.081	211.5
260.314	217.5
260.547	203.5
260.779	216.5
261.012	209.5
261.244	208.5
261.477	195.5
261.71	186.5
261.942	201.5
262.175	205.5
262.407	187.5
262.64	179.5
262.872	194.5
263.105	199.5
263.337	195.5
263.57	199.5
263.802	183.5
264.035	200.5
264.267	193.5
264.499	201.5
264.732	187.5
264.964	185.5
265.197	197.5
265.429	200.5
265.661	211.5
265.894	209.5
266.126	199.5
266.358	194.5
266.591	195.5
266.823	226.5
267.055	203.5
267.287	214.5
267.52	218.5
267.752	207.5
267.984	217.5
268.216	222.5
268.448	215.5
268.681	226.5
268.913	220.5
269.145	239.5
269.377	243.5
269.609	235.5
269.841	249.5
270.073	220.5
270.306	257.5
270.538	263.5
270.77	273.5
271.002	259.5
271.234	276.5
271.466	235.5
271.698	259.5
271.93	273.5
272.162	283.5
272.394	266.5
272.626	258.5
272.858	246.5
273.09	245.5
273.322	262.5
273.553	234.5
273.785	238.5
274.017	230.5
274.249	250.5
274.481	238.5
274.713	245.5
274.945	268.5
275.176	247.5
275.408	251.5
275.64	245.5
275.872	242.5
276.104	232.5
276.335	250.5
276.567	260.5
276.799	255.5
277.031	265.5
277.262	249.5
277.494	267.5
277.726	279.5
277.957	256.5
278.189	271.5
278.421	247.5
278.652	239.5
278.884	250.5
279.115	259.5
279.347	258.5
279.579	253.5
279.81	257.5
280.042	247.5
280.273	253.5
280.505	252.5
280.736	261.5
280.968	264.5
281.199	242.5
281.431	259.5
281.662	245.5
281.894	241.5
282.125	253.5
282.356	259.5
282.588	283.5
282.819	279.5
283.051	254.5
283.282	290.5
283.513	274.5
283.745	255.5
283.976	271.5
284.207	269.5
284.439	264.5
284.67	279.5
284.901	256.5
285.132	271.5
285.364	277.5
285.595	246.5
285.826	269.5
286.057	270.5
286.288	268.5
286.52	276.5
286.751	259.5
286.982	284.5
287.213	255.5
287.444	254.5
287.675	284.5
287.906	273.5
288.138	291.5
288.369	293.5
288.6	290.5
288.831	284.5
289.062	257.5
289.293	282.5
289.524	271.5
289.755	282.5
289.986	304.5
290.217	278.5
290.448	269.5
290.679	272.5
290.91	271.5
291.141	272.5
291.371	285.5
291.602	271.5
291.833	271.5
292.064	310.5
292.295	297.5
292.526	279.5
292.757	294.5
292.987	269.5
293.218	269.5
293.449	268.5
293.68	285.5
293.91	272.5
294.141	295.5
294.372	281.5
294.603	273.5
294.833	301.5
295.064	280.5
295.295	280.5
295.525	276.5
295.756	291.5
295.987	307.5
296.217	323.5
296.448	299.5
296.679	301.5
296.909	289.5
297.14	298.5
297.37	296.5
297.601	293.5
297.831	277.5
298.062	303.5
298.292	269.5
298.523	282.5
298.753	306.5
298.984	276.5
299.214	285.5
299.445	299.5
299.675	284.5
299.905	309.5
300.136	283.5
300.366	303.5
300.597	291.5
300.827	307.5
301.057	302.5
301.288	303.5
301.518	301.5
301.748	308.5
301.979	319.5
302.209	313.5
302.439	323.5
302.669	308.5
302.9	285.5
303.13	299.5
303.36	322.5
303.59	328.5
303.82	306.5
304.051	314.5
304.281	334.5
304.511	326.5
304.741	307.5
304.971	307.5
305.201	322.5
305.431	322.5
305.661	304.5
305.891	325.5
306.121	337.5
306.352	316.5
306.582	329.5
306.812	310.5
307.042	316.5
307.272	306.5
307.502	300.5
307.731	307.5
307.961	333.5
308.191	316.5
308.421	331.5
308.651	307.5
308.881	336.5
309.111	319.5
309.341	325.5
309.571	335.5
309.8	328.5
310.03	330.5
310.26	338.5
310.49	357.5
310.72	338.5
310.949	359.5
311.179	345.5
311.409	347.5
311.639	351.5
311.868	348.5
312.098	344.5
312.328	343.5
312.557	346.5
312.787	355.5
313.017	375.5
313.246	343.5
313.476	331.5
313.706	349.5
313.935	350.5
314.165	365.5
314.394	352.5
314.624	374.5
314.853	371.5
315.083	373.5
315.312	357.5
315.542	340.5
315.771	347.5
316.001	358.5
316.23	335.5
316.46	350.5
316.689	354.5
316.919	359.5
317.148	357.5
317.377	358.5
317.607	346.5
317.836	360.5
318.065	360.5
318.295	371.5
318.524	370.5
318.753	360.5
318.983	353.5
319.212	367.5
319.441	365.5
319.67	344.5
319.9	355.5
320.129	354.5
320.358	347.5
320.587	342.5
320.816	370.5
321.046	366.5
321.275	365.5
321.504	327.5
321.733	349.5
321.962	371.5
322.191	376.5
322.42	395.5
322.649	404.5
322.878	392.5
323.108	405.5
323.337	394.5
323.566	400.5
323.795	430.5
324.024	460.5
324.253	532.5
324.482	679.5
324.71	990.5
324.939	1285.5
325.168	1093.5
325.397	643.5
325.626	482.5
325.855	448.5
326.084	419.5
326.313	438.5
326.542	419.5
326.77	435.5
326.999	490.5
327.228	634.5
327.457	896.5
327.686	982.5
327.914	720.5
328.143	540.5
328.372	456.5
328.6	453.5
328.829	441.5
329.058	440.5
329.287	465.5
329.515	429.5
329.744	417.5
329.972	426.5
330.201	437.5
330.43	449.5
330.658	459.5
330.887	448.5
331.115	463.5
331.344	445.5
331.572	429.5
331.801	440.5
332.03	395.5
332.258	398.5
332.486	413.5
332.715	437.5
332.943	407.5
333.172	410.5
333.4	434.5
333.629	411.5
333.857	439.5
334.085	437.5
334.314	459.5
334.542	467.5
334.771	483.5
334.999	457.5
335.227	444.5
335.455	437.5
335.684	425.5
335.912	434.5
336.14	405.5
336.369	406.5
336.597	398.5
336.825	419.5
337.053	411.5
337.281	387.5
337.51	367.5
337.738	409.5
337.966	418.5
338.194	415.5
338.422	394.5
338.65	401.5
338.878	389.5
339.106	394.5
339.334	396.5
339.562	382.5
339.79	397.5
340.018	409.5
340.246	386.5
340.474	403.5
340.702	399.5
340.93	385.5
341.158	402.5
341.386	390.5
341.614	373.5
341.842	393.5
342.07	394.5
342.298	379.5
342.526	382.5
342.754	384.5
342.981	377.5
343.209	387.5
343.437	399.5
343.665	388.5
343.893	408.5
344.12	415.5
344.348	408.5
344.576	395.5
344.804	393.5
345.031	405.5
345.259	409.5
345.487	409.5
345.714	373.5
345.942	361.5
346.17	361.5
346.397	392.5
346.625	366.5
346.853	362.5
347.08	367.5
347.308	388.5
347.535	383.5
347.763	400.5
347.99	369.5
348.218	397.5
348.445	388.5
348.673	379.5
348.9	377.5
349.128	364.5
349.355	375.5
349.583	364.5
349.81	364.5
350.037	362.5
350.265	391.5
350.492	387.5
350.72	358.5
350.947	378.5
351.174	363.5
351.402	388.5
351.629	387.5
351.856	349.5
352.083	369.5
352.311	383.5
352.538	357.5
352.765	376.5
352.992	375.5
353.22	395.5
353.447	350.5
353.674	357.5
353.901	357.5
354.128	359.5
354.355	362.5
354.583	342.5
354.81	355.5
355.037	348.5
355.264	363.5
355.491	359.5
355.718	330.5
355.945	338.5
356.172	355.5
356.399	363.5
356.626	354.5
356.853	350.5
357.08	371.5
357.307	362.5
357.534	356.5
357.761	359.5
357.988	335.5
358.215	349.5
358.441	348.5
358.668	345.5
358.895	351.5
359.122	358.5
359.349	361.5
359.576	363.5
359.802	367.5
360.029	373.5
360.256	384.5
360.483	363.5
360.709	361.5
360.936	357.5
361.163	357.5
361.39	358.5
361.616	360.5
361.843	369.5
362.07	373.5
362.296	355.5
362.523	365.5
362.749	375.5
362.976	351.5
363.203	364.5
363.429	357.5
363.656	347.5
363.882	341.5
364.109	346.5
364.335	357.5
364.562	341.5
364.788	341.5
365.015	348.5
365.241	349.5
365.468	347.5
365.694	346.5
365.92	355.5
366.147	350.5
366.373	355.5
366.599	337.5
366.826	361.5
367.052	339.5
367.278	353.5
367.505	338.5
367.731	347.5
367.957	344.5
368.184	339.5
368.41	356.5
368.636	365.5
368.862	364.5
369.089	358.5
369.315	346.5
369.541	345.5
369.767	345.5
369.993	355.5
370.219	361.5
370.445	347.5
370.672	359.5
370.898	363.5
371.124	350.5
371.35	347.5
371.576	348.5
371.802	353.5
372.028	349.5
372.254	359.5
372.48	361.5
372.706	359.5
372.932	345.5
373.158	354.5
373.384	365.5
373.61	346.5
373.835	357.5
374.061	361.5
374.287	336.5
374.513	365.5
374.739	367.5
374.965	362.5
375.191	353.5
375.416	350.5
375.642	351.5
375.868	363.5
376.094	371.5
376.319	354.5
376.545	345.5
376.771	346.5
376.997	335.5
377.222	344.5
377.448	338.5
377.674	350.5
377.899	345.5
378.125	348.5
378.35	337.5
378.576	344.5
378.802	348.5
379.027	361.5
379.253	353.5
379.478	333.5
379.704	361.5
379.929	347.5
380.155	337.5
380.38	347.5
380.606	331.5
380.831	348.5
381.057	345.5
381.282	341.5
381.507	342.5
381.733	355.5
381.958	355.5
382.184	363.5
382.409	351.5
382.634	342.5
382.86	346.5
383.085	355.5
383.31	367.5
383.535	364.5
383.761	344.5
383.986	354.5
384.211	353.5
384.436	372.5
384.662	368.5
384.887	369.5
385.112	367.5
385.337	369.5
385.562	381.5
385.787	371.5
386.013	378.5
386.238	409.5
386.463	375.5
386.688	374.5
386.913	375.5
387.138	365.5
387.363	382.5
387.588	359.5
387.813	370.5
388.038	374.5
388.263	391.5
388.488	390.5
388.713	375.5
388.938	370.5
389.163	363.5
389.387	369.5
389.612	382.5
389.837	370.5
390.062	373.5
390.287	393.5
390.512	376.5
390.736	381.5
390.961	372.5
391.186	385.5
391.411	374.5
391.636	396.5
391.86	387.5
392.085	379.5
392.31	392.5
392.534	369.5
392.759	397.5
392.984	375.5
393.208	371.5
393.433	376.5
393.658	367.5
393.882	370.5
394.107	375.5
394.331	356.5
394.556	374.5
394.78	388.5
395.005	368.5
395.229	370.5
395.454	377.5
395.678	383.5
395.903	391.5
396.127	411.5
396.352	409.5
396.576	396.5
396.801	372.5
397.025	395.5
397.249	397.5
397.474	398.5
397.698	396.5
397.922	409.5
398.147	408.5
398.371	402.5
398.595	420.5
398.82	406.5
399.044	427.5
399.268	454.5
399.492	462.5
399.717	511.5
399.941	494.5
400.165	534.5
400.389	506.5
400.613	460.5
400.837	433.5
401.062	442.5
401.286	437.5
401.51	420.5
401.734	426.5
401.958	411.5
402.182	417.5
402.406	437.5
402.63	414.5
402.854	429.5
403.078	433.5
403.302	412.5
403.526	419.5
403.75	431.5
403.974	435.5
404.198	424.5
404.422	433.5
404.645	432.5
404.869	429.5
405.093	467.5
405.317	461.5
405.541	501.5
405.765	469.5
405.988	469.5
406.212	460.5
406.436	474.5
406.66	459.5
406.883	447.5
407.107	505.5
407.331	498.5
407.555	551.5
407.778	527.5
408.002	517.5
408.226	481.5
408.449	466.5
408.673	459.5
408.896	457.5
409.12	505.5
409.344	467.5
409.567	463.5
409.791	418.5
410.014	446.5
410.238	420.5
410.461	406.5
410.685	426.5
410.908	439.5
411.132	451.5
411.355	461.5
411.578	474.5
411.802	421.5
412.025	435.5
412.249	435.5
412.472	450.5
412.695	455.5
412.919	454.5
413.142	410.5
413.365	417.5
413.589	409.5
413.812	412.5
414.035	401.5
414.258	414.5
414.482	419.5
414.705	403.5
414.928	409.5
415.151	405.5
415.374	419.5
415.597	403.5
415.821	393.5
416.044	396.5
416.267	402.5
416.49	406.5
416.713	401.5
416.936	403.5
417.159	391.5
417.382	398.5
417.605	398.5
417.828	405.5
418.051	414.5
418.274	384.5
418.497	393.5
418.72	395.5
418.943	413.5
419.166	436.5
419.389	424.5
419.611	418.5
419.834	415.5
420.057	425.5
420.28	420.5
420.503	401.5
420.726	412.5
420.948	403.5
421.171	430.5
421.394	457.5
421.617	432.5
421.839	413.5
422.062	436.5
422.285	424.5
422.507	466.5
422.73	484.5
422.953	467.5
423.175	452.5
423.398	419.5
423.621	435.5
423.843	435.5
424.066	446.5
424.288	434.5
424.511	444.5
424.733	474.5
424.956	497.5
425.178	482.5
425.401	499.5
425.623	514.5
425.846	455.5
426.068	408.5
426.291	421.5
426.513	431.5
426.735	417.5
426.958	433.5
427.18	491.5
427.402	571.5
427.625	644.5
427.847	548.5
428.069	457.5
428.292	430.5
428.514	410.5
428.736	407.5
428.958	405.5
429.181	391.5
429.403	395.5
429.625	406.5
429.847	422.5
430.069	456.5
430.292	436.5
430.514	417.5
430.736	390.5
430.958	378.5
431.18	371.5
431.402	379.5
431.624	362.5
431.846	370.5
432.068	382.5
432.29	370.5
432.512	370.5
432.734	387.5
432.956	372.5
433.178	387.5
433.4	397.5
433.622	393.5
433.844	381.5
434.066	394.5
434.287	383.5
434.509	378.5
434.731	391.5
434.953	402.5
435.175	391.5
435.397	391.5
435.618	410.5
435.84	452.5
436.062	487.5
436.284	535.5
436.505	445.5
436.727	423.5
436.949	405.5
437.17	394.5
437.392	408.5
437.614	389.5
437.835	433.5
438.057	463.5
438.278	512.5
438.5	540.5
438.721	581.5
438.943	542.5
439.165	452.5
439.386	446.5
439.608	419.5
439.829	418.5
440.05	438.5
440.272	465.5
440.493	446.5
440.715	419.5
440.936	389.5
441.158	397.5
441.379	392.5
441.6	391.5
441.822	417.5
442.043	430.5
442.264	499.5
442.486	500.5
442.707	438.5
442.928	421.5
443.149	433.5
443.371	461.5
443.592	461.5
443.813	548.5
444.034	538.5
444.255	462.5
444.476	437.5
444.698	418.5
444.919	425.5
445.14	560.5
445.361	482.5
445.582	468.5
445.803	481.5
446.024	527.5
446.245	545.5
446.466	477.5
446.687	445.5
446.908	418.5
447.129	411.5
447.35	407.5
447.571	387.5
447.792	396.5
448.013	383.5
448.234	400.5
448.455	429.5
448.675	494.5
448.896	564.5
449.117	501.5
449.338	470.5
449.559	510.5
449.779	596.5
450	479.5
450.221	421.5
450.442	399.5
450.662	385.5
450.883	381.5
451.104	365.5
451.324	383.5
451.545	387.5
451.766	360.5
451.986	354.5
452.207	331.5
452.428	362.5
452.648	347.5
452.869	347.5
453.089	329.5
453.31	366.5
453.53	353.5
453.751	360.5
453.971	350.5
454.192	363.5
454.412	355.5
454.633	347.5
454.853	341.5
455.073	345.5
455.294	360.5
455.514	391.5
455.734	373.5
455.955	357.5
456.175	361.5
456.395	328.5
456.616	331.5
456.836	328.5
457.056	334.5
457.276	324.5
457.497	349.5
457.717	331.5
457.937	348.5
458.157	350.5
458.377	357.5
458.598	363.5
458.818	389.5
459.038	423.5
459.258	425.5
459.478	383.5
459.698	377.5
459.918	367.5
460.138	368.5
460.358	385.5
460.578	383.5
460.798	389.5
461.018	402.5
461.238	387.5
461.458	381.5
461.678	386.5
461.898	380.5
462.118	394.5
462.338	392.5
462.558	398.5
462.777	417.5
462.997	436.5
463.217	441.5
463.437	440.5
463.657	418.5
463.876	413.5
464.096	422.5
464.316	411.5
464.536	409.5
464.755	403.5
464.975	414.5
465.195	413.5
465.414	447.5
465.634	412.5
465.854	410.5
466.073	395.5
466.293	364.5
466.512	371.5
466.732	368.5
466.951	382.5
467.171	353.5
467.391	375.5
467.61	369.5
467.829	368.5
468.049	372.5
468.268	369.5
468.488	359.5
468.707	357.5
468.927	367.5
469.146	364.5
469.365	357.5
469.585	345.5
469.804	365.5
470.023	351.5
470.243	365.5
470.462	361.5
470.681	363.5
470.901	364.5
471.12	373.5
471.339	380.5
471.558	363.5
471.777	393.5
471.997	367.5
472.216	376.5
472.435	408.5
472.654	369.5
472.873	366.5
473.092	383.5
473.311	357.5
473.53	369.5
473.749	378.5
473.968	379.5
474.187	424.5
474.406	482.5
474.625	394.5
474.844	387.5
475.063	361.5
475.282	378.5
475.501	365.5
475.72	379.5
475.939	360.5
476.158	379.5
476.377	383.5
476.596	368.5
476.814	380.5
477.033	396.5
477.252	376.5
477.471	395.5
477.69	405.5
477.908	381.5
478.127	412.5
478.346	393.5
478.564	410.5
478.783	418.5
479.002	405.5
479.22	417.5
479.439	435.5
479.658	443.5
479.876	437.5
480.095	430.5
480.313	442.5
480.532	466.5
480.751	452.5
480.969	434.5
481.188	474.5
481.406	474.5
481.624	450.5
481.843	453.5
482.061	437.5
482.28	418.5
482.498	429.5
482.717	414.5
482.935	452.5
483.153	432.5
483.372	417.5
483.59	428.5
483.808	442.5
484.027	434.5
484.245	441.5
484.463	421.5
484.681	435.5
484.9	433.5
485.118	412.5
485.336	447.5
485.554	441.5
485.772	451.5
485.99	428.5
486.209	446.5
486.427	434.5
486.645	457.5
486.863	444.5
487.081	450.5
487.299	436.5
487.517	444.5
487.735	425.5
487.953	429.5
488.171	458.5
488.389	459.5
488.607	441.5
488.825	468.5
489.043	443.5
489.261	441.5
489.479	456.5
489.696	457.5
489.914	453.5
490.132	451.5
490.35	455.5
490.568	462.5
490.786	465.5
491.003	478.5
491.221	477.5
491.439	478.5
491.657	479.5
491.874	483.5
492.092	479.5
492.31	492.5
492.527	517.5
492.745	489.5
492.963	513.5
493.18	511.5
493.398	493.5
493.615	490.5
493.833	505.5
494.05	524.5
494.268	501.5
494.485	509.5
494.703	494.5
494.92	489.5
495.138	504.5
495.355	515.5
495.573	502.5
495.79	514.5
496.008	521.5
496.225	507.5
496.442	520.5
496.66	511.5
496.877	536.5
497.094	549.5
497.312	508.5
497.529	538.5
497.746	575.5
497.963	543.5
498.181	595.5
498.398	589.5
498.615	574.5
498.832	602.5
499.049	612.5
499.267	629.5
499.484	648.5
499.701	682.5
499.918	692.5
500.135	739.5
500.352	753.5
500.569	754.5
500.786	762.5
501.003	738.5
501.22	712.5
501.437	712.5
501.654	694.5
501.871	662.5
502.088	624.5
502.305	601.5
502.522	605.5
502.739	598.5
502.956	551.5
503.172	566.5
503.389	541.5
503.606	549.5
503.823	575.5
504.04	533.5
504.256	547.5
504.473	537.5
504.69	522.5
504.907	529.5
505.123	530.5
505.34	498.5
505.557	498.5
505.773	510.5
505.99	486.5
506.207	462.5
506.423	499.5
506.64	487.5
506.856	472.5
507.073	473.5
507.289	487.5
507.506	460.5
507.722	486.5
507.939	504.5
508.155	485.5
508.372	471.5
508.588	457.5
508.805	464.5
509.021	453.5
509.238	478.5
509.454	452.5
509.67	473.5
509.887	437.5
510.103	462.5
510.319	473.5
510.536	515.5
510.752	723.5
510.968	592.5
511.184	467.5
511.401	463.5
511.617	453.5
511.833	450.5
512.049	428.5
512.265	436.5
512.481	461.5
512.698	434.5
512.914	438.5
513.13	450.5
513.346	435.5
513.562	432.5
513.778	439.5
513.994	425.5
514.21	447.5
514.426	447.5
514.642	466.5
514.858	473.5
515.074	496.5
515.29	559.5
515.506	731.5
515.721	635.5
515.937	513.5
516.153	477.5
516.369	471.5
516.585	476.5
516.801	448.5
517.016	445.5
517.232	441.5
517.448	471.5
517.664	465.5
517.879	485.5
518.095	453.5
518.311	466.5
518.527	461.5
518.742	465.5
518.958	452.5
519.173	454.5
519.389	452.5
519.605	454.5
519.82	439.5
