Data from 1960PennyLincolnUp.LampE6.200Scan.07172019.P1_HRD10591_13-06-03-002.txt Node
Date: Thu Jul 18 13:06:03 EDT 2019
User: cochatt
Spectrometer: HR+D1059
Trigger mode: 1
Integration Time (sec): 1.000000E-1
Scans to average: 1
Electric dark correction enabled: true
Nonlinearity correction enabled: false
Boxcar width: 0
XAxis mode: Wavelengths
Number of Pixels in Spectrum: 2048
>>>>>Begin Spectral Data<<<<<
223.165	-8.81
223.4	-8.81
223.635	-8.81
223.869	-15.81
224.104	-19.81
224.338	-12.81
224.573	-21.81
224.808	-9.81
225.042	-2.81
225.277	-11.81
225.511	-1.81
225.746	-7.81
225.98	17.19
226.215	13.19
226.449	14.19
226.683	23.19
226.918	16.19
227.152	29.19
227.387	28.19
227.621	31.19
227.856	48.19
228.09	40.19
228.324	55.19
228.559	58.19
228.793	80.19
229.027	83.19
229.262	78.19
229.496	88.19
229.73	106.19
229.964	115.19
230.199	110.19
230.433	96.19
230.667	112.19
230.901	107.19
231.136	90.19
231.37	104.19
231.604	98.19
231.838	108.19
232.072	117.19
232.306	106.19
232.541	118.19
232.775	114.19
233.009	109.19
233.243	115.19
233.477	114.19
233.711	119.19
233.945	106.19
234.179	108.19
234.413	125.19
234.647	116.19
234.881	108.19
235.115	108.19
235.349	115.19
235.583	110.19
235.817	112.19
236.051	132.19
236.285	121.19
236.519	116.19
236.753	128.19
236.987	123.19
237.221	152.19
237.455	175.19
237.689	157.19
237.922	121.19
238.156	119.19
238.39	127.19
238.624	126.19
238.858	111.19
239.091	111.19
239.325	135.19
239.559	133.19
239.793	122.19
240.027	130.19
240.26	130.19
240.494	137.19
240.728	143.19
240.961	121.19
241.195	132.19
241.429	113.19
241.662	120.19
241.896	130.19
242.13	119.19
242.363	135.19
242.597	130.19
242.83	129.19
243.064	131.19
243.298	146.19
243.531	148.19
243.765	132.19
243.998	127.19
244.232	140.19
244.465	128.19
244.699	141.19
244.932	122.19
245.166	149.19
245.399	138.19
245.633	133.19
245.866	152.19
246.099	134.19
246.333	142.19
246.566	145.19
246.8	141.19
247.033	144.19
247.266	160.19
247.5	155.19
247.733	164.19
247.966	166.19
248.2	136.19
248.433	169.19
248.666	162.19
248.899	177.19
249.133	171.19
249.366	178.19
249.599	169.19
249.832	161.19
250.066	169.19
250.299	161.19
250.532	176.19
250.765	176.19
250.998	180.19
251.231	197.19
251.465	195.19
251.698	178.19
251.931	172.19
252.164	172.19
252.397	175.19
252.63	192.19
252.863	190.19
253.096	194.19
253.329	190.19
253.562	182.19
253.795	192.19
254.028	188.19
254.261	181.19
254.494	189.19
254.727	196.19
254.96	222.19
255.193	223.19
255.426	199.19
255.659	191.19
255.892	188.19
256.124	208.19
256.357	204.19
256.59	188.19
256.823	174.19
257.056	208.19
257.289	182.19
257.521	208.19
257.754	194.19
257.987	191.19
258.22	192.19
258.452	171.19
258.685	180.19
258.918	199.19
259.151	184.19
259.383	187.19
259.616	211.19
259.849	204.19
260.081	233.19
260.314	212.19
260.547	216.19
260.779	215.19
261.012	211.19
261.244	207.19
261.477	204.19
261.71	199.19
261.942	215.19
262.175	220.19
262.407	210.19
262.64	192.19
262.872	193.19
263.105	195.19
263.337	189.19
263.57	206.19
263.802	206.19
264.035	185.19
264.267	213.19
264.499	211.19
264.732	214.19
264.964	189.19
265.197	188.19
265.429	193.19
265.661	198.19
265.894	200.19
266.126	215.19
266.358	199.19
266.591	214.19
266.823	222.19
267.055	224.19
267.287	209.19
267.52	216.19
267.752	214.19
267.984	219.19
268.216	224.19
268.448	220.19
268.681	215.19
268.913	230.19
269.145	235.19
269.377	244.19
269.609	233.19
269.841	227.19
270.073	252.19
270.306	246.19
270.538	276.19
270.77	272.19
271.002	244.19
271.234	246.19
271.466	270.19
271.698	282.19
271.93	271.19
272.162	272.19
272.394	274.19
272.626	267.19
272.858	262.19
273.09	247.19
273.322	242.19
273.553	238.19
273.785	238.19
274.017	242.19
274.249	244.19
274.481	235.19
274.713	251.19
274.945	251.19
275.176	257.19
275.408	258.19
275.64	252.19
275.872	254.19
276.104	247.19
276.335	251.19
276.567	240.19
276.799	250.19
277.031	263.19
277.262	294.19
277.494	256.19
277.726	298.19
277.957	282.19
278.189	248.19
278.421	261.19
278.652	252.19
278.884	273.19
279.115	249.19
279.347	252.19
279.579	243.19
279.81	260.19
280.042	256.19
280.273	289.19
280.505	263.19
280.736	248.19
280.968	269.19
281.199	274.19
281.431	251.19
281.662	260.19
281.894	258.19
282.125	268.19
282.356	280.19
282.588	275.19
282.819	279.19
283.051	282.19
283.282	263.19
283.513	261.19
283.745	292.19
283.976	256.19
284.207	276.19
284.439	278.19
284.67	288.19
284.901	289.19
285.132	269.19
285.364	296.19
285.595	262.19
285.826	279.19
286.057	279.19
286.288	282.19
286.52	279.19
286.751	286.19
286.982	275.19
287.213	261.19
287.444	285.19
287.675	274.19
287.906	302.19
288.138	295.19
288.369	306.19
288.6	298.19
288.831	303.19
289.062	301.19
289.293	286.19
289.524	283.19
289.755	272.19
289.986	290.19
290.217	300.19
290.448	295.19
290.679	289.19
290.91	295.19
291.141	292.19
291.371	286.19
291.602	292.19
291.833	294.19
292.064	290.19
292.295	275.19
292.526	294.19
292.757	280.19
292.987	312.19
293.218	296.19
293.449	294.19
293.68	307.19
293.91	294.19
294.141	291.19
294.372	296.19
294.603	317.19
294.833	291.19
295.064	295.19
295.295	310.19
295.525	305.19
295.756	299.19
295.987	300.19
296.217	322.19
296.448	328.19
296.679	325.19
296.909	313.19
297.14	291.19
297.37	309.19
297.601	307.19
297.831	330.19
298.062	297.19
298.292	315.19
298.523	311.19
298.753	311.19
298.984	311.19
299.214	306.19
299.445	306.19
299.675	316.19
299.905	330.19
300.136	312.19
300.366	316.19
300.597	327.19
300.827	331.19
301.057	308.19
301.288	332.19
301.518	332.19
301.748	331.19
301.979	352.19
302.209	333.19
302.439	339.19
302.669	339.19
302.9	334.19
303.13	320.19
303.36	325.19
303.59	347.19
303.82	324.19
304.051	336.19
304.281	345.19
304.511	333.19
304.741	342.19
304.971	330.19
305.201	340.19
305.431	336.19
305.661	330.19
305.891	328.19
306.121	317.19
306.352	343.19
306.582	343.19
306.812	334.19
307.042	322.19
307.272	320.19
307.502	324.19
307.731	330.19
307.961	326.19
308.191	324.19
308.421	349.19
308.651	340.19
308.881	337.19
309.111	343.19
309.341	324.19
309.571	335.19
309.8	345.19
310.03	337.19
310.26	355.19
310.49	344.19
310.72	366.19
310.949	378.19
311.179	357.19
311.409	372.19
311.639	359.19
311.868	357.19
312.098	342.19
312.328	360.19
312.557	358.19
312.787	362.19
313.017	377.19
313.246	383.19
313.476	363.19
313.706	362.19
313.935	386.19
314.165	372.19
314.394	398.19
314.624	384.19
314.853	374.19
315.083	374.19
315.312	369.19
315.542	356.19
315.771	381.19
316.001	359.19
316.23	381.19
316.46	358.19
316.689	372.19
316.919	363.19
317.148	379.19
317.377	396.19
317.607	392.19
317.836	382.19
318.065	372.19
318.295	381.19
318.524	376.19
318.753	344.19
318.983	368.19
319.212	366.19
319.441	369.19
319.67	361.19
319.9	365.19
320.129	374.19
320.358	367.19
320.587	380.19
320.816	364.19
321.046	375.19
321.275	375.19
321.504	377.19
321.733	351.19
321.962	361.19
322.191	380.19
322.42	403.19
322.649	408.19
322.878	402.19
323.108	399.19
323.337	403.19
323.566	415.19
323.795	450.19
324.024	468.19
324.253	522.19
324.482	694.19
324.71	960.19
324.939	1322.19
325.168	1108.19
325.397	611.19
325.626	474.19
325.855	455.19
326.084	441.19
326.313	449.19
326.542	429.19
326.77	453.19
326.999	515.19
327.228	670.19
327.457	924.19
327.686	1028.19
327.914	718.19
328.143	522.19
328.372	472.19
328.6	475.19
328.829	459.19
329.058	478.19
329.287	469.19
329.515	454.19
329.744	447.19
329.972	441.19
330.201	483.19
330.43	498.19
330.658	492.19
330.887	515.19
331.115	502.19
331.344	445.19
331.572	448.19
331.801	450.19
332.03	452.19
332.258	451.19
332.486	459.19
332.715	459.19
332.943	489.19
333.172	482.19
333.4	475.19
333.629	502.19
333.857	517.19
334.085	524.19
334.314	526.19
334.542	520.19
334.771	532.19
334.999	512.19
335.227	495.19
335.455	479.19
335.684	469.19
335.912	476.19
336.14	455.19
336.369	462.19
336.597	454.19
336.825	461.19
337.053	458.19
337.281	435.19
337.51	430.19
337.738	435.19
337.966	444.19
338.194	458.19
338.422	430.19
338.65	443.19
338.878	423.19
339.106	429.19
339.334	427.19
339.562	433.19
339.79	414.19
340.018	424.19
340.246	416.19
340.474	417.19
340.702	432.19
340.93	433.19
341.158	416.19
341.386	424.19
341.614	415.19
341.842	418.19
342.07	408.19
342.298	414.19
342.526	416.19
342.754	443.19
342.981	412.19
343.209	420.19
343.437	435.19
343.665	451.19
343.893	480.19
344.12	467.19
344.348	467.19
344.576	449.19
344.804	454.19
345.031	441.19
345.259	443.19
345.487	432.19
345.714	424.19
345.942	409.19
346.17	431.19
346.397	407.19
346.625	409.19
346.853	404.19
347.08	408.19
347.308	403.19
347.535	412.19
347.763	399.19
347.99	404.19
348.218	399.19
348.445	412.19
348.673	391.19
348.9	409.19
349.128	399.19
349.355	388.19
349.583	388.19
349.81	401.19
350.037	403.19
350.265	390.19
350.492	397.19
350.72	388.19
350.947	382.19
351.174	412.19
351.402	402.19
351.629	403.19
351.856	403.19
352.083	398.19
352.311	391.19
352.538	402.19
352.765	416.19
352.992	392.19
353.22	391.19
353.447	382.19
353.674	395.19
353.901	385.19
354.128	406.19
354.355	402.19
354.583	382.19
354.81	381.19
355.037	396.19
355.264	378.19
355.491	363.19
355.718	389.19
355.945	385.19
356.172	393.19
356.399	373.19
356.626	392.19
356.853	389.19
357.08	379.19
357.307	380.19
357.534	384.19
357.761	379.19
357.988	384.19
358.215	364.19
358.441	363.19
358.668	386.19
358.895	403.19
359.122	372.19
359.349	401.19
359.576	407.19
359.802	420.19
360.029	426.19
360.256	424.19
360.483	432.19
360.709	390.19
360.936	416.19
361.163	382.19
361.39	411.19
361.616	398.19
361.843	420.19
362.07	411.19
362.296	412.19
362.523	394.19
362.749	392.19
362.976	404.19
363.203	406.19
363.429	395.19
363.656	396.19
363.882	399.19
364.109	407.19
364.335	394.19
364.562	393.19
364.788	382.19
365.015	399.19
365.241	404.19
365.468	398.19
365.694	398.19
365.92	444.19
366.147	393.19
366.373	390.19
366.599	388.19
366.826	379.19
367.052	389.19
367.278	405.19
367.505	398.19
367.731	391.19
367.957	396.19
368.184	394.19
368.41	398.19
368.636	401.19
368.862	416.19
369.089	416.19
369.315	403.19
369.541	402.19
369.767	401.19
369.993	378.19
370.219	388.19
370.445	391.19
370.672	416.19
370.898	406.19
371.124	418.19
371.35	418.19
371.576	419.19
371.802	430.19
372.028	390.19
372.254	402.19
372.48	411.19
372.706	418.19
372.932	430.19
373.158	444.19
373.384	445.19
373.61	420.19
373.835	408.19
374.061	414.19
374.287	440.19
374.513	416.19
374.739	418.19
374.965	454.19
375.191	428.19
375.416	425.19
375.642	426.19
375.868	442.19
376.094	449.19
376.319	402.19
376.545	416.19
376.771	411.19
376.997	404.19
377.222	405.19
377.448	406.19
377.674	421.19
377.899	400.19
378.125	398.19
378.35	402.19
378.576	412.19
378.802	410.19
379.027	414.19
379.253	419.19
379.478	387.19
379.704	407.19
379.929	424.19
380.155	422.19
380.38	408.19
380.606	404.19
380.831	394.19
381.057	432.19
381.282	429.19
381.507	412.19
381.733	422.19
381.958	414.19
382.184	418.19
382.409	415.19
382.634	411.19
382.86	420.19
383.085	424.19
383.31	431.19
383.535	422.19
383.761	452.19
383.986	434.19
384.211	440.19
384.436	450.19
384.662	450.19
384.887	478.19
385.112	481.19
385.337	476.19
385.562	464.19
385.787	489.19
386.013	471.19
386.238	472.19
386.463	473.19
386.688	457.19
386.913	459.19
387.138	476.19
387.363	456.19
387.588	475.19
387.813	458.19
388.038	462.19
388.263	498.19
388.488	478.19
388.713	443.19
388.938	481.19
389.163	454.19
389.387	479.19
389.612	458.19
389.837	461.19
390.062	452.19
390.287	462.19
390.512	467.19
390.736	450.19
390.961	467.19
391.186	473.19
391.411	474.19
391.636	492.19
391.86	503.19
392.085	508.19
392.31	518.19
392.534	482.19
392.759	495.19
392.984	485.19
393.208	471.19
393.433	496.19
393.658	483.19
393.882	493.19
394.107	495.19
394.331	500.19
394.556	516.19
394.78	483.19
395.005	466.19
395.229	498.19
395.454	474.19
395.678	509.19
395.903	524.19
396.127	523.19
396.352	513.19
396.576	484.19
396.801	505.19
397.025	492.19
397.249	523.19
397.474	490.19
397.698	492.19
397.922	524.19
398.147	536.19
398.371	526.19
398.595	538.19
398.82	563.19
399.044	596.19
399.268	622.19
399.492	664.19
399.717	754.19
399.941	754.19
400.165	696.19
400.389	639.19
400.613	611.19
400.837	577.19
401.062	582.19
401.286	553.19
401.51	556.19
401.734	579.19
401.958	562.19
402.182	570.19
402.406	561.19
402.63	587.19
402.854	586.19
403.078	564.19
403.302	596.19
403.526	606.19
403.75	585.19
403.974	628.19
404.198	610.19
404.422	617.19
404.645	620.19
404.869	592.19
405.093	628.19
405.317	652.19
405.541	664.19
405.765	632.19
405.988	594.19
406.212	623.19
406.436	632.19
406.66	633.19
406.883	647.19
407.107	651.19
407.331	708.19
407.555	726.19
407.778	732.19
408.002	660.19
408.226	663.19
408.449	660.19
408.673	600.19
408.896	661.19
409.12	637.19
409.344	606.19
409.567	599.19
409.791	622.19
410.014	606.19
410.238	588.19
410.461	576.19
410.685	587.19
410.908	577.19
411.132	599.19
411.355	612.19
411.578	614.19
411.802	573.19
412.025	606.19
412.249	628.19
412.472	616.19
412.695	617.19
412.919	620.19
413.142	585.19
413.365	564.19
413.589	576.19
413.812	534.19
414.035	538.19
414.258	545.19
414.482	566.19
414.705	544.19
414.928	551.19
415.151	524.19
415.374	550.19
415.597	533.19
415.821	546.19
416.044	563.19
416.267	527.19
416.49	554.19
416.713	529.19
416.936	529.19
417.159	518.19
417.382	542.19
417.605	518.19
417.828	575.19
418.051	571.19
418.274	531.19
418.497	560.19
418.72	540.19
418.943	544.19
419.166	593.19
419.389	595.19
419.611	607.19
419.834	569.19
420.057	590.19
420.28	596.19
420.503	563.19
420.726	559.19
420.948	562.19
421.171	596.19
421.394	614.19
421.617	556.19
421.839	554.19
422.062	557.19
422.285	561.19
422.507	596.19
422.73	647.19
422.953	613.19
423.175	569.19
423.398	580.19
423.621	578.19
423.843	583.19
424.066	586.19
424.288	598.19
424.511	629.19
424.733	627.19
424.956	666.19
425.178	636.19
425.401	633.19
425.623	652.19
425.846	575.19
426.068	559.19
426.291	534.19
426.513	571.19
426.735	579.19
426.958	608.19
427.18	628.19
427.402	699.19
427.625	716.19
427.847	681.19
428.069	605.19
428.292	553.19
428.514	508.19
428.736	530.19
428.958	517.19
429.181	490.19
429.403	504.19
429.625	530.19
429.847	531.19
430.069	557.19
430.292	571.19
430.514	514.19
430.736	528.19
430.958	514.19
431.18	520.19
431.402	498.19
431.624	515.19
431.846	515.19
432.068	519.19
432.29	501.19
432.512	516.19
432.734	522.19
432.956	498.19
433.178	511.19
433.4	518.19
433.622	484.19
433.844	488.19
434.066	498.19
434.287	489.19
434.509	520.19
434.731	510.19
434.953	562.19
435.175	558.19
435.397	544.19
435.618	567.19
435.84	586.19
436.062	621.19
436.284	652.19
436.505	552.19
436.727	535.19
436.949	515.19
437.17	514.19
437.392	490.19
437.614	491.19
437.835	507.19
438.057	585.19
438.278	626.19
438.5	627.19
438.721	655.19
438.943	645.19
439.165	554.19
439.386	523.19
439.608	544.19
439.829	533.19
440.05	558.19
440.272	574.19
440.493	566.19
440.715	526.19
440.936	528.19
441.158	510.19
441.379	536.19
441.6	544.19
441.822	571.19
442.043	569.19
442.264	623.19
442.486	654.19
442.707	576.19
442.928	538.19
443.149	580.19
443.371	607.19
443.592	610.19
443.813	640.19
444.034	695.19
444.255	621.19
444.476	607.19
444.698	612.19
444.919	624.19
445.14	709.19
445.361	624.19
445.582	586.19
445.803	611.19
446.024	667.19
446.245	657.19
446.466	601.19
446.687	547.19
446.908	519.19
447.129	520.19
447.35	504.19
447.571	484.19
447.792	518.19
448.013	492.19
448.234	502.19
448.455	508.19
448.675	602.19
448.896	631.19
449.117	560.19
449.338	549.19
449.559	606.19
449.779	673.19
450	560.19
450.221	509.19
450.442	482.19
450.662	476.19
450.883	489.19
451.104	472.19
451.324	473.19
451.545	496.19
451.766	458.19
451.986	457.19
452.207	462.19
452.428	463.19
452.648	461.19
452.869	465.19
453.089	468.19
453.31	444.19
453.53	449.19
453.751	416.19
453.971	455.19
454.192	436.19
454.412	454.19
454.633	444.19
454.853	431.19
455.073	448.19
455.294	441.19
455.514	486.19
455.734	476.19
455.955	432.19
456.175	411.19
456.395	425.19
456.616	432.19
456.836	428.19
457.056	438.19
457.276	427.19
457.497	420.19
457.717	419.19
457.937	440.19
458.157	440.19
458.377	414.19
458.598	456.19
458.818	471.19
459.038	538.19
459.258	548.19
459.478	524.19
459.698	475.19
459.918	490.19
460.138	522.19
460.358	538.19
460.578	557.19
460.798	536.19
461.018	542.19
461.238	527.19
461.458	537.19
461.678	522.19
461.898	519.19
462.118	534.19
462.338	556.19
462.558	563.19
462.777	577.19
462.997	620.19
463.217	628.19
463.437	653.19
463.657	630.19
463.876	596.19
464.096	595.19
464.316	591.19
464.536	597.19
464.755	596.19
464.975	577.19
465.195	583.19
465.414	604.19
465.634	544.19
465.854	511.19
466.073	486.19
466.293	482.19
466.512	453.19
466.732	451.19
466.951	490.19
467.171	451.19
467.391	468.19
467.61	498.19
467.829	466.19
468.049	485.19
468.268	470.19
468.488	448.19
468.707	479.19
468.927	436.19
469.146	457.19
469.365	452.19
469.585	455.19
469.804	466.19
470.023	471.19
470.243	478.19
470.462	498.19
470.681	508.19
470.901	483.19
471.12	476.19
471.339	480.19
471.558	492.19
471.777	461.19
471.997	474.19
472.216	474.19
472.435	502.19
472.654	471.19
472.873	463.19
473.092	456.19
473.311	467.19
473.53	444.19
473.749	452.19
473.968	470.19
474.187	549.19
474.406	539.19
474.625	491.19
474.844	438.19
475.063	483.19
475.282	455.19
475.501	451.19
475.72	467.19
475.939	455.19
476.158	457.19
476.377	464.19
476.596	467.19
476.814	498.19
477.033	486.19
477.252	502.19
477.471	502.19
477.69	510.19
477.908	509.19
478.127	539.19
478.346	534.19
478.564	549.19
478.783	535.19
479.002	544.19
479.22	535.19
479.439	550.19
479.658	559.19
479.876	558.19
480.095	567.19
480.313	557.19
480.532	585.19
480.751	606.19
480.969	573.19
481.188	583.19
481.406	631.19
481.624	546.19
481.843	539.19
482.061	558.19
482.28	546.19
482.498	528.19
482.717	520.19
482.935	543.19
483.153	501.19
483.372	525.19
483.59	502.19
483.808	537.19
484.027	508.19
484.245	515.19
484.463	524.19
484.681	541.19
484.9	524.19
485.118	538.19
485.336	525.19
485.554	536.19
485.772	530.19
485.99	538.19
486.209	537.19
486.427	560.19
486.645	547.19
486.863	558.19
487.081	544.19
487.299	566.19
487.517	563.19
487.735	562.19
487.953	560.19
488.171	555.19
488.389	554.19
488.607	534.19
488.825	536.19
489.043	546.19
489.261	560.19
489.479	543.19
489.696	564.19
489.914	564.19
490.132	557.19
490.35	593.19
490.568	590.19
490.786	579.19
491.003	588.19
491.221	601.19
491.439	604.19
491.657	589.19
491.874	606.19
492.092	610.19
492.31	629.19
492.527	634.19
492.745	630.19
492.963	629.19
493.18	633.19
493.398	631.19
493.615	634.19
493.833	626.19
494.05	615.19
494.268	633.19
494.485	620.19
494.703	641.19
494.92	643.19
495.138	620.19
495.355	638.19
495.573	612.19
495.79	645.19
496.008	646.19
496.225	625.19
496.442	660.19
496.66	643.19
496.877	649.19
497.094	640.19
497.312	663.19
497.529	698.19
497.746	700.19
497.963	687.19
498.181	734.19
498.398	748.19
498.615	768.19
498.832	807.19
499.049	832.19
499.267	873.19
499.484	892.19
499.701	956.19
499.918	1060.19
500.135	1146.19
500.352	1225.19
500.569	1225.19
500.786	1223.19
501.003	1246.19
501.22	1125.19
501.437	1061.19
501.654	960.19
501.871	930.19
502.088	877.19
