Data from 1960PennyLincolnUp.LampE6.200Scan.07172019.P1_HRD10591_13-06-20-002.txt Node
Date: Thu Jul 18 13:06:20 EDT 2019
User: cochatt
Spectrometer: HR+D1059
Trigger mode: 1
Integration Time (sec): 1.000000E-1
Scans to average: 1
Electric dark correction enabled: true
Nonlinearity correction enabled: false
Boxcar width: 0
XAxis mode: Wavelengths
Number of Pixels in Spectrum: 2048
>>>>>Begin Spectral Data<<<<<
223.165	-16.81
223.4	-16.81
223.635	-16.81
223.869	-21.81
224.104	-15.81
224.338	-17.81
224.573	-23.81
224.808	-3.81
225.042	-4.81
225.277	-8.81
225.511	5.19
225.746	-1.81
225.98	7.19
226.215	7.19
226.449	17.19
226.683	16.19
226.918	24.19
227.152	38.19
227.387	50.19
227.621	30.19
227.856	22.19
228.09	51.19
228.324	40.19
228.559	51.19
228.793	53.19
229.027	82.19
229.262	88.19
229.496	113.19
229.73	112.19
229.964	128.19
230.199	118.19
230.433	104.19
230.667	112.19
230.901	111.19
231.136	127.19
231.37	116.19
231.604	102.19
231.838	110.19
232.072	102.19
232.306	111.19
232.541	120.19
232.775	124.19
233.009	128.19
233.243	115.19
233.477	107.19
233.711	99.19
233.945	114.19
234.179	114.19
234.413	111.19
234.647	114.19
234.881	100.19
235.115	117.19
235.349	114.19
235.583	129.19
235.817	118.19
236.051	122.19
236.285	132.19
236.519	132.19
236.753	120.19
236.987	134.19
237.221	142.19
237.455	168.19
237.689	169.19
237.922	128.19
238.156	126.19
238.39	119.19
238.624	127.19
238.858	121.19
239.091	117.19
239.325	111.19
239.559	112.19
239.793	132.19
240.027	134.19
240.26	124.19
240.494	137.19
240.728	132.19
240.961	137.19
241.195	138.19
241.429	127.19
241.662	136.19
241.896	126.19
242.13	147.19
242.363	138.19
242.597	133.19
242.83	130.19
243.064	128.19
243.298	131.19
243.531	137.19
243.765	128.19
243.998	123.19
244.232	133.19
244.465	158.19
244.699	131.19
244.932	146.19
245.166	137.19
245.399	141.19
245.633	144.19
245.866	142.19
246.099	160.19
246.333	152.19
246.566	137.19
246.8	145.19
247.033	158.19
247.266	144.19
247.5	149.19
247.733	166.19
247.966	168.19
248.2	166.19
248.433	164.19
248.666	165.19
248.899	191.19
249.133	180.19
249.366	173.19
249.599	174.19
249.832	159.19
250.066	161.19
250.299	185.19
250.532	179.19
250.765	199.19
250.998	206.19
251.231	193.19
251.465	205.19
251.698	190.19
251.931	191.19
252.164	191.19
252.397	179.19
252.63	184.19
252.863	187.19
253.096	210.19
253.329	202.19
253.562	183.19
253.795	207.19
254.028	207.19
254.261	199.19
254.494	209.19
254.727	243.19
254.96	226.19
255.193	240.19
255.426	196.19
255.659	210.19
255.892	211.19
256.124	219.19
256.357	215.19
256.59	213.19
256.823	207.19
257.056	187.19
257.289	196.19
257.521	213.19
257.754	180.19
257.987	210.19
258.22	209.19
258.452	193.19
258.685	201.19
258.918	194.19
259.151	195.19
259.383	188.19
259.616	225.19
259.849	201.19
260.081	218.19
260.314	236.19
260.547	231.19
260.779	235.19
261.012	199.19
261.244	204.19
261.477	199.19
261.71	203.19
261.942	200.19
262.175	205.19
262.407	217.19
262.64	218.19
262.872	187.19
263.105	203.19
263.337	218.19
263.57	204.19
263.802	226.19
264.035	189.19
264.267	204.19
264.499	188.19
264.732	209.19
264.964	214.19
265.197	226.19
265.429	210.19
265.661	199.19
265.894	210.19
266.126	227.19
266.358	211.19
266.591	208.19
266.823	234.19
267.055	226.19
267.287	246.19
267.52	229.19
267.752	220.19
267.984	228.19
268.216	233.19
268.448	226.19
268.681	232.19
268.913	242.19
269.145	229.19
269.377	250.19
269.609	258.19
269.841	266.19
270.073	261.19
270.306	277.19
270.538	295.19
270.77	294.19
271.002	266.19
271.234	251.19
271.466	274.19
271.698	281.19
271.93	287.19
272.162	269.19
272.394	298.19
272.626	266.19
272.858	267.19
273.09	271.19
273.322	263.19
273.553	242.19
273.785	251.19
274.017	259.19
274.249	258.19
274.481	241.19
274.713	256.19
274.945	253.19
275.176	263.19
275.408	242.19
275.64	248.19
275.872	252.19
276.104	263.19
276.335	271.19
276.567	270.19
276.799	271.19
277.031	269.19
277.262	312.19
277.494	293.19
277.726	291.19
277.957	296.19
278.189	276.19
278.421	261.19
278.652	278.19
278.884	265.19
279.115	265.19
279.347	270.19
279.579	287.19
279.81	272.19
280.042	273.19
280.273	275.19
280.505	249.19
280.736	287.19
280.968	277.19
281.199	281.19
281.431	276.19
281.662	284.19
281.894	283.19
282.125	276.19
282.356	296.19
282.588	290.19
282.819	290.19
283.051	267.19
283.282	280.19
283.513	288.19
283.745	295.19
283.976	281.19
284.207	281.19
284.439	280.19
284.67	276.19
284.901	292.19
285.132	282.19
285.364	281.19
285.595	273.19
285.826	294.19
286.057	305.19
286.288	268.19
286.52	306.19
286.751	303.19
286.982	294.19
287.213	303.19
287.444	300.19
287.675	319.19
287.906	296.19
288.138	320.19
288.369	307.19
288.6	328.19
288.831	311.19
289.062	315.19
289.293	315.19
289.524	290.19
289.755	282.19
289.986	303.19
290.217	304.19
290.448	325.19
290.679	319.19
290.91	300.19
291.141	305.19
291.371	313.19
291.602	314.19
291.833	296.19
292.064	320.19
292.295	318.19
292.526	321.19
292.757	311.19
292.987	303.19
293.218	324.19
293.449	329.19
293.68	316.19
293.91	306.19
294.141	304.19
294.372	311.19
294.603	313.19
294.833	303.19
295.064	308.19
295.295	314.19
295.525	307.19
295.756	309.19
295.987	316.19
296.217	337.19
296.448	321.19
296.679	315.19
296.909	323.19
297.14	332.19
297.37	323.19
297.601	324.19
297.831	322.19
298.062	334.19
298.292	337.19
298.523	320.19
298.753	331.19
298.984	331.19
299.214	324.19
299.445	320.19
299.675	353.19
299.905	331.19
300.136	336.19
300.366	353.19
300.597	329.19
300.827	342.19
301.057	366.19
301.288	365.19
301.518	339.19
301.748	347.19
301.979	347.19
302.209	359.19
302.439	350.19
302.669	362.19
302.9	341.19
303.13	360.19
303.36	364.19
303.59	381.19
303.82	376.19
304.051	364.19
304.281	347.19
304.511	362.19
304.741	353.19
304.971	342.19
305.201	350.19
305.431	352.19
305.661	348.19
305.891	318.19
306.121	344.19
306.352	359.19
306.582	338.19
306.812	358.19
307.042	333.19
307.272	343.19
307.502	324.19
307.731	345.19
307.961	358.19
308.191	340.19
308.421	355.19
308.651	359.19
308.881	333.19
309.111	366.19
309.341	365.19
309.571	347.19
309.8	361.19
310.03	348.19
310.26	374.19
310.49	360.19
310.72	377.19
310.949	378.19
311.179	388.19
311.409	376.19
311.639	360.19
311.868	353.19
312.098	368.19
312.328	370.19
312.557	390.19
312.787	399.19
313.017	400.19
313.246	405.19
313.476	380.19
313.706	380.19
313.935	387.19
314.165	392.19
314.394	417.19
314.624	380.19
314.853	392.19
315.083	375.19
315.312	399.19
315.542	389.19
315.771	394.19
316.001	396.19
316.23	378.19
316.46	371.19
316.689	400.19
316.919	393.19
317.148	378.19
317.377	405.19
317.607	372.19
317.836	375.19
318.065	391.19
318.295	403.19
318.524	380.19
318.753	390.19
318.983	396.19
319.212	378.19
319.441	377.19
319.67	378.19
319.9	396.19
320.129	388.19
320.358	380.19
320.587	390.19
320.816	408.19
321.046	403.19
321.275	391.19
321.504	373.19
321.733	391.19
321.962	389.19
322.191	390.19
322.42	407.19
322.649	425.19
322.878	418.19
323.108	430.19
323.337	419.19
323.566	439.19
323.795	459.19
324.024	488.19
324.253	537.19
324.482	750.19
324.71	1035.19
324.939	1418.19
325.168	1198.19
325.397	657.19
325.626	512.19
325.855	454.19
326.084	459.19
326.313	459.19
326.542	440.19
326.77	477.19
326.999	550.19
327.228	693.19
327.457	988.19
327.686	1104.19
327.914	734.19
328.143	580.19
328.372	517.19
328.6	496.19
328.829	475.19
329.058	503.19
329.287	522.19
329.515	476.19
329.744	478.19
329.972	488.19
330.201	489.19
330.43	514.19
330.658	522.19
330.887	539.19
331.115	534.19
331.344	501.19
331.572	480.19
331.801	467.19
332.03	474.19
332.258	493.19
332.486	481.19
332.715	487.19
332.943	492.19
333.172	512.19
333.4	514.19
333.629	510.19
333.857	540.19
334.085	548.19
334.314	577.19
334.542	556.19
334.771	563.19
334.999	534.19
335.227	524.19
335.455	527.19
335.684	512.19
335.912	505.19
336.14	455.19
336.369	467.19
336.597	483.19
336.825	490.19
337.053	494.19
337.281	461.19
337.51	441.19
337.738	455.19
337.966	463.19
338.194	468.19
338.422	457.19
338.65	457.19
338.878	430.19
339.106	442.19
339.334	472.19
339.562	442.19
339.79	435.19
340.018	453.19
340.246	430.19
340.474	447.19
340.702	453.19
340.93	448.19
341.158	452.19
341.386	430.19
341.614	434.19
341.842	432.19
342.07	451.19
342.298	428.19
342.526	442.19
342.754	419.19
342.981	434.19
343.209	445.19
343.437	432.19
343.665	471.19
343.893	482.19
344.12	487.19
344.348	501.19
344.576	467.19
344.804	467.19
345.031	459.19
345.259	460.19
345.487	455.19
345.714	445.19
345.942	442.19
346.17	431.19
346.397	434.19
346.625	435.19
346.853	430.19
347.08	434.19
347.308	430.19
347.535	441.19
347.763	441.19
347.99	433.19
348.218	425.19
348.445	439.19
348.673	451.19
348.9	418.19
349.128	434.19
349.355	427.19
349.583	415.19
349.81	431.19
350.037	417.19
350.265	403.19
350.492	421.19
350.72	409.19
350.947	417.19
351.174	408.19
351.402	428.19
351.629	418.19
351.856	419.19
352.083	420.19
352.311	434.19
352.538	425.19
352.765	421.19
352.992	431.19
353.22	404.19
353.447	432.19
353.674	420.19
353.901	430.19
354.128	404.19
354.355	400.19
354.583	403.19
354.81	393.19
355.037	412.19
355.264	405.19
355.491	404.19
355.718	418.19
355.945	401.19
356.172	404.19
356.399	398.19
356.626	428.19
356.853	434.19
357.08	402.19
357.307	399.19
357.534	416.19
357.761	405.19
357.988	404.19
358.215	424.19
358.441	417.19
358.668	404.19
358.895	407.19
359.122	412.19
359.349	429.19
359.576	448.19
359.802	430.19
360.029	453.19
360.256	452.19
360.483	439.19
360.709	415.19
360.936	435.19
361.163	419.19
361.39	413.19
361.616	436.19
361.843	438.19
362.07	416.19
362.296	419.19
362.523	434.19
362.749	421.19
362.976	424.19
363.203	411.19
363.429	400.19
363.656	426.19
363.882	401.19
364.109	422.19
364.335	403.19
364.562	420.19
364.788	412.19
365.015	430.19
365.241	410.19
365.468	421.19
365.694	433.19
365.92	431.19
366.147	411.19
366.373	438.19
366.599	420.19
366.826	415.19
367.052	388.19
367.278	421.19
367.505	430.19
367.731	426.19
367.957	423.19
368.184	430.19
368.41	422.19
368.636	419.19
368.862	441.19
369.089	432.19
369.315	422.19
369.541	418.19
369.767	434.19
369.993	422.19
370.219	430.19
370.445	427.19
370.672	435.19
370.898	431.19
371.124	424.19
371.35	431.19
371.576	424.19
371.802	414.19
372.028	419.19
372.254	430.19
372.48	417.19
372.706	449.19
372.932	453.19
373.158	449.19
373.384	447.19
373.61	429.19
373.835	422.19
374.061	412.19
374.287	442.19
374.513	427.19
374.739	452.19
374.965	442.19
375.191	473.19
375.416	448.19
375.642	437.19
375.868	440.19
376.094	427.19
376.319	424.19
376.545	440.19
376.771	457.19
376.997	428.19
377.222	430.19
377.448	438.19
377.674	435.19
377.899	444.19
378.125	433.19
378.35	427.19
378.576	427.19
378.802	425.19
379.027	431.19
379.253	432.19
379.478	440.19
379.704	432.19
379.929	443.19
380.155	444.19
380.38	441.19
380.606	437.19
380.831	416.19
381.057	418.19
381.282	434.19
381.507	430.19
381.733	421.19
381.958	428.19
382.184	423.19
382.409	442.19
382.634	460.19
382.86	443.19
383.085	436.19
383.31	437.19
383.535	447.19
383.761	468.19
383.986	486.19
384.211	473.19
384.436	482.19
384.662	479.19
384.887	472.19
385.112	470.19
385.337	497.19
385.562	468.19
385.787	499.19
386.013	506.19
386.238	482.19
386.463	503.19
386.688	491.19
386.913	494.19
387.138	492.19
387.363	492.19
387.588	483.19
387.813	503.19
388.038	490.19
388.263	484.19
388.488	496.19
388.713	484.19
388.938	502.19
389.163	513.19
389.387	484.19
389.612	486.19
389.837	473.19
390.062	471.19
390.287	480.19
390.512	478.19
390.736	502.19
390.961	490.19
391.186	500.19
391.411	513.19
391.636	523.19
391.86	524.19
392.085	522.19
392.31	530.19
392.534	530.19
392.759	518.19
392.984	492.19
393.208	517.19
393.433	524.19
393.658	512.19
393.882	486.19
394.107	495.19
394.331	507.19
394.556	490.19
394.78	513.19
395.005	526.19
395.229	525.19
395.454	530.19
395.678	534.19
395.903	529.19
396.127	520.19
396.352	555.19
396.576	513.19
396.801	507.19
397.025	528.19
397.249	526.19
397.474	535.19
397.698	528.19
397.922	544.19
398.147	577.19
398.371	562.19
398.595	562.19
398.82	577.19
399.044	609.19
399.268	658.19
399.492	724.19
399.717	748.19
399.941	763.19
400.165	748.19
400.389	711.19
400.613	622.19
400.837	618.19
401.062	600.19
401.286	610.19
401.51	596.19
401.734	562.19
401.958	586.19
402.182	588.19
402.406	622.19
402.63	602.19
402.854	622.19
403.078	617.19
403.302	623.19
403.526	647.19
403.75	657.19
403.974	656.19
404.198	656.19
404.422	671.19
404.645	641.19
404.869	644.19
405.093	654.19
405.317	673.19
405.541	689.19
405.765	643.19
405.988	644.19
406.212	652.19
406.436	657.19
406.66	654.19
406.883	647.19
407.107	686.19
407.331	719.19
407.555	779.19
407.778	760.19
408.002	706.19
408.226	667.19
408.449	680.19
408.673	674.19
408.896	694.19
409.12	680.19
409.344	659.19
409.567	636.19
409.791	612.19
410.014	602.19
410.238	626.19
410.461	596.19
410.685	608.19
410.908	617.19
411.132	630.19
411.355	650.19
411.578	625.19
411.802	610.19
412.025	611.19
412.249	614.19
412.472	614.19
412.695	631.19
412.919	630.19
413.142	607.19
413.365	590.19
413.589	610.19
413.812	552.19
414.035	574.19
414.258	567.19
414.482	575.19
414.705	562.19
414.928	586.19
415.151	591.19
415.374	579.19
415.597	571.19
415.821	571.19
416.044	563.19
416.267	573.19
416.49	568.19
416.713	571.19
416.936	548.19
417.159	565.19
417.382	590.19
417.605	567.19
417.828	553.19
418.051	602.19
418.274	578.19
418.497	564.19
418.72	584.19
418.943	586.19
419.166	599.19
419.389	632.19
419.611	618.19
419.834	608.19
420.057	611.19
420.28	593.19
420.503	572.19
420.726	567.19
420.948	579.19
421.171	602.19
421.394	610.19
421.617	579.19
421.839	570.19
422.062	600.19
422.285	585.19
422.507	633.19
422.73	692.19
422.953	660.19
423.175	613.19
423.398	592.19
423.621	608.19
423.843	636.19
424.066	640.19
424.288	610.19
424.511	629.19
424.733	663.19
424.956	701.19
425.178	676.19
425.401	672.19
425.623	691.19
425.846	630.19
426.068	592.19
426.291	582.19
426.513	579.19
426.735	585.19
426.958	610.19
427.18	642.19
427.402	750.19
427.625	798.19
427.847	708.19
428.069	628.19
428.292	598.19
428.514	560.19
428.736	534.19
428.958	532.19
429.181	542.19
429.403	532.19
429.625	527.19
429.847	571.19
430.069	612.19
430.292	597.19
430.514	554.19
430.736	526.19
430.958	546.19
431.18	530.19
431.402	529.19
431.624	504.19
431.846	537.19
432.068	503.19
432.29	530.19
432.512	514.19
432.734	535.19
432.956	534.19
433.178	533.19
433.4	542.19
433.622	525.19
433.844	516.19
434.066	518.19
434.287	523.19
434.509	550.19
434.731	551.19
434.953	569.19
435.175	579.19
435.397	576.19
435.618	596.19
435.84	612.19
436.062	648.19
436.284	688.19
436.505	619.19
436.727	543.19
436.949	558.19
437.17	523.19
437.392	531.19
437.614	536.19
437.835	538.19
438.057	625.19
438.278	678.19
438.5	675.19
438.721	717.19
438.943	665.19
439.165	584.19
439.386	577.19
439.608	557.19
439.829	575.19
440.05	589.19
440.272	608.19
440.493	575.19
440.715	573.19
440.936	548.19
441.158	536.19
441.379	550.19
441.6	568.19
441.822	595.19
442.043	597.19
442.264	670.19
442.486	684.19
442.707	598.19
442.928	601.19
443.149	608.19
443.371	632.19
443.592	641.19
443.813	718.19
444.034	748.19
444.255	660.19
444.476	642.19
444.698	645.19
444.919	648.19
445.14	735.19
445.361	659.19
445.582	651.19
445.803	645.19
446.024	695.19
446.245	726.19
446.466	648.19
446.687	564.19
446.908	526.19
447.129	545.19
447.35	522.19
447.571	519.19
447.792	480.19
448.013	508.19
448.234	529.19
448.455	562.19
448.675	625.19
448.896	706.19
449.117	615.19
449.338	582.19
449.559	658.19
449.779	682.19
450	596.19
450.221	534.19
450.442	522.19
450.662	522.19
450.883	487.19
451.104	514.19
451.324	522.19
451.545	474.19
451.766	503.19
451.986	494.19
452.207	463.19
452.428	461.19
452.648	465.19
452.869	489.19
453.089	462.19
453.31	462.19
453.53	463.19
453.751	482.19
453.971	465.19
454.192	486.19
454.412	459.19
454.633	450.19
454.853	445.19
455.073	427.19
455.294	455.19
455.514	502.19
455.734	499.19
455.955	456.19
456.175	437.19
456.395	446.19
456.616	426.19
456.836	448.19
457.056	434.19
457.276	428.19
457.497	449.19
457.717	442.19
457.937	452.19
458.157	447.19
458.377	467.19
458.598	478.19
458.818	520.19
459.038	578.19
459.258	590.19
459.478	536.19
459.698	516.19
459.918	530.19
460.138	544.19
460.358	546.19
460.578	548.19
460.798	560.19
461.018	564.19
461.238	575.19
461.458	573.19
461.678	533.19
461.898	570.19
462.118	559.19
462.338	580.19
462.558	598.19
462.777	601.19
462.997	648.19
463.217	699.19
463.437	670.19
463.657	609.19
463.876	616.19
464.096	617.19
464.316	615.19
464.536	650.19
464.755	602.19
464.975	601.19
465.195	611.19
465.414	630.19
465.634	577.19
465.854	531.19
466.073	508.19
466.293	523.19
466.512	487.19
466.732	481.19
466.951	498.19
467.171	466.19
467.391	487.19
467.61	494.19
467.829	503.19
468.049	500.19
468.268	497.19
468.488	500.19
468.707	470.19
468.927	459.19
469.146	458.19
469.365	450.19
469.585	444.19
469.804	479.19
470.023	482.19
470.243	505.19
470.462	505.19
470.681	519.19
470.901	507.19
471.12	498.19
471.339	487.19
471.558	487.19
471.777	492.19
471.997	494.19
472.216	471.19
472.435	502.19
472.654	491.19
472.873	464.19
473.092	472.19
473.311	475.19
473.53	491.19
473.749	460.19
473.968	509.19
474.187	571.19
474.406	567.19
474.625	508.19
474.844	503.19
475.063	480.19
475.282	498.19
475.501	485.19
475.72	468.19
475.939	481.19
476.158	496.19
476.377	500.19
476.596	492.19
476.814	503.19
477.033	492.19
477.252	501.19
477.471	502.19
477.69	500.19
477.908	535.19
478.127	553.19
478.346	567.19
478.564	558.19
478.783	561.19
479.002	557.19
479.22	580.19
479.439	580.19
479.658	591.19
479.876	577.19
480.095	606.19
480.313	626.19
480.532	637.19
480.751	624.19
480.969	620.19
481.188	650.19
481.406	674.19
481.624	582.19
481.843	558.19
482.061	554.19
482.28	521.19
482.498	560.19
482.717	550.19
482.935	534.19
483.153	559.19
483.372	567.19
483.59	542.19
483.808	524.19
484.027	540.19
484.245	546.19
484.463	578.19
484.681	563.19
484.9	570.19
485.118	555.19
485.336	563.19
485.554	582.19
485.772	573.19
485.99	588.19
486.209	589.19
486.427	570.19
486.645	574.19
486.863	590.19
487.081	586.19
487.299	601.19
487.517	593.19
487.735	588.19
487.953	581.19
488.171	575.19
488.389	593.19
488.607	585.19
488.825	579.19
489.043	554.19
489.261	590.19
489.479	565.19
489.696	572.19
489.914	588.19
490.132	599.19
490.35	603.19
490.568	618.19
490.786	636.19
491.003	624.19
491.221	636.19
491.439	640.19
491.657	677.19
491.874	660.19
492.092	658.19
492.31	674.19
492.527	654.19
492.745	656.19
492.963	691.19
493.18	683.19
493.398	678.19
493.615	718.19
493.833	667.19
494.05	671.19
494.268	654.19
494.485	666.19
494.703	680.19
494.92	684.19
495.138	690.19
495.355	688.19
495.573	674.19
495.79	660.19
496.008	698.19
496.225	670.19
496.442	678.19
496.66	687.19
496.877	681.19
497.094	692.19
497.312	705.19
497.529	697.19
497.746	718.19
497.963	722.19
498.181	786.19
498.398	779.19
498.615	805.19
498.832	806.19
499.049	855.19
499.267	926.19
499.484	960.19
499.701	1026.19
499.918	1131.19
500.135	1199.19
500.352	1244.19
500.569	1286.19
500.786	1327.19
501.003	1276.19
501.22	1186.19
501.437	1093.19
501.654	1032.19
501.871	969.19
