Data from 1960PennyLincolnUp.LampE6.200Scan.07172019.P1_HRD10591_13-05-33-001.txt Node
Date: Thu Jul 18 13:05:33 EDT 2019
User: cochatt
Spectrometer: HR+D1059
Trigger mode: 1
Integration Time (sec): 1.000000E-1
Scans to average: 1
Electric dark correction enabled: true
Nonlinearity correction enabled: false
Boxcar width: 0
XAxis mode: Wavelengths
Number of Pixels in Spectrum: 2048
>>>>>Begin Spectral Data<<<<<
223.165	-13.75
223.4	-13.75
223.635	-13.75
223.869	-14.75
224.104	-20.75
224.338	-11.75
224.573	-7.75
224.808	2.25
225.042	-1.75
225.277	-5.75
225.511	-3.75
225.746	-6.75
225.98	-12.75
226.215	9.25
226.449	17.25
226.683	12.25
226.918	20.25
227.152	38.25
227.387	47.25
227.621	50.25
227.856	43.25
228.09	32.25
228.324	43.25
228.559	61.25
228.793	65.25
229.027	87.25
229.262	84.25
229.496	96.25
229.73	118.25
229.964	125.25
230.199	106.25
230.433	97.25
230.667	109.25
230.901	122.25
231.136	118.25
231.37	112.25
231.604	115.25
231.838	108.25
232.072	99.25
232.306	123.25
232.541	105.25
232.775	122.25
233.009	108.25
233.243	128.25
233.477	113.25
233.711	130.25
233.945	116.25
234.179	128.25
234.413	113.25
234.647	115.25
234.881	101.25
235.115	118.25
235.349	116.25
235.583	120.25
235.817	128.25
236.051	104.25
236.285	116.25
236.519	114.25
236.753	121.25
236.987	135.25
237.221	133.25
237.455	176.25
237.689	145.25
237.922	121.25
238.156	121.25
238.39	124.25
238.624	123.25
238.858	117.25
239.091	116.25
239.325	126.25
239.559	121.25
239.793	126.25
240.027	125.25
240.26	116.25
240.494	150.25
240.728	129.25
240.961	142.25
241.195	131.25
241.429	118.25
241.662	128.25
241.896	130.25
242.13	130.25
242.363	129.25
242.597	130.25
242.83	128.25
243.064	134.25
243.298	116.25
243.531	137.25
243.765	138.25
243.998	135.25
244.232	123.25
244.465	136.25
244.699	132.25
244.932	141.25
245.166	133.25
245.399	148.25
245.633	143.25
245.866	139.25
246.099	119.25
246.333	134.25
246.566	135.25
246.8	142.25
247.033	175.25
247.266	143.25
247.5	164.25
247.733	149.25
247.966	154.25
248.2	147.25
248.433	150.25
248.666	158.25
248.899	170.25
249.133	151.25
249.366	167.25
249.599	163.25
249.832	159.25
250.066	160.25
250.299	153.25
250.532	180.25
250.765	178.25
250.998	186.25
251.231	182.25
251.465	180.25
251.698	182.25
251.931	171.25
252.164	160.25
252.397	168.25
252.63	175.25
252.863	187.25
253.096	185.25
253.329	208.25
253.562	185.25
253.795	169.25
254.028	196.25
254.261	180.25
254.494	195.25
254.727	208.25
254.96	224.25
255.193	231.25
255.426	202.25
255.659	208.25
255.892	202.25
256.124	214.25
256.357	195.25
256.59	211.25
256.823	200.25
257.056	187.25
257.289	184.25
257.521	204.25
257.754	192.25
257.987	199.25
258.22	180.25
258.452	186.25
258.685	187.25
258.918	192.25
259.151	209.25
259.383	210.25
259.616	199.25
259.849	213.25
260.081	214.25
260.314	223.25
260.547	196.25
260.779	213.25
261.012	227.25
261.244	210.25
261.477	207.25
261.71	211.25
261.942	192.25
262.175	204.25
262.407	195.25
262.64	199.25
262.872	206.25
263.105	201.25
263.337	209.25
263.57	209.25
263.802	199.25
264.035	186.25
264.267	218.25
264.499	198.25
264.732	206.25
264.964	208.25
265.197	203.25
265.429	214.25
265.661	213.25
265.894	213.25
266.126	211.25
266.358	205.25
266.591	197.25
266.823	229.25
267.055	222.25
267.287	203.25
267.52	215.25
267.752	219.25
267.984	213.25
268.216	232.25
268.448	219.25
268.681	226.25
268.913	233.25
269.145	241.25
269.377	253.25
269.609	232.25
269.841	244.25
270.073	226.25
270.306	262.25
270.538	268.25
270.77	252.25
271.002	273.25
271.234	262.25
271.466	274.25
271.698	276.25
271.93	252.25
272.162	271.25
272.394	258.25
272.626	259.25
272.858	256.25
273.09	247.25
273.322	260.25
273.553	242.25
273.785	232.25
274.017	252.25
274.249	261.25
274.481	244.25
274.713	240.25
274.945	234.25
275.176	244.25
275.408	245.25
275.64	244.25
275.872	251.25
276.104	263.25
276.335	263.25
276.567	254.25
276.799	260.25
277.031	260.25
277.262	270.25
277.494	295.25
277.726	274.25
277.957	272.25
278.189	254.25
278.421	265.25
278.652	266.25
278.884	259.25
279.115	250.25
279.347	263.25
279.579	265.25
279.81	258.25
280.042	256.25
280.273	279.25
280.505	271.25
280.736	272.25
280.968	272.25
281.199	274.25
281.431	271.25
281.662	259.25
281.894	261.25
282.125	274.25
282.356	296.25
282.588	284.25
282.819	310.25
283.051	300.25
283.282	280.25
283.513	288.25
283.745	279.25
283.976	297.25
284.207	270.25
284.439	281.25
284.67	297.25
284.901	286.25
285.132	275.25
285.364	287.25
285.595	286.25
285.826	284.25
286.057	293.25
286.288	302.25
286.52	295.25
286.751	292.25
286.982	286.25
287.213	298.25
287.444	295.25
287.675	286.25
287.906	293.25
288.138	298.25
288.369	294.25
288.6	299.25
288.831	295.25
289.062	305.25
289.293	303.25
289.524	303.25
289.755	302.25
289.986	292.25
290.217	297.25
290.448	296.25
290.679	292.25
290.91	298.25
291.141	297.25
291.371	295.25
291.602	312.25
291.833	320.25
292.064	300.25
292.295	301.25
292.526	303.25
292.757	312.25
292.987	308.25
293.218	320.25
293.449	296.25
293.68	294.25
293.91	291.25
294.141	304.25
294.372	299.25
294.603	306.25
294.833	315.25
295.064	295.25
295.295	306.25
295.525	299.25
295.756	328.25
295.987	321.25
296.217	309.25
296.448	317.25
296.679	305.25
296.909	316.25
297.14	323.25
297.37	341.25
297.601	307.25
297.831	315.25
298.062	311.25
298.292	315.25
298.523	296.25
298.753	318.25
298.984	314.25
299.214	321.25
299.445	317.25
299.675	331.25
299.905	341.25
300.136	334.25
300.366	332.25
300.597	341.25
300.827	336.25
301.057	337.25
301.288	328.25
301.518	337.25
301.748	342.25
301.979	344.25
302.209	342.25
302.439	358.25
302.669	319.25
302.9	337.25
303.13	330.25
303.36	334.25
303.59	342.25
303.82	356.25
304.051	358.25
304.281	339.25
304.511	356.25
304.741	341.25
304.971	347.25
305.201	333.25
305.431	335.25
305.661	347.25
305.891	339.25
306.121	334.25
306.352	357.25
306.582	341.25
306.812	346.25
307.042	345.25
307.272	332.25
307.502	326.25
307.731	361.25
307.961	346.25
308.191	327.25
308.421	328.25
308.651	325.25
308.881	334.25
309.111	360.25
309.341	323.25
309.571	352.25
309.8	353.25
310.03	371.25
310.26	347.25
310.49	370.25
310.72	370.25
310.949	376.25
311.179	358.25
311.409	355.25
311.639	354.25
311.868	375.25
312.098	375.25
312.328	374.25
312.557	374.25
312.787	369.25
313.017	371.25
313.246	363.25
313.476	366.25
313.706	395.25
313.935	375.25
314.165	370.25
314.394	366.25
314.624	395.25
314.853	392.25
315.083	368.25
315.312	379.25
315.542	366.25
315.771	374.25
316.001	384.25
316.23	380.25
316.46	392.25
316.689	382.25
316.919	377.25
317.148	390.25
317.377	377.25
317.607	382.25
317.836	390.25
318.065	378.25
318.295	346.25
318.524	354.25
318.753	366.25
318.983	378.25
319.212	368.25
319.441	401.25
319.67	378.25
319.9	372.25
320.129	368.25
320.358	381.25
320.587	388.25
320.816	356.25
321.046	384.25
321.275	376.25
321.504	372.25
321.733	379.25
321.962	377.25
322.191	387.25
322.42	391.25
322.649	402.25
322.878	399.25
323.108	406.25
323.337	395.25
323.566	401.25
323.795	444.25
324.024	459.25
324.253	510.25
324.482	664.25
324.71	946.25
324.939	1280.25
325.168	1071.25
325.397	624.25
325.626	494.25
325.855	441.25
326.084	468.25
326.313	441.25
326.542	451.25
326.77	456.25
326.999	508.25
327.228	660.25
327.457	891.25
327.686	1002.25
327.914	692.25
328.143	524.25
328.372	489.25
328.6	469.25
328.829	487.25
329.058	469.25
329.287	471.25
329.515	458.25
329.744	438.25
329.972	458.25
330.201	462.25
330.43	501.25
330.658	504.25
330.887	497.25
331.115	498.25
331.344	478.25
331.572	448.25
331.801	456.25
332.03	466.25
332.258	460.25
332.486	475.25
332.715	481.25
332.943	493.25
333.172	493.25
333.4	509.25
333.629	502.25
333.857	522.25
334.085	544.25
334.314	543.25
334.542	550.25
334.771	543.25
334.999	508.25
335.227	485.25
335.455	485.25
335.684	486.25
335.912	480.25
336.14	495.25
336.369	459.25
336.597	486.25
336.825	465.25
337.053	490.25
337.281	442.25
337.51	449.25
337.738	440.25
337.966	453.25
338.194	437.25
338.422	447.25
338.65	439.25
338.878	449.25
339.106	424.25
339.334	438.25
339.562	464.25
339.79	450.25
340.018	436.25
340.246	433.25
340.474	433.25
340.702	437.25
340.93	435.25
341.158	432.25
341.386	446.25
341.614	428.25
341.842	433.25
342.07	436.25
342.298	410.25
342.526	426.25
342.754	435.25
342.981	406.25
343.209	425.25
343.437	430.25
343.665	448.25
343.893	479.25
344.12	489.25
344.348	479.25
344.576	457.25
344.804	445.25
345.031	439.25
345.259	440.25
345.487	438.25
345.714	432.25
345.942	424.25
346.17	426.25
346.397	423.25
346.625	392.25
346.853	424.25
347.08	398.25
347.308	423.25
347.535	417.25
347.763	422.25
347.99	427.25
348.218	428.25
348.445	412.25
348.673	406.25
348.9	408.25
349.128	419.25
349.355	394.25
349.583	398.25
349.81	415.25
350.037	385.25
350.265	401.25
350.492	417.25
350.72	409.25
350.947	406.25
351.174	404.25
351.402	407.25
351.629	396.25
351.856	416.25
352.083	416.25
352.311	406.25
352.538	385.25
352.765	395.25
352.992	407.25
353.22	415.25
353.447	400.25
353.674	404.25
353.901	395.25
354.128	389.25
354.355	398.25
354.583	399.25
354.81	396.25
355.037	395.25
355.264	393.25
355.491	390.25
355.718	400.25
355.945	405.25
356.172	408.25
356.399	387.25
356.626	408.25
356.853	403.25
357.08	402.25
357.307	381.25
357.534	399.25
357.761	381.25
357.988	404.25
358.215	400.25
358.441	390.25
358.668	411.25
358.895	390.25
359.122	409.25
359.349	405.25
359.576	422.25
359.802	403.25
360.029	432.25
360.256	452.25
360.483	436.25
360.709	399.25
360.936	420.25
361.163	408.25
361.39	419.25
361.616	403.25
361.843	392.25
362.07	424.25
362.296	405.25
362.523	402.25
362.749	414.25
362.976	431.25
363.203	408.25
363.429	405.25
363.656	416.25
363.882	401.25
364.109	388.25
364.335	409.25
364.562	404.25
364.788	404.25
365.015	420.25
365.241	406.25
365.468	406.25
365.694	425.25
365.92	404.25
366.147	411.25
366.373	388.25
366.599	401.25
366.826	398.25
367.052	399.25
367.278	391.25
367.505	433.25
367.731	427.25
367.957	420.25
368.184	392.25
368.41	424.25
368.636	406.25
368.862	406.25
369.089	418.25
369.315	392.25
369.541	404.25
369.767	398.25
369.993	422.25
370.219	414.25
370.445	412.25
370.672	409.25
370.898	391.25
371.124	413.25
371.35	418.25
371.576	402.25
371.802	431.25
372.028	416.25
372.254	406.25
372.48	407.25
372.706	433.25
372.932	409.25
373.158	430.25
373.384	423.25
373.61	426.25
373.835	403.25
374.061	416.25
374.287	448.25
374.513	440.25
374.739	442.25
374.965	427.25
375.191	449.25
375.416	433.25
375.642	438.25
375.868	450.25
376.094	434.25
376.319	414.25
376.545	410.25
376.771	424.25
376.997	440.25
377.222	423.25
377.448	412.25
377.674	411.25
377.899	407.25
378.125	430.25
378.35	434.25
378.576	407.25
378.802	421.25
379.027	409.25
379.253	422.25
379.478	399.25
379.704	406.25
379.929	420.25
380.155	394.25
380.38	412.25
380.606	435.25
380.831	407.25
381.057	430.25
381.282	430.25
381.507	421.25
381.733	416.25
381.958	413.25
382.184	426.25
382.409	436.25
382.634	449.25
382.86	428.25
383.085	435.25
383.31	446.25
383.535	449.25
383.761	448.25
383.986	468.25
384.211	452.25
384.436	459.25
384.662	465.25
384.887	473.25
385.112	485.25
385.337	466.25
385.562	479.25
385.787	484.25
386.013	494.25
386.238	507.25
386.463	494.25
386.688	492.25
386.913	478.25
387.138	469.25
387.363	490.25
387.588	484.25
387.813	499.25
388.038	479.25
388.263	482.25
388.488	466.25
388.713	481.25
388.938	490.25
389.163	475.25
389.387	486.25
389.612	467.25
389.837	460.25
390.062	454.25
390.287	478.25
390.512	471.25
390.736	511.25
390.961	490.25
391.186	496.25
391.411	505.25
391.636	513.25
391.86	502.25
392.085	512.25
392.31	504.25
392.534	508.25
392.759	522.25
392.984	512.25
393.208	489.25
393.433	506.25
393.658	500.25
393.882	503.25
394.107	487.25
394.331	492.25
394.556	502.25
394.78	508.25
395.005	523.25
395.229	514.25
395.454	533.25
395.678	535.25
395.903	535.25
396.127	524.25
396.352	528.25
396.576	485.25
396.801	496.25
397.025	514.25
397.249	524.25
397.474	511.25
397.698	532.25
397.922	531.25
398.147	523.25
398.371	527.25
398.595	558.25
398.82	550.25
399.044	601.25
399.268	624.25
399.492	707.25
399.717	750.25
399.941	750.25
400.165	719.25
400.389	705.25
400.613	643.25
400.837	621.25
401.062	570.25
401.286	553.25
401.51	552.25
401.734	571.25
401.958	568.25
402.182	563.25
402.406	581.25
402.63	616.25
402.854	603.25
403.078	598.25
403.302	616.25
403.526	628.25
403.75	626.25
403.974	614.25
404.198	627.25
404.422	613.25
404.645	606.25
404.869	644.25
405.093	647.25
405.317	665.25
405.541	660.25
405.765	624.25
405.988	629.25
406.212	652.25
406.436	628.25
406.66	651.25
406.883	630.25
407.107	650.25
407.331	690.25
407.555	729.25
407.778	736.25
408.002	704.25
408.226	654.25
408.449	654.25
408.673	647.25
408.896	638.25
409.12	643.25
409.344	661.25
409.567	615.25
409.791	597.25
410.014	593.25
410.238	613.25
410.461	602.25
410.685	604.25
410.908	616.25
411.132	620.25
411.355	610.25
411.578	596.25
411.802	578.25
412.025	612.25
412.249	603.25
412.472	635.25
412.695	634.25
412.919	617.25
413.142	576.25
413.365	588.25
413.589	581.25
413.812	571.25
414.035	539.25
414.258	566.25
414.482	556.25
414.705	527.25
414.928	559.25
415.151	561.25
415.374	552.25
415.597	556.25
415.821	555.25
416.044	559.25
416.267	560.25
416.49	562.25
416.713	533.25
416.936	532.25
417.159	567.25
417.382	559.25
417.605	574.25
417.828	556.25
418.051	572.25
418.274	579.25
418.497	565.25
418.72	576.25
418.943	577.25
419.166	595.25
419.389	610.25
419.611	606.25
419.834	572.25
420.057	590.25
420.28	582.25
420.503	558.25
420.726	578.25
420.948	568.25
421.171	597.25
421.394	588.25
421.617	597.25
421.839	565.25
422.062	562.25
422.285	556.25
422.507	594.25
422.73	641.25
422.953	630.25
423.175	607.25
423.398	580.25
423.621	568.25
423.843	590.25
424.066	622.25
424.288	600.25
424.511	609.25
424.733	599.25
424.956	664.25
425.178	643.25
425.401	637.25
425.623	635.25
425.846	591.25
426.068	578.25
426.291	545.25
426.513	538.25
426.735	562.25
426.958	588.25
427.18	640.25
427.402	685.25
427.625	767.25
427.847	665.25
428.069	611.25
428.292	559.25
428.514	538.25
428.736	526.25
428.958	525.25
429.181	526.25
429.403	517.25
429.625	535.25
429.847	536.25
430.069	571.25
430.292	552.25
430.514	515.25
430.736	496.25
430.958	520.25
431.18	497.25
431.402	500.25
431.624	506.25
431.846	479.25
432.068	513.25
432.29	517.25
432.512	507.25
432.734	507.25
432.956	518.25
433.178	528.25
433.4	518.25
433.622	508.25
433.844	514.25
434.066	522.25
434.287	513.25
434.509	537.25
434.731	557.25
434.953	552.25
435.175	547.25
435.397	576.25
435.618	582.25
435.84	564.25
436.062	598.25
436.284	637.25
436.505	562.25
436.727	516.25
436.949	530.25
437.17	543.25
437.392	506.25
437.614	518.25
437.835	521.25
438.057	570.25
438.278	624.25
438.5	634.25
438.721	674.25
438.943	675.25
439.165	582.25
439.386	532.25
439.608	532.25
439.829	536.25
440.05	530.25
440.272	575.25
440.493	552.25
440.715	537.25
440.936	537.25
441.158	531.25
441.379	531.25
441.6	551.25
441.822	562.25
442.043	617.25
442.264	644.25
442.486	644.25
442.707	596.25
442.928	568.25
443.149	595.25
443.371	592.25
443.592	609.25
443.813	666.25
444.034	726.25
444.255	633.25
444.476	603.25
444.698	614.25
444.919	626.25
445.14	729.25
445.361	652.25
445.582	608.25
445.803	639.25
446.024	667.25
446.245	654.25
446.466	614.25
446.687	565.25
446.908	535.25
447.129	524.25
447.35	522.25
447.571	530.25
447.792	489.25
448.013	509.25
448.234	499.25
448.455	535.25
448.675	609.25
448.896	649.25
449.117	582.25
449.338	550.25
449.559	600.25
449.779	692.25
450	561.25
450.221	519.25
450.442	485.25
450.662	478.25
450.883	481.25
451.104	487.25
451.324	489.25
451.545	461.25
451.766	479.25
451.986	466.25
452.207	455.25
452.428	471.25
452.648	470.25
452.869	470.25
453.089	467.25
453.31	500.25
453.53	462.25
453.751	465.25
453.971	435.25
454.192	483.25
454.412	428.25
454.633	426.25
454.853	434.25
455.073	447.25
455.294	462.25
455.514	512.25
455.734	484.25
455.955	439.25
456.175	458.25
456.395	425.25
456.616	435.25
456.836	441.25
457.056	444.25
457.276	429.25
457.497	418.25
457.717	426.25
457.937	454.25
458.157	451.25
458.377	437.25
458.598	480.25
458.818	480.25
459.038	528.25
459.258	572.25
459.478	507.25
459.698	512.25
459.918	504.25
460.138	536.25
460.358	530.25
460.578	543.25
460.798	550.25
461.018	534.25
461.238	530.25
461.458	552.25
461.678	534.25
461.898	563.25
462.118	555.25
462.338	551.25
462.558	579.25
462.777	600.25
462.997	596.25
463.217	654.25
463.437	657.25
463.657	650.25
463.876	604.25
464.096	599.25
464.316	586.25
464.536	617.25
464.755	590.25
464.975	588.25
465.195	580.25
465.414	602.25
465.634	542.25
465.854	524.25
466.073	516.25
466.293	515.25
466.512	495.25
466.732	499.25
466.951	494.25
467.171	465.25
467.391	470.25
467.61	493.25
467.829	491.25
468.049	483.25
468.268	494.25
468.488	485.25
468.707	452.25
468.927	450.25
469.146	473.25
469.365	479.25
469.585	469.25
469.804	485.25
470.023	480.25
470.243	513.25
470.462	496.25
470.681	498.25
470.901	532.25
471.12	497.25
471.339	472.25
471.558	494.25
471.777	486.25
471.997	465.25
472.216	466.25
472.435	529.25
472.654	477.25
472.873	470.25
473.092	465.25
473.311	480.25
473.53	451.25
473.749	475.25
473.968	487.25
474.187	566.25
474.406	545.25
474.625	483.25
474.844	482.25
475.063	466.25
475.282	494.25
475.501	473.25
475.72	463.25
475.939	459.25
476.158	473.25
476.377	485.25
476.596	468.25
476.814	482.25
477.033	493.25
477.252	519.25
477.471	502.25
477.69	502.25
477.908	536.25
478.127	529.25
478.346	529.25
478.564	543.25
478.783	555.25
479.002	559.25
479.22	564.25
479.439	568.25
479.658	558.25
479.876	571.25
480.095	580.25
480.313	599.25
480.532	593.25
480.751	598.25
480.969	606.25
481.188	627.25
481.406	640.25
481.624	582.25
481.843	578.25
482.061	530.25
482.28	540.25
482.498	535.25
482.717	531.25
482.935	520.25
483.153	536.25
483.372	528.25
483.59	550.25
483.808	531.25
484.027	530.25
484.245	550.25
484.463	561.25
484.681	558.25
484.9	553.25
485.118	569.25
485.336	548.25
485.554	550.25
485.772	527.25
485.99	556.25
486.209	571.25
486.427	579.25
486.645	594.25
486.863	587.25
487.081	571.25
487.299	559.25
487.517	575.25
487.735	587.25
487.953	561.25
488.171	590.25
488.389	564.25
488.607	561.25
488.825	576.25
489.043	578.25
489.261	578.25
489.479	590.25
489.696	566.25
489.914	577.25
490.132	576.25
490.35	599.25
490.568	602.25
490.786	608.25
491.003	590.25
491.221	617.25
491.439	622.25
491.657	632.25
491.874	642.25
492.092	628.25
492.31	627.25
492.527	651.25
492.745	648.25
492.963	674.25
493.18	650.25
493.398	637.25
493.615	640.25
493.833	667.25
494.05	652.25
494.268	662.25
494.485	649.25
494.703	666.25
494.92	651.25
495.138	641.25
495.355	659.25
495.573	649.25
495.79	655.25
496.008	640.25
496.225	640.25
496.442	653.25
496.66	630.25
496.877	682.25
497.094	680.25
497.312	673.25
497.529	658.25
497.746	682.25
497.963	712.25
498.181	753.25
498.398	741.25
498.615	762.25
498.832	804.25
499.049	878.25
499.267	891.25
499.484	961.25
499.701	986.25
499.918	1078.25
500.135	1179.25
500.352	1277.25
500.569	1323.25
500.786	1305.25
501.003	1240.25
501.22	1130.25
501.437	1078.25
501.654	999.25
501.871	930.25
