Data from 1960PennyLincolnUp.LampE5.5.200Scan.07172019.P1.ChangedAngle_HRD10591_13-14-21-821.txt Node
Date: Thu Jul 18 13:14:21 EDT 2019
User: cochatt
Spectrometer: HR+D1059
Trigger mode: 1
Integration Time (sec): 1.000000E-1
Scans to average: 1
Electric dark correction enabled: true
Nonlinearity correction enabled: false
Boxcar width: 0
XAxis mode: Wavelengths
Number of Pixels in Spectrum: 2048
>>>>>Begin Spectral Data<<<<<
223.165	-17.88
223.4	-17.88
223.635	-17.88
223.869	-6.88
224.104	-6.88
224.338	-18.88
224.573	-17.88
224.808	-6.88
225.042	-20.88
225.277	-14.88
225.511	7.12
225.746	7.12
225.98	10.12
226.215	7.12
226.449	13.12
226.683	21.12
226.918	19.12
227.152	26.12
227.387	31.12
227.621	33.12
227.856	42.12
228.09	38.12
228.324	48.12
228.559	46.12
228.793	77.12
229.027	91.12
229.262	96.12
229.496	101.12
229.73	85.12
229.964	115.12
230.199	102.12
230.433	92.12
230.667	104.12
230.901	98.12
231.136	93.12
231.37	102.12
231.604	98.12
231.838	112.12
232.072	94.12
232.306	112.12
232.541	120.12
232.775	110.12
233.009	108.12
233.243	104.12
233.477	111.12
233.711	110.12
233.945	117.12
234.179	104.12
234.413	112.12
234.647	116.12
234.881	111.12
235.115	88.12
235.349	110.12
235.583	110.12
235.817	108.12
236.051	121.12
236.285	122.12
236.519	108.12
236.753	113.12
236.987	125.12
237.221	150.12
237.455	160.12
237.689	146.12
237.922	114.12
238.156	120.12
238.39	120.12
238.624	109.12
238.858	104.12
239.091	109.12
239.325	111.12
239.559	116.12
239.793	136.12
240.027	118.12
240.26	107.12
240.494	118.12
240.728	143.12
240.961	122.12
241.195	120.12
241.429	124.12
241.662	112.12
241.896	108.12
242.13	129.12
242.363	128.12
242.597	136.12
242.83	126.12
243.064	138.12
243.298	117.12
243.531	125.12
243.765	129.12
243.998	127.12
244.232	130.12
244.465	137.12
244.699	131.12
244.932	137.12
245.166	120.12
245.399	128.12
245.633	140.12
245.866	148.12
246.099	136.12
246.333	135.12
246.566	143.12
246.8	135.12
247.033	149.12
247.266	140.12
247.5	150.12
247.733	155.12
247.966	145.12
248.2	156.12
248.433	152.12
248.666	151.12
248.899	157.12
249.133	178.12
249.366	168.12
249.599	157.12
249.832	161.12
250.066	159.12
250.299	177.12
250.532	180.12
250.765	181.12
250.998	183.12
251.231	184.12
251.465	157.12
251.698	186.12
251.931	172.12
252.164	176.12
252.397	174.12
252.63	175.12
252.863	155.12
253.096	195.12
253.329	191.12
253.562	175.12
253.795	183.12
254.028	196.12
254.261	180.12
254.494	188.12
254.727	207.12
254.96	208.12
255.193	211.12
255.426	203.12
255.659	206.12
255.892	185.12
256.124	201.12
256.357	204.12
256.59	204.12
256.823	185.12
257.056	188.12
257.289	178.12
257.521	188.12
257.754	179.12
257.987	192.12
258.22	192.12
258.452	189.12
258.685	184.12
258.918	191.12
259.151	193.12
259.383	191.12
259.616	206.12
259.849	205.12
260.081	207.12
260.314	221.12
260.547	220.12
260.779	215.12
261.012	197.12
261.244	207.12
261.477	190.12
261.71	188.12
261.942	197.12
262.175	188.12
262.407	208.12
262.64	192.12
262.872	200.12
263.105	190.12
263.337	198.12
263.57	212.12
263.802	194.12
264.035	194.12
264.267	189.12
264.499	195.12
264.732	192.12
264.964	186.12
265.197	205.12
265.429	195.12
265.661	201.12
265.894	192.12
266.126	200.12
266.358	202.12
266.591	201.12
266.823	207.12
267.055	196.12
267.287	214.12
267.52	206.12
267.752	212.12
267.984	211.12
268.216	208.12
268.448	212.12
268.681	211.12
268.913	231.12
269.145	247.12
269.377	237.12
269.609	224.12
269.841	238.12
270.073	225.12
270.306	243.12
270.538	258.12
270.77	244.12
271.002	236.12
271.234	254.12
271.466	268.12
271.698	261.12
271.93	252.12
272.162	260.12
272.394	269.12
272.626	242.12
272.858	236.12
273.09	252.12
273.322	254.12
273.553	244.12
273.785	245.12
274.017	233.12
274.249	231.12
274.481	224.12
274.713	245.12
274.945	247.12
275.176	234.12
275.408	234.12
275.64	237.12
275.872	244.12
276.104	258.12
276.335	238.12
276.567	244.12
276.799	232.12
277.031	258.12
277.262	259.12
277.494	264.12
277.726	263.12
277.957	246.12
278.189	240.12
278.421	249.12
278.652	262.12
278.884	263.12
279.115	261.12
279.347	252.12
279.579	242.12
279.81	254.12
280.042	255.12
280.273	253.12
280.505	245.12
280.736	240.12
280.968	262.12
281.199	241.12
281.431	256.12
281.662	247.12
281.894	247.12
282.125	256.12
282.356	261.12
282.588	266.12
282.819	278.12
283.051	266.12
283.282	266.12
283.513	271.12
283.745	257.12
283.976	259.12
284.207	284.12
284.439	271.12
284.67	271.12
284.901	263.12
285.132	243.12
285.364	254.12
285.595	248.12
285.826	263.12
286.057	273.12
286.288	272.12
286.52	270.12
286.751	262.12
286.982	256.12
287.213	258.12
287.444	277.12
287.675	277.12
287.906	271.12
288.138	282.12
288.369	294.12
288.6	289.12
288.831	276.12
289.062	266.12
289.293	275.12
289.524	238.12
289.755	277.12
289.986	278.12
290.217	263.12
290.448	261.12
290.679	276.12
290.91	259.12
291.141	272.12
291.371	262.12
291.602	251.12
291.833	274.12
292.064	256.12
292.295	272.12
292.526	272.12
292.757	269.12
292.987	281.12
293.218	285.12
293.449	287.12
293.68	279.12
293.91	280.12
294.141	272.12
294.372	255.12
294.603	278.12
294.833	276.12
295.064	286.12
295.295	287.12
295.525	293.12
295.756	258.12
295.987	269.12
296.217	290.12
296.448	286.12
296.679	297.12
296.909	282.12
297.14	282.12
297.37	287.12
297.601	295.12
297.831	288.12
298.062	293.12
298.292	296.12
298.523	276.12
298.753	294.12
298.984	278.12
299.214	290.12
299.445	307.12
299.675	284.12
299.905	306.12
300.136	295.12
300.366	290.12
300.597	296.12
300.827	284.12
301.057	299.12
301.288	288.12
301.518	303.12
301.748	296.12
301.979	297.12
302.209	310.12
302.439	298.12
302.669	297.12
302.9	293.12
303.13	313.12
303.36	302.12
303.59	308.12
303.82	305.12
304.051	302.12
304.281	312.12
304.511	299.12
304.741	315.12
304.971	311.12
305.201	304.12
305.431	286.12
305.661	322.12
305.891	289.12
306.121	297.12
306.352	312.12
306.582	307.12
306.812	302.12
307.042	302.12
307.272	314.12
307.502	296.12
307.731	314.12
307.961	316.12
308.191	323.12
308.421	304.12
308.651	319.12
308.881	326.12
309.111	314.12
309.341	307.12
309.571	320.12
309.8	314.12
310.03	325.12
310.26	315.12
310.49	328.12
310.72	337.12
310.949	351.12
311.179	330.12
311.409	347.12
311.639	345.12
311.868	332.12
312.098	336.12
312.328	321.12
312.557	333.12
312.787	342.12
313.017	338.12
313.246	332.12
313.476	338.12
313.706	339.12
313.935	361.12
314.165	340.12
314.394	348.12
314.624	354.12
314.853	340.12
315.083	326.12
315.312	359.12
315.542	345.12
315.771	343.12
316.001	336.12
316.23	318.12
316.46	332.12
316.689	326.12
316.919	362.12
317.148	350.12
317.377	342.12
317.607	344.12
317.836	337.12
318.065	338.12
318.295	341.12
318.524	338.12
318.753	350.12
318.983	350.12
319.212	356.12
319.441	352.12
319.67	344.12
319.9	320.12
320.129	353.12
320.358	344.12
320.587	342.12
320.816	370.12
321.046	356.12
321.275	370.12
321.504	349.12
321.733	341.12
321.962	348.12
322.191	364.12
322.42	358.12
322.649	373.12
322.878	369.12
323.108	373.12
323.337	390.12
323.566	389.12
323.795	416.12
324.024	413.12
324.253	504.12
324.482	648.12
324.71	884.12
324.939	1177.12
325.168	1017.12
325.397	598.12
325.626	461.12
325.855	413.12
326.084	412.12
326.313	382.12
326.542	376.12
326.77	426.12
326.999	484.12
327.228	583.12
327.457	815.12
327.686	900.12
327.914	655.12
328.143	483.12
328.372	449.12
328.6	439.12
328.829	434.12
329.058	421.12
329.287	415.12
329.515	416.12
329.744	424.12
329.972	388.12
330.201	401.12
330.43	417.12
330.658	447.12
330.887	436.12
331.115	448.12
331.344	414.12
331.572	428.12
331.801	406.12
332.03	396.12
332.258	389.12
332.486	396.12
332.715	399.12
332.943	385.12
333.172	390.12
333.4	420.12
333.629	404.12
333.857	418.12
334.085	436.12
334.314	425.12
334.542	439.12
334.771	436.12
334.999	401.12
335.227	420.12
335.455	398.12
335.684	383.12
335.912	402.12
336.14	368.12
336.369	387.12
336.597	410.12
336.825	389.12
337.053	408.12
337.281	383.12
337.51	385.12
337.738	401.12
337.966	397.12
338.194	405.12
338.422	386.12
338.65	386.12
338.878	401.12
339.106	365.12
339.334	394.12
339.562	403.12
339.79	409.12
340.018	370.12
340.246	366.12
340.474	374.12
340.702	382.12
340.93	355.12
341.158	360.12
341.386	371.12
341.614	398.12
341.842	391.12
342.07	378.12
342.298	358.12
342.526	371.12
342.754	362.12
342.981	369.12
343.209	382.12
343.437	364.12
343.665	384.12
343.893	390.12
344.12	404.12
344.348	381.12
344.576	389.12
344.804	379.12
345.031	406.12
345.259	386.12
345.487	372.12
345.714	384.12
345.942	352.12
346.17	360.12
346.397	358.12
346.625	364.12
346.853	366.12
347.08	359.12
347.308	368.12
347.535	365.12
347.763	368.12
347.99	372.12
348.218	364.12
348.445	377.12
348.673	374.12
348.9	352.12
349.128	358.12
349.355	350.12
349.583	354.12
349.81	349.12
350.037	343.12
350.265	347.12
350.492	345.12
350.72	351.12
350.947	360.12
351.174	351.12
351.402	370.12
351.629	356.12
351.856	355.12
352.083	357.12
352.311	370.12
352.538	369.12
352.765	357.12
352.992	353.12
353.22	333.12
353.447	334.12
353.674	369.12
353.901	358.12
354.128	357.12
354.355	337.12
354.583	340.12
354.81	334.12
355.037	339.12
355.264	349.12
355.491	332.12
355.718	335.12
355.945	330.12
356.172	350.12
356.399	360.12
356.626	324.12
356.853	342.12
357.08	330.12
357.307	317.12
357.534	343.12
357.761	335.12
357.988	348.12
358.215	337.12
358.441	340.12
358.668	343.12
358.895	342.12
359.122	332.12
359.349	353.12
359.576	351.12
359.802	358.12
360.029	365.12
360.256	377.12
360.483	348.12
360.709	332.12
360.936	364.12
361.163	344.12
361.39	377.12
361.616	350.12
361.843	351.12
362.07	343.12
362.296	357.12
362.523	342.12
362.749	342.12
362.976	332.12
363.203	351.12
363.429	334.12
363.656	332.12
363.882	340.12
364.109	316.12
364.335	327.12
364.562	339.12
364.788	333.12
365.015	352.12
365.241	331.12
365.468	326.12
365.694	326.12
365.92	360.12
366.147	344.12
366.373	332.12
366.599	359.12
366.826	343.12
367.052	335.12
367.278	329.12
367.505	352.12
367.731	339.12
367.957	329.12
368.184	348.12
368.41	335.12
368.636	354.12
368.862	352.12
369.089	342.12
369.315	326.12
369.541	340.12
369.767	320.12
369.993	332.12
370.219	334.12
370.445	347.12
370.672	334.12
370.898	343.12
371.124	358.12
371.35	334.12
371.576	360.12
371.802	327.12
372.028	322.12
372.254	332.12
372.48	349.12
372.706	350.12
372.932	327.12
373.158	337.12
373.384	344.12
373.61	326.12
373.835	341.12
374.061	331.12
374.287	358.12
374.513	346.12
374.739	340.12
374.965	349.12
375.191	327.12
375.416	341.12
375.642	340.12
375.868	336.12
376.094	337.12
376.319	334.12
376.545	334.12
376.771	330.12
376.997	337.12
377.222	349.12
377.448	338.12
377.674	324.12
377.899	342.12
378.125	330.12
378.35	329.12
378.576	322.12
378.802	319.12
379.027	350.12
379.253	334.12
379.478	325.12
379.704	332.12
379.929	321.12
380.155	320.12
380.38	342.12
380.606	356.12
380.831	324.12
381.057	339.12
381.282	337.12
381.507	343.12
381.733	316.12
381.958	345.12
382.184	347.12
382.409	357.12
382.634	363.12
382.86	345.12
383.085	342.12
383.31	347.12
383.535	344.12
383.761	349.12
383.986	358.12
384.211	374.12
384.436	347.12
384.662	362.12
384.887	356.12
385.112	355.12
385.337	368.12
385.562	362.12
385.787	346.12
386.013	364.12
386.238	383.12
386.463	377.12
386.688	370.12
386.913	369.12
387.138	368.12
387.363	366.12
387.588	350.12
387.813	357.12
388.038	364.12
388.263	377.12
388.488	348.12
388.713	359.12
388.938	370.12
389.163	350.12
389.387	368.12
389.612	376.12
389.837	350.12
390.062	366.12
390.287	376.12
390.512	368.12
390.736	359.12
390.961	366.12
391.186	358.12
391.411	354.12
391.636	365.12
391.86	339.12
392.085	384.12
392.31	383.12
392.534	386.12
392.759	368.12
392.984	381.12
393.208	381.12
393.433	371.12
393.658	383.12
393.882	374.12
394.107	366.12
394.331	378.12
394.556	369.12
394.78	366.12
395.005	373.12
395.229	390.12
395.454	372.12
395.678	352.12
395.903	374.12
396.127	381.12
396.352	392.12
396.576	363.12
396.801	384.12
397.025	393.12
397.249	373.12
397.474	400.12
397.698	376.12
397.922	392.12
398.147	374.12
398.371	390.12
398.595	414.12
398.82	386.12
399.044	409.12
399.268	421.12
399.492	447.12
399.717	470.12
399.941	462.12
400.165	470.12
400.389	463.12
400.613	452.12
400.837	440.12
401.062	405.12
401.286	416.12
401.51	397.12
401.734	409.12
401.958	405.12
402.182	412.12
402.406	407.12
402.63	410.12
402.854	430.12
403.078	418.12
403.302	398.12
403.526	415.12
403.75	405.12
403.974	407.12
404.198	413.12
404.422	401.12
404.645	412.12
404.869	390.12
405.093	440.12
405.317	457.12
405.541	480.12
405.765	444.12
405.988	441.12
406.212	422.12
406.436	432.12
406.66	455.12
406.883	438.12
407.107	446.12
407.331	466.12
407.555	516.12
407.778	524.12
408.002	482.12
408.226	462.12
408.449	451.12
408.673	439.12
408.896	446.12
409.12	479.12
409.344	442.12
409.567	444.12
409.791	436.12
410.014	416.12
410.238	404.12
410.461	434.12
410.685	427.12
410.908	421.12
411.132	448.12
411.355	439.12
411.578	438.12
411.802	402.12
412.025	409.12
412.249	414.12
412.472	435.12
412.695	430.12
412.919	426.12
413.142	405.12
413.365	394.12
413.589	404.12
413.812	374.12
414.035	379.12
414.258	393.12
414.482	380.12
414.705	394.12
414.928	389.12
415.151	392.12
415.374	399.12
415.597	379.12
415.821	382.12
416.044	385.12
416.267	399.12
416.49	374.12
416.713	401.12
416.936	394.12
417.159	395.12
417.382	380.12
417.605	386.12
417.828	367.12
418.051	385.12
418.274	395.12
418.497	383.12
418.72	382.12
418.943	381.12
419.166	387.12
419.389	412.12
419.611	418.12
419.834	397.12
420.057	397.12
420.28	390.12
420.503	391.12
420.726	384.12
420.948	408.12
421.171	420.12
421.394	425.12
421.617	413.12
421.839	380.12
422.062	399.12
422.285	385.12
422.507	431.12
422.73	476.12
422.953	462.12
423.175	414.12
423.398	400.12
423.621	407.12
423.843	441.12
424.066	416.12
424.288	401.12
424.511	418.12
424.733	462.12
424.956	489.12
425.178	457.12
425.401	485.12
425.623	477.12
425.846	434.12
426.068	424.12
426.291	405.12
426.513	412.12
426.735	403.12
426.958	450.12
427.18	480.12
427.402	573.12
427.625	588.12
427.847	531.12
428.069	456.12
428.292	409.12
428.514	397.12
428.736	383.12
428.958	384.12
429.181	385.12
429.403	383.12
429.625	379.12
429.847	405.12
430.069	430.12
430.292	466.12
430.514	382.12
430.736	363.12
430.958	383.12
431.18	350.12
431.402	364.12
431.624	349.12
431.846	353.12
432.068	351.12
432.29	364.12
432.512	394.12
432.734	368.12
432.956	371.12
433.178	385.12
433.4	379.12
433.622	368.12
433.844	362.12
434.066	369.12
434.287	376.12
434.509	374.12
434.731	370.12
434.953	376.12
435.175	391.12
435.397	395.12
435.618	384.12
435.84	431.12
436.062	474.12
436.284	513.12
436.505	460.12
436.727	410.12
436.949	389.12
437.17	384.12
437.392	379.12
437.614	405.12
437.835	394.12
438.057	457.12
438.278	498.12
438.5	519.12
438.721	554.12
438.943	519.12
439.165	448.12
439.386	400.12
439.608	382.12
439.829	400.12
440.05	423.12
440.272	447.12
440.493	420.12
440.715	388.12
440.936	374.12
441.158	377.12
441.379	375.12
441.6	397.12
441.822	395.12
442.043	416.12
442.264	460.12
442.486	475.12
442.707	407.12
442.928	411.12
443.149	391.12
443.371	435.12
443.592	443.12
443.813	489.12
444.034	512.12
444.255	457.12
444.476	405.12
444.698	431.12
444.919	409.12
445.14	523.12
445.361	469.12
445.582	426.12
445.803	446.12
446.024	507.12
446.245	512.12
446.466	455.12
446.687	407.12
446.908	405.12
447.129	361.12
447.35	377.12
447.571	376.12
447.792	381.12
448.013	385.12
448.234	369.12
448.455	403.12
448.675	465.12
448.896	545.12
449.117	476.12
449.338	431.12
449.559	520.12
449.779	578.12
450	450.12
450.221	385.12
450.442	372.12
450.662	370.12
450.883	366.12
451.104	367.12
451.324	353.12
451.545	343.12
451.766	344.12
451.986	319.12
452.207	334.12
452.428	334.12
452.648	330.12
452.869	362.12
453.089	343.12
453.31	340.12
453.53	353.12
453.751	327.12
453.971	338.12
454.192	352.12
454.412	333.12
454.633	345.12
454.853	350.12
455.073	336.12
455.294	358.12
455.514	380.12
455.734	387.12
455.955	334.12
456.175	318.12
456.395	327.12
456.616	307.12
456.836	315.12
457.056	331.12
457.276	326.12
457.497	321.12
457.717	326.12
457.937	344.12
458.157	356.12
458.377	334.12
458.598	358.12
458.818	386.12
459.038	409.12
459.258	394.12
459.478	379.12
459.698	364.12
459.918	371.12
460.138	359.12
460.358	376.12
460.578	366.12
460.798	366.12
461.018	367.12
461.238	391.12
461.458	386.12
461.678	385.12
461.898	378.12
462.118	380.12
462.338	392.12
462.558	385.12
462.777	388.12
462.997	400.12
463.217	404.12
463.437	398.12
463.657	384.12
463.876	417.12
464.096	405.12
464.316	390.12
464.536	386.12
464.755	378.12
464.975	397.12
465.195	388.12
465.414	408.12
465.634	401.12
465.854	378.12
466.073	385.12
466.293	349.12
466.512	352.12
466.732	356.12
466.951	358.12
467.171	347.12
467.391	364.12
467.61	362.12
467.829	330.12
468.049	377.12
468.268	360.12
468.488	359.12
468.707	339.12
468.927	356.12
469.146	364.12
469.365	341.12
469.585	349.12
469.804	353.12
470.023	357.12
470.243	351.12
470.462	342.12
470.681	377.12
470.901	358.12
471.12	350.12
471.339	329.12
471.558	354.12
471.777	356.12
471.997	356.12
472.216	352.12
472.435	372.12
472.654	364.12
472.873	347.12
473.092	356.12
473.311	357.12
473.53	337.12
473.749	362.12
473.968	372.12
474.187	417.12
474.406	454.12
474.625	378.12
474.844	372.12
475.063	351.12
475.282	345.12
475.501	352.12
475.72	349.12
475.939	379.12
476.158	372.12
476.377	357.12
476.596	359.12
476.814	358.12
477.033	385.12
477.252	374.12
477.471	396.12
477.69	375.12
477.908	380.12
478.127	397.12
478.346	389.12
478.564	393.12
478.783	401.12
479.002	401.12
479.22	419.12
479.439	395.12
479.658	415.12
479.876	396.12
480.095	410.12
480.313	441.12
480.532	420.12
480.751	454.12
480.969	424.12
481.188	449.12
481.406	460.12
481.624	447.12
481.843	416.12
482.061	434.12
482.28	418.12
482.498	417.12
482.717	410.12
482.935	423.12
483.153	433.12
483.372	418.12
483.59	394.12
483.808	426.12
484.027	422.12
484.245	407.12
484.463	404.12
484.681	424.12
484.9	405.12
485.118	415.12
485.336	411.12
485.554	405.12
485.772	427.12
485.99	407.12
486.209	446.12
486.427	441.12
486.645	418.12
486.863	441.12
487.081	452.12
487.299	438.12
487.517	454.12
487.735	418.12
487.953	425.12
488.171	436.12
488.389	439.12
488.607	444.12
488.825	444.12
489.043	429.12
489.261	448.12
489.479	429.12
489.696	438.12
489.914	452.12
490.132	466.12
490.35	437.12
490.568	442.12
490.786	448.12
491.003	460.12
491.221	454.12
491.439	467.12
491.657	466.12
491.874	476.12
492.092	481.12
492.31	492.12
492.527	466.12
492.745	489.12
492.963	464.12
493.18	477.12
493.398	489.12
493.615	468.12
493.833	472.12
494.05	497.12
494.268	501.12
494.485	473.12
494.703	487.12
494.92	471.12
495.138	465.12
495.355	495.12
495.573	487.12
495.79	483.12
496.008	508.12
496.225	514.12
496.442	503.12
496.66	507.12
496.877	497.12
497.094	508.12
497.312	509.12
497.529	503.12
497.746	534.12
497.963	532.12
498.181	540.12
498.398	558.12
498.615	577.12
498.832	576.12
499.049	590.12
499.267	596.12
499.484	606.12
499.701	645.12
499.918	646.12
500.135	684.12
500.352	713.12
500.569	721.12
500.786	732.12
501.003	704.12
501.22	693.12
501.437	676.12
501.654	630.12
501.871	617.12
