Data from 1960PennyLincolnUp.LampE5.5.200Scan.07172019.P1.ChangedAngle_HRD10591_13-14-49-821.txt Node
Date: Thu Jul 18 13:14:49 EDT 2019
User: cochatt
Spectrometer: HR+D1059
Trigger mode: 1
Integration Time (sec): 1.000000E-1
Scans to average: 1
Electric dark correction enabled: true
Nonlinearity correction enabled: false
Boxcar width: 0
XAxis mode: Wavelengths
Number of Pixels in Spectrum: 2048
>>>>>Begin Spectral Data<<<<<
223.165	-25.81
223.4	-25.81
223.635	-25.81
223.869	-12.81
224.104	-28.81
224.338	-10.81
224.573	-9.81
224.808	-7.81
225.042	-10.81
225.277	-4.81
225.511	1.19
225.746	13.19
225.98	3.19
226.215	-3.81
226.449	3.19
226.683	26.19
226.918	37.19
227.152	31.19
227.387	26.19
227.621	54.19
227.856	38.19
228.09	38.19
228.324	49.19
228.559	48.19
228.793	58.19
229.027	89.19
229.262	90.19
229.496	97.19
229.73	104.19
229.964	116.19
230.199	113.19
230.433	100.19
230.667	103.19
230.901	90.19
231.136	97.19
231.37	107.19
231.604	102.19
231.838	113.19
232.072	109.19
232.306	119.19
232.541	90.19
232.775	96.19
233.009	105.19
233.243	106.19
233.477	108.19
233.711	115.19
233.945	98.19
234.179	97.19
234.413	106.19
234.647	111.19
234.881	108.19
235.115	100.19
235.349	118.19
235.583	111.19
235.817	113.19
236.051	108.19
236.285	111.19
236.519	113.19
236.753	122.19
236.987	123.19
237.221	148.19
237.455	168.19
237.689	135.19
237.922	118.19
238.156	120.19
238.39	107.19
238.624	114.19
238.858	109.19
239.091	116.19
239.325	124.19
239.559	124.19
239.793	119.19
240.027	125.19
240.26	122.19
240.494	116.19
240.728	146.19
240.961	120.19
241.195	136.19
241.429	129.19
241.662	129.19
241.896	110.19
242.13	120.19
242.363	113.19
242.597	116.19
242.83	127.19
243.064	127.19
243.298	140.19
243.531	120.19
243.765	114.19
243.998	142.19
244.232	144.19
244.465	136.19
244.699	119.19
244.932	124.19
245.166	125.19
245.399	155.19
245.633	142.19
245.866	141.19
246.099	136.19
246.333	131.19
246.566	150.19
246.8	148.19
247.033	152.19
247.266	153.19
247.5	143.19
247.733	140.19
247.966	167.19
248.2	143.19
248.433	151.19
248.666	158.19
248.899	168.19
249.133	172.19
249.366	176.19
249.599	172.19
249.832	168.19
250.066	152.19
250.299	159.19
250.532	162.19
250.765	179.19
250.998	200.19
251.231	196.19
251.465	183.19
251.698	173.19
251.931	184.19
252.164	164.19
252.397	166.19
252.63	161.19
252.863	178.19
253.096	184.19
253.329	192.19
253.562	188.19
253.795	190.19
254.028	205.19
254.261	177.19
254.494	196.19
254.727	193.19
254.96	211.19
255.193	226.19
255.426	210.19
255.659	206.19
255.892	204.19
256.124	191.19
256.357	202.19
256.59	189.19
256.823	191.19
257.056	190.19
257.289	208.19
257.521	184.19
257.754	191.19
257.987	201.19
258.22	183.19
258.452	183.19
258.685	186.19
258.918	196.19
259.151	206.19
259.383	188.19
259.616	212.19
259.849	199.19
260.081	199.19
260.314	221.19
260.547	227.19
260.779	199.19
261.012	210.19
261.244	202.19
261.477	186.19
261.71	187.19
261.942	197.19
262.175	219.19
262.407	213.19
262.64	189.19
262.872	206.19
263.105	198.19
263.337	217.19
263.57	188.19
263.802	182.19
264.035	217.19
264.267	206.19
264.499	173.19
264.732	205.19
264.964	193.19
265.197	184.19
265.429	194.19
265.661	191.19
265.894	209.19
266.126	196.19
266.358	201.19
266.591	202.19
266.823	207.19
267.055	200.19
267.287	207.19
267.52	225.19
267.752	221.19
267.984	203.19
268.216	192.19
268.448	213.19
268.681	222.19
268.913	208.19
269.145	241.19
269.377	236.19
269.609	233.19
269.841	214.19
270.073	234.19
270.306	243.19
270.538	246.19
270.77	261.19
271.002	260.19
271.234	265.19
271.466	257.19
271.698	274.19
271.93	292.19
272.162	271.19
272.394	262.19
272.626	263.19
272.858	248.19
273.09	247.19
273.322	234.19
273.553	228.19
273.785	256.19
274.017	240.19
274.249	257.19
274.481	241.19
274.713	241.19
274.945	240.19
275.176	233.19
275.408	256.19
275.64	240.19
275.872	235.19
276.104	244.19
276.335	233.19
276.567	241.19
276.799	269.19
277.031	268.19
277.262	282.19
277.494	284.19
277.726	257.19
277.957	249.19
278.189	268.19
278.421	268.19
278.652	252.19
278.884	254.19
279.115	255.19
279.347	272.19
279.579	263.19
279.81	268.19
280.042	246.19
280.273	275.19
280.505	264.19
280.736	271.19
280.968	253.19
281.199	260.19
281.431	260.19
281.662	255.19
281.894	239.19
282.125	259.19
282.356	260.19
282.588	258.19
282.819	279.19
283.051	245.19
283.282	251.19
283.513	279.19
283.745	262.19
283.976	258.19
284.207	262.19
284.439	270.19
284.67	273.19
284.901	276.19
285.132	260.19
285.364	265.19
285.595	268.19
285.826	260.19
286.057	276.19
286.288	262.19
286.52	262.19
286.751	264.19
286.982	258.19
287.213	271.19
287.444	285.19
287.675	288.19
287.906	294.19
288.138	295.19
288.369	295.19
288.6	281.19
288.831	281.19
289.062	278.19
289.293	276.19
289.524	287.19
289.755	290.19
289.986	269.19
290.217	281.19
290.448	285.19
290.679	281.19
290.91	280.19
291.141	272.19
291.371	261.19
291.602	254.19
291.833	275.19
292.064	294.19
292.295	268.19
292.526	267.19
292.757	288.19
292.987	283.19
293.218	278.19
293.449	264.19
293.68	285.19
293.91	276.19
294.141	287.19
294.372	263.19
294.603	280.19
294.833	261.19
295.064	297.19
295.295	287.19
295.525	280.19
295.756	297.19
295.987	284.19
296.217	296.19
296.448	301.19
296.679	287.19
296.909	276.19
297.14	289.19
297.37	281.19
297.601	269.19
297.831	273.19
298.062	282.19
298.292	296.19
298.523	288.19
298.753	282.19
298.984	300.19
299.214	284.19
299.445	292.19
299.675	300.19
299.905	296.19
300.136	295.19
300.366	303.19
300.597	312.19
300.827	307.19
301.057	300.19
301.288	299.19
301.518	312.19
301.748	309.19
301.979	294.19
302.209	293.19
302.439	288.19
302.669	298.19
302.9	317.19
303.13	305.19
303.36	308.19
303.59	307.19
303.82	327.19
304.051	320.19
304.281	299.19
304.511	312.19
304.741	304.19
304.971	300.19
305.201	317.19
305.431	326.19
305.661	302.19
305.891	327.19
306.121	312.19
306.352	324.19
306.582	320.19
306.812	310.19
307.042	336.19
307.272	319.19
307.502	320.19
307.731	317.19
307.961	320.19
308.191	320.19
308.421	311.19
308.651	298.19
308.881	318.19
309.111	314.19
309.341	329.19
309.571	330.19
309.8	351.19
310.03	349.19
310.26	359.19
310.49	326.19
310.72	356.19
310.949	349.19
311.179	348.19
311.409	346.19
311.639	359.19
311.868	339.19
312.098	342.19
312.328	347.19
312.557	351.19
312.787	367.19
313.017	354.19
313.246	368.19
313.476	356.19
313.706	372.19
313.935	343.19
314.165	356.19
314.394	360.19
314.624	348.19
314.853	342.19
315.083	348.19
315.312	349.19
315.542	340.19
315.771	342.19
316.001	318.19
316.23	345.19
316.46	358.19
316.689	358.19
316.919	384.19
317.148	359.19
317.377	337.19
317.607	338.19
317.836	347.19
318.065	364.19
318.295	353.19
318.524	343.19
318.753	360.19
318.983	349.19
319.212	360.19
319.441	362.19
319.67	341.19
319.9	358.19
320.129	358.19
320.358	359.19
320.587	348.19
320.816	360.19
321.046	370.19
321.275	374.19
321.504	386.19
321.733	367.19
321.962	356.19
322.191	381.19
322.42	392.19
322.649	382.19
322.878	390.19
323.108	409.19
323.337	410.19
323.566	419.19
323.795	438.19
324.024	474.19
324.253	545.19
324.482	692.19
324.71	1007.19
324.939	1297.19
325.168	1161.19
325.397	648.19
325.626	495.19
325.855	436.19
326.084	443.19
326.313	413.19
326.542	407.19
326.77	483.19
326.999	506.19
327.228	645.19
327.457	893.19
327.686	1026.19
327.914	719.19
328.143	536.19
328.372	492.19
328.6	473.19
328.829	446.19
329.058	451.19
329.287	456.19
329.515	450.19
329.744	446.19
329.972	441.19
330.201	435.19
330.43	460.19
330.658	469.19
330.887	465.19
331.115	449.19
331.344	415.19
331.572	398.19
331.801	420.19
332.03	426.19
332.258	396.19
332.486	413.19
332.715	409.19
332.943	421.19
333.172	404.19
333.4	426.19
333.629	417.19
333.857	415.19
334.085	430.19
334.314	436.19
334.542	488.19
334.771	476.19
334.999	449.19
335.227	431.19
335.455	429.19
335.684	410.19
335.912	407.19
336.14	412.19
336.369	392.19
336.597	415.19
336.825	430.19
337.053	420.19
337.281	414.19
337.51	400.19
337.738	395.19
337.966	388.19
338.194	398.19
338.422	394.19
338.65	390.19
338.878	394.19
339.106	405.19
339.334	414.19
339.562	386.19
339.79	377.19
340.018	406.19
340.246	391.19
340.474	387.19
340.702	403.19
340.93	389.19
341.158	369.19
341.386	399.19
341.614	381.19
341.842	393.19
342.07	385.19
342.298	390.19
342.526	387.19
342.754	386.19
342.981	372.19
343.209	380.19
343.437	383.19
343.665	411.19
343.893	409.19
344.12	412.19
344.348	400.19
344.576	388.19
344.804	392.19
345.031	397.19
345.259	400.19
345.487	397.19
345.714	392.19
345.942	380.19
346.17	386.19
346.397	364.19
346.625	378.19
346.853	369.19
347.08	368.19
347.308	360.19
347.535	361.19
347.763	356.19
347.99	367.19
348.218	369.19
348.445	381.19
348.673	380.19
348.9	376.19
349.128	374.19
349.355	363.19
349.583	365.19
349.81	362.19
350.037	365.19
350.265	370.19
350.492	378.19
350.72	358.19
350.947	357.19
351.174	374.19
351.402	371.19
351.629	359.19
351.856	373.19
352.083	362.19
352.311	370.19
352.538	379.19
352.765	361.19
352.992	370.19
353.22	357.19
353.447	368.19
353.674	338.19
353.901	356.19
354.128	338.19
354.355	343.19
354.583	366.19
354.81	328.19
355.037	349.19
355.264	336.19
355.491	353.19
355.718	367.19
355.945	332.19
356.172	347.19
356.399	350.19
356.626	344.19
356.853	347.19
357.08	342.19
357.307	324.19
357.534	329.19
357.761	349.19
357.988	349.19
358.215	358.19
358.441	352.19
358.668	342.19
358.895	337.19
359.122	347.19
359.349	349.19
359.576	360.19
359.802	366.19
360.029	371.19
360.256	379.19
360.483	375.19
360.709	360.19
360.936	365.19
361.163	357.19
361.39	366.19
361.616	353.19
361.843	365.19
362.07	359.19
362.296	359.19
362.523	349.19
362.749	346.19
362.976	383.19
363.203	360.19
363.429	350.19
363.656	353.19
363.882	352.19
364.109	345.19
364.335	355.19
364.562	358.19
364.788	334.19
365.015	357.19
365.241	357.19
365.468	357.19
365.694	352.19
365.92	354.19
366.147	345.19
366.373	343.19
366.599	338.19
366.826	339.19
367.052	358.19
367.278	350.19
367.505	349.19
367.731	362.19
367.957	341.19
368.184	349.19
368.41	363.19
368.636	348.19
368.862	361.19
369.089	341.19
369.315	343.19
369.541	345.19
369.767	346.19
369.993	356.19
370.219	353.19
370.445	348.19
370.672	330.19
370.898	353.19
371.124	356.19
371.35	362.19
371.576	364.19
371.802	348.19
372.028	354.19
372.254	330.19
372.48	352.19
372.706	354.19
372.932	366.19
373.158	351.19
373.384	352.19
373.61	349.19
373.835	331.19
374.061	349.19
374.287	342.19
374.513	362.19
374.739	353.19
374.965	354.19
375.191	359.19
375.416	361.19
375.642	342.19
375.868	356.19
376.094	342.19
376.319	358.19
376.545	339.19
376.771	348.19
376.997	341.19
377.222	349.19
377.448	340.19
377.674	337.19
377.899	348.19
378.125	344.19
378.35	336.19
378.576	327.19
378.802	356.19
379.027	352.19
379.253	360.19
379.478	336.19
379.704	336.19
379.929	332.19
380.155	329.19
380.38	333.19
380.606	349.19
380.831	321.19
381.057	365.19
381.282	368.19
381.507	350.19
381.733	331.19
381.958	351.19
382.184	350.19
382.409	345.19
382.634	352.19
382.86	345.19
383.085	353.19
383.31	347.19
383.535	348.19
383.761	369.19
383.986	358.19
384.211	343.19
384.436	348.19
384.662	349.19
384.887	361.19
385.112	378.19
385.337	376.19
385.562	361.19
385.787	372.19
386.013	365.19
386.238	367.19
386.463	362.19
386.688	367.19
386.913	372.19
387.138	371.19
387.363	368.19
387.588	369.19
387.813	381.19
388.038	381.19
388.263	358.19
388.488	368.19
388.713	360.19
388.938	367.19
389.163	341.19
389.387	368.19
389.612	374.19
389.837	372.19
390.062	381.19
390.287	378.19
390.512	373.19
390.736	371.19
390.961	366.19
391.186	360.19
391.411	364.19
391.636	386.19
391.86	386.19
392.085	369.19
392.31	366.19
392.534	377.19
392.759	366.19
392.984	361.19
393.208	369.19
393.433	391.19
393.658	377.19
393.882	385.19
394.107	370.19
394.331	376.19
394.556	362.19
394.78	369.19
395.005	389.19
395.229	386.19
395.454	391.19
395.678	375.19
395.903	387.19
396.127	405.19
396.352	401.19
396.576	386.19
396.801	366.19
397.025	375.19
397.249	372.19
397.474	391.19
397.698	385.19
397.922	394.19
398.147	405.19
398.371	409.19
398.595	384.19
398.82	414.19
399.044	434.19
399.268	432.19
399.492	466.19
399.717	472.19
399.941	490.19
400.165	494.19
400.389	492.19
400.613	443.19
400.837	420.19
401.062	436.19
401.286	429.19
401.51	434.19
401.734	407.19
401.958	412.19
402.182	426.19
402.406	420.19
402.63	433.19
402.854	416.19
403.078	412.19
403.302	423.19
403.526	412.19
403.75	405.19
403.974	422.19
404.198	428.19
404.422	425.19
404.645	434.19
404.869	428.19
405.093	439.19
405.317	466.19
405.541	494.19
405.765	459.19
405.988	433.19
406.212	432.19
406.436	477.19
406.66	461.19
406.883	482.19
407.107	459.19
407.331	495.19
407.555	546.19
407.778	542.19
408.002	479.19
408.226	456.19
408.449	462.19
408.673	457.19
408.896	480.19
409.12	481.19
409.344	502.19
409.567	431.19
409.791	438.19
410.014	430.19
410.238	410.19
410.461	428.19
410.685	432.19
410.908	414.19
411.132	468.19
411.355	482.19
411.578	470.19
411.802	430.19
412.025	431.19
412.249	423.19
412.472	437.19
412.695	454.19
412.919	470.19
413.142	424.19
413.365	446.19
413.589	425.19
413.812	396.19
414.035	420.19
414.258	404.19
414.482	400.19
414.705	405.19
414.928	391.19
415.151	387.19
415.374	403.19
415.597	385.19
415.821	387.19
416.044	388.19
416.267	389.19
416.49	393.19
416.713	396.19
416.936	394.19
417.159	382.19
417.382	399.19
417.605	415.19
417.828	394.19
418.051	401.19
418.274	407.19
418.497	385.19
418.72	406.19
418.943	381.19
419.166	394.19
419.389	407.19
419.611	409.19
419.834	386.19
420.057	409.19
420.28	420.19
420.503	396.19
420.726	387.19
420.948	413.19
421.171	418.19
421.394	450.19
421.617	413.19
421.839	410.19
422.062	401.19
422.285	403.19
422.507	440.19
422.73	486.19
422.953	471.19
423.175	417.19
423.398	414.19
423.621	422.19
423.843	426.19
424.066	434.19
424.288	425.19
424.511	439.19
424.733	450.19
424.956	496.19
425.178	502.19
425.401	486.19
425.623	472.19
425.846	448.19
426.068	436.19
426.291	414.19
426.513	418.19
426.735	423.19
426.958	460.19
427.18	487.19
427.402	571.19
427.625	641.19
427.847	560.19
428.069	481.19
428.292	458.19
428.514	420.19
428.736	394.19
428.958	384.19
429.181	396.19
429.403	386.19
429.625	372.19
429.847	438.19
430.069	454.19
430.292	458.19
430.514	384.19
430.736	383.19
430.958	389.19
431.18	378.19
431.402	361.19
431.624	380.19
431.846	361.19
432.068	354.19
432.29	372.19
432.512	362.19
432.734	356.19
432.956	363.19
433.178	377.19
433.4	407.19
433.622	397.19
433.844	378.19
434.066	372.19
434.287	380.19
434.509	377.19
434.731	376.19
434.953	392.19
435.175	390.19
435.397	412.19
435.618	431.19
435.84	450.19
436.062	480.19
436.284	545.19
436.505	460.19
436.727	409.19
436.949	404.19
437.17	393.19
437.392	379.19
437.614	372.19
437.835	409.19
438.057	467.19
438.278	529.19
438.5	515.19
438.721	585.19
438.943	545.19
439.165	457.19
439.386	428.19
439.608	407.19
439.829	422.19
440.05	438.19
440.272	438.19
440.493	433.19
440.715	390.19
440.936	400.19
441.158	409.19
441.379	409.19
441.6	408.19
441.822	425.19
442.043	447.19
442.264	488.19
442.486	512.19
442.707	431.19
442.928	435.19
443.149	439.19
443.371	451.19
443.592	452.19
443.813	518.19
444.034	555.19
444.255	490.19
444.476	437.19
444.698	446.19
444.919	439.19
445.14	496.19
445.361	454.19
445.582	440.19
445.803	488.19
446.024	508.19
446.245	541.19
446.466	496.19
446.687	435.19
446.908	426.19
447.129	409.19
447.35	384.19
447.571	379.19
447.792	392.19
448.013	390.19
448.234	400.19
448.455	432.19
448.675	494.19
448.896	574.19
449.117	478.19
449.338	448.19
449.559	527.19
449.779	596.19
450	475.19
450.221	415.19
450.442	392.19
450.662	364.19
450.883	374.19
451.104	396.19
451.324	369.19
451.545	383.19
451.766	350.19
451.986	346.19
452.207	342.19
452.428	337.19
452.648	330.19
452.869	361.19
453.089	352.19
453.31	358.19
453.53	346.19
453.751	348.19
453.971	373.19
454.192	356.19
454.412	346.19
454.633	344.19
454.853	351.19
455.073	351.19
455.294	364.19
455.514	384.19
455.734	390.19
455.955	351.19
456.175	341.19
456.395	343.19
456.616	344.19
456.836	344.19
457.056	343.19
457.276	330.19
457.497	326.19
457.717	332.19
457.937	354.19
458.157	347.19
458.377	312.19
458.598	358.19
458.818	383.19
459.038	413.19
459.258	429.19
459.478	393.19
459.698	361.19
459.918	359.19
460.138	362.19
460.358	385.19
460.578	411.19
460.798	392.19
461.018	384.19
461.238	385.19
461.458	378.19
461.678	367.19
461.898	398.19
462.118	378.19
462.338	390.19
462.558	410.19
462.777	404.19
462.997	414.19
463.217	429.19
463.437	405.19
463.657	406.19
463.876	413.19
464.096	400.19
464.316	413.19
464.536	430.19
464.755	430.19
464.975	410.19
465.195	430.19
465.414	436.19
465.634	402.19
465.854	384.19
466.073	368.19
466.293	374.19
466.512	374.19
466.732	370.19
466.951	363.19
467.171	358.19
467.391	378.19
467.61	379.19
467.829	370.19
468.049	374.19
468.268	356.19
468.488	353.19
468.707	336.19
468.927	336.19
469.146	359.19
469.365	376.19
469.585	342.19
469.804	347.19
470.023	365.19
470.243	358.19
470.462	381.19
470.681	389.19
470.901	363.19
471.12	368.19
471.339	368.19
471.558	369.19
471.777	358.19
471.997	360.19
472.216	366.19
472.435	387.19
472.654	380.19
472.873	358.19
473.092	363.19
473.311	359.19
473.53	363.19
473.749	372.19
473.968	399.19
474.187	438.19
474.406	478.19
474.625	398.19
474.844	399.19
475.063	379.19
475.282	361.19
475.501	362.19
475.72	376.19
475.939	380.19
476.158	375.19
476.377	378.19
476.596	373.19
476.814	381.19
477.033	408.19
477.252	383.19
477.471	396.19
477.69	370.19
477.908	387.19
478.127	401.19
478.346	399.19
478.564	408.19
478.783	400.19
479.002	406.19
479.22	417.19
479.439	405.19
479.658	422.19
479.876	420.19
480.095	441.19
480.313	445.19
480.532	428.19
480.751	438.19
480.969	442.19
481.188	477.19
481.406	482.19
481.624	454.19
481.843	435.19
482.061	436.19
482.28	412.19
482.498	422.19
482.717	433.19
482.935	424.19
483.153	432.19
483.372	428.19
483.59	415.19
483.808	417.19
484.027	433.19
484.245	420.19
484.463	422.19
484.681	422.19
484.9	406.19
485.118	442.19
485.336	441.19
485.554	431.19
485.772	438.19
485.99	420.19
486.209	425.19
486.427	440.19
486.645	446.19
486.863	424.19
487.081	471.19
487.299	434.19
487.517	435.19
487.735	468.19
487.953	449.19
488.171	437.19
488.389	456.19
488.607	460.19
488.825	457.19
489.043	443.19
489.261	440.19
489.479	450.19
489.696	433.19
489.914	453.19
490.132	450.19
490.35	460.19
490.568	454.19
490.786	473.19
491.003	463.19
491.221	474.19
491.439	457.19
491.657	465.19
491.874	479.19
492.092	486.19
492.31	489.19
492.527	521.19
492.745	505.19
492.963	504.19
493.18	512.19
493.398	497.19
493.615	491.19
493.833	486.19
494.05	501.19
494.268	498.19
494.485	496.19
494.703	500.19
494.92	519.19
495.138	521.19
495.355	496.19
495.573	487.19
495.79	486.19
496.008	533.19
496.225	534.19
496.442	510.19
496.66	514.19
496.877	512.19
497.094	541.19
497.312	531.19
497.529	537.19
497.746	558.19
497.963	559.19
498.181	564.19
498.398	562.19
498.615	578.19
498.832	599.19
499.049	616.19
499.267	639.19
499.484	640.19
499.701	661.19
499.918	702.19
500.135	698.19
500.352	735.19
500.569	740.19
500.786	729.19
501.003	748.19
501.22	714.19
501.437	693.19
501.654	692.19
501.871	654.19
