Data from 1960PennyLincolnUp.LampE6.200Scan.07172019.P1_HRD10591_13-06-28-002.txt Node
Date: Thu Jul 18 13:06:28 EDT 2019
User: cochatt
Spectrometer: HR+D1059
Trigger mode: 1
Integration Time (sec): 1.000000E-1
Scans to average: 1
Electric dark correction enabled: true
Nonlinearity correction enabled: false
Boxcar width: 0
XAxis mode: Wavelengths
Number of Pixels in Spectrum: 2048
>>>>>Begin Spectral Data<<<<<
223.165	-3.56
223.4	-3.56
223.635	-3.56
223.869	-16.56
224.104	-27.56
224.338	-7.56
224.573	-11.56
224.808	-17.56
225.042	-5.56
225.277	-0.56
225.511	1.44
225.746	-4.56
225.98	-0.56
226.215	15.44
226.449	9.44
226.683	24.44
226.918	12.44
227.152	32.44
227.387	37.44
227.621	35.44
227.856	43.44
228.09	31.44
228.324	43.44
228.559	54.44
228.793	61.44
229.027	78.44
229.262	82.44
229.496	109.44
229.73	104.44
229.964	118.44
230.199	107.44
230.433	84.44
230.667	103.44
230.901	112.44
231.136	115.44
231.37	108.44
231.604	109.44
231.838	109.44
232.072	98.44
232.306	121.44
232.541	105.44
232.775	109.44
233.009	98.44
233.243	100.44
233.477	107.44
233.711	104.44
233.945	101.44
234.179	101.44
234.413	114.44
234.647	122.44
234.881	101.44
235.115	121.44
235.349	107.44
235.583	119.44
235.817	109.44
236.051	112.44
236.285	126.44
236.519	120.44
236.753	116.44
236.987	128.44
237.221	136.44
237.455	172.44
237.689	158.44
237.922	130.44
238.156	127.44
238.39	107.44
238.624	112.44
238.858	119.44
239.091	109.44
239.325	125.44
239.559	126.44
239.793	134.44
240.027	137.44
240.26	127.44
240.494	149.44
240.728	144.44
240.961	136.44
241.195	123.44
241.429	121.44
241.662	119.44
241.896	116.44
242.13	137.44
242.363	128.44
242.597	134.44
242.83	126.44
243.064	134.44
243.298	120.44
243.531	140.44
243.765	144.44
243.998	136.44
244.232	140.44
244.465	127.44
244.699	140.44
244.932	124.44
245.166	124.44
245.399	133.44
245.633	136.44
245.866	138.44
246.099	135.44
246.333	146.44
246.566	147.44
246.8	142.44
247.033	147.44
247.266	139.44
247.5	156.44
247.733	171.44
247.966	155.44
248.2	160.44
248.433	152.44
248.666	153.44
248.899	161.44
249.133	167.44
249.366	180.44
249.599	181.44
249.832	152.44
250.066	168.44
250.299	178.44
250.532	165.44
250.765	183.44
250.998	188.44
251.231	212.44
251.465	193.44
251.698	163.44
251.931	168.44
252.164	185.44
252.397	188.44
252.63	173.44
252.863	183.44
253.096	197.44
253.329	220.44
253.562	196.44
253.795	199.44
254.028	193.44
254.261	203.44
254.494	207.44
254.727	215.44
254.96	220.44
255.193	220.44
255.426	220.44
255.659	190.44
255.892	189.44
256.124	201.44
256.357	217.44
256.59	205.44
256.823	197.44
257.056	195.44
257.289	180.44
257.521	190.44
257.754	194.44
257.987	193.44
258.22	184.44
258.452	171.44
258.685	186.44
258.918	193.44
259.151	192.44
259.383	216.44
259.616	194.44
259.849	189.44
260.081	210.44
260.314	225.44
260.547	216.44
260.779	215.44
261.012	215.44
261.244	201.44
261.477	197.44
261.71	207.44
261.942	211.44
262.175	212.44
262.407	208.44
262.64	198.44
262.872	195.44
263.105	220.44
263.337	199.44
263.57	204.44
263.802	206.44
264.035	189.44
264.267	200.44
264.499	201.44
264.732	212.44
264.964	208.44
265.197	197.44
265.429	203.44
265.661	195.44
265.894	200.44
266.126	205.44
266.358	200.44
266.591	220.44
266.823	212.44
267.055	222.44
267.287	220.44
267.52	219.44
267.752	212.44
267.984	201.44
268.216	207.44
268.448	214.44
268.681	221.44
268.913	225.44
269.145	261.44
269.377	258.44
269.609	236.44
269.841	261.44
270.073	256.44
270.306	255.44
270.538	302.44
270.77	280.44
271.002	272.44
271.234	258.44
271.466	248.44
271.698	288.44
271.93	271.44
272.162	273.44
272.394	266.44
272.626	273.44
272.858	258.44
273.09	261.44
273.322	268.44
273.553	241.44
273.785	249.44
274.017	244.44
274.249	244.44
274.481	239.44
274.713	254.44
274.945	260.44
275.176	255.44
275.408	247.44
275.64	252.44
275.872	261.44
276.104	228.44
276.335	247.44
276.567	259.44
276.799	241.44
277.031	281.44
277.262	285.44
277.494	288.44
277.726	285.44
277.957	271.44
278.189	249.44
278.421	275.44
278.652	268.44
278.884	255.44
279.115	256.44
279.347	249.44
279.579	256.44
279.81	267.44
280.042	266.44
280.273	279.44
280.505	268.44
280.736	256.44
280.968	272.44
281.199	272.44
281.431	261.44
281.662	278.44
281.894	257.44
282.125	264.44
282.356	280.44
282.588	288.44
282.819	280.44
283.051	273.44
283.282	267.44
283.513	267.44
283.745	269.44
283.976	296.44
284.207	278.44
284.439	291.44
284.67	285.44
284.901	288.44
285.132	295.44
285.364	272.44
285.595	278.44
285.826	283.44
286.057	286.44
286.288	291.44
286.52	279.44
286.751	288.44
286.982	285.44
287.213	292.44
287.444	276.44
287.675	301.44
287.906	293.44
288.138	297.44
288.369	316.44
288.6	319.44
288.831	297.44
289.062	309.44
289.293	280.44
289.524	299.44
289.755	295.44
289.986	291.44
290.217	284.44
290.448	294.44
290.679	304.44
290.91	310.44
291.141	279.44
291.371	315.44
291.602	309.44
291.833	299.44
292.064	300.44
292.295	300.44
292.526	316.44
292.757	317.44
292.987	308.44
293.218	302.44
293.449	294.44
293.68	307.44
293.91	318.44
294.141	312.44
294.372	308.44
294.603	292.44
294.833	296.44
295.064	301.44
295.295	308.44
295.525	292.44
295.756	323.44
295.987	316.44
296.217	315.44
296.448	325.44
296.679	291.44
296.909	308.44
297.14	299.44
297.37	318.44
297.601	320.44
297.831	310.44
298.062	315.44
298.292	338.44
298.523	332.44
298.753	324.44
298.984	323.44
299.214	307.44
299.445	338.44
299.675	331.44
299.905	330.44
300.136	329.44
300.366	326.44
300.597	316.44
300.827	336.44
301.057	340.44
301.288	338.44
301.518	334.44
301.748	329.44
301.979	333.44
302.209	343.44
302.439	343.44
302.669	339.44
302.9	347.44
303.13	343.44
303.36	357.44
303.59	344.44
303.82	341.44
304.051	344.44
304.281	333.44
304.511	338.44
304.741	330.44
304.971	339.44
305.201	334.44
305.431	320.44
305.661	334.44
305.891	346.44
306.121	334.44
306.352	347.44
306.582	336.44
306.812	353.44
307.042	327.44
307.272	331.44
307.502	342.44
307.731	343.44
307.961	352.44
308.191	333.44
308.421	326.44
308.651	334.44
308.881	336.44
309.111	335.44
309.341	360.44
309.571	349.44
309.8	362.44
310.03	348.44
310.26	371.44
310.49	375.44
310.72	376.44
310.949	379.44
311.179	377.44
311.409	357.44
311.639	367.44
311.868	360.44
312.098	375.44
312.328	370.44
312.557	359.44
312.787	364.44
313.017	394.44
313.246	399.44
313.476	372.44
313.706	365.44
313.935	382.44
314.165	390.44
314.394	395.44
314.624	385.44
314.853	356.44
315.083	366.44
315.312	381.44
315.542	388.44
315.771	365.44
316.001	361.44
316.23	364.44
316.46	367.44
316.689	372.44
316.919	373.44
317.148	399.44
317.377	391.44
317.607	361.44
317.836	370.44
318.065	381.44
318.295	381.44
318.524	388.44
318.753	373.44
318.983	361.44
319.212	376.44
319.441	369.44
319.67	388.44
319.9	379.44
320.129	374.44
320.358	359.44
320.587	382.44
320.816	392.44
321.046	392.44
321.275	396.44
321.504	394.44
321.733	373.44
321.962	372.44
322.191	382.44
322.42	405.44
322.649	382.44
322.878	406.44
323.108	399.44
323.337	401.44
323.566	443.44
323.795	439.44
324.024	454.44
324.253	530.44
324.482	682.44
324.71	972.44
324.939	1339.44
325.168	1109.44
325.397	629.44
325.626	492.44
325.855	444.44
326.084	447.44
326.313	422.44
326.542	440.44
326.77	479.44
326.999	531.44
327.228	669.44
327.457	891.44
327.686	1029.44
327.914	709.44
328.143	532.44
328.372	491.44
328.6	470.44
328.829	469.44
329.058	472.44
329.287	462.44
329.515	458.44
329.744	471.44
329.972	459.44
330.201	487.44
330.43	480.44
330.658	501.44
330.887	511.44
331.115	503.44
331.344	458.44
331.572	471.44
331.801	463.44
332.03	468.44
332.258	470.44
332.486	473.44
332.715	467.44
332.943	463.44
333.172	494.44
333.4	499.44
333.629	503.44
333.857	500.44
334.085	504.44
334.314	545.44
334.542	559.44
334.771	551.44
334.999	516.44
335.227	503.44
335.455	491.44
335.684	514.44
335.912	499.44
336.14	483.44
336.369	461.44
336.597	476.44
336.825	469.44
337.053	464.44
337.281	458.44
337.51	453.44
337.738	471.44
337.966	466.44
338.194	446.44
338.422	442.44
338.65	445.44
338.878	431.44
339.106	459.44
339.334	434.44
339.562	427.44
339.79	424.44
340.018	415.44
340.246	425.44
340.474	435.44
340.702	431.44
340.93	438.44
341.158	441.44
341.386	431.44
341.614	407.44
341.842	424.44
342.07	407.44
342.298	420.44
342.526	419.44
342.754	432.44
342.981	428.44
343.209	409.44
343.437	435.44
343.665	463.44
343.893	467.44
344.12	499.44
344.348	479.44
344.576	450.44
344.804	448.44
345.031	447.44
345.259	447.44
345.487	439.44
345.714	452.44
345.942	420.44
346.17	435.44
346.397	427.44
346.625	419.44
346.853	417.44
347.08	427.44
347.308	408.44
347.535	407.44
347.763	433.44
347.99	438.44
348.218	418.44
348.445	432.44
348.673	413.44
348.9	406.44
349.128	422.44
349.355	395.44
349.583	383.44
349.81	403.44
350.037	405.44
350.265	378.44
350.492	392.44
350.72	378.44
350.947	400.44
351.174	398.44
351.402	413.44
351.629	399.44
351.856	432.44
352.083	421.44
352.311	414.44
352.538	409.44
352.765	396.44
352.992	408.44
353.22	407.44
353.447	398.44
353.674	401.44
353.901	426.44
354.128	416.44
354.355	404.44
354.583	387.44
354.81	403.44
355.037	405.44
355.264	381.44
355.491	384.44
355.718	413.44
355.945	395.44
356.172	394.44
356.399	399.44
356.626	400.44
356.853	402.44
357.08	386.44
357.307	375.44
357.534	399.44
357.761	404.44
357.988	404.44
358.215	388.44
358.441	398.44
358.668	401.44
358.895	404.44
359.122	390.44
359.349	417.44
359.576	406.44
359.802	423.44
360.029	430.44
360.256	436.44
360.483	435.44
360.709	416.44
360.936	417.44
361.163	413.44
361.39	412.44
361.616	411.44
361.843	407.44
362.07	390.44
362.296	394.44
362.523	409.44
362.749	405.44
362.976	421.44
363.203	415.44
363.429	399.44
363.656	412.44
363.882	403.44
364.109	393.44
364.335	398.44
364.562	417.44
364.788	376.44
365.015	401.44
365.241	406.44
365.468	391.44
365.694	413.44
365.92	413.44
366.147	381.44
366.373	388.44
366.599	384.44
366.826	396.44
367.052	387.44
367.278	407.44
367.505	392.44
367.731	423.44
367.957	413.44
368.184	411.44
368.41	397.44
368.636	401.44
368.862	429.44
369.089	418.44
369.315	408.44
369.541	406.44
369.767	437.44
369.993	406.44
370.219	416.44
370.445	431.44
370.672	407.44
370.898	425.44
371.124	416.44
371.35	407.44
371.576	419.44
371.802	408.44
372.028	422.44
372.254	415.44
372.48	411.44
372.706	444.44
372.932	441.44
373.158	424.44
373.384	413.44
373.61	419.44
373.835	430.44
374.061	425.44
374.287	412.44
374.513	423.44
374.739	439.44
374.965	444.44
375.191	445.44
375.416	442.44
375.642	434.44
375.868	441.44
376.094	439.44
376.319	418.44
376.545	443.44
376.771	424.44
376.997	414.44
377.222	416.44
377.448	414.44
377.674	407.44
377.899	409.44
378.125	403.44
378.35	418.44
378.576	429.44
378.802	403.44
379.027	414.44
379.253	418.44
379.478	423.44
379.704	412.44
379.929	416.44
380.155	436.44
380.38	408.44
380.606	413.44
380.831	418.44
381.057	437.44
381.282	433.44
381.507	416.44
381.733	423.44
381.958	423.44
382.184	431.44
382.409	441.44
382.634	451.44
382.86	432.44
383.085	427.44
383.31	460.44
383.535	440.44
383.761	450.44
383.986	458.44
384.211	466.44
384.436	456.44
384.662	457.44
384.887	472.44
385.112	478.44
385.337	471.44
385.562	463.44
385.787	484.44
386.013	491.44
386.238	490.44
386.463	488.44
386.688	467.44
386.913	487.44
387.138	469.44
387.363	459.44
387.588	461.44
387.813	461.44
388.038	472.44
388.263	472.44
388.488	472.44
388.713	472.44
388.938	473.44
389.163	459.44
389.387	475.44
389.612	483.44
389.837	472.44
390.062	456.44
390.287	465.44
390.512	486.44
390.736	460.44
390.961	479.44
391.186	495.44
391.411	462.44
391.636	492.44
391.86	492.44
392.085	526.44
392.31	500.44
392.534	512.44
392.759	514.44
392.984	500.44
393.208	497.44
393.433	480.44
393.658	480.44
393.882	483.44
394.107	495.44
394.331	501.44
394.556	482.44
394.78	500.44
395.005	503.44
395.229	513.44
395.454	520.44
395.678	523.44
395.903	532.44
396.127	517.44
396.352	527.44
396.576	517.44
396.801	499.44
397.025	508.44
397.249	535.44
397.474	516.44
397.698	514.44
397.922	519.44
398.147	546.44
398.371	531.44
398.595	541.44
398.82	593.44
399.044	560.44
399.268	628.44
399.492	728.44
399.717	764.44
399.941	783.44
400.165	771.44
400.389	695.44
400.613	640.44
400.837	598.44
401.062	593.44
401.286	581.44
401.51	571.44
401.734	568.44
401.958	580.44
402.182	579.44
402.406	580.44
402.63	584.44
402.854	585.44
403.078	591.44
403.302	588.44
403.526	605.44
403.75	628.44
403.974	646.44
404.198	597.44
404.422	609.44
404.645	632.44
404.869	604.44
405.093	633.44
405.317	650.44
405.541	693.44
405.765	633.44
405.988	623.44
406.212	615.44
406.436	629.44
406.66	660.44
406.883	648.44
407.107	672.44
407.331	728.44
407.555	770.44
407.778	740.44
408.002	714.44
408.226	675.44
408.449	644.44
408.673	647.44
408.896	671.44
409.12	696.44
409.344	668.44
409.567	611.44
409.791	622.44
410.014	586.44
410.238	598.44
410.461	608.44
410.685	595.44
410.908	609.44
411.132	623.44
411.355	635.44
411.578	611.44
411.802	547.44
412.025	579.44
412.249	607.44
412.472	641.44
412.695	630.44
412.919	604.44
413.142	567.44
413.365	577.44
413.589	564.44
413.812	549.44
414.035	559.44
414.258	580.44
414.482	553.44
414.705	532.44
414.928	558.44
415.151	569.44
415.374	559.44
415.597	545.44
415.821	553.44
416.044	564.44
416.267	554.44
416.49	567.44
416.713	542.44
416.936	560.44
417.159	574.44
417.382	542.44
417.605	564.44
417.828	574.44
418.051	579.44
418.274	562.44
418.497	573.44
418.72	579.44
418.943	557.44
419.166	573.44
419.389	612.44
419.611	591.44
419.834	591.44
420.057	608.44
420.28	605.44
420.503	570.44
420.726	580.44
420.948	582.44
421.171	607.44
421.394	617.44
421.617	592.44
421.839	555.44
422.062	584.44
422.285	585.44
422.507	639.44
422.73	678.44
422.953	639.44
423.175	577.44
423.398	599.44
423.621	605.44
423.843	596.44
424.066	609.44
424.288	597.44
424.511	619.44
424.733	623.44
424.956	697.44
425.178	671.44
425.401	647.44
425.623	662.44
425.846	589.44
426.068	574.44
426.291	557.44
426.513	567.44
426.735	551.44
426.958	595.44
427.18	633.44
427.402	717.44
427.625	759.44
427.847	651.44
428.069	615.44
428.292	579.44
428.514	552.44
428.736	536.44
428.958	517.44
429.181	516.44
429.403	503.44
429.625	506.44
429.847	531.44
430.069	575.44
430.292	584.44
430.514	539.44
430.736	510.44
430.958	501.44
431.18	501.44
431.402	497.44
431.624	489.44
431.846	516.44
432.068	497.44
432.29	517.44
432.512	528.44
432.734	509.44
432.956	501.44
433.178	513.44
433.4	503.44
433.622	523.44
433.844	513.44
434.066	526.44
434.287	511.44
434.509	537.44
434.731	528.44
434.953	573.44
435.175	571.44
435.397	583.44
435.618	557.44
435.84	589.44
436.062	651.44
436.284	679.44
436.505	597.44
436.727	530.44
436.949	548.44
437.17	528.44
437.392	521.44
437.614	515.44
437.835	551.44
438.057	594.44
438.278	627.44
438.5	639.44
438.721	693.44
438.943	677.44
439.165	577.44
439.386	542.44
439.608	547.44
439.829	541.44
440.05	572.44
440.272	577.44
440.493	568.44
440.715	539.44
440.936	534.44
441.158	527.44
441.379	545.44
441.6	573.44
441.822	584.44
442.043	596.44
442.264	647.44
442.486	656.44
442.707	615.44
442.928	595.44
443.149	578.44
443.371	584.44
443.592	626.44
443.813	677.44
444.034	721.44
444.255	621.44
444.476	611.44
444.698	625.44
444.919	608.44
445.14	703.44
445.361	666.44
445.582	591.44
445.803	632.44
446.024	691.44
446.245	705.44
446.466	633.44
446.687	557.44
446.908	532.44
447.129	510.44
447.35	512.44
447.571	524.44
447.792	505.44
448.013	483.44
448.234	507.44
448.455	538.44
448.675	605.44
448.896	696.44
449.117	592.44
449.338	559.44
449.559	639.44
449.779	688.44
450	586.44
450.221	524.44
450.442	516.44
450.662	479.44
450.883	503.44
451.104	480.44
451.324	501.44
451.545	495.44
451.766	474.44
451.986	446.44
452.207	444.44
452.428	433.44
452.648	451.44
452.869	481.44
453.089	452.44
453.31	460.44
453.53	455.44
453.751	447.44
453.971	461.44
454.192	459.44
454.412	470.44
454.633	440.44
454.853	434.44
455.073	430.44
455.294	468.44
455.514	506.44
455.734	479.44
455.955	430.44
456.175	434.44
456.395	439.44
456.616	440.44
456.836	441.44
457.056	433.44
457.276	439.44
457.497	442.44
457.717	436.44
457.937	439.44
458.157	434.44
458.377	456.44
458.598	461.44
458.818	514.44
459.038	560.44
459.258	568.44
459.478	540.44
459.698	500.44
459.918	509.44
460.138	515.44
460.358	544.44
460.578	523.44
460.798	545.44
461.018	545.44
461.238	544.44
461.458	531.44
461.678	543.44
461.898	547.44
462.118	540.44
462.338	569.44
462.558	565.44
462.777	595.44
462.997	612.44
463.217	681.44
463.437	665.44
463.657	617.44
463.876	607.44
464.096	593.44
464.316	584.44
464.536	599.44
464.755	577.44
464.975	587.44
465.195	580.44
465.414	609.44
465.634	526.44
465.854	523.44
466.073	496.44
466.293	496.44
466.512	483.44
466.732	486.44
466.951	460.44
467.171	480.44
467.391	485.44
467.61	469.44
467.829	490.44
468.049	480.44
468.268	474.44
468.488	450.44
468.707	481.44
468.927	469.44
469.146	458.44
469.365	457.44
469.585	462.44
469.804	484.44
470.023	489.44
470.243	488.44
470.462	485.44
470.681	500.44
470.901	499.44
471.12	485.44
471.339	480.44
471.558	471.44
471.777	486.44
471.997	491.44
472.216	475.44
472.435	493.44
472.654	483.44
472.873	457.44
473.092	470.44
473.311	468.44
473.53	460.44
473.749	445.44
473.968	490.44
474.187	565.44
474.406	541.44
474.625	509.44
474.844	483.44
475.063	466.44
475.282	465.44
475.501	451.44
475.72	463.44
475.939	473.44
476.158	481.44
476.377	457.44
476.596	493.44
476.814	499.44
477.033	516.44
477.252	492.44
477.471	474.44
477.69	501.44
477.908	515.44
478.127	514.44
478.346	529.44
478.564	555.44
478.783	559.44
479.002	555.44
479.22	557.44
479.439	559.44
479.658	555.44
479.876	554.44
480.095	574.44
480.313	623.44
480.532	596.44
480.751	592.44
480.969	610.44
481.188	627.44
481.406	663.44
481.624	580.44
481.843	527.44
482.061	537.44
482.28	539.44
482.498	536.44
482.717	533.44
482.935	553.44
483.153	535.44
483.372	506.44
483.59	540.44
483.808	534.44
484.027	543.44
484.245	529.44
484.463	553.44
484.681	568.44
484.9	551.44
485.118	536.44
485.336	550.44
485.554	554.44
485.772	574.44
485.99	548.44
486.209	567.44
486.427	579.44
486.645	547.44
486.863	570.44
487.081	588.44
487.299	572.44
487.517	589.44
487.735	565.44
487.953	573.44
488.171	563.44
488.389	577.44
488.607	567.44
488.825	577.44
489.043	571.44
489.261	557.44
489.479	599.44
489.696	575.44
489.914	574.44
490.132	566.44
490.35	580.44
490.568	599.44
490.786	600.44
491.003	600.44
491.221	622.44
491.439	611.44
491.657	621.44
491.874	636.44
492.092	649.44
492.31	641.44
492.527	638.44
492.745	629.44
492.963	676.44
493.18	663.44
493.398	665.44
493.615	656.44
493.833	679.44
494.05	682.44
494.268	669.44
494.485	653.44
494.703	657.44
494.92	642.44
495.138	651.44
495.355	653.44
495.573	652.44
495.79	668.44
496.008	660.44
496.225	655.44
496.442	662.44
496.66	653.44
496.877	665.44
497.094	663.44
497.312	685.44
497.529	682.44
497.746	711.44
497.963	699.44
498.181	751.44
498.398	755.44
498.615	790.44
498.832	810.44
499.049	845.44
499.267	868.44
499.484	928.44
499.701	992.44
499.918	1071.44
500.135	1149.44
500.352	1263.44
500.569	1313.44
500.786	1288.44
501.003	1245.44
501.22	1151.44
501.437	1049.44
501.654	1008.44
501.871	961.44
502.088	899.44
