Data from 1960PennyLincolnUp.LampE6.200Scan.07172019.P1_HRD10591_13-05-46-002.txt Node
Date: Thu Jul 18 13:05:46 EDT 2019
User: cochatt
Spectrometer: HR+D1059
Trigger mode: 1
Integration Time (sec): 1.000000E-1
Scans to average: 1
Electric dark correction enabled: true
Nonlinearity correction enabled: false
Boxcar width: 0
XAxis mode: Wavelengths
Number of Pixels in Spectrum: 2048
>>>>>Begin Spectral Data<<<<<
223.165	-4.19
223.4	-4.19
223.635	-4.19
223.869	-21.19
224.104	-14.19
224.338	-17.19
224.573	-12.19
224.808	-0.19
225.042	-7.19
225.277	0.81
225.511	-1.19
225.746	4.81
225.98	8.81
226.215	17.81
226.449	7.81
226.683	13.81
226.918	9.81
227.152	13.81
227.387	48.81
227.621	41.81
227.856	41.81
228.09	51.81
228.324	49.81
228.559	54.81
228.793	62.81
229.027	84.81
229.262	105.81
229.496	93.81
229.73	104.81
229.964	111.81
230.199	115.81
230.433	100.81
230.667	99.81
230.901	94.81
231.136	103.81
231.37	104.81
231.604	107.81
231.838	107.81
232.072	95.81
232.306	93.81
232.541	100.81
232.775	110.81
233.009	113.81
233.243	120.81
233.477	102.81
233.711	111.81
233.945	127.81
234.179	108.81
234.413	121.81
234.647	122.81
234.881	111.81
235.115	108.81
235.349	103.81
235.583	107.81
235.817	105.81
236.051	120.81
236.285	118.81
236.519	122.81
236.753	114.81
236.987	124.81
237.221	145.81
237.455	171.81
237.689	143.81
237.922	113.81
238.156	110.81
238.39	123.81
238.624	107.81
238.858	116.81
239.091	130.81
239.325	119.81
239.559	121.81
239.793	136.81
240.027	125.81
240.26	116.81
240.494	134.81
240.728	136.81
240.961	145.81
241.195	137.81
241.429	128.81
241.662	134.81
241.896	134.81
242.13	140.81
242.363	126.81
242.597	126.81
242.83	138.81
243.064	126.81
243.298	115.81
243.531	141.81
243.765	132.81
243.998	125.81
244.232	135.81
244.465	136.81
244.699	119.81
244.932	127.81
245.166	145.81
245.399	146.81
245.633	147.81
245.866	139.81
246.099	145.81
246.333	151.81
246.566	124.81
246.8	152.81
247.033	140.81
247.266	141.81
247.5	153.81
247.733	165.81
247.966	158.81
248.2	155.81
248.433	148.81
248.666	157.81
248.899	161.81
249.133	159.81
249.366	172.81
249.599	167.81
249.832	187.81
250.066	170.81
250.299	149.81
250.532	164.81
250.765	165.81
250.998	190.81
251.231	194.81
251.465	185.81
251.698	167.81
251.931	184.81
252.164	175.81
252.397	175.81
252.63	176.81
252.863	183.81
253.096	189.81
253.329	182.81
253.562	179.81
253.795	192.81
254.028	180.81
254.261	175.81
254.494	195.81
254.727	207.81
254.96	212.81
255.193	213.81
255.426	210.81
255.659	184.81
255.892	187.81
256.124	202.81
256.357	205.81
256.59	181.81
256.823	177.81
257.056	196.81
257.289	175.81
257.521	191.81
257.754	187.81
257.987	181.81
258.22	177.81
258.452	191.81
258.685	186.81
258.918	191.81
259.151	193.81
259.383	191.81
259.616	191.81
259.849	188.81
260.081	216.81
260.314	223.81
260.547	221.81
260.779	197.81
261.012	197.81
261.244	199.81
261.477	208.81
261.71	197.81
261.942	206.81
262.175	195.81
262.407	200.81
262.64	201.81
262.872	205.81
263.105	204.81
263.337	213.81
263.57	184.81
263.802	213.81
264.035	196.81
264.267	204.81
264.499	190.81
264.732	187.81
264.964	203.81
265.197	203.81
265.429	200.81
265.661	198.81
265.894	205.81
266.126	200.81
266.358	198.81
266.591	203.81
266.823	205.81
267.055	184.81
267.287	210.81
267.52	206.81
267.752	216.81
267.984	220.81
268.216	212.81
268.448	219.81
268.681	219.81
268.913	225.81
269.145	237.81
269.377	226.81
269.609	238.81
269.841	229.81
270.073	232.81
270.306	248.81
270.538	269.81
270.77	271.81
271.002	258.81
271.234	243.81
271.466	254.81
271.698	274.81
271.93	282.81
272.162	269.81
272.394	271.81
272.626	254.81
272.858	252.81
273.09	242.81
273.322	245.81
273.553	237.81
273.785	237.81
274.017	247.81
274.249	249.81
274.481	253.81
274.713	243.81
274.945	252.81
275.176	250.81
275.408	233.81
275.64	238.81
275.872	246.81
276.104	243.81
276.335	258.81
276.567	259.81
276.799	260.81
277.031	265.81
277.262	299.81
277.494	283.81
277.726	269.81
277.957	264.81
278.189	256.81
278.421	271.81
278.652	246.81
278.884	280.81
279.115	246.81
279.347	252.81
279.579	270.81
279.81	264.81
280.042	257.81
280.273	268.81
280.505	257.81
280.736	241.81
280.968	264.81
281.199	253.81
281.431	273.81
281.662	261.81
281.894	275.81
282.125	267.81
282.356	262.81
282.588	288.81
282.819	281.81
283.051	257.81
283.282	264.81
283.513	272.81
283.745	254.81
283.976	274.81
284.207	280.81
284.439	262.81
284.67	278.81
284.901	274.81
285.132	277.81
285.364	271.81
285.595	275.81
285.826	276.81
286.057	278.81
286.288	275.81
286.52	275.81
286.751	288.81
286.982	299.81
287.213	295.81
287.444	292.81
287.675	293.81
287.906	287.81
288.138	302.81
288.369	287.81
288.6	276.81
288.831	295.81
289.062	282.81
289.293	287.81
289.524	305.81
289.755	309.81
289.986	309.81
290.217	298.81
290.448	287.81
290.679	284.81
290.91	280.81
291.141	283.81
291.371	301.81
291.602	276.81
291.833	294.81
292.064	295.81
292.295	275.81
292.526	287.81
292.757	306.81
292.987	277.81
293.218	292.81
293.449	275.81
293.68	294.81
293.91	287.81
294.141	309.81
294.372	298.81
294.603	308.81
294.833	287.81
295.064	304.81
295.295	303.81
295.525	290.81
295.756	281.81
295.987	298.81
296.217	309.81
296.448	309.81
296.679	310.81
296.909	311.81
297.14	293.81
297.37	308.81
297.601	307.81
297.831	304.81
298.062	302.81
298.292	289.81
298.523	326.81
298.753	322.81
298.984	305.81
299.214	329.81
299.445	316.81
299.675	327.81
299.905	319.81
300.136	333.81
300.366	331.81
300.597	328.81
300.827	326.81
301.057	332.81
301.288	352.81
301.518	329.81
301.748	325.81
301.979	313.81
302.209	348.81
302.439	331.81
302.669	336.81
302.9	351.81
303.13	351.81
303.36	333.81
303.59	327.81
303.82	342.81
304.051	328.81
304.281	333.81
304.511	338.81
304.741	338.81
304.971	316.81
305.201	338.81
305.431	321.81
305.661	332.81
305.891	340.81
306.121	345.81
306.352	334.81
306.582	322.81
306.812	323.81
307.042	318.81
307.272	347.81
307.502	332.81
307.731	340.81
307.961	342.81
308.191	351.81
308.421	331.81
308.651	339.81
308.881	356.81
309.111	339.81
309.341	324.81
309.571	323.81
309.8	343.81
310.03	353.81
310.26	343.81
310.49	344.81
310.72	362.81
310.949	370.81
311.179	374.81
311.409	376.81
311.639	359.81
311.868	363.81
312.098	371.81
312.328	366.81
312.557	382.81
312.787	374.81
313.017	373.81
313.246	352.81
313.476	353.81
313.706	370.81
313.935	371.81
314.165	356.81
314.394	374.81
314.624	376.81
314.853	367.81
315.083	365.81
315.312	366.81
315.542	365.81
315.771	341.81
316.001	367.81
316.23	383.81
316.46	354.81
316.689	368.81
316.919	365.81
317.148	370.81
317.377	371.81
317.607	357.81
317.836	370.81
318.065	372.81
318.295	372.81
318.524	374.81
318.753	374.81
318.983	359.81
319.212	382.81
319.441	377.81
319.67	370.81
319.9	391.81
320.129	377.81
320.358	367.81
320.587	369.81
320.816	382.81
321.046	391.81
321.275	376.81
321.504	369.81
321.733	373.81
321.962	384.81
322.191	393.81
322.42	385.81
322.649	408.81
322.878	373.81
323.108	395.81
323.337	418.81
323.566	431.81
323.795	440.81
324.024	449.81
324.253	534.81
324.482	659.81
324.71	942.81
324.939	1316.81
325.168	1093.81
325.397	614.81
325.626	459.81
325.855	446.81
326.084	429.81
326.313	439.81
326.542	428.81
326.77	468.81
326.999	512.81
327.228	653.81
327.457	895.81
327.686	1019.81
327.914	692.81
328.143	531.81
328.372	487.81
328.6	494.81
328.829	454.81
329.058	455.81
329.287	457.81
329.515	434.81
329.744	440.81
329.972	457.81
330.201	430.81
330.43	464.81
330.658	502.81
330.887	483.81
331.115	491.81
331.344	465.81
331.572	440.81
331.801	461.81
332.03	464.81
332.258	451.81
332.486	462.81
332.715	456.81
332.943	468.81
333.172	491.81
333.4	483.81
333.629	509.81
333.857	511.81
334.085	506.81
334.314	529.81
334.542	547.81
334.771	549.81
334.999	505.81
335.227	499.81
335.455	481.81
335.684	491.81
335.912	478.81
336.14	471.81
336.369	466.81
336.597	478.81
336.825	477.81
337.053	456.81
337.281	446.81
337.51	456.81
337.738	458.81
337.966	424.81
338.194	413.81
338.422	436.81
338.65	417.81
338.878	440.81
339.106	439.81
339.334	430.81
339.562	412.81
339.79	403.81
340.018	428.81
340.246	436.81
340.474	437.81
340.702	420.81
340.93	431.81
341.158	430.81
341.386	420.81
341.614	428.81
341.842	418.81
342.07	421.81
342.298	422.81
342.526	430.81
342.754	394.81
342.981	414.81
343.209	419.81
343.437	447.81
343.665	428.81
343.893	476.81
344.12	493.81
344.348	462.81
344.576	449.81
344.804	435.81
345.031	418.81
345.259	431.81
345.487	440.81
345.714	427.81
345.942	417.81
346.17	413.81
346.397	398.81
346.625	384.81
346.853	413.81
347.08	403.81
347.308	428.81
347.535	400.81
347.763	423.81
347.99	405.81
348.218	407.81
348.445	412.81
348.673	399.81
348.9	411.81
349.128	402.81
349.355	400.81
349.583	405.81
349.81	399.81
350.037	399.81
350.265	408.81
350.492	392.81
350.72	389.81
350.947	405.81
351.174	417.81
351.402	395.81
351.629	423.81
351.856	397.81
352.083	411.81
352.311	401.81
352.538	408.81
352.765	407.81
352.992	419.81
353.22	403.81
353.447	408.81
353.674	419.81
353.901	386.81
354.128	383.81
354.355	403.81
354.583	408.81
354.81	392.81
355.037	394.81
355.264	381.81
355.491	373.81
355.718	396.81
355.945	405.81
356.172	370.81
356.399	397.81
356.626	398.81
356.853	377.81
357.08	381.81
357.307	389.81
357.534	407.81
357.761	396.81
357.988	367.81
358.215	391.81
358.441	373.81
358.668	404.81
358.895	387.81
359.122	408.81
359.349	389.81
359.576	413.81
359.802	417.81
360.029	424.81
360.256	425.81
360.483	407.81
360.709	422.81
360.936	426.81
361.163	406.81
361.39	387.81
361.616	414.81
361.843	403.81
362.07	403.81
362.296	407.81
362.523	408.81
362.749	406.81
362.976	376.81
363.203	381.81
363.429	408.81
363.656	400.81
363.882	377.81
364.109	374.81
364.335	387.81
364.562	398.81
364.788	388.81
365.015	400.81
365.241	387.81
365.468	396.81
365.694	393.81
365.92	389.81
366.147	393.81
366.373	398.81
366.599	382.81
366.826	384.81
367.052	388.81
367.278	407.81
367.505	401.81
367.731	399.81
367.957	399.81
368.184	403.81
368.41	411.81
368.636	395.81
368.862	429.81
369.089	403.81
369.315	416.81
369.541	397.81
369.767	396.81
369.993	421.81
370.219	393.81
370.445	405.81
370.672	420.81
370.898	398.81
371.124	392.81
371.35	415.81
371.576	417.81
371.802	417.81
372.028	405.81
372.254	408.81
372.48	416.81
372.706	401.81
372.932	418.81
373.158	434.81
373.384	437.81
373.61	421.81
373.835	416.81
374.061	428.81
374.287	427.81
374.513	428.81
374.739	425.81
374.965	442.81
375.191	451.81
375.416	418.81
375.642	431.81
375.868	440.81
376.094	425.81
376.319	424.81
376.545	404.81
376.771	419.81
376.997	402.81
377.222	420.81
377.448	422.81
377.674	415.81
377.899	404.81
378.125	411.81
378.35	402.81
378.576	415.81
378.802	404.81
379.027	398.81
379.253	406.81
379.478	419.81
379.704	404.81
379.929	426.81
380.155	419.81
380.38	396.81
380.606	441.81
380.831	407.81
381.057	413.81
381.282	420.81
381.507	402.81
381.733	415.81
381.958	421.81
382.184	423.81
382.409	424.81
382.634	451.81
382.86	433.81
383.085	432.81
383.31	455.81
383.535	446.81
383.761	428.81
383.986	453.81
384.211	439.81
384.436	428.81
384.662	438.81
384.887	466.81
385.112	460.81
385.337	485.81
385.562	480.81
385.787	461.81
386.013	468.81
386.238	479.81
386.463	480.81
386.688	468.81
386.913	470.81
387.138	488.81
387.363	472.81
387.588	443.81
387.813	463.81
388.038	474.81
388.263	438.81
388.488	468.81
388.713	468.81
388.938	470.81
389.163	471.81
389.387	485.81
389.612	469.81
389.837	465.81
390.062	457.81
390.287	428.81
390.512	450.81
390.736	483.81
390.961	490.81
391.186	506.81
391.411	500.81
391.636	497.81
391.86	523.81
392.085	500.81
392.31	529.81
392.534	497.81
392.759	477.81
392.984	486.81
393.208	484.81
393.433	483.81
393.658	493.81
393.882	505.81
394.107	495.81
394.331	494.81
394.556	477.81
394.78	489.81
395.005	480.81
395.229	502.81
395.454	515.81
395.678	531.81
395.903	517.81
396.127	500.81
396.352	532.81
396.576	498.81
396.801	478.81
397.025	511.81
397.249	479.81
397.474	500.81
397.698	502.81
397.922	529.81
398.147	526.81
398.371	536.81
398.595	556.81
398.82	561.81
399.044	590.81
399.268	641.81
399.492	669.81
399.717	750.81
399.941	759.81
400.165	698.81
400.389	662.81
400.613	632.81
400.837	582.81
401.062	568.81
401.286	564.81
401.51	556.81
401.734	544.81
401.958	550.81
402.182	565.81
402.406	580.81
402.63	588.81
402.854	601.81
403.078	583.81
403.302	596.81
403.526	611.81
403.75	622.81
403.974	629.81
404.198	602.81
404.422	621.81
404.645	618.81
404.869	638.81
405.093	624.81
405.317	649.81
405.541	672.81
405.765	621.81
405.988	611.81
406.212	597.81
406.436	619.81
406.66	642.81
406.883	626.81
407.107	656.81
407.331	688.81
407.555	742.81
407.778	717.81
408.002	702.81
408.226	665.81
408.449	643.81
408.673	631.81
408.896	647.81
409.12	664.81
409.344	653.81
409.567	578.81
409.791	593.81
410.014	588.81
410.238	578.81
410.461	584.81
410.685	583.81
410.908	592.81
411.132	617.81
411.355	611.81
411.578	604.81
411.802	578.81
412.025	571.81
412.249	592.81
412.472	576.81
412.695	595.81
412.919	616.81
413.142	603.81
413.365	577.81
413.589	555.81
413.812	565.81
414.035	571.81
414.258	561.81
414.482	563.81
414.705	564.81
414.928	550.81
415.151	559.81
415.374	554.81
415.597	550.81
415.821	536.81
416.044	547.81
416.267	549.81
416.49	541.81
416.713	511.81
416.936	511.81
417.159	532.81
417.382	549.81
417.605	528.81
417.828	557.81
418.051	539.81
418.274	555.81
418.497	561.81
418.72	564.81
418.943	554.81
419.166	567.81
419.389	599.81
419.611	585.81
419.834	576.81
420.057	584.81
420.28	595.81
420.503	585.81
420.726	562.81
420.948	562.81
421.171	588.81
421.394	595.81
421.617	594.81
421.839	565.81
422.062	543.81
422.285	563.81
422.507	605.81
422.73	623.81
422.953	629.81
423.175	608.81
423.398	580.81
423.621	586.81
423.843	601.81
424.066	618.81
424.288	611.81
424.511	619.81
424.733	648.81
424.956	661.81
425.178	644.81
425.401	628.81
425.623	653.81
425.846	605.81
426.068	553.81
426.291	557.81
426.513	559.81
426.735	572.81
426.958	589.81
427.18	640.81
427.402	726.81
427.625	747.81
427.847	663.81
428.069	593.81
428.292	566.81
428.514	544.81
428.736	536.81
428.958	534.81
429.181	515.81
429.403	498.81
429.625	540.81
429.847	531.81
430.069	575.81
430.292	563.81
430.514	532.81
430.736	515.81
430.958	501.81
431.18	494.81
431.402	497.81
431.624	492.81
431.846	519.81
432.068	502.81
432.29	512.81
432.512	513.81
432.734	521.81
432.956	523.81
433.178	504.81
433.4	499.81
433.622	486.81
433.844	498.81
434.066	499.81
434.287	502.81
434.509	514.81
434.731	525.81
434.953	554.81
435.175	555.81
435.397	586.81
435.618	526.81
435.84	577.81
436.062	614.81
436.284	660.81
436.505	585.81
436.727	537.81
436.949	526.81
437.17	505.81
437.392	512.81
437.614	505.81
437.835	530.81
438.057	569.81
438.278	625.81
438.5	631.81
438.721	667.81
438.943	651.81
439.165	558.81
439.386	556.81
439.608	551.81
439.829	536.81
440.05	539.81
440.272	572.81
440.493	548.81
440.715	523.81
440.936	523.81
441.158	528.81
441.379	543.81
441.6	564.81
441.822	557.81
442.043	603.81
442.264	628.81
442.486	660.81
442.707	595.81
442.928	573.81
443.149	582.81
443.371	583.81
443.592	608.81
443.813	655.81
444.034	691.81
444.255	634.81
444.476	594.81
444.698	587.81
444.919	606.81
445.14	731.81
445.361	632.81
445.582	593.81
445.803	618.81
446.024	672.81
446.245	671.81
446.466	612.81
446.687	573.81
446.908	553.81
447.129	520.81
447.35	484.81
447.571	507.81
447.792	497.81
448.013	512.81
448.234	497.81
448.455	517.81
448.675	565.81
448.896	660.81
449.117	554.81
449.338	568.81
449.559	625.81
449.779	697.81
450	580.81
450.221	519.81
450.442	487.81
450.662	465.81
450.883	482.81
451.104	482.81
451.324	490.81
451.545	465.81
451.766	445.81
451.986	455.81
452.207	422.81
452.428	463.81
452.648	447.81
452.869	458.81
453.089	459.81
453.31	469.81
453.53	447.81
453.751	438.81
453.971	445.81
454.192	443.81
454.412	453.81
454.633	447.81
454.853	446.81
455.073	454.81
455.294	459.81
455.514	498.81
455.734	461.81
455.955	450.81
456.175	439.81
456.395	444.81
456.616	413.81
456.836	438.81
457.056	435.81
457.276	415.81
457.497	431.81
457.717	429.81
457.937	405.81
458.157	445.81
458.377	446.81
458.598	466.81
458.818	494.81
459.038	537.81
459.258	555.81
459.478	519.81
459.698	506.81
459.918	493.81
460.138	504.81
460.358	537.81
460.578	521.81
460.798	541.81
461.018	532.81
461.238	543.81
461.458	523.81
461.678	515.81
461.898	525.81
462.118	525.81
462.338	540.81
462.558	578.81
462.777	583.81
462.997	616.81
463.217	635.81
463.437	639.81
463.657	623.81
463.876	613.81
464.096	604.81
464.316	589.81
464.536	600.81
464.755	593.81
464.975	579.81
465.195	604.81
465.414	607.81
465.634	539.81
465.854	485.81
466.073	505.81
466.293	490.81
466.512	473.81
466.732	459.81
466.951	494.81
467.171	469.81
467.391	465.81
467.61	496.81
467.829	476.81
468.049	460.81
468.268	464.81
468.488	448.81
468.707	455.81
468.927	453.81
469.146	464.81
469.365	463.81
469.585	455.81
469.804	480.81
470.023	478.81
470.243	468.81
470.462	492.81
470.681	497.81
470.901	505.81
471.12	498.81
471.339	463.81
471.558	465.81
471.777	462.81
471.997	450.81
472.216	483.81
472.435	492.81
472.654	468.81
472.873	477.81
473.092	462.81
473.311	458.81
473.53	463.81
473.749	466.81
473.968	491.81
474.187	556.81
474.406	523.81
474.625	500.81
474.844	459.81
475.063	477.81
475.282	456.81
475.501	454.81
475.72	473.81
475.939	460.81
476.158	446.81
476.377	454.81
476.596	459.81
476.814	493.81
477.033	485.81
477.252	486.81
477.471	503.81
477.69	502.81
477.908	535.81
478.127	512.81
478.346	506.81
478.564	546.81
478.783	541.81
479.002	534.81
479.22	549.81
479.439	547.81
479.658	559.81
479.876	547.81
480.095	548.81
480.313	590.81
480.532	611.81
480.751	590.81
480.969	585.81
481.188	622.81
481.406	623.81
481.624	573.81
481.843	537.81
482.061	541.81
482.28	529.81
482.498	528.81
482.717	523.81
482.935	525.81
483.153	529.81
483.372	515.81
483.59	514.81
483.808	526.81
484.027	535.81
484.245	517.81
484.463	543.81
484.681	547.81
484.9	537.81
485.118	535.81
485.336	549.81
485.554	548.81
485.772	542.81
485.99	544.81
486.209	572.81
486.427	553.81
486.645	545.81
486.863	557.81
487.081	575.81
487.299	556.81
487.517	555.81
487.735	557.81
487.953	582.81
488.171	578.81
488.389	533.81
488.607	569.81
488.825	551.81
489.043	549.81
489.261	564.81
489.479	558.81
489.696	568.81
489.914	564.81
490.132	555.81
490.35	569.81
490.568	582.81
490.786	611.81
491.003	589.81
491.221	613.81
491.439	626.81
491.657	622.81
491.874	616.81
492.092	604.81
492.31	634.81
492.527	653.81
492.745	644.81
492.963	618.81
493.18	663.81
493.398	639.81
493.615	651.81
493.833	675.81
494.05	650.81
494.268	647.81
494.485	661.81
494.703	630.81
494.92	650.81
495.138	658.81
495.355	645.81
495.573	633.81
495.79	655.81
496.008	629.81
496.225	650.81
496.442	635.81
496.66	648.81
496.877	672.81
497.094	664.81
497.312	669.81
497.529	664.81
497.746	695.81
497.963	708.81
498.181	712.81
498.398	726.81
498.615	754.81
498.832	823.81
499.049	836.81
499.267	885.81
499.484	946.81
499.701	964.81
499.918	1055.81
500.135	1156.81
500.352	1252.81
500.569	1312.81
500.786	1289.81
501.003	1236.81
501.22	1153.81
501.437	1055.81
501.654	968.81
501.871	926.81
502.088	879.81
