Data from 1960PennyLincolnUp.LampE6.200Scan.07172019.P1_HRD10591_13-05-51-001.txt Node
Date: Thu Jul 18 13:05:51 EDT 2019
User: cochatt
Spectrometer: HR+D1059
Trigger mode: 1
Integration Time (sec): 1.000000E-1
Scans to average: 1
Electric dark correction enabled: true
Nonlinearity correction enabled: false
Boxcar width: 0
XAxis mode: Wavelengths
Number of Pixels in Spectrum: 2048
>>>>>Begin Spectral Data<<<<<
223.165	-14.81
223.4	-14.81
223.635	-14.81
223.869	-10.81
224.104	-20.81
224.338	-20.81
224.573	-13.81
224.808	-15.81
225.042	-4.81
225.277	-4.81
225.511	-4.81
225.746	-2.81
225.98	10.19
226.215	2.19
226.449	6.19
226.683	36.19
226.918	28.19
227.152	31.19
227.387	42.19
227.621	28.19
227.856	37.19
228.09	52.19
228.324	45.19
228.559	46.19
228.793	61.19
229.027	89.19
229.262	88.19
229.496	101.19
229.73	112.19
229.964	129.19
230.199	102.19
230.433	109.19
230.667	103.19
230.901	117.19
231.136	114.19
231.37	93.19
231.604	91.19
231.838	97.19
232.072	119.19
232.306	127.19
232.541	105.19
232.775	107.19
233.009	124.19
233.243	110.19
233.477	108.19
233.711	116.19
233.945	98.19
234.179	111.19
234.413	103.19
234.647	130.19
234.881	140.19
235.115	122.19
235.349	110.19
235.583	119.19
235.817	114.19
236.051	128.19
236.285	122.19
236.519	119.19
236.753	128.19
236.987	132.19
237.221	153.19
237.455	182.19
237.689	155.19
237.922	116.19
238.156	110.19
238.39	138.19
238.624	111.19
238.858	125.19
239.091	119.19
239.325	113.19
239.559	127.19
239.793	120.19
240.027	121.19
240.26	122.19
240.494	137.19
240.728	120.19
240.961	149.19
241.195	131.19
241.429	145.19
241.662	141.19
241.896	139.19
242.13	138.19
242.363	122.19
242.597	129.19
242.83	145.19
243.064	136.19
243.298	145.19
243.531	112.19
243.765	135.19
243.998	145.19
244.232	137.19
244.465	136.19
244.699	134.19
244.932	150.19
245.166	134.19
245.399	133.19
245.633	143.19
245.866	161.19
246.099	144.19
246.333	135.19
246.566	153.19
246.8	147.19
247.033	159.19
247.266	149.19
247.5	167.19
247.733	159.19
247.966	165.19
248.2	180.19
248.433	167.19
248.666	173.19
248.899	178.19
249.133	181.19
249.366	190.19
249.599	171.19
249.832	165.19
250.066	168.19
250.299	168.19
250.532	188.19
250.765	182.19
250.998	183.19
251.231	192.19
251.465	159.19
251.698	191.19
251.931	194.19
252.164	167.19
252.397	174.19
252.63	176.19
252.863	183.19
253.096	201.19
253.329	195.19
253.562	185.19
253.795	190.19
254.028	197.19
254.261	190.19
254.494	221.19
254.727	225.19
254.96	232.19
255.193	244.19
255.426	200.19
255.659	197.19
255.892	201.19
256.124	217.19
256.357	210.19
256.59	197.19
256.823	199.19
257.056	193.19
257.289	194.19
257.521	200.19
257.754	184.19
257.987	181.19
258.22	183.19
258.452	190.19
258.685	181.19
258.918	205.19
259.151	200.19
259.383	206.19
259.616	198.19
259.849	197.19
260.081	203.19
260.314	215.19
260.547	231.19
260.779	223.19
261.012	202.19
261.244	208.19
261.477	196.19
261.71	224.19
261.942	207.19
262.175	195.19
262.407	186.19
262.64	185.19
262.872	194.19
263.105	195.19
263.337	212.19
263.57	187.19
263.802	209.19
264.035	217.19
264.267	206.19
264.499	222.19
264.732	217.19
264.964	199.19
265.197	210.19
265.429	200.19
265.661	207.19
265.894	200.19
266.126	196.19
266.358	207.19
266.591	218.19
266.823	213.19
267.055	225.19
267.287	218.19
267.52	209.19
267.752	192.19
267.984	228.19
268.216	210.19
268.448	223.19
268.681	225.19
268.913	231.19
269.145	250.19
269.377	266.19
269.609	250.19
269.841	254.19
270.073	251.19
270.306	250.19
270.538	265.19
270.77	274.19
271.002	270.19
271.234	263.19
271.466	282.19
271.698	294.19
271.93	290.19
272.162	274.19
272.394	271.19
272.626	270.19
272.858	259.19
273.09	252.19
273.322	243.19
273.553	253.19
273.785	237.19
274.017	264.19
274.249	254.19
274.481	257.19
274.713	262.19
274.945	239.19
275.176	260.19
275.408	257.19
275.64	250.19
275.872	252.19
276.104	263.19
276.335	247.19
276.567	262.19
276.799	271.19
277.031	281.19
277.262	296.19
277.494	306.19
277.726	278.19
277.957	259.19
278.189	271.19
278.421	253.19
278.652	260.19
278.884	269.19
279.115	248.19
279.347	258.19
279.579	263.19
279.81	247.19
280.042	263.19
280.273	280.19
280.505	257.19
280.736	266.19
280.968	259.19
281.199	238.19
281.431	285.19
281.662	275.19
281.894	278.19
282.125	264.19
282.356	285.19
282.588	280.19
282.819	299.19
283.051	285.19
283.282	284.19
283.513	305.19
283.745	283.19
283.976	287.19
284.207	289.19
284.439	283.19
284.67	280.19
284.901	285.19
285.132	285.19
285.364	278.19
285.595	272.19
285.826	294.19
286.057	288.19
286.288	280.19
286.52	283.19
286.751	280.19
286.982	294.19
287.213	279.19
287.444	289.19
287.675	299.19
287.906	303.19
288.138	307.19
288.369	290.19
288.6	300.19
288.831	301.19
289.062	296.19
289.293	289.19
289.524	304.19
289.755	285.19
289.986	298.19
290.217	296.19
290.448	299.19
290.679	290.19
290.91	292.19
291.141	310.19
291.371	291.19
291.602	289.19
291.833	290.19
292.064	291.19
292.295	308.19
292.526	298.19
292.757	299.19
292.987	304.19
293.218	307.19
293.449	305.19
293.68	313.19
293.91	297.19
294.141	297.19
294.372	302.19
294.603	305.19
294.833	315.19
295.064	293.19
295.295	294.19
295.525	319.19
295.756	296.19
295.987	312.19
296.217	327.19
296.448	329.19
296.679	316.19
296.909	313.19
297.14	304.19
297.37	312.19
297.601	314.19
297.831	315.19
298.062	325.19
298.292	323.19
298.523	327.19
298.753	326.19
298.984	339.19
299.214	331.19
299.445	323.19
299.675	310.19
299.905	308.19
300.136	325.19
300.366	328.19
300.597	339.19
300.827	353.19
301.057	336.19
301.288	352.19
301.518	336.19
301.748	336.19
301.979	351.19
302.209	336.19
302.439	349.19
302.669	333.19
302.9	343.19
303.13	351.19
303.36	327.19
303.59	337.19
303.82	355.19
304.051	357.19
304.281	341.19
304.511	334.19
304.741	340.19
304.971	341.19
305.201	330.19
305.431	344.19
305.661	339.19
305.891	349.19
306.121	327.19
306.352	353.19
306.582	326.19
306.812	321.19
307.042	328.19
307.272	338.19
307.502	340.19
307.731	342.19
307.961	352.19
308.191	371.19
308.421	362.19
308.651	355.19
308.881	363.19
309.111	336.19
309.341	330.19
309.571	349.19
309.8	357.19
310.03	345.19
310.26	381.19
310.49	357.19
310.72	377.19
310.949	378.19
311.179	378.19
311.409	360.19
311.639	365.19
311.868	358.19
312.098	381.19
312.328	377.19
312.557	385.19
312.787	391.19
313.017	389.19
313.246	368.19
313.476	389.19
313.706	380.19
313.935	370.19
314.165	379.19
314.394	371.19
314.624	369.19
314.853	388.19
315.083	372.19
315.312	379.19
315.542	381.19
315.771	373.19
316.001	388.19
316.23	367.19
316.46	386.19
316.689	370.19
316.919	394.19
317.148	379.19
317.377	394.19
317.607	383.19
317.836	375.19
318.065	376.19
318.295	379.19
318.524	364.19
318.753	361.19
318.983	392.19
319.212	354.19
319.441	379.19
319.67	392.19
319.9	387.19
320.129	399.19
320.358	361.19
320.587	392.19
320.816	382.19
321.046	377.19
321.275	383.19
321.504	389.19
321.733	399.19
321.962	401.19
322.191	405.19
322.42	392.19
322.649	393.19
322.878	395.19
323.108	402.19
323.337	426.19
323.566	426.19
323.795	439.19
324.024	462.19
324.253	513.19
324.482	716.19
324.71	997.19
324.939	1359.19
325.168	1112.19
325.397	626.19
325.626	489.19
325.855	454.19
326.084	449.19
326.313	438.19
326.542	431.19
326.77	482.19
326.999	552.19
327.228	681.19
327.457	947.19
327.686	1050.19
327.914	703.19
328.143	517.19
328.372	498.19
328.6	497.19
328.829	469.19
329.058	473.19
329.287	501.19
329.515	454.19
329.744	459.19
329.972	431.19
330.201	472.19
330.43	494.19
330.658	481.19
330.887	522.19
331.115	507.19
331.344	471.19
331.572	453.19
331.801	456.19
332.03	466.19
332.258	481.19
332.486	496.19
332.715	495.19
332.943	478.19
333.172	481.19
333.4	506.19
333.629	527.19
333.857	502.19
334.085	501.19
334.314	528.19
334.542	553.19
334.771	555.19
334.999	547.19
335.227	510.19
335.455	486.19
335.684	479.19
335.912	479.19
336.14	473.19
336.369	468.19
336.597	471.19
336.825	474.19
337.053	463.19
337.281	457.19
337.51	449.19
337.738	468.19
337.966	467.19
338.194	461.19
338.422	455.19
338.65	449.19
338.878	449.19
339.106	447.19
339.334	431.19
339.562	423.19
339.79	425.19
340.018	438.19
340.246	440.19
340.474	448.19
340.702	433.19
340.93	438.19
341.158	428.19
341.386	448.19
341.614	450.19
341.842	443.19
342.07	435.19
342.298	430.19
342.526	425.19
342.754	410.19
342.981	429.19
343.209	442.19
343.437	445.19
343.665	463.19
343.893	472.19
344.12	469.19
344.348	481.19
344.576	447.19
344.804	451.19
345.031	430.19
345.259	429.19
345.487	431.19
345.714	453.19
345.942	432.19
346.17	450.19
346.397	420.19
346.625	430.19
346.853	393.19
347.08	402.19
347.308	414.19
347.535	416.19
347.763	415.19
347.99	409.19
348.218	438.19
348.445	422.19
348.673	431.19
348.9	422.19
349.128	393.19
349.355	423.19
349.583	418.19
349.81	405.19
350.037	394.19
350.265	403.19
350.492	394.19
350.72	410.19
350.947	406.19
351.174	411.19
351.402	406.19
351.629	415.19
351.856	398.19
352.083	412.19
352.311	424.19
352.538	426.19
352.765	419.19
352.992	413.19
353.22	420.19
353.447	403.19
353.674	413.19
353.901	387.19
354.128	392.19
354.355	395.19
354.583	410.19
354.81	414.19
355.037	403.19
355.264	401.19
355.491	395.19
355.718	393.19
355.945	385.19
356.172	388.19
356.399	404.19
356.626	403.19
356.853	401.19
357.08	409.19
357.307	399.19
357.534	386.19
357.761	380.19
357.988	395.19
358.215	403.19
358.441	379.19
358.668	397.19
358.895	409.19
359.122	408.19
359.349	402.19
359.576	403.19
359.802	437.19
360.029	438.19
360.256	428.19
360.483	440.19
360.709	409.19
360.936	421.19
361.163	399.19
361.39	395.19
361.616	415.19
361.843	427.19
362.07	393.19
362.296	404.19
362.523	412.19
362.749	414.19
362.976	424.19
363.203	409.19
363.429	391.19
363.656	389.19
363.882	392.19
364.109	401.19
364.335	420.19
364.562	398.19
364.788	409.19
365.015	415.19
365.241	404.19
365.468	401.19
365.694	410.19
365.92	414.19
366.147	408.19
366.373	400.19
366.599	384.19
366.826	417.19
367.052	379.19
367.278	411.19
367.505	406.19
367.731	403.19
367.957	410.19
368.184	401.19
368.41	418.19
368.636	430.19
368.862	422.19
369.089	416.19
369.315	413.19
369.541	425.19
369.767	387.19
369.993	405.19
370.219	399.19
370.445	404.19
370.672	428.19
370.898	423.19
371.124	424.19
371.35	413.19
371.576	422.19
371.802	433.19
372.028	402.19
372.254	418.19
372.48	439.19
372.706	431.19
372.932	437.19
373.158	447.19
373.384	426.19
373.61	419.19
373.835	435.19
374.061	426.19
374.287	433.19
374.513	431.19
374.739	439.19
374.965	465.19
375.191	441.19
375.416	448.19
375.642	450.19
375.868	435.19
376.094	461.19
376.319	445.19
376.545	439.19
376.771	417.19
376.997	407.19
377.222	421.19
377.448	417.19
377.674	411.19
377.899	430.19
378.125	417.19
378.35	396.19
378.576	415.19
378.802	417.19
379.027	406.19
379.253	389.19
379.478	418.19
379.704	423.19
379.929	403.19
380.155	422.19
380.38	409.19
380.606	433.19
380.831	437.19
381.057	406.19
381.282	407.19
381.507	433.19
381.733	422.19
381.958	419.19
382.184	448.19
382.409	455.19
382.634	421.19
382.86	433.19
383.085	424.19
383.31	452.19
383.535	466.19
383.761	466.19
383.986	443.19
384.211	460.19
384.436	461.19
384.662	460.19
384.887	462.19
385.112	479.19
385.337	468.19
385.562	478.19
385.787	507.19
386.013	509.19
386.238	502.19
386.463	488.19
386.688	479.19
386.913	499.19
387.138	473.19
387.363	466.19
387.588	475.19
387.813	469.19
388.038	477.19
388.263	470.19
388.488	473.19
388.713	474.19
388.938	478.19
389.163	462.19
389.387	462.19
389.612	485.19
389.837	480.19
390.062	460.19
390.287	473.19
390.512	458.19
390.736	461.19
390.961	474.19
391.186	471.19
391.411	511.19
391.636	503.19
391.86	521.19
392.085	524.19
392.31	528.19
392.534	509.19
392.759	506.19
392.984	513.19
393.208	504.19
393.433	517.19
393.658	497.19
393.882	474.19
394.107	487.19
394.331	516.19
394.556	516.19
394.78	485.19
395.005	493.19
395.229	516.19
395.454	505.19
395.678	503.19
395.903	503.19
396.127	531.19
396.352	533.19
396.576	515.19
396.801	484.19
397.025	519.19
397.249	519.19
397.474	527.19
397.698	519.19
397.922	544.19
398.147	531.19
398.371	545.19
398.595	558.19
398.82	558.19
399.044	596.19
399.268	636.19
399.492	696.19
399.717	771.19
399.941	780.19
400.165	733.19
400.389	666.19
400.613	627.19
400.837	596.19
401.062	595.19
401.286	592.19
401.51	568.19
401.734	558.19
401.958	568.19
402.182	588.19
402.406	618.19
402.63	596.19
402.854	583.19
403.078	593.19
403.302	617.19
403.526	623.19
403.75	624.19
403.974	635.19
404.198	634.19
404.422	641.19
404.645	617.19
404.869	620.19
405.093	623.19
405.317	659.19
405.541	669.19
405.765	647.19
405.988	625.19
406.212	649.19
406.436	639.19
406.66	636.19
406.883	663.19
407.107	678.19
407.331	728.19
407.555	770.19
407.778	751.19
408.002	681.19
408.226	689.19
408.449	648.19
408.673	677.19
408.896	665.19
409.12	689.19
409.344	626.19
409.567	603.19
409.791	599.19
410.014	602.19
410.238	602.19
410.461	614.19
410.685	589.19
410.908	623.19
411.132	607.19
411.355	641.19
411.578	622.19
411.802	597.19
412.025	598.19
412.249	583.19
412.472	605.19
412.695	613.19
412.919	625.19
413.142	572.19
413.365	605.19
413.589	584.19
413.812	583.19
414.035	570.19
414.258	549.19
414.482	562.19
414.705	575.19
414.928	570.19
415.151	581.19
415.374	561.19
415.597	564.19
415.821	553.19
416.044	570.19
416.267	545.19
416.49	553.19
416.713	550.19
416.936	550.19
417.159	554.19
417.382	533.19
417.605	585.19
417.828	563.19
418.051	581.19
418.274	580.19
418.497	557.19
418.72	567.19
418.943	547.19
419.166	595.19
419.389	611.19
419.611	594.19
419.834	572.19
420.057	587.19
420.28	590.19
420.503	571.19
420.726	570.19
420.948	576.19
421.171	607.19
421.394	586.19
421.617	569.19
421.839	546.19
422.062	553.19
422.285	579.19
422.507	631.19
422.73	663.19
422.953	645.19
423.175	593.19
423.398	584.19
423.621	570.19
423.843	624.19
424.066	614.19
424.288	619.19
424.511	636.19
424.733	653.19
424.956	689.19
425.178	654.19
425.401	662.19
425.623	682.19
425.846	595.19
426.068	587.19
426.291	554.19
426.513	554.19
426.735	567.19
426.958	603.19
427.18	633.19
427.402	709.19
427.625	757.19
427.847	689.19
428.069	605.19
428.292	585.19
428.514	534.19
428.736	529.19
428.958	541.19
429.181	518.19
429.403	530.19
429.625	528.19
429.847	544.19
430.069	582.19
430.292	583.19
430.514	526.19
430.736	514.19
430.958	506.19
431.18	525.19
431.402	508.19
431.624	506.19
431.846	496.19
432.068	498.19
432.29	520.19
432.512	503.19
432.734	533.19
432.956	521.19
433.178	526.19
433.4	516.19
433.622	522.19
433.844	514.19
434.066	518.19
434.287	520.19
434.509	519.19
434.731	542.19
434.953	566.19
435.175	579.19
435.397	554.19
435.618	568.19
435.84	589.19
436.062	631.19
436.284	666.19
436.505	595.19
436.727	565.19
436.949	522.19
437.17	524.19
437.392	527.19
437.614	519.19
437.835	556.19
438.057	608.19
438.278	675.19
438.5	642.19
438.721	675.19
438.943	673.19
439.165	577.19
439.386	549.19
439.608	543.19
439.829	558.19
440.05	561.19
440.272	605.19
440.493	579.19
440.715	559.19
440.936	537.19
441.158	537.19
441.379	559.19
441.6	556.19
441.822	590.19
442.043	592.19
442.264	643.19
442.486	656.19
442.707	597.19
442.928	577.19
443.149	589.19
443.371	591.19
443.592	638.19
443.813	647.19
444.034	715.19
444.255	653.19
444.476	608.19
444.698	605.19
444.919	622.19
445.14	743.19
445.361	663.19
445.582	626.19
445.803	631.19
446.024	681.19
446.245	685.19
446.466	639.19
446.687	563.19
446.908	547.19
447.129	507.19
447.35	524.19
447.571	519.19
447.792	507.19
448.013	517.19
448.234	507.19
448.455	535.19
448.675	611.19
448.896	675.19
449.117	595.19
449.338	564.19
449.559	640.19
449.779	683.19
450	589.19
450.221	503.19
450.442	481.19
450.662	496.19
450.883	492.19
451.104	475.19
451.324	508.19
451.545	493.19
451.766	480.19
451.986	481.19
452.207	475.19
452.428	468.19
452.648	470.19
452.869	456.19
453.089	467.19
453.31	469.19
453.53	471.19
453.751	464.19
453.971	455.19
454.192	458.19
454.412	478.19
454.633	455.19
454.853	458.19
455.073	425.19
455.294	449.19
455.514	513.19
455.734	468.19
455.955	424.19
456.175	447.19
456.395	430.19
456.616	451.19
456.836	430.19
457.056	425.19
457.276	427.19
457.497	468.19
457.717	435.19
457.937	451.19
458.157	433.19
458.377	458.19
458.598	460.19
458.818	509.19
459.038	564.19
459.258	581.19
459.478	531.19
459.698	516.19
459.918	510.19
460.138	520.19
460.358	532.19
460.578	538.19
460.798	543.19
461.018	559.19
461.238	557.19
461.458	549.19
461.678	543.19
461.898	565.19
462.118	538.19
462.338	577.19
462.558	589.19
462.777	614.19
462.997	622.19
463.217	644.19
463.437	664.19
463.657	618.19
463.876	596.19
464.096	619.19
464.316	589.19
464.536	615.19
464.755	588.19
464.975	583.19
465.195	617.19
465.414	613.19
465.634	559.19
465.854	522.19
466.073	508.19
466.293	495.19
466.512	465.19
466.732	482.19
466.951	493.19
467.171	475.19
467.391	497.19
467.61	487.19
467.829	489.19
468.049	479.19
468.268	481.19
468.488	457.19
468.707	450.19
468.927	482.19
469.146	483.19
469.365	479.19
469.585	461.19
469.804	484.19
470.023	481.19
470.243	503.19
470.462	492.19
470.681	514.19
470.901	499.19
471.12	510.19
471.339	484.19
471.558	489.19
471.777	471.19
471.997	469.19
472.216	481.19
472.435	509.19
472.654	494.19
472.873	464.19
473.092	472.19
473.311	434.19
473.53	493.19
473.749	462.19
473.968	485.19
474.187	559.19
474.406	541.19
474.625	497.19
474.844	488.19
475.063	451.19
475.282	448.19
475.501	480.19
475.72	457.19
475.939	464.19
476.158	480.19
476.377	499.19
476.596	477.19
476.814	484.19
477.033	499.19
477.252	485.19
477.471	487.19
477.69	503.19
477.908	533.19
478.127	530.19
478.346	532.19
478.564	522.19
478.783	563.19
479.002	556.19
479.22	538.19
479.439	567.19
479.658	575.19
479.876	581.19
480.095	595.19
480.313	599.19
480.532	604.19
480.751	597.19
480.969	594.19
481.188	631.19
481.406	642.19
481.624	586.19
481.843	543.19
482.061	550.19
482.28	555.19
482.498	537.19
482.717	524.19
482.935	543.19
483.153	537.19
483.372	553.19
483.59	538.19
483.808	543.19
484.027	516.19
484.245	543.19
484.463	535.19
484.681	543.19
484.9	555.19
485.118	559.19
485.336	553.19
485.554	571.19
485.772	559.19
485.99	554.19
486.209	568.19
486.427	569.19
486.645	573.19
486.863	561.19
487.081	603.19
487.299	556.19
487.517	581.19
487.735	565.19
487.953	586.19
488.171	582.19
488.389	588.19
488.607	546.19
488.825	567.19
489.043	576.19
489.261	587.19
489.479	593.19
489.696	578.19
489.914	600.19
490.132	570.19
490.35	570.19
490.568	589.19
490.786	609.19
491.003	606.19
491.221	615.19
491.439	627.19
491.657	641.19
491.874	642.19
492.092	644.19
492.31	674.19
492.527	651.19
492.745	639.19
492.963	633.19
493.18	647.19
493.398	651.19
493.615	648.19
493.833	661.19
494.05	665.19
494.268	662.19
494.485	668.19
494.703	676.19
494.92	655.19
495.138	653.19
495.355	642.19
495.573	673.19
495.79	659.19
496.008	675.19
496.225	651.19
496.442	662.19
496.66	673.19
496.877	679.19
497.094	697.19
497.312	683.19
497.529	691.19
497.746	720.19
497.963	724.19
498.181	689.19
498.398	765.19
498.615	808.19
498.832	809.19
499.049	867.19
499.267	889.19
499.484	954.19
499.701	1024.19
499.918	1073.19
500.135	1173.19
500.352	1283.19
500.569	1311.19
500.786	1281.19
501.003	1235.19
501.22	1174.19
501.437	1088.19
501.654	1007.19
501.871	951.19
