Data from 1960PennyLincolnUp.LampE5.5.200Scan.07172019.P1.ChangedAngle_HRD10591_13-14-26-821.txt Node
Date: Thu Jul 18 13:14:26 EDT 2019
User: cochatt
Spectrometer: HR+D1059
Trigger mode: 1
Integration Time (sec): 1.000000E-1
Scans to average: 1
Electric dark correction enabled: true
Nonlinearity correction enabled: false
Boxcar width: 0
XAxis mode: Wavelengths
Number of Pixels in Spectrum: 2048
>>>>>Begin Spectral Data<<<<<
223.165	-11.88
223.4	-11.88
223.635	-11.88
223.869	-6.88
224.104	-26.88
224.338	-21.88
224.573	-18.88
224.808	-8.88
225.042	-9.88
225.277	-3.88
225.511	-4.88
225.746	23.12
225.98	4.12
226.215	-1.88
226.449	18.12
226.683	36.12
226.918	21.12
227.152	13.12
227.387	38.12
227.621	46.12
227.856	51.12
228.09	41.12
228.324	38.12
228.559	46.12
228.793	67.12
229.027	87.12
229.262	87.12
229.496	90.12
229.73	106.12
229.964	111.12
230.199	117.12
230.433	113.12
230.667	103.12
230.901	95.12
231.136	90.12
231.37	98.12
231.604	103.12
231.838	123.12
232.072	101.12
232.306	98.12
232.541	100.12
232.775	101.12
233.009	98.12
233.243	101.12
233.477	91.12
233.711	113.12
233.945	89.12
234.179	103.12
234.413	113.12
234.647	110.12
234.881	101.12
235.115	106.12
235.349	97.12
235.583	117.12
235.817	114.12
236.051	119.12
236.285	101.12
236.519	110.12
236.753	108.12
236.987	114.12
237.221	149.12
237.455	177.12
237.689	147.12
237.922	142.12
238.156	121.12
238.39	130.12
238.624	108.12
238.858	115.12
239.091	120.12
239.325	117.12
239.559	104.12
239.793	111.12
240.027	114.12
240.26	124.12
240.494	125.12
240.728	134.12
240.961	135.12
241.195	131.12
241.429	115.12
241.662	117.12
241.896	109.12
242.13	130.12
242.363	134.12
242.597	118.12
242.83	123.12
243.064	126.12
243.298	124.12
243.531	141.12
243.765	145.12
243.998	132.12
244.232	122.12
244.465	129.12
244.699	133.12
244.932	132.12
245.166	125.12
245.399	133.12
245.633	143.12
245.866	123.12
246.099	122.12
246.333	136.12
246.566	135.12
246.8	145.12
247.033	141.12
247.266	142.12
247.5	149.12
247.733	141.12
247.966	155.12
248.2	154.12
248.433	163.12
248.666	153.12
248.899	165.12
249.133	154.12
249.366	171.12
249.599	175.12
249.832	165.12
250.066	172.12
250.299	156.12
250.532	172.12
250.765	168.12
250.998	185.12
251.231	181.12
251.465	175.12
251.698	170.12
251.931	168.12
252.164	180.12
252.397	158.12
252.63	173.12
252.863	188.12
253.096	165.12
253.329	175.12
253.562	193.12
253.795	167.12
254.028	198.12
254.261	181.12
254.494	189.12
254.727	214.12
254.96	223.12
255.193	212.12
255.426	208.12
255.659	198.12
255.892	193.12
256.124	195.12
256.357	195.12
256.59	186.12
256.823	179.12
257.056	189.12
257.289	173.12
257.521	181.12
257.754	170.12
257.987	179.12
258.22	181.12
258.452	181.12
258.685	170.12
258.918	181.12
259.151	180.12
259.383	204.12
259.616	195.12
259.849	186.12
260.081	193.12
260.314	210.12
260.547	195.12
260.779	197.12
261.012	208.12
261.244	177.12
261.477	210.12
261.71	190.12
261.942	212.12
262.175	196.12
262.407	203.12
262.64	205.12
262.872	202.12
263.105	186.12
263.337	188.12
263.57	189.12
263.802	197.12
264.035	189.12
264.267	173.12
264.499	183.12
264.732	199.12
264.964	206.12
265.197	190.12
265.429	201.12
265.661	218.12
265.894	203.12
266.126	214.12
266.358	190.12
266.591	194.12
266.823	211.12
267.055	215.12
267.287	209.12
267.52	200.12
267.752	198.12
267.984	206.12
268.216	204.12
268.448	210.12
268.681	214.12
268.913	209.12
269.145	231.12
269.377	224.12
269.609	220.12
269.841	214.12
270.073	239.12
270.306	254.12
270.538	250.12
270.77	249.12
271.002	249.12
271.234	239.12
271.466	267.12
271.698	247.12
271.93	254.12
272.162	249.12
272.394	275.12
272.626	259.12
272.858	253.12
273.09	251.12
273.322	236.12
273.553	226.12
273.785	245.12
274.017	229.12
274.249	240.12
274.481	231.12
274.713	247.12
274.945	255.12
275.176	238.12
275.408	259.12
275.64	253.12
275.872	230.12
276.104	259.12
276.335	237.12
276.567	236.12
276.799	269.12
277.031	264.12
277.262	264.12
277.494	269.12
277.726	263.12
277.957	254.12
278.189	228.12
278.421	247.12
278.652	243.12
278.884	251.12
279.115	254.12
279.347	250.12
279.579	239.12
279.81	273.12
280.042	253.12
280.273	263.12
280.505	246.12
280.736	232.12
280.968	248.12
281.199	255.12
281.431	259.12
281.662	259.12
281.894	254.12
282.125	246.12
282.356	259.12
282.588	257.12
282.819	273.12
283.051	251.12
283.282	244.12
283.513	263.12
283.745	271.12
283.976	269.12
284.207	262.12
284.439	265.12
284.67	246.12
284.901	274.12
285.132	257.12
285.364	260.12
285.595	261.12
285.826	270.12
286.057	269.12
286.288	248.12
286.52	263.12
286.751	275.12
286.982	282.12
287.213	258.12
287.444	264.12
287.675	287.12
287.906	290.12
288.138	275.12
288.369	284.12
288.6	282.12
288.831	281.12
289.062	290.12
289.293	287.12
289.524	285.12
289.755	280.12
289.986	268.12
290.217	279.12
290.448	263.12
290.679	277.12
290.91	282.12
291.141	281.12
291.371	269.12
291.602	263.12
291.833	278.12
292.064	268.12
292.295	284.12
292.526	269.12
292.757	282.12
292.987	282.12
293.218	278.12
293.449	297.12
293.68	289.12
293.91	272.12
294.141	289.12
294.372	294.12
294.603	269.12
294.833	280.12
295.064	291.12
295.295	273.12
295.525	290.12
295.756	280.12
295.987	281.12
296.217	300.12
296.448	296.12
296.679	287.12
296.909	295.12
297.14	292.12
297.37	271.12
297.601	299.12
297.831	269.12
298.062	297.12
298.292	277.12
298.523	287.12
298.753	286.12
298.984	287.12
299.214	298.12
299.445	291.12
299.675	286.12
299.905	303.12
300.136	286.12
300.366	306.12
300.597	300.12
300.827	293.12
301.057	297.12
301.288	311.12
301.518	310.12
301.748	334.12
301.979	320.12
302.209	293.12
302.439	291.12
302.669	319.12
302.9	314.12
303.13	302.12
303.36	311.12
303.59	313.12
303.82	301.12
304.051	318.12
304.281	314.12
304.511	309.12
304.741	308.12
304.971	302.12
305.201	319.12
305.431	339.12
305.661	291.12
305.891	300.12
306.121	315.12
306.352	315.12
306.582	323.12
306.812	298.12
307.042	306.12
307.272	303.12
307.502	323.12
307.731	313.12
307.961	311.12
308.191	308.12
308.421	326.12
308.651	331.12
308.881	318.12
309.111	295.12
309.341	316.12
309.571	327.12
309.8	327.12
310.03	315.12
310.26	338.12
310.49	325.12
310.72	317.12
310.949	334.12
311.179	342.12
311.409	324.12
311.639	340.12
311.868	341.12
312.098	334.12
312.328	356.12
312.557	346.12
312.787	339.12
313.017	349.12
313.246	358.12
313.476	346.12
313.706	342.12
313.935	327.12
314.165	344.12
314.394	359.12
314.624	347.12
314.853	335.12
315.083	342.12
315.312	335.12
315.542	348.12
315.771	347.12
316.001	324.12
316.23	343.12
316.46	342.12
316.689	358.12
316.919	341.12
317.148	364.12
317.377	363.12
317.607	339.12
317.836	334.12
318.065	337.12
318.295	342.12
318.524	349.12
318.753	357.12
318.983	342.12
319.212	343.12
319.441	362.12
319.67	363.12
319.9	356.12
320.129	338.12
320.358	331.12
320.587	344.12
320.816	348.12
321.046	364.12
321.275	355.12
321.504	336.12
321.733	359.12
321.962	374.12
322.191	376.12
322.42	373.12
322.649	370.12
322.878	374.12
323.108	399.12
323.337	383.12
323.566	404.12
323.795	398.12
324.024	455.12
324.253	510.12
324.482	662.12
324.71	948.12
324.939	1244.12
325.168	1079.12
325.397	623.12
325.626	489.12
325.855	428.12
326.084	407.12
326.313	411.12
326.542	410.12
326.77	469.12
326.999	498.12
327.228	630.12
327.457	854.12
327.686	945.12
327.914	683.12
328.143	511.12
328.372	451.12
328.6	438.12
328.829	425.12
329.058	436.12
329.287	432.12
329.515	411.12
329.744	409.12
329.972	415.12
330.201	427.12
330.43	467.12
330.658	446.12
330.887	452.12
331.115	442.12
331.344	423.12
331.572	419.12
331.801	427.12
332.03	415.12
332.258	393.12
332.486	408.12
332.715	406.12
332.943	420.12
333.172	410.12
333.4	403.12
333.629	418.12
333.857	430.12
334.085	440.12
334.314	429.12
334.542	468.12
334.771	446.12
334.999	424.12
335.227	427.12
335.455	423.12
335.684	400.12
335.912	393.12
336.14	421.12
336.369	403.12
336.597	401.12
336.825	408.12
337.053	420.12
337.281	399.12
337.51	386.12
337.738	393.12
337.966	408.12
338.194	391.12
338.422	394.12
338.65	397.12
338.878	398.12
339.106	402.12
339.334	374.12
339.562	401.12
339.79	381.12
340.018	378.12
340.246	394.12
340.474	381.12
340.702	383.12
340.93	371.12
341.158	373.12
341.386	391.12
341.614	386.12
341.842	384.12
342.07	373.12
342.298	371.12
342.526	390.12
342.754	400.12
342.981	360.12
343.209	401.12
343.437	402.12
343.665	394.12
343.893	367.12
344.12	403.12
344.348	412.12
344.576	392.12
344.804	384.12
345.031	376.12
345.259	381.12
345.487	375.12
345.714	374.12
345.942	368.12
346.17	349.12
346.397	369.12
346.625	366.12
346.853	366.12
347.08	365.12
347.308	384.12
347.535	366.12
347.763	373.12
347.99	368.12
348.218	366.12
348.445	372.12
348.673	357.12
348.9	373.12
349.128	363.12
349.355	365.12
349.583	363.12
349.81	364.12
350.037	348.12
350.265	363.12
350.492	336.12
350.72	343.12
350.947	365.12
351.174	345.12
351.402	379.12
351.629	359.12
351.856	347.12
352.083	379.12
352.311	354.12
352.538	356.12
352.765	381.12
352.992	363.12
353.22	359.12
353.447	347.12
353.674	367.12
353.901	346.12
354.128	346.12
354.355	353.12
354.583	361.12
354.81	341.12
355.037	353.12
355.264	335.12
355.491	316.12
355.718	354.12
355.945	339.12
356.172	347.12
356.399	342.12
356.626	338.12
356.853	354.12
357.08	344.12
357.307	357.12
357.534	346.12
357.761	344.12
357.988	336.12
358.215	339.12
358.441	340.12
358.668	353.12
358.895	366.12
359.122	344.12
359.349	346.12
359.576	366.12
359.802	365.12
360.029	372.12
360.256	379.12
360.483	380.12
360.709	352.12
360.936	352.12
361.163	350.12
361.39	353.12
361.616	355.12
361.843	354.12
362.07	365.12
362.296	360.12
362.523	362.12
362.749	349.12
362.976	353.12
363.203	349.12
363.429	352.12
363.656	355.12
363.882	361.12
364.109	351.12
364.335	349.12
364.562	349.12
364.788	354.12
365.015	338.12
365.241	342.12
365.468	339.12
365.694	345.12
365.92	360.12
366.147	335.12
366.373	346.12
366.599	354.12
366.826	331.12
367.052	334.12
367.278	349.12
367.505	334.12
367.731	340.12
367.957	323.12
368.184	337.12
368.41	346.12
368.636	340.12
368.862	346.12
369.089	341.12
369.315	339.12
369.541	348.12
369.767	357.12
369.993	339.12
370.219	352.12
370.445	356.12
370.672	325.12
370.898	342.12
371.124	350.12
371.35	347.12
371.576	338.12
371.802	338.12
372.028	358.12
372.254	346.12
372.48	357.12
372.706	348.12
372.932	356.12
373.158	363.12
373.384	362.12
373.61	348.12
373.835	345.12
374.061	342.12
374.287	347.12
374.513	359.12
374.739	336.12
374.965	356.12
375.191	365.12
375.416	352.12
375.642	361.12
375.868	348.12
376.094	365.12
376.319	341.12
376.545	357.12
376.771	356.12
376.997	333.12
377.222	345.12
377.448	347.12
377.674	339.12
377.899	330.12
378.125	367.12
378.35	331.12
378.576	347.12
378.802	322.12
379.027	340.12
379.253	343.12
379.478	323.12
379.704	331.12
379.929	335.12
380.155	337.12
380.38	346.12
380.606	351.12
380.831	342.12
381.057	360.12
381.282	331.12
381.507	329.12
381.733	360.12
381.958	349.12
382.184	341.12
382.409	361.12
382.634	345.12
382.86	353.12
383.085	328.12
383.31	342.12
383.535	363.12
383.761	365.12
383.986	369.12
384.211	358.12
384.436	359.12
384.662	363.12
384.887	380.12
385.112	366.12
385.337	379.12
385.562	385.12
385.787	368.12
386.013	373.12
386.238	350.12
386.463	374.12
386.688	361.12
386.913	364.12
387.138	379.12
387.363	381.12
387.588	360.12
387.813	342.12
388.038	372.12
388.263	354.12
388.488	367.12
388.713	375.12
388.938	370.12
389.163	354.12
389.387	369.12
389.612	386.12
389.837	374.12
390.062	369.12
390.287	362.12
390.512	373.12
390.736	363.12
390.961	358.12
391.186	381.12
391.411	365.12
391.636	378.12
391.86	387.12
392.085	380.12
392.31	376.12
392.534	363.12
392.759	369.12
392.984	359.12
393.208	365.12
393.433	384.12
393.658	389.12
393.882	374.12
394.107	354.12
394.331	369.12
394.556	380.12
394.78	367.12
395.005	372.12
395.229	394.12
395.454	380.12
395.678	378.12
395.903	391.12
396.127	414.12
396.352	401.12
396.576	383.12
396.801	385.12
397.025	383.12
397.249	363.12
397.474	379.12
397.698	403.12
397.922	400.12
398.147	414.12
398.371	420.12
398.595	414.12
398.82	419.12
399.044	411.12
399.268	445.12
399.492	452.12
399.717	477.12
399.941	475.12
400.165	509.12
400.389	505.12
400.613	434.12
400.837	425.12
401.062	426.12
401.286	413.12
401.51	395.12
401.734	413.12
401.958	422.12
402.182	408.12
402.406	404.12
402.63	411.12
402.854	409.12
403.078	417.12
403.302	413.12
403.526	417.12
403.75	423.12
403.974	443.12
404.198	419.12
404.422	443.12
404.645	432.12
404.869	446.12
405.093	437.12
405.317	466.12
405.541	502.12
405.765	448.12
405.988	455.12
406.212	441.12
406.436	467.12
406.66	460.12
406.883	425.12
407.107	469.12
407.331	493.12
407.555	515.12
407.778	545.12
408.002	478.12
408.226	473.12
408.449	456.12
408.673	455.12
408.896	473.12
409.12	482.12
409.344	462.12
409.567	442.12
409.791	434.12
410.014	428.12
410.238	406.12
410.461	423.12
410.685	414.12
410.908	409.12
411.132	451.12
411.355	444.12
411.578	449.12
411.802	429.12
412.025	409.12
412.249	410.12
412.472	430.12
412.695	442.12
412.919	440.12
413.142	405.12
413.365	433.12
413.589	403.12
413.812	412.12
414.035	414.12
414.258	401.12
414.482	367.12
414.705	374.12
414.928	400.12
415.151	393.12
415.374	410.12
415.597	391.12
415.821	406.12
416.044	395.12
416.267	403.12
416.49	371.12
416.713	369.12
416.936	363.12
417.159	403.12
417.382	408.12
417.605	394.12
417.828	402.12
418.051	412.12
418.274	403.12
418.497	387.12
418.72	371.12
418.943	382.12
419.166	389.12
419.389	423.12
419.611	402.12
419.834	405.12
420.057	406.12
420.28	418.12
420.503	392.12
420.726	395.12
420.948	413.12
421.171	411.12
421.394	444.12
421.617	408.12
421.839	406.12
422.062	427.12
422.285	420.12
422.507	427.12
422.73	493.12
422.953	483.12
423.175	440.12
423.398	422.12
423.621	410.12
423.843	413.12
424.066	411.12
424.288	415.12
424.511	424.12
424.733	458.12
424.956	516.12
425.178	502.12
425.401	509.12
425.623	488.12
425.846	443.12
426.068	424.12
426.291	418.12
426.513	396.12
426.735	432.12
426.958	437.12
427.18	471.12
427.402	569.12
427.625	615.12
427.847	532.12
428.069	473.12
428.292	437.12
428.514	411.12
428.736	395.12
428.958	372.12
429.181	377.12
429.403	388.12
429.625	383.12
429.847	401.12
430.069	422.12
430.292	431.12
430.514	405.12
430.736	392.12
430.958	376.12
431.18	380.12
431.402	389.12
431.624	367.12
431.846	393.12
432.068	387.12
432.29	399.12
432.512	369.12
432.734	373.12
432.956	367.12
433.178	389.12
433.4	393.12
433.622	388.12
433.844	369.12
434.066	353.12
434.287	374.12
434.509	380.12
434.731	390.12
434.953	389.12
435.175	387.12
435.397	398.12
435.618	432.12
435.84	435.12
436.062	505.12
436.284	515.12
436.505	439.12
436.727	407.12
436.949	413.12
437.17	398.12
437.392	378.12
437.614	379.12
437.835	409.12
438.057	461.12
438.278	515.12
438.5	523.12
438.721	546.12
438.943	537.12
439.165	444.12
439.386	408.12
439.608	405.12
439.829	417.12
440.05	436.12
440.272	460.12
440.493	410.12
440.715	399.12
440.936	385.12
441.158	386.12
441.379	375.12
441.6	375.12
441.822	405.12
442.043	433.12
442.264	451.12
442.486	491.12
442.707	442.12
442.928	427.12
443.149	421.12
443.371	421.12
443.592	447.12
443.813	519.12
444.034	527.12
444.255	468.12
444.476	429.12
444.698	413.12
444.919	438.12
445.14	545.12
445.361	469.12
445.582	450.12
445.803	462.12
446.024	489.12
446.245	549.12
446.466	479.12
446.687	427.12
446.908	402.12
447.129	390.12
447.35	387.12
447.571	367.12
447.792	365.12
448.013	397.12
448.234	411.12
448.455	421.12
448.675	495.12
448.896	533.12
449.117	472.12
449.338	462.12
449.559	518.12
449.779	566.12
450	472.12
450.221	408.12
450.442	382.12
450.662	366.12
450.883	378.12
451.104	379.12
451.324	357.12
451.545	345.12
451.766	356.12
451.986	342.12
452.207	336.12
452.428	341.12
452.648	355.12
452.869	343.12
453.089	337.12
453.31	357.12
453.53	345.12
453.751	346.12
453.971	357.12
454.192	336.12
454.412	337.12
454.633	338.12
454.853	354.12
455.073	347.12
455.294	347.12
455.514	382.12
455.734	399.12
455.955	361.12
456.175	321.12
456.395	354.12
456.616	358.12
456.836	337.12
457.056	349.12
457.276	326.12
457.497	350.12
457.717	321.12
457.937	348.12
458.157	346.12
458.377	330.12
458.598	359.12
458.818	391.12
459.038	415.12
459.258	426.12
459.478	371.12
459.698	359.12
459.918	374.12
460.138	367.12
460.358	366.12
460.578	372.12
460.798	380.12
461.018	389.12
461.238	367.12
461.458	386.12
461.678	384.12
461.898	379.12
462.118	369.12
462.338	393.12
462.558	397.12
462.777	386.12
462.997	407.12
463.217	427.12
463.437	436.12
463.657	407.12
463.876	420.12
464.096	417.12
464.316	407.12
464.536	405.12
464.755	429.12
464.975	392.12
465.195	407.12
465.414	439.12
465.634	431.12
465.854	390.12
466.073	382.12
466.293	356.12
466.512	360.12
466.732	366.12
466.951	363.12
467.171	345.12
467.391	327.12
467.61	361.12
467.829	376.12
468.049	363.12
468.268	365.12
468.488	351.12
468.707	332.12
468.927	359.12
469.146	357.12
469.365	353.12
469.585	339.12
469.804	351.12
470.023	365.12
470.243	363.12
470.462	377.12
470.681	367.12
470.901	350.12
471.12	373.12
471.339	373.12
471.558	372.12
471.777	363.12
471.997	353.12
472.216	372.12
472.435	396.12
472.654	374.12
472.873	349.12
473.092	351.12
473.311	359.12
473.53	358.12
473.749	380.12
473.968	387.12
474.187	445.12
474.406	430.12
474.625	378.12
474.844	359.12
475.063	359.12
475.282	362.12
475.501	372.12
475.72	373.12
475.939	366.12
476.158	378.12
476.377	391.12
476.596	365.12
476.814	368.12
477.033	383.12
477.252	398.12
477.471	389.12
477.69	390.12
477.908	401.12
478.127	391.12
478.346	394.12
478.564	394.12
478.783	383.12
479.002	421.12
479.22	427.12
479.439	411.12
479.658	412.12
479.876	425.12
480.095	433.12
480.313	435.12
480.532	445.12
480.751	447.12
480.969	434.12
481.188	469.12
481.406	465.12
481.624	439.12
481.843	426.12
482.061	403.12
482.28	430.12
482.498	421.12
482.717	422.12
482.935	441.12
483.153	417.12
483.372	405.12
483.59	419.12
483.808	406.12
484.027	428.12
484.245	419.12
484.463	418.12
484.681	451.12
484.9	429.12
485.118	425.12
485.336	468.12
485.554	421.12
485.772	441.12
485.99	421.12
486.209	442.12
486.427	435.12
486.645	430.12
486.863	455.12
487.081	461.12
487.299	459.12
487.517	427.12
487.735	435.12
487.953	442.12
488.171	433.12
488.389	444.12
488.607	454.12
488.825	445.12
489.043	428.12
489.261	442.12
489.479	433.12
489.696	451.12
489.914	459.12
490.132	452.12
490.35	462.12
490.568	457.12
490.786	473.12
491.003	475.12
491.221	480.12
491.439	483.12
491.657	476.12
491.874	478.12
492.092	465.12
492.31	472.12
492.527	486.12
492.745	505.12
492.963	478.12
493.18	473.12
493.398	501.12
493.615	513.12
493.833	494.12
494.05	485.12
494.268	518.12
494.485	502.12
494.703	497.12
494.92	512.12
495.138	491.12
495.355	534.12
495.573	521.12
495.79	501.12
496.008	478.12
496.225	506.12
496.442	513.12
496.66	509.12
496.877	535.12
497.094	508.12
497.312	509.12
497.529	540.12
497.746	555.12
497.963	546.12
498.181	567.12
498.398	566.12
498.615	569.12
498.832	604.12
499.049	591.12
499.267	614.12
499.484	660.12
499.701	677.12
499.918	676.12
500.135	708.12
500.352	763.12
500.569	761.12
500.786	734.12
501.003	739.12
501.22	685.12
501.437	687.12
501.654	682.12
501.871	651.12
