Data from 1960PennyLincolnUp.LampE5.5.200Scan.07172019.P1.ChangedAngle_HRD10591_13-15-40-821.txt Node
Date: Thu Jul 18 13:15:40 EDT 2019
User: cochatt
Spectrometer: HR+D1059
Trigger mode: 1
Integration Time (sec): 1.000000E-1
Scans to average: 1
Electric dark correction enabled: true
Nonlinearity correction enabled: false
Boxcar width: 0
XAxis mode: Wavelengths
Number of Pixels in Spectrum: 2048
>>>>>Begin Spectral Data<<<<<
223.165	-11.88
223.4	-11.88
223.635	-11.88
223.869	-16.88
224.104	-8.88
224.338	-8.88
224.573	-6.88
224.808	-21.88
225.042	-14.88
225.277	6.12
225.511	-0.88
225.746	12.12
225.98	7.12
226.215	-12.88
226.449	7.12
226.683	20.12
226.918	19.12
227.152	32.12
227.387	39.12
227.621	39.12
227.856	45.12
228.09	43.12
228.324	52.12
228.559	65.12
228.793	74.12
229.027	103.12
229.262	89.12
229.496	86.12
229.73	119.12
229.964	131.12
230.199	119.12
230.433	113.12
230.667	105.12
230.901	98.12
231.136	108.12
231.37	97.12
231.604	90.12
231.838	99.12
232.072	94.12
232.306	113.12
232.541	108.12
232.775	106.12
233.009	109.12
233.243	100.12
233.477	113.12
233.711	115.12
233.945	101.12
234.179	118.12
234.413	105.12
234.647	114.12
234.881	121.12
235.115	113.12
235.349	104.12
235.583	112.12
235.817	110.12
236.051	105.12
236.285	110.12
236.519	108.12
236.753	124.12
236.987	145.12
237.221	149.12
237.455	189.12
237.689	149.12
237.922	124.12
238.156	121.12
238.39	120.12
238.624	118.12
238.858	118.12
239.091	128.12
239.325	119.12
239.559	118.12
239.793	116.12
240.027	119.12
240.26	117.12
240.494	140.12
240.728	129.12
240.961	131.12
241.195	139.12
241.429	141.12
241.662	124.12
241.896	127.12
242.13	122.12
242.363	118.12
242.597	128.12
242.83	136.12
243.064	129.12
243.298	115.12
243.531	135.12
243.765	123.12
243.998	141.12
244.232	150.12
244.465	134.12
244.699	145.12
244.932	131.12
245.166	142.12
245.399	155.12
245.633	147.12
245.866	139.12
246.099	135.12
246.333	147.12
246.566	159.12
246.8	154.12
247.033	156.12
247.266	150.12
247.5	147.12
247.733	164.12
247.966	147.12
248.2	167.12
248.433	158.12
248.666	158.12
248.899	156.12
249.133	176.12
249.366	195.12
249.599	190.12
249.832	180.12
250.066	185.12
250.299	178.12
250.532	168.12
250.765	185.12
250.998	202.12
251.231	199.12
251.465	193.12
251.698	195.12
251.931	185.12
252.164	176.12
252.397	164.12
252.63	188.12
252.863	192.12
253.096	207.12
253.329	207.12
253.562	204.12
253.795	196.12
254.028	197.12
254.261	184.12
254.494	207.12
254.727	220.12
254.96	248.12
255.193	226.12
255.426	204.12
255.659	213.12
255.892	206.12
256.124	203.12
256.357	221.12
256.59	210.12
256.823	191.12
257.056	218.12
257.289	203.12
257.521	191.12
257.754	194.12
257.987	208.12
258.22	204.12
258.452	194.12
258.685	210.12
258.918	209.12
259.151	201.12
259.383	191.12
259.616	209.12
259.849	213.12
260.081	204.12
260.314	239.12
260.547	243.12
260.779	209.12
261.012	208.12
261.244	195.12
261.477	209.12
261.71	195.12
261.942	198.12
262.175	204.12
262.407	215.12
262.64	205.12
262.872	200.12
263.105	206.12
263.337	210.12
263.57	214.12
263.802	207.12
264.035	213.12
264.267	198.12
264.499	205.12
264.732	192.12
264.964	216.12
265.197	215.12
265.429	215.12
265.661	214.12
265.894	227.12
266.126	207.12
266.358	222.12
266.591	216.12
266.823	216.12
267.055	231.12
267.287	223.12
267.52	217.12
267.752	211.12
267.984	221.12
268.216	218.12
268.448	204.12
268.681	224.12
268.913	228.12
269.145	249.12
269.377	263.12
269.609	264.12
269.841	262.12
270.073	245.12
270.306	263.12
270.538	260.12
270.77	271.12
271.002	285.12
271.234	265.12
271.466	284.12
271.698	293.12
271.93	289.12
272.162	307.12
272.394	281.12
272.626	292.12
272.858	268.12
273.09	256.12
273.322	261.12
273.553	267.12
273.785	266.12
274.017	247.12
274.249	241.12
274.481	249.12
274.713	237.12
274.945	246.12
275.176	245.12
275.408	262.12
275.64	264.12
275.872	257.12
276.104	254.12
276.335	279.12
276.567	256.12
276.799	278.12
277.031	270.12
277.262	288.12
277.494	273.12
277.726	307.12
277.957	290.12
278.189	261.12
278.421	240.12
278.652	253.12
278.884	269.12
279.115	261.12
279.347	265.12
279.579	255.12
279.81	279.12
280.042	264.12
280.273	266.12
280.505	250.12
280.736	269.12
280.968	275.12
281.199	276.12
281.431	262.12
281.662	274.12
281.894	279.12
282.125	268.12
282.356	279.12
282.588	280.12
282.819	301.12
283.051	268.12
283.282	272.12
283.513	271.12
283.745	269.12
283.976	277.12
284.207	273.12
284.439	289.12
284.67	282.12
284.901	270.12
285.132	273.12
285.364	282.12
285.595	271.12
285.826	278.12
286.057	284.12
286.288	285.12
286.52	279.12
286.751	308.12
286.982	279.12
287.213	275.12
287.444	281.12
287.675	286.12
287.906	299.12
288.138	291.12
288.369	299.12
288.6	302.12
288.831	289.12
289.062	304.12
289.293	291.12
289.524	275.12
289.755	283.12
289.986	284.12
290.217	289.12
290.448	286.12
290.679	296.12
290.91	284.12
291.141	278.12
291.371	295.12
291.602	293.12
291.833	287.12
292.064	288.12
292.295	282.12
292.526	282.12
292.757	288.12
292.987	275.12
293.218	295.12
293.449	282.12
293.68	284.12
293.91	271.12
294.141	281.12
294.372	258.12
294.603	296.12
294.833	298.12
295.064	296.12
295.295	283.12
295.525	287.12
295.756	308.12
295.987	301.12
296.217	319.12
296.448	325.12
296.679	297.12
296.909	311.12
297.14	290.12
297.37	305.12
297.601	301.12
297.831	313.12
298.062	311.12
298.292	297.12
298.523	316.12
298.753	320.12
298.984	310.12
299.214	298.12
299.445	321.12
299.675	304.12
299.905	315.12
300.136	320.12
300.366	314.12
300.597	313.12
300.827	311.12
301.057	319.12
301.288	325.12
301.518	313.12
301.748	329.12
301.979	320.12
302.209	351.12
302.439	333.12
302.669	324.12
302.9	315.12
303.13	327.12
303.36	330.12
303.59	331.12
303.82	347.12
304.051	327.12
304.281	320.12
304.511	332.12
304.741	324.12
304.971	324.12
305.201	327.12
305.431	309.12
305.661	328.12
305.891	327.12
306.121	322.12
306.352	334.12
306.582	337.12
306.812	339.12
307.042	328.12
307.272	333.12
307.502	333.12
307.731	328.12
307.961	357.12
308.191	344.12
308.421	318.12
308.651	344.12
308.881	333.12
309.111	336.12
309.341	349.12
309.571	340.12
309.8	365.12
310.03	360.12
310.26	361.12
310.49	358.12
310.72	377.12
310.949	376.12
311.179	373.12
311.409	360.12
311.639	360.12
311.868	365.12
312.098	362.12
312.328	351.12
312.557	373.12
312.787	373.12
313.017	379.12
313.246	368.12
313.476	359.12
313.706	378.12
313.935	368.12
314.165	393.12
314.394	381.12
314.624	376.12
314.853	394.12
315.083	389.12
315.312	374.12
315.542	375.12
315.771	356.12
316.001	355.12
316.23	371.12
316.46	349.12
316.689	376.12
316.919	384.12
317.148	393.12
317.377	384.12
317.607	374.12
317.836	385.12
318.065	371.12
318.295	368.12
318.524	371.12
318.753	372.12
318.983	346.12
319.212	378.12
319.441	379.12
319.67	391.12
319.9	377.12
320.129	364.12
320.358	369.12
320.587	395.12
320.816	383.12
321.046	377.12
321.275	403.12
321.504	388.12
321.733	384.12
321.962	379.12
322.191	397.12
322.42	390.12
322.649	423.12
322.878	430.12
323.108	429.12
323.337	439.12
323.566	458.12
323.795	500.12
324.024	497.12
324.253	575.12
324.482	795.12
324.71	1154.12
324.939	1559.12
325.168	1331.12
325.397	716.12
325.626	538.12
325.855	480.12
326.084	461.12
326.313	460.12
326.542	448.12
326.77	488.12
326.999	566.12
327.228	736.12
327.457	1020.12
327.686	1189.12
327.914	821.12
328.143	613.12
328.372	549.12
328.6	496.12
328.829	503.12
329.058	525.12
329.287	503.12
329.515	470.12
329.744	457.12
329.972	463.12
330.201	478.12
330.43	503.12
330.658	489.12
330.887	499.12
331.115	509.12
331.344	484.12
331.572	465.12
331.801	450.12
332.03	449.12
332.258	451.12
332.486	453.12
332.715	438.12
332.943	431.12
333.172	424.12
333.4	440.12
333.629	460.12
333.857	450.12
334.085	448.12
334.314	469.12
334.542	487.12
334.771	513.12
334.999	469.12
335.227	449.12
335.455	451.12
335.684	436.12
335.912	412.12
336.14	414.12
336.369	442.12
336.597	430.12
336.825	431.12
337.053	433.12
337.281	417.12
337.51	417.12
337.738	430.12
337.966	427.12
338.194	417.12
338.422	421.12
338.65	430.12
338.878	413.12
339.106	409.12
339.334	424.12
339.562	435.12
339.79	423.12
340.018	395.12
340.246	415.12
340.474	393.12
340.702	414.12
340.93	429.12
341.158	405.12
341.386	415.12
341.614	379.12
341.842	396.12
342.07	419.12
342.298	400.12
342.526	404.12
342.754	405.12
342.981	388.12
343.209	404.12
343.437	397.12
343.665	419.12
343.893	428.12
344.12	438.12
344.348	416.12
344.576	409.12
344.804	440.12
345.031	435.12
345.259	452.12
345.487	424.12
345.714	427.12
345.942	399.12
346.17	392.12
346.397	391.12
346.625	383.12
346.853	388.12
347.08	392.12
347.308	387.12
347.535	384.12
347.763	408.12
347.99	405.12
348.218	397.12
348.445	396.12
348.673	380.12
348.9	397.12
349.128	391.12
349.355	380.12
349.583	382.12
349.81	387.12
350.037	373.12
350.265	375.12
350.492	376.12
350.72	379.12
350.947	393.12
351.174	389.12
351.402	395.12
351.629	386.12
351.856	390.12
352.083	396.12
352.311	392.12
352.538	377.12
352.765	399.12
352.992	374.12
353.22	368.12
353.447	363.12
353.674	380.12
353.901	368.12
354.128	369.12
354.355	364.12
354.583	383.12
354.81	341.12
355.037	371.12
355.264	377.12
355.491	364.12
355.718	376.12
355.945	366.12
356.172	368.12
356.399	368.12
356.626	361.12
356.853	368.12
357.08	376.12
357.307	357.12
357.534	368.12
357.761	366.12
357.988	363.12
358.215	379.12
358.441	383.12
358.668	376.12
358.895	357.12
359.122	352.12
359.349	377.12
359.576	386.12
359.802	400.12
360.029	379.12
360.256	392.12
360.483	403.12
360.709	378.12
360.936	390.12
361.163	378.12
361.39	367.12
361.616	388.12
361.843	395.12
362.07	383.12
362.296	375.12
362.523	374.12
362.749	391.12
362.976	382.12
363.203	364.12
363.429	353.12
363.656	359.12
363.882	357.12
364.109	373.12
364.335	362.12
364.562	361.12
364.788	353.12
365.015	373.12
365.241	364.12
365.468	377.12
365.694	364.12
365.92	365.12
366.147	360.12
366.373	348.12
366.599	369.12
366.826	344.12
367.052	361.12
367.278	349.12
367.505	365.12
367.731	357.12
367.957	364.12
368.184	359.12
368.41	365.12
368.636	376.12
368.862	391.12
369.089	357.12
369.315	376.12
369.541	367.12
369.767	363.12
369.993	368.12
370.219	365.12
370.445	350.12
370.672	387.12
370.898	359.12
371.124	364.12
371.35	375.12
371.576	371.12
371.802	367.12
372.028	361.12
372.254	347.12
372.48	363.12
372.706	377.12
372.932	353.12
373.158	369.12
373.384	375.12
373.61	373.12
373.835	381.12
374.061	350.12
374.287	367.12
374.513	375.12
374.739	347.12
374.965	359.12
375.191	371.12
375.416	353.12
375.642	363.12
375.868	367.12
376.094	361.12
376.319	353.12
376.545	365.12
376.771	368.12
376.997	355.12
377.222	345.12
377.448	344.12
377.674	367.12
377.899	359.12
378.125	353.12
378.35	366.12
378.576	340.12
378.802	345.12
379.027	343.12
379.253	359.12
379.478	350.12
379.704	346.12
379.929	370.12
380.155	360.12
380.38	371.12
380.606	361.12
380.831	347.12
381.057	367.12
381.282	357.12
381.507	356.12
381.733	374.12
381.958	369.12
382.184	363.12
382.409	363.12
382.634	379.12
382.86	362.12
383.085	380.12
383.31	382.12
383.535	358.12
383.761	371.12
383.986	373.12
384.211	388.12
384.436	363.12
384.662	362.12
384.887	388.12
385.112	388.12
385.337	396.12
385.562	396.12
385.787	386.12
386.013	385.12
386.238	393.12
386.463	389.12
386.688	394.12
386.913	392.12
387.138	383.12
387.363	374.12
387.588	385.12
387.813	372.12
388.038	391.12
388.263	378.12
388.488	381.12
388.713	387.12
388.938	382.12
389.163	375.12
389.387	389.12
389.612	379.12
389.837	381.12
390.062	381.12
390.287	386.12
390.512	367.12
390.736	387.12
390.961	378.12
391.186	387.12
391.411	394.12
391.636	380.12
391.86	396.12
392.085	407.12
392.31	402.12
392.534	392.12
392.759	393.12
392.984	389.12
393.208	386.12
393.433	396.12
393.658	386.12
393.882	387.12
394.107	392.12
394.331	395.12
394.556	395.12
394.78	384.12
395.005	392.12
395.229	385.12
395.454	390.12
395.678	399.12
395.903	415.12
396.127	435.12
396.352	418.12
396.576	437.12
396.801	407.12
397.025	373.12
397.249	403.12
397.474	406.12
397.698	416.12
397.922	408.12
398.147	451.12
398.371	427.12
398.595	431.12
398.82	443.12
399.044	452.12
399.268	459.12
399.492	464.12
399.717	480.12
399.941	505.12
400.165	511.12
400.389	539.12
400.613	486.12
400.837	459.12
401.062	454.12
401.286	447.12
401.51	468.12
401.734	423.12
401.958	427.12
402.182	431.12
402.406	435.12
402.63	427.12
402.854	421.12
403.078	452.12
403.302	440.12
403.526	437.12
403.75	438.12
403.974	448.12
404.198	452.12
404.422	431.12
404.645	442.12
404.869	461.12
405.093	483.12
405.317	480.12
405.541	515.12
405.765	483.12
405.988	448.12
406.212	461.12
406.436	472.12
406.66	507.12
406.883	469.12
407.107	499.12
407.331	534.12
407.555	577.12
407.778	553.12
408.002	511.12
408.226	469.12
408.449	491.12
408.673	487.12
408.896	501.12
409.12	527.12
409.344	523.12
409.567	467.12
409.791	449.12
410.014	439.12
410.238	441.12
410.461	441.12
410.685	437.12
410.908	459.12
411.132	481.12
411.355	482.12
411.578	462.12
411.802	443.12
412.025	448.12
412.249	467.12
412.472	439.12
412.695	497.12
412.919	466.12
413.142	467.12
413.365	444.12
413.589	442.12
413.812	429.12
414.035	423.12
414.258	430.12
414.482	432.12
414.705	421.12
414.928	417.12
415.151	431.12
415.374	422.12
415.597	407.12
415.821	413.12
416.044	421.12
416.267	413.12
416.49	412.12
416.713	405.12
416.936	411.12
417.159	418.12
417.382	411.12
417.605	411.12
417.828	413.12
418.051	415.12
418.274	423.12
418.497	410.12
418.72	405.12
418.943	414.12
419.166	421.12
419.389	439.12
419.611	431.12
419.834	425.12
420.057	438.12
420.28	415.12
420.503	422.12
420.726	428.12
420.948	439.12
421.171	451.12
421.394	495.12
421.617	456.12
421.839	433.12
422.062	440.12
422.285	429.12
422.507	472.12
422.73	531.12
422.953	497.12
423.175	455.12
423.398	444.12
423.621	443.12
423.843	456.12
424.066	444.12
424.288	457.12
424.511	473.12
424.733	526.12
424.956	571.12
425.178	515.12
425.401	541.12
425.623	529.12
425.846	455.12
426.068	441.12
426.291	443.12
426.513	453.12
426.735	439.12
426.958	506.12
427.18	537.12
427.402	638.12
427.625	677.12
427.847	605.12
428.069	505.12
428.292	464.12
428.514	437.12
428.736	424.12
428.958	427.12
429.181	416.12
429.403	393.12
429.625	428.12
429.847	439.12
430.069	480.12
430.292	497.12
430.514	420.12
430.736	408.12
430.958	413.12
431.18	411.12
431.402	396.12
431.624	400.12
431.846	384.12
432.068	392.12
432.29	409.12
432.512	381.12
432.734	381.12
432.956	380.12
433.178	398.12
433.4	394.12
433.622	407.12
433.844	392.12
434.066	415.12
434.287	404.12
434.509	400.12
434.731	399.12
434.953	403.12
435.175	400.12
435.397	435.12
435.618	440.12
435.84	466.12
436.062	549.12
436.284	583.12
436.505	496.12
436.727	434.12
436.949	449.12
437.17	442.12
437.392	412.12
437.614	408.12
437.835	460.12
438.057	501.12
438.278	575.12
438.5	578.12
438.721	617.12
438.943	615.12
439.165	464.12
439.386	443.12
439.608	445.12
439.829	447.12
440.05	469.12
440.272	504.12
440.493	458.12
440.715	429.12
440.936	431.12
441.158	416.12
441.379	431.12
441.6	426.12
441.822	428.12
442.043	458.12
442.264	499.12
442.486	563.12
442.707	490.12
442.928	464.12
443.149	451.12
443.371	469.12
443.592	509.12
443.813	559.12
444.034	569.12
444.255	518.12
444.476	455.12
444.698	429.12
444.919	446.12
445.14	595.12
445.361	509.12
445.582	481.12
445.803	525.12
446.024	585.12
446.245	586.12
446.466	565.12
446.687	466.12
446.908	445.12
447.129	428.12
447.35	410.12
447.571	391.12
447.792	407.12
448.013	411.12
448.234	424.12
448.455	467.12
448.675	540.12
448.896	598.12
449.117	531.12
449.338	517.12
449.559	599.12
449.779	629.12
450	515.12
450.221	449.12
450.442	411.12
450.662	399.12
450.883	409.12
451.104	408.12
451.324	385.12
451.545	381.12
451.766	368.12
451.986	366.12
452.207	364.12
452.428	359.12
452.648	368.12
452.869	378.12
453.089	395.12
453.31	382.12
453.53	362.12
453.751	362.12
453.971	364.12
454.192	357.12
454.412	369.12
454.633	369.12
454.853	365.12
455.073	359.12
455.294	366.12
455.514	416.12
455.734	399.12
455.955	364.12
456.175	346.12
456.395	340.12
456.616	330.12
456.836	346.12
457.056	358.12
457.276	347.12
457.497	351.12
457.717	336.12
457.937	353.12
458.157	363.12
458.377	363.12
458.598	384.12
458.818	413.12
459.038	430.12
459.258	459.12
459.478	439.12
459.698	384.12
459.918	395.12
460.138	362.12
460.358	391.12
460.578	402.12
460.798	394.12
461.018	442.12
461.238	407.12
461.458	407.12
461.678	408.12
461.898	382.12
462.118	405.12
462.338	427.12
462.558	407.12
462.777	424.12
462.997	430.12
463.217	458.12
463.437	425.12
463.657	427.12
463.876	423.12
464.096	423.12
464.316	423.12
464.536	441.12
464.755	432.12
464.975	431.12
465.195	437.12
465.414	471.12
465.634	436.12
465.854	409.12
466.073	399.12
466.293	393.12
466.512	379.12
466.732	377.12
466.951	373.12
467.171	377.12
467.391	382.12
467.61	382.12
467.829	392.12
468.049	371.12
468.268	379.12
468.488	384.12
468.707	373.12
468.927	396.12
469.146	369.12
469.365	396.12
469.585	375.12
469.804	382.12
470.023	389.12
470.243	383.12
470.462	381.12
470.681	405.12
470.901	374.12
471.12	385.12
471.339	392.12
471.558	389.12
471.777	375.12
471.997	393.12
472.216	405.12
472.435	414.12
472.654	397.12
472.873	360.12
473.092	389.12
473.311	391.12
473.53	392.12
473.749	379.12
473.968	443.12
474.187	494.12
474.406	491.12
474.625	417.12
474.844	399.12
475.063	371.12
475.282	376.12
475.501	366.12
475.72	381.12
475.939	403.12
476.158	379.12
476.377	381.12
476.596	398.12
476.814	393.12
477.033	393.12
477.252	417.12
477.471	420.12
477.69	413.12
477.908	415.12
478.127	432.12
478.346	391.12
478.564	417.12
478.783	466.12
479.002	436.12
479.22	424.12
479.439	447.12
479.658	449.12
479.876	457.12
480.095	463.12
480.313	477.12
480.532	461.12
480.751	444.12
480.969	463.12
481.188	514.12
481.406	525.12
481.624	477.12
481.843	478.12
482.061	455.12
482.28	449.12
482.498	425.12
482.717	463.12
482.935	435.12
483.153	431.12
483.372	444.12
483.59	453.12
483.808	441.12
484.027	465.12
484.245	432.12
484.463	465.12
484.681	441.12
484.9	435.12
485.118	432.12
485.336	435.12
485.554	472.12
485.772	478.12
485.99	458.12
486.209	466.12
486.427	485.12
486.645	475.12
486.863	462.12
487.081	488.12
487.299	477.12
487.517	472.12
487.735	468.12
487.953	484.12
488.171	493.12
488.389	473.12
488.607	454.12
488.825	472.12
489.043	483.12
489.261	459.12
489.479	476.12
489.696	473.12
489.914	484.12
490.132	483.12
490.35	483.12
490.568	485.12
490.786	508.12
491.003	519.12
491.221	504.12
491.439	514.12
491.657	497.12
491.874	515.12
492.092	506.12
492.31	501.12
492.527	536.12
492.745	541.12
492.963	521.12
493.18	535.12
493.398	531.12
493.615	547.12
493.833	530.12
494.05	520.12
494.268	507.12
494.485	533.12
494.703	533.12
494.92	536.12
495.138	543.12
495.355	555.12
495.573	556.12
495.79	542.12
496.008	540.12
496.225	576.12
496.442	560.12
496.66	559.12
496.877	533.12
497.094	555.12
497.312	543.12
497.529	565.12
497.746	555.12
497.963	577.12
498.181	606.12
498.398	602.12
498.615	634.12
498.832	616.12
499.049	615.12
499.267	630.12
499.484	662.12
499.701	688.12
499.918	702.12
500.135	733.12
500.352	777.12
500.569	769.12
500.786	769.12
501.003	792.12
501.22	743.12
501.437	724.12
501.654	675.12
501.871	685.12
