Data from 1960PennyLincolnUp.LampE6.200Scan.07172019.P1_HRD10591_13-05-42-002.txt Node
Date: Thu Jul 18 13:05:42 EDT 2019
User: cochatt
Spectrometer: HR+D1059
Trigger mode: 1
Integration Time (sec): 1.000000E-1
Scans to average: 1
Electric dark correction enabled: true
Nonlinearity correction enabled: false
Boxcar width: 0
XAxis mode: Wavelengths
Number of Pixels in Spectrum: 2048
>>>>>Begin Spectral Data<<<<<
223.165	-19.31
223.4	-19.31
223.635	-19.31
223.869	-14.31
224.104	-14.31
224.338	-16.31
224.573	-15.31
224.808	-18.31
225.042	-2.31
225.277	6.69
225.511	-17.31
225.746	-4.31
225.98	17.69
226.215	6.69
226.449	14.69
226.683	32.69
226.918	17.69
227.152	25.69
227.387	30.69
227.621	32.69
227.856	50.69
228.09	37.69
228.324	37.69
228.559	56.69
228.793	59.69
229.027	83.69
229.262	103.69
229.496	94.69
229.73	116.69
229.964	124.69
230.199	102.69
230.433	98.69
230.667	99.69
230.901	95.69
231.136	91.69
231.37	103.69
231.604	102.69
231.838	112.69
232.072	117.69
232.306	107.69
232.541	114.69
232.775	108.69
233.009	117.69
233.243	102.69
233.477	103.69
233.711	103.69
233.945	111.69
234.179	122.69
234.413	125.69
234.647	107.69
234.881	110.69
235.115	114.69
235.349	111.69
235.583	125.69
235.817	102.69
236.051	103.69
236.285	110.69
236.519	134.69
236.753	109.69
236.987	132.69
237.221	137.69
237.455	174.69
237.689	134.69
237.922	114.69
238.156	131.69
238.39	109.69
238.624	127.69
238.858	106.69
239.091	109.69
239.325	123.69
239.559	120.69
239.793	116.69
240.027	109.69
240.26	130.69
240.494	127.69
240.728	138.69
240.961	127.69
241.195	133.69
241.429	127.69
241.662	139.69
241.896	113.69
242.13	114.69
242.363	129.69
242.597	127.69
242.83	112.69
243.064	131.69
243.298	119.69
243.531	135.69
243.765	139.69
243.998	137.69
244.232	133.69
244.465	135.69
244.699	130.69
244.932	126.69
245.166	135.69
245.399	140.69
245.633	148.69
245.866	142.69
246.099	133.69
246.333	141.69
246.566	146.69
246.8	155.69
247.033	154.69
247.266	136.69
247.5	146.69
247.733	161.69
247.966	155.69
248.2	155.69
248.433	130.69
248.666	163.69
248.899	161.69
249.133	173.69
249.366	162.69
249.599	169.69
249.832	143.69
250.066	153.69
250.299	158.69
250.532	161.69
250.765	178.69
250.998	182.69
251.231	202.69
251.465	189.69
251.698	182.69
251.931	174.69
252.164	166.69
252.397	180.69
252.63	170.69
252.863	178.69
253.096	178.69
253.329	186.69
253.562	188.69
253.795	192.69
254.028	189.69
254.261	163.69
254.494	186.69
254.727	207.69
254.96	212.69
255.193	199.69
255.426	198.69
255.659	197.69
255.892	190.69
256.124	214.69
256.357	202.69
256.59	195.69
256.823	188.69
257.056	208.69
257.289	192.69
257.521	201.69
257.754	198.69
257.987	194.69
258.22	190.69
258.452	189.69
258.685	185.69
258.918	183.69
259.151	195.69
259.383	191.69
259.616	188.69
259.849	204.69
260.081	197.69
260.314	205.69
260.547	200.69
260.779	211.69
261.012	202.69
261.244	200.69
261.477	209.69
261.71	188.69
261.942	189.69
262.175	205.69
262.407	205.69
262.64	188.69
262.872	196.69
263.105	192.69
263.337	210.69
263.57	190.69
263.802	199.69
264.035	197.69
264.267	187.69
264.499	198.69
264.732	198.69
264.964	214.69
265.197	205.69
265.429	187.69
265.661	205.69
265.894	207.69
266.126	189.69
266.358	217.69
266.591	213.69
266.823	202.69
267.055	222.69
267.287	224.69
267.52	192.69
267.752	213.69
267.984	210.69
268.216	217.69
268.448	221.69
268.681	224.69
268.913	219.69
269.145	251.69
269.377	247.69
269.609	247.69
269.841	226.69
270.073	257.69
270.306	254.69
270.538	265.69
270.77	273.69
271.002	265.69
271.234	244.69
271.466	260.69
271.698	272.69
271.93	266.69
272.162	270.69
272.394	264.69
272.626	254.69
272.858	252.69
273.09	245.69
273.322	235.69
273.553	254.69
273.785	262.69
274.017	234.69
274.249	257.69
274.481	243.69
274.713	253.69
274.945	248.69
275.176	246.69
275.408	243.69
275.64	254.69
275.872	243.69
276.104	234.69
276.335	241.69
276.567	250.69
276.799	246.69
277.031	286.69
277.262	292.69
277.494	281.69
277.726	264.69
277.957	257.69
278.189	271.69
278.421	268.69
278.652	257.69
278.884	264.69
279.115	243.69
279.347	254.69
279.579	255.69
279.81	254.69
280.042	267.69
280.273	292.69
280.505	259.69
280.736	246.69
280.968	262.69
281.199	267.69
281.431	271.69
281.662	257.69
281.894	254.69
282.125	264.69
282.356	264.69
282.588	292.69
282.819	285.69
283.051	280.69
283.282	248.69
283.513	259.69
283.745	276.69
283.976	272.69
284.207	274.69
284.439	283.69
284.67	261.69
284.901	274.69
285.132	276.69
285.364	281.69
285.595	271.69
285.826	288.69
286.057	274.69
286.288	261.69
286.52	263.69
286.751	277.69
286.982	285.69
287.213	269.69
287.444	280.69
287.675	284.69
287.906	299.69
288.138	286.69
288.369	302.69
288.6	297.69
288.831	275.69
289.062	270.69
289.293	293.69
289.524	299.69
289.755	295.69
289.986	285.69
290.217	284.69
290.448	284.69
290.679	287.69
290.91	293.69
291.141	278.69
291.371	293.69
291.602	289.69
291.833	304.69
292.064	308.69
292.295	289.69
292.526	301.69
292.757	279.69
292.987	300.69
293.218	270.69
293.449	297.69
293.68	298.69
293.91	297.69
294.141	293.69
294.372	292.69
294.603	304.69
294.833	308.69
295.064	318.69
295.295	303.69
295.525	282.69
295.756	309.69
295.987	307.69
296.217	317.69
296.448	313.69
296.679	315.69
296.909	308.69
297.14	304.69
297.37	312.69
297.601	330.69
297.831	319.69
298.062	304.69
298.292	320.69
298.523	308.69
298.753	310.69
298.984	315.69
299.214	302.69
299.445	322.69
299.675	327.69
299.905	321.69
300.136	322.69
300.366	322.69
300.597	328.69
300.827	331.69
301.057	337.69
301.288	327.69
301.518	318.69
301.748	327.69
301.979	317.69
302.209	346.69
302.439	337.69
302.669	332.69
302.9	330.69
303.13	340.69
303.36	348.69
303.59	348.69
303.82	333.69
304.051	334.69
304.281	323.69
304.511	337.69
304.741	319.69
304.971	334.69
305.201	331.69
305.431	343.69
305.661	326.69
305.891	345.69
306.121	327.69
306.352	351.69
306.582	334.69
306.812	333.69
307.042	328.69
307.272	311.69
307.502	339.69
307.731	329.69
307.961	342.69
308.191	339.69
308.421	345.69
308.651	349.69
308.881	345.69
309.111	335.69
309.341	319.69
309.571	347.69
309.8	335.69
310.03	353.69
310.26	347.69
310.49	341.69
310.72	357.69
310.949	369.69
311.179	355.69
311.409	381.69
311.639	351.69
311.868	357.69
312.098	357.69
312.328	370.69
312.557	371.69
312.787	382.69
313.017	370.69
313.246	350.69
313.476	346.69
313.706	373.69
313.935	375.69
314.165	361.69
314.394	381.69
314.624	374.69
314.853	390.69
315.083	370.69
315.312	362.69
315.542	358.69
315.771	373.69
316.001	353.69
316.23	385.69
316.46	357.69
316.689	356.69
316.919	372.69
317.148	389.69
317.377	397.69
317.607	375.69
317.836	376.69
318.065	361.69
318.295	358.69
318.524	359.69
318.753	368.69
318.983	355.69
319.212	365.69
319.441	377.69
319.67	381.69
319.9	365.69
320.129	365.69
320.358	384.69
320.587	368.69
320.816	376.69
321.046	373.69
321.275	393.69
321.504	378.69
321.733	386.69
321.962	394.69
322.191	367.69
322.42	382.69
322.649	393.69
322.878	387.69
323.108	399.69
323.337	414.69
323.566	425.69
323.795	444.69
324.024	458.69
324.253	497.69
324.482	663.69
324.71	956.69
324.939	1313.69
325.168	1069.69
325.397	601.69
325.626	483.69
325.855	452.69
326.084	418.69
326.313	428.69
326.542	435.69
326.77	466.69
326.999	503.69
327.228	640.69
327.457	883.69
327.686	1014.69
327.914	685.69
328.143	518.69
328.372	497.69
328.6	457.69
328.829	445.69
329.058	483.69
329.287	473.69
329.515	458.69
329.744	451.69
329.972	428.69
330.201	454.69
330.43	472.69
330.658	481.69
330.887	495.69
331.115	493.69
331.344	478.69
331.572	453.69
331.801	450.69
332.03	466.69
332.258	468.69
332.486	446.69
332.715	449.69
332.943	470.69
333.172	499.69
333.4	496.69
333.629	515.69
333.857	507.69
334.085	507.69
334.314	516.69
334.542	535.69
334.771	549.69
334.999	506.69
335.227	495.69
335.455	475.69
335.684	467.69
335.912	487.69
336.14	453.69
336.369	446.69
336.597	461.69
336.825	452.69
337.053	454.69
337.281	449.69
337.51	454.69
337.738	440.69
337.966	435.69
338.194	470.69
338.422	449.69
338.65	446.69
338.878	440.69
339.106	430.69
339.334	431.69
339.562	417.69
339.79	440.69
340.018	410.69
340.246	430.69
340.474	410.69
340.702	434.69
340.93	425.69
341.158	431.69
341.386	407.69
341.614	430.69
341.842	417.69
342.07	414.69
342.298	414.69
342.526	431.69
342.754	430.69
342.981	435.69
343.209	430.69
343.437	437.69
343.665	451.69
343.893	487.69
344.12	475.69
344.348	466.69
344.576	465.69
344.804	426.69
345.031	435.69
345.259	454.69
345.487	446.69
345.714	428.69
345.942	419.69
346.17	407.69
346.397	404.69
346.625	402.69
346.853	385.69
347.08	404.69
347.308	404.69
347.535	380.69
347.763	406.69
347.99	430.69
348.218	410.69
348.445	403.69
348.673	423.69
348.9	377.69
349.128	421.69
349.355	386.69
349.583	397.69
349.81	392.69
350.037	389.69
350.265	405.69
350.492	379.69
350.72	395.69
350.947	392.69
351.174	391.69
351.402	404.69
351.629	405.69
351.856	402.69
352.083	377.69
352.311	414.69
352.538	415.69
352.765	414.69
352.992	402.69
353.22	419.69
353.447	387.69
353.674	400.69
353.901	399.69
354.128	372.69
354.355	389.69
354.583	378.69
354.81	388.69
355.037	377.69
355.264	375.69
355.491	383.69
355.718	393.69
355.945	393.69
356.172	390.69
356.399	380.69
356.626	403.69
356.853	391.69
357.08	386.69
357.307	389.69
357.534	391.69
357.761	378.69
357.988	390.69
358.215	394.69
358.441	392.69
358.668	374.69
358.895	379.69
359.122	404.69
359.349	375.69
359.576	406.69
359.802	407.69
360.029	446.69
360.256	425.69
360.483	421.69
360.709	402.69
360.936	397.69
361.163	409.69
361.39	400.69
361.616	409.69
361.843	398.69
362.07	415.69
362.296	414.69
362.523	417.69
362.749	416.69
362.976	412.69
363.203	414.69
363.429	389.69
363.656	401.69
363.882	378.69
364.109	400.69
364.335	396.69
364.562	389.69
364.788	382.69
365.015	376.69
365.241	404.69
365.468	407.69
365.694	406.69
365.92	385.69
366.147	385.69
366.373	397.69
366.599	401.69
366.826	411.69
367.052	390.69
367.278	401.69
367.505	395.69
367.731	399.69
367.957	418.69
368.184	385.69
368.41	389.69
368.636	406.69
368.862	419.69
369.089	405.69
369.315	389.69
369.541	390.69
369.767	385.69
369.993	387.69
370.219	397.69
370.445	406.69
370.672	405.69
370.898	378.69
371.124	400.69
371.35	401.69
371.576	436.69
371.802	420.69
372.028	398.69
372.254	426.69
372.48	433.69
372.706	438.69
372.932	436.69
373.158	425.69
373.384	432.69
373.61	426.69
373.835	415.69
374.061	408.69
374.287	426.69
374.513	423.69
374.739	428.69
374.965	419.69
375.191	448.69
375.416	434.69
375.642	430.69
375.868	423.69
376.094	422.69
376.319	437.69
376.545	410.69
376.771	412.69
376.997	409.69
377.222	390.69
377.448	413.69
377.674	425.69
377.899	403.69
378.125	410.69
378.35	423.69
378.576	395.69
378.802	396.69
379.027	415.69
379.253	409.69
379.478	415.69
379.704	428.69
379.929	411.69
380.155	407.69
380.38	411.69
380.606	407.69
380.831	411.69
381.057	423.69
381.282	402.69
381.507	414.69
381.733	427.69
381.958	419.69
382.184	419.69
382.409	416.69
382.634	432.69
382.86	395.69
383.085	425.69
383.31	416.69
383.535	429.69
383.761	467.69
383.986	439.69
384.211	450.69
384.436	450.69
384.662	469.69
384.887	462.69
385.112	466.69
385.337	450.69
385.562	467.69
385.787	475.69
386.013	474.69
386.238	465.69
386.463	489.69
386.688	493.69
386.913	474.69
387.138	472.69
387.363	466.69
387.588	462.69
387.813	440.69
388.038	475.69
388.263	460.69
388.488	453.69
388.713	475.69
388.938	475.69
389.163	458.69
389.387	480.69
389.612	449.69
389.837	481.69
390.062	467.69
390.287	464.69
390.512	457.69
390.736	478.69
390.961	465.69
391.186	481.69
391.411	505.69
391.636	503.69
391.86	495.69
392.085	509.69
392.31	504.69
392.534	516.69
392.759	486.69
392.984	485.69
393.208	487.69
393.433	494.69
393.658	479.69
393.882	484.69
394.107	492.69
394.331	469.69
394.556	486.69
394.78	480.69
395.005	487.69
395.229	504.69
395.454	482.69
395.678	490.69
395.903	518.69
396.127	527.69
396.352	520.69
396.576	499.69
396.801	493.69
397.025	488.69
397.249	499.69
397.474	495.69
397.698	514.69
397.922	513.69
398.147	537.69
398.371	542.69
398.595	550.69
398.82	576.69
399.044	602.69
399.268	631.69
399.492	674.69
399.717	721.69
399.941	755.69
400.165	712.69
400.389	701.69
400.613	616.69
400.837	569.69
401.062	587.69
401.286	574.69
401.51	573.69
401.734	565.69
401.958	574.69
402.182	557.69
402.406	567.69
402.63	590.69
402.854	576.69
403.078	581.69
403.302	596.69
403.526	590.69
403.75	595.69
403.974	599.69
404.198	623.69
404.422	615.69
404.645	622.69
404.869	593.69
405.093	635.69
405.317	625.69
405.541	646.69
405.765	637.69
405.988	603.69
406.212	599.69
406.436	638.69
406.66	635.69
406.883	639.69
407.107	653.69
407.331	686.69
407.555	735.69
407.778	743.69
408.002	697.69
408.226	646.69
408.449	645.69
408.673	625.69
408.896	662.69
409.12	635.69
409.344	617.69
409.567	621.69
409.791	612.69
410.014	604.69
410.238	582.69
410.461	617.69
410.685	603.69
410.908	591.69
411.132	597.69
411.355	609.69
411.578	584.69
411.802	573.69
412.025	572.69
412.249	583.69
412.472	588.69
412.695	601.69
412.919	591.69
413.142	577.69
413.365	580.69
413.589	554.69
413.812	545.69
414.035	561.69
414.258	542.69
414.482	547.69
414.705	563.69
414.928	576.69
415.151	558.69
415.374	561.69
415.597	561.69
415.821	536.69
416.044	547.69
416.267	557.69
416.49	535.69
416.713	548.69
416.936	548.69
417.159	547.69
417.382	547.69
417.605	540.69
417.828	545.69
418.051	574.69
418.274	539.69
418.497	543.69
418.72	540.69
418.943	553.69
419.166	593.69
419.389	607.69
419.611	601.69
419.834	581.69
420.057	578.69
420.28	561.69
420.503	563.69
420.726	555.69
420.948	580.69
421.171	578.69
421.394	588.69
421.617	559.69
421.839	557.69
422.062	582.69
422.285	529.69
422.507	599.69
422.73	635.69
422.953	637.69
423.175	598.69
423.398	571.69
423.621	591.69
423.843	589.69
424.066	608.69
424.288	589.69
424.511	601.69
424.733	626.69
424.956	686.69
425.178	622.69
425.401	631.69
425.623	659.69
425.846	608.69
426.068	565.69
426.291	544.69
426.513	538.69
426.735	559.69
426.958	588.69
427.18	622.69
427.402	707.69
427.625	746.69
427.847	651.69
428.069	597.69
428.292	555.69
428.514	499.69
428.736	527.69
428.958	508.69
429.181	510.69
429.403	519.69
429.625	488.69
429.847	535.69
430.069	545.69
430.292	563.69
430.514	515.69
430.736	494.69
430.958	514.69
431.18	512.69
431.402	519.69
431.624	503.69
431.846	516.69
432.068	519.69
432.29	498.69
432.512	487.69
432.734	511.69
432.956	492.69
433.178	539.69
433.4	495.69
433.622	508.69
433.844	524.69
434.066	508.69
434.287	509.69
434.509	485.69
434.731	513.69
434.953	554.69
435.175	559.69
435.397	560.69
435.618	557.69
435.84	553.69
436.062	601.69
436.284	647.69
436.505	593.69
436.727	538.69
436.949	511.69
437.17	507.69
437.392	511.69
437.614	522.69
437.835	532.69
438.057	576.69
438.278	640.69
438.5	619.69
438.721	670.69
438.943	640.69
439.165	564.69
439.386	528.69
439.608	543.69
439.829	529.69
440.05	541.69
440.272	567.69
440.493	555.69
440.715	545.69
440.936	538.69
441.158	516.69
441.379	528.69
441.6	545.69
441.822	585.69
442.043	579.69
442.264	631.69
442.486	664.69
442.707	578.69
442.928	545.69
443.149	561.69
443.371	588.69
443.592	606.69
443.813	673.69
444.034	701.69
444.255	609.69
444.476	589.69
444.698	615.69
444.919	588.69
445.14	705.69
445.361	628.69
445.582	586.69
445.803	621.69
446.024	665.69
446.245	662.69
446.466	621.69
446.687	551.69
446.908	541.69
447.129	506.69
447.35	508.69
447.571	519.69
447.792	483.69
448.013	512.69
448.234	502.69
448.455	518.69
448.675	606.69
448.896	625.69
449.117	585.69
449.338	541.69
449.559	616.69
449.779	654.69
450	570.69
450.221	493.69
450.442	477.69
450.662	462.69
450.883	488.69
451.104	499.69
451.324	489.69
451.545	489.69
451.766	484.69
451.986	449.69
452.207	451.69
452.428	439.69
452.648	459.69
452.869	470.69
453.089	464.69
453.31	450.69
453.53	451.69
453.751	433.69
453.971	448.69
454.192	454.69
454.412	431.69
454.633	432.69
454.853	433.69
455.073	419.69
455.294	439.69
455.514	491.69
455.734	488.69
455.955	429.69
456.175	414.69
456.395	422.69
456.616	424.69
456.836	419.69
457.056	429.69
457.276	421.69
457.497	425.69
457.717	416.69
457.937	421.69
458.157	440.69
458.377	433.69
458.598	459.69
458.818	500.69
459.038	558.69
459.258	554.69
459.478	533.69
459.698	509.69
459.918	486.69
460.138	526.69
460.358	532.69
460.578	548.69
460.798	528.69
461.018	550.69
461.238	534.69
461.458	535.69
461.678	541.69
461.898	555.69
462.118	545.69
462.338	572.69
462.558	580.69
462.777	568.69
462.997	603.69
463.217	645.69
463.437	646.69
463.657	610.69
463.876	612.69
464.096	589.69
464.316	603.69
464.536	610.69
464.755	580.69
464.975	572.69
465.195	582.69
465.414	580.69
465.634	515.69
465.854	525.69
466.073	504.69
466.293	471.69
466.512	473.69
466.732	470.69
466.951	476.69
467.171	467.69
467.391	477.69
467.61	465.69
467.829	462.69
468.049	463.69
468.268	483.69
468.488	475.69
468.707	447.69
468.927	458.69
469.146	457.69
469.365	465.69
469.585	469.69
469.804	495.69
470.023	501.69
470.243	477.69
470.462	482.69
470.681	505.69
470.901	489.69
471.12	487.69
471.339	476.69
471.558	490.69
471.777	486.69
471.997	467.69
472.216	470.69
472.435	511.69
472.654	497.69
472.873	447.69
473.092	458.69
473.311	446.69
473.53	467.69
473.749	465.69
473.968	474.69
474.187	548.69
474.406	541.69
474.625	495.69
474.844	476.69
475.063	481.69
475.282	437.69
475.501	449.69
475.72	457.69
475.939	477.69
476.158	471.69
476.377	477.69
476.596	483.69
476.814	482.69
477.033	486.69
477.252	501.69
477.471	501.69
477.69	515.69
477.908	518.69
478.127	537.69
478.346	521.69
478.564	540.69
478.783	547.69
479.002	567.69
479.22	557.69
479.439	527.69
479.658	552.69
479.876	549.69
480.095	547.69
480.313	577.69
480.532	620.69
480.751	620.69
480.969	585.69
481.188	633.69
481.406	626.69
481.624	556.69
481.843	549.69
482.061	534.69
482.28	518.69
482.498	497.69
482.717	522.69
482.935	512.69
483.153	528.69
483.372	564.69
483.59	559.69
483.808	541.69
484.027	521.69
484.245	521.69
484.463	552.69
484.681	532.69
484.9	525.69
485.118	553.69
485.336	553.69
485.554	560.69
485.772	555.69
485.99	566.69
486.209	571.69
486.427	546.69
486.645	578.69
486.863	558.69
487.081	574.69
487.299	575.69
487.517	555.69
487.735	566.69
487.953	553.69
488.171	565.69
488.389	576.69
488.607	551.69
488.825	530.69
489.043	550.69
489.261	546.69
489.479	546.69
489.696	569.69
489.914	583.69
490.132	584.69
490.35	588.69
490.568	584.69
490.786	593.69
491.003	601.69
491.221	608.69
491.439	643.69
491.657	625.69
491.874	619.69
492.092	620.69
492.31	656.69
492.527	629.69
492.745	637.69
492.963	638.69
493.18	661.69
493.398	640.69
493.615	652.69
493.833	629.69
494.05	637.69
494.268	651.69
494.485	622.69
494.703	659.69
494.92	625.69
495.138	629.69
495.355	632.69
495.573	653.69
495.79	628.69
496.008	625.69
496.225	644.69
496.442	651.69
496.66	642.69
496.877	656.69
497.094	629.69
497.312	661.69
497.529	672.69
497.746	677.69
497.963	695.69
498.181	715.69
498.398	739.69
498.615	770.69
498.832	782.69
499.049	863.69
499.267	877.69
499.484	938.69
499.701	982.69
499.918	1040.69
500.135	1169.69
500.352	1234.69
500.569	1307.69
500.786	1274.69
501.003	1218.69
501.22	1133.69
501.437	1030.69
501.654	1005.69
501.871	925.69
