Data from 1960PennyLincolnUp.LampE6.200Scan.07172019.P1_HRD10591_13-05-13-003.txt Node
Date: Thu Jul 18 13:05:13 EDT 2019
User: cochatt
Spectrometer: HR+D1059
Trigger mode: 1
Integration Time (sec): 1.000000E-1
Scans to average: 1
Electric dark correction enabled: true
Nonlinearity correction enabled: false
Boxcar width: 0
XAxis mode: Wavelengths
Number of Pixels in Spectrum: 2048
>>>>>Begin Spectral Data<<<<<
223.165	5.69
223.4	5.69
223.635	5.69
223.869	-25.31
224.104	-7.31
224.338	-13.31
224.573	-12.31
224.808	-3.31
225.042	-21.31
225.277	-21.31
225.511	-23.31
225.746	-4.31
225.98	14.69
226.215	18.69
226.449	15.69
226.683	17.69
226.918	22.69
227.152	36.69
227.387	42.69
227.621	42.69
227.856	33.69
228.09	51.69
228.324	47.69
228.559	64.69
228.793	79.69
229.027	94.69
229.262	96.69
229.496	91.69
229.73	114.69
229.964	122.69
230.199	101.69
230.433	106.69
230.667	109.69
230.901	112.69
231.136	103.69
231.37	112.69
231.604	108.69
231.838	115.69
232.072	108.69
232.306	107.69
232.541	103.69
232.775	98.69
233.009	109.69
233.243	104.69
233.477	109.69
233.711	112.69
233.945	102.69
234.179	115.69
234.413	128.69
234.647	114.69
234.881	117.69
235.115	110.69
235.349	106.69
235.583	99.69
235.817	114.69
236.051	115.69
236.285	107.69
236.519	103.69
236.753	117.69
236.987	118.69
237.221	158.69
237.455	154.69
237.689	136.69
237.922	120.69
238.156	118.69
238.39	116.69
238.624	115.69
238.858	116.69
239.091	117.69
239.325	108.69
239.559	118.69
239.793	114.69
240.027	124.69
240.26	132.69
240.494	123.69
240.728	138.69
240.961	136.69
241.195	129.69
241.429	137.69
241.662	128.69
241.896	122.69
242.13	134.69
242.363	135.69
242.597	125.69
242.83	119.69
243.064	139.69
243.298	123.69
243.531	131.69
243.765	119.69
243.998	147.69
244.232	134.69
244.465	142.69
244.699	139.69
244.932	144.69
245.166	132.69
245.399	130.69
245.633	139.69
245.866	139.69
246.099	134.69
246.333	136.69
246.566	135.69
246.8	151.69
247.033	150.69
247.266	145.69
247.5	146.69
247.733	151.69
247.966	148.69
248.2	164.69
248.433	159.69
248.666	147.69
248.899	169.69
249.133	176.69
249.366	175.69
249.599	163.69
249.832	161.69
250.066	171.69
250.299	160.69
250.532	167.69
250.765	178.69
250.998	186.69
251.231	184.69
251.465	178.69
251.698	166.69
251.931	171.69
252.164	175.69
252.397	184.69
252.63	163.69
252.863	179.69
253.096	180.69
253.329	194.69
253.562	189.69
253.795	191.69
254.028	195.69
254.261	177.69
254.494	200.69
254.727	218.69
254.96	229.69
255.193	213.69
255.426	194.69
255.659	205.69
255.892	209.69
256.124	204.69
256.357	200.69
256.59	192.69
256.823	183.69
257.056	195.69
257.289	188.69
257.521	188.69
257.754	183.69
257.987	177.69
258.22	185.69
258.452	171.69
258.685	183.69
258.918	196.69
259.151	197.69
259.383	198.69
259.616	185.69
259.849	206.69
260.081	200.69
260.314	215.69
260.547	207.69
260.779	207.69
261.012	216.69
261.244	213.69
261.477	185.69
261.71	203.69
261.942	193.69
262.175	203.69
262.407	213.69
262.64	186.69
262.872	193.69
263.105	203.69
263.337	193.69
263.57	206.69
263.802	199.69
264.035	199.69
264.267	211.69
264.499	190.69
264.732	217.69
264.964	206.69
265.197	194.69
265.429	206.69
265.661	220.69
265.894	205.69
266.126	208.69
266.358	201.69
266.591	224.69
266.823	223.69
267.055	225.69
267.287	221.69
267.52	228.69
267.752	208.69
267.984	230.69
268.216	217.69
268.448	220.69
268.681	233.69
268.913	225.69
269.145	228.69
269.377	231.69
269.609	241.69
269.841	244.69
270.073	234.69
270.306	243.69
270.538	251.69
270.77	255.69
271.002	250.69
271.234	234.69
271.466	251.69
271.698	255.69
271.93	263.69
272.162	261.69
272.394	277.69
272.626	257.69
272.858	266.69
273.09	260.69
273.322	247.69
273.553	240.69
273.785	247.69
274.017	244.69
274.249	247.69
274.481	250.69
274.713	242.69
274.945	248.69
275.176	253.69
275.408	240.69
275.64	249.69
275.872	238.69
276.104	243.69
276.335	248.69
276.567	252.69
276.799	244.69
277.031	258.69
277.262	274.69
277.494	273.69
277.726	273.69
277.957	258.69
278.189	279.69
278.421	248.69
278.652	260.69
278.884	268.69
279.115	239.69
279.347	260.69
279.579	277.69
279.81	246.69
280.042	258.69
280.273	264.69
280.505	261.69
280.736	262.69
280.968	282.69
281.199	263.69
281.431	258.69
281.662	260.69
281.894	254.69
282.125	275.69
282.356	286.69
282.588	270.69
282.819	283.69
283.051	260.69
283.282	270.69
283.513	263.69
283.745	275.69
283.976	273.69
284.207	268.69
284.439	280.69
284.67	286.69
284.901	277.69
285.132	271.69
285.364	278.69
285.595	283.69
285.826	283.69
286.057	283.69
286.288	296.69
286.52	282.69
286.751	283.69
286.982	280.69
287.213	298.69
287.444	299.69
287.675	296.69
287.906	294.69
288.138	297.69
288.369	290.69
288.6	316.69
288.831	302.69
289.062	313.69
289.293	279.69
289.524	278.69
289.755	287.69
289.986	306.69
290.217	291.69
290.448	290.69
290.679	294.69
290.91	299.69
291.141	297.69
291.371	306.69
291.602	293.69
291.833	282.69
292.064	298.69
292.295	304.69
292.526	276.69
292.757	296.69
292.987	309.69
293.218	288.69
293.449	303.69
293.68	304.69
293.91	306.69
294.141	299.69
294.372	291.69
294.603	290.69
294.833	290.69
295.064	292.69
295.295	289.69
295.525	291.69
295.756	303.69
295.987	316.69
296.217	305.69
296.448	329.69
296.679	313.69
296.909	324.69
297.14	311.69
297.37	318.69
297.601	302.69
297.831	315.69
298.062	328.69
298.292	306.69
298.523	309.69
298.753	312.69
298.984	327.69
299.214	338.69
299.445	324.69
299.675	300.69
299.905	317.69
300.136	318.69
300.366	329.69
300.597	316.69
300.827	333.69
301.057	334.69
301.288	336.69
301.518	350.69
301.748	354.69
301.979	339.69
302.209	333.69
302.439	340.69
302.669	347.69
302.9	337.69
303.13	341.69
303.36	337.69
303.59	336.69
303.82	314.69
304.051	326.69
304.281	351.69
304.511	328.69
304.741	325.69
304.971	343.69
305.201	333.69
305.431	345.69
305.661	314.69
305.891	336.69
306.121	327.69
306.352	341.69
306.582	348.69
306.812	321.69
307.042	334.69
307.272	343.69
307.502	326.69
307.731	351.69
307.961	327.69
308.191	346.69
308.421	342.69
308.651	339.69
308.881	332.69
309.111	359.69
309.341	339.69
309.571	347.69
309.8	340.69
310.03	366.69
310.26	347.69
310.49	341.69
310.72	356.69
310.949	352.69
311.179	359.69
311.409	371.69
311.639	376.69
311.868	362.69
312.098	358.69
312.328	355.69
312.557	360.69
312.787	366.69
313.017	389.69
313.246	340.69
313.476	363.69
313.706	364.69
313.935	369.69
314.165	389.69
314.394	377.69
314.624	368.69
314.853	368.69
315.083	376.69
315.312	370.69
315.542	356.69
315.771	368.69
316.001	369.69
316.23	359.69
316.46	372.69
316.689	372.69
316.919	359.69
317.148	358.69
317.377	359.69
317.607	372.69
317.836	363.69
318.065	369.69
318.295	367.69
318.524	380.69
318.753	363.69
318.983	354.69
319.212	362.69
319.441	380.69
319.67	380.69
319.9	366.69
320.129	368.69
320.358	354.69
320.587	375.69
320.816	364.69
321.046	394.69
321.275	392.69
321.504	395.69
321.733	390.69
321.962	378.69
322.191	379.69
322.42	407.69
322.649	385.69
322.878	403.69
323.108	400.69
323.337	423.69
323.566	403.69
323.795	396.69
324.024	459.69
324.253	508.69
324.482	609.69
324.71	849.69
324.939	1151.69
325.168	943.69
325.397	552.69
325.626	464.69
325.855	430.69
326.084	430.69
326.313	437.69
326.542	429.69
326.77	443.69
326.999	491.69
327.228	616.69
327.457	812.69
327.686	902.69
327.914	648.69
328.143	501.69
328.372	498.69
328.6	469.69
328.829	464.69
329.058	463.69
329.287	450.69
329.515	429.69
329.744	442.69
329.972	439.69
330.201	453.69
330.43	453.69
330.658	467.69
330.887	479.69
331.115	480.69
331.344	463.69
331.572	459.69
331.801	452.69
332.03	454.69
332.258	463.69
332.486	463.69
332.715	481.69
332.943	482.69
333.172	487.69
333.4	508.69
333.629	503.69
333.857	525.69
334.085	533.69
334.314	520.69
334.542	530.69
334.771	558.69
334.999	507.69
335.227	501.69
335.455	475.69
335.684	478.69
335.912	478.69
336.14	463.69
336.369	474.69
336.597	478.69
336.825	460.69
337.053	465.69
337.281	433.69
337.51	434.69
337.738	473.69
337.966	440.69
338.194	451.69
338.422	438.69
338.65	435.69
338.878	456.69
339.106	440.69
339.334	440.69
339.562	435.69
339.79	438.69
340.018	423.69
340.246	411.69
340.474	429.69
340.702	432.69
340.93	431.69
341.158	424.69
341.386	408.69
341.614	429.69
341.842	423.69
342.07	427.69
342.298	414.69
342.526	407.69
342.754	420.69
342.981	439.69
343.209	444.69
343.437	434.69
343.665	456.69
343.893	463.69
344.12	496.69
344.348	483.69
344.576	468.69
344.804	444.69
345.031	436.69
345.259	420.69
345.487	422.69
345.714	416.69
345.942	431.69
346.17	431.69
346.397	414.69
346.625	417.69
346.853	396.69
347.08	408.69
347.308	400.69
347.535	418.69
347.763	404.69
347.99	416.69
348.218	412.69
348.445	418.69
348.673	408.69
348.9	410.69
349.128	410.69
349.355	379.69
349.583	391.69
349.81	396.69
350.037	407.69
350.265	395.69
350.492	404.69
350.72	380.69
350.947	402.69
351.174	390.69
351.402	406.69
351.629	402.69
351.856	398.69
352.083	416.69
352.311	412.69
352.538	406.69
352.765	396.69
352.992	423.69
353.22	378.69
353.447	405.69
353.674	386.69
353.901	395.69
354.128	393.69
354.355	391.69
354.583	398.69
354.81	357.69
355.037	370.69
355.264	410.69
355.491	392.69
355.718	401.69
355.945	403.69
356.172	391.69
356.399	408.69
356.626	389.69
356.853	380.69
357.08	375.69
357.307	382.69
357.534	390.69
357.761	388.69
357.988	393.69
358.215	386.69
358.441	386.69
358.668	390.69
358.895	404.69
359.122	409.69
359.349	417.69
359.576	407.69
359.802	394.69
360.029	420.69
360.256	444.69
360.483	406.69
360.709	394.69
360.936	399.69
361.163	390.69
361.39	399.69
361.616	420.69
361.843	398.69
362.07	404.69
362.296	395.69
362.523	418.69
362.749	386.69
362.976	403.69
363.203	412.69
363.429	397.69
363.656	414.69
363.882	393.69
364.109	381.69
364.335	391.69
364.562	405.69
364.788	392.69
365.015	386.69
365.241	407.69
365.468	400.69
365.694	388.69
365.92	412.69
366.147	416.69
366.373	394.69
366.599	400.69
366.826	418.69
367.052	389.69
367.278	386.69
367.505	395.69
367.731	403.69
367.957	411.69
368.184	398.69
368.41	388.69
368.636	404.69
368.862	420.69
369.089	397.69
369.315	410.69
369.541	400.69
369.767	400.69
369.993	406.69
370.219	415.69
370.445	403.69
370.672	397.69
370.898	416.69
371.124	415.69
371.35	417.69
371.576	402.69
371.802	426.69
372.028	417.69
372.254	407.69
372.48	418.69
372.706	427.69
372.932	434.69
373.158	441.69
373.384	434.69
373.61	431.69
373.835	414.69
374.061	416.69
374.287	430.69
374.513	434.69
374.739	442.69
374.965	453.69
375.191	448.69
375.416	411.69
375.642	443.69
375.868	425.69
376.094	430.69
376.319	436.69
376.545	431.69
376.771	404.69
376.997	412.69
377.222	420.69
377.448	416.69
377.674	431.69
377.899	425.69
378.125	401.69
378.35	408.69
378.576	405.69
378.802	425.69
379.027	403.69
379.253	416.69
379.478	427.69
379.704	430.69
379.929	426.69
380.155	415.69
380.38	448.69
380.606	412.69
380.831	434.69
381.057	420.69
381.282	416.69
381.507	421.69
381.733	434.69
381.958	425.69
382.184	417.69
382.409	447.69
382.634	430.69
382.86	431.69
383.085	426.69
383.31	449.69
383.535	438.69
383.761	453.69
383.986	450.69
384.211	455.69
384.436	456.69
384.662	454.69
384.887	471.69
385.112	496.69
385.337	476.69
385.562	490.69
385.787	476.69
386.013	495.69
386.238	504.69
386.463	486.69
386.688	478.69
386.913	470.69
387.138	478.69
387.363	489.69
387.588	494.69
387.813	466.69
388.038	463.69
388.263	489.69
388.488	460.69
388.713	458.69
388.938	468.69
389.163	458.69
389.387	468.69
389.612	463.69
389.837	469.69
390.062	455.69
390.287	452.69
390.512	459.69
390.736	476.69
390.961	471.69
391.186	480.69
391.411	478.69
391.636	505.69
391.86	508.69
392.085	514.69
392.31	506.69
392.534	502.69
392.759	500.69
392.984	494.69
393.208	505.69
393.433	499.69
393.658	501.69
393.882	484.69
394.107	474.69
394.331	486.69
394.556	484.69
394.78	517.69
395.005	486.69
395.229	494.69
395.454	511.69
395.678	515.69
395.903	506.69
396.127	534.69
396.352	520.69
396.576	498.69
396.801	507.69
397.025	511.69
397.249	531.69
397.474	513.69
397.698	502.69
397.922	522.69
398.147	531.69
398.371	531.69
398.595	565.69
398.82	538.69
399.044	588.69
399.268	626.69
399.492	683.69
399.717	738.69
399.941	768.69
400.165	727.69
400.389	682.69
400.613	624.69
400.837	615.69
401.062	588.69
401.286	593.69
401.51	541.69
401.734	563.69
401.958	568.69
402.182	561.69
402.406	572.69
402.63	593.69
402.854	602.69
403.078	594.69
403.302	613.69
403.526	642.69
403.75	626.69
403.974	619.69
404.198	606.69
404.422	614.69
404.645	641.69
404.869	616.69
405.093	632.69
405.317	624.69
405.541	684.69
405.765	618.69
405.988	621.69
406.212	624.69
406.436	627.69
406.66	645.69
406.883	648.69
407.107	692.69
407.331	700.69
407.555	727.69
407.778	739.69
408.002	695.69
408.226	660.69
408.449	665.69
408.673	650.69
408.896	662.69
409.12	662.69
409.344	647.69
409.567	616.69
409.791	623.69
410.014	599.69
410.238	612.69
410.461	591.69
410.685	587.69
410.908	578.69
411.132	614.69
411.355	606.69
411.578	591.69
411.802	579.69
412.025	567.69
412.249	588.69
412.472	618.69
412.695	612.69
412.919	609.69
413.142	570.69
413.365	594.69
413.589	565.69
413.812	582.69
414.035	545.69
414.258	553.69
414.482	553.69
414.705	555.69
414.928	576.69
415.151	558.69
415.374	556.69
415.597	545.69
415.821	562.69
416.044	535.69
416.267	534.69
416.49	538.69
416.713	559.69
416.936	554.69
417.159	537.69
417.382	528.69
417.605	542.69
417.828	555.69
418.051	572.69
418.274	565.69
418.497	562.69
418.72	555.69
418.943	555.69
419.166	587.69
419.389	598.69
419.611	591.69
419.834	580.69
420.057	581.69
420.28	585.69
420.503	566.69
420.726	568.69
420.948	574.69
421.171	570.69
421.394	583.69
421.617	589.69
421.839	571.69
422.062	563.69
422.285	590.69
422.507	599.69
422.73	632.69
422.953	637.69
423.175	605.69
423.398	576.69
423.621	588.69
423.843	631.69
424.066	599.69
424.288	603.69
424.511	587.69
424.733	620.69
424.956	660.69
425.178	642.69
425.401	636.69
425.623	643.69
425.846	579.69
426.068	572.69
426.291	552.69
426.513	548.69
426.735	554.69
426.958	584.69
427.18	624.69
427.402	677.69
427.625	733.69
427.847	644.69
428.069	584.69
428.292	565.69
428.514	521.69
428.736	515.69
428.958	501.69
429.181	508.69
429.403	512.69
429.625	528.69
429.847	533.69
430.069	556.69
430.292	552.69
430.514	500.69
430.736	521.69
430.958	486.69
431.18	516.69
431.402	500.69
431.624	501.69
431.846	488.69
432.068	489.69
432.29	507.69
432.512	489.69
432.734	511.69
432.956	513.69
433.178	502.69
433.4	531.69
433.622	510.69
433.844	509.69
434.066	513.69
434.287	521.69
434.509	523.69
434.731	545.69
434.953	556.69
435.175	578.69
435.397	574.69
435.618	547.69
435.84	569.69
436.062	602.69
436.284	625.69
436.505	566.69
436.727	522.69
436.949	526.69
437.17	506.69
437.392	524.69
437.614	516.69
437.835	521.69
438.057	570.69
438.278	613.69
438.5	625.69
438.721	632.69
438.943	635.69
439.165	553.69
439.386	558.69
439.608	554.69
439.829	524.69
440.05	553.69
440.272	570.69
440.493	544.69
440.715	549.69
440.936	525.69
441.158	522.69
441.379	546.69
441.6	555.69
441.822	558.69
442.043	606.69
442.264	617.69
442.486	632.69
442.707	607.69
442.928	573.69
443.149	576.69
443.371	592.69
443.592	607.69
443.813	648.69
444.034	690.69
444.255	662.69
444.476	608.69
444.698	598.69
444.919	618.69
445.14	713.69
445.361	647.69
445.582	592.69
445.803	590.69
446.024	651.69
446.245	651.69
446.466	627.69
446.687	563.69
446.908	534.69
447.129	515.69
447.35	521.69
447.571	517.69
447.792	485.69
448.013	492.69
448.234	484.69
448.455	526.69
448.675	565.69
448.896	626.69
449.117	564.69
449.338	539.69
449.559	616.69
449.779	656.69
450	567.69
450.221	496.69
450.442	484.69
450.662	479.69
450.883	485.69
451.104	503.69
451.324	470.69
451.545	474.69
451.766	479.69
451.986	466.69
452.207	455.69
452.428	475.69
452.648	451.69
452.869	467.69
453.089	454.69
453.31	459.69
453.53	453.69
453.751	445.69
453.971	446.69
454.192	467.69
454.412	420.69
454.633	433.69
454.853	451.69
455.073	424.69
455.294	450.69
455.514	496.69
455.734	480.69
455.955	443.69
456.175	426.69
456.395	425.69
456.616	420.69
456.836	431.69
457.056	425.69
457.276	437.69
457.497	398.69
457.717	417.69
457.937	446.69
458.157	428.69
458.377	442.69
458.598	436.69
458.818	496.69
459.038	534.69
459.258	550.69
459.478	519.69
459.698	510.69
459.918	499.69
460.138	530.69
460.358	551.69
460.578	523.69
460.798	545.69
461.018	559.69
461.238	528.69
461.458	564.69
461.678	512.69
461.898	535.69
462.118	544.69
462.338	581.69
462.558	573.69
462.777	605.69
462.997	631.69
463.217	690.69
463.437	680.69
463.657	633.69
463.876	613.69
464.096	603.69
464.316	610.69
464.536	600.69
464.755	599.69
464.975	574.69
465.195	572.69
465.414	593.69
465.634	553.69
465.854	498.69
466.073	514.69
466.293	487.69
466.512	486.69
466.732	475.69
466.951	486.69
467.171	454.69
467.391	496.69
467.61	476.69
467.829	480.69
468.049	467.69
468.268	465.69
468.488	455.69
468.707	457.69
468.927	462.69
469.146	454.69
469.365	467.69
469.585	453.69
469.804	484.69
470.023	497.69
470.243	471.69
470.462	490.69
470.681	528.69
470.901	494.69
471.12	472.69
471.339	467.69
471.558	482.69
471.777	485.69
471.997	463.69
472.216	459.69
472.435	500.69
472.654	501.69
472.873	444.69
473.092	452.69
473.311	442.69
473.53	454.69
473.749	470.69
473.968	467.69
474.187	550.69
474.406	550.69
474.625	503.69
474.844	483.69
475.063	460.69
475.282	449.69
475.501	465.69
475.72	502.69
475.939	468.69
476.158	468.69
476.377	494.69
476.596	467.69
476.814	510.69
477.033	466.69
477.252	481.69
477.471	473.69
477.69	490.69
477.908	517.69
478.127	556.69
478.346	528.69
478.564	526.69
478.783	543.69
479.002	536.69
479.22	542.69
479.439	558.69
479.658	576.69
479.876	539.69
480.095	564.69
480.313	605.69
480.532	580.69
480.751	604.69
480.969	584.69
481.188	623.69
481.406	637.69
481.624	572.69
481.843	563.69
482.061	537.69
482.28	548.69
482.498	520.69
482.717	540.69
482.935	540.69
483.153	531.69
483.372	528.69
483.59	535.69
483.808	521.69
484.027	543.69
484.245	552.69
484.463	540.69
484.681	537.69
484.9	569.69
485.118	567.69
485.336	523.69
485.554	569.69
485.772	548.69
485.99	546.69
486.209	546.69
486.427	574.69
486.645	573.69
486.863	577.69
487.081	591.69
487.299	585.69
487.517	566.69
487.735	569.69
487.953	576.69
488.171	561.69
488.389	580.69
488.607	556.69
488.825	554.69
489.043	565.69
489.261	561.69
489.479	570.69
489.696	557.69
489.914	583.69
490.132	570.69
490.35	580.69
490.568	582.69
490.786	597.69
491.003	604.69
491.221	615.69
491.439	612.69
491.657	615.69
491.874	626.69
492.092	616.69
492.31	628.69
492.527	607.69
492.745	608.69
492.963	638.69
493.18	651.69
493.398	650.69
493.615	657.69
493.833	648.69
494.05	634.69
494.268	634.69
494.485	641.69
494.703	630.69
494.92	646.69
495.138	639.69
495.355	634.69
495.573	644.69
495.79	631.69
496.008	661.69
496.225	635.69
496.442	657.69
496.66	654.69
496.877	654.69
497.094	676.69
497.312	681.69
497.529	686.69
497.746	719.69
497.963	713.69
498.181	723.69
498.398	746.69
498.615	768.69
498.832	802.69
499.049	827.69
499.267	894.69
499.484	934.69
499.701	1007.69
499.918	1091.69
500.135	1184.69
500.352	1279.69
500.569	1315.69
500.786	1296.69
501.003	1268.69
501.22	1177.69
501.437	1079.69
501.654	993.69
501.871	938.69
502.088	878.69
