Data from 1960PennyLincolnUp.LampE6.200Scan.07172019.P1_HRD10591_13-06-37-001.txt Node
Date: Thu Jul 18 13:06:37 EDT 2019
User: cochatt
Spectrometer: HR+D1059
Trigger mode: 1
Integration Time (sec): 1.000000E-1
Scans to average: 1
Electric dark correction enabled: true
Nonlinearity correction enabled: false
Boxcar width: 0
XAxis mode: Wavelengths
Number of Pixels in Spectrum: 2048
>>>>>Begin Spectral Data<<<<<
223.165	-11.5
223.4	-11.5
223.635	-11.5
223.869	-13.5
224.104	-12.5
224.338	-7.5
224.573	-8.5
224.808	-5.5
225.042	-12.5
225.277	2.5
225.511	7.5
225.746	5.5
225.98	-15.5
226.215	6.5
226.449	15.5
226.683	6.5
226.918	19.5
227.152	23.5
227.387	47.5
227.621	33.5
227.856	37.5
228.09	46.5
228.324	52.5
228.559	56.5
228.793	57.5
229.027	84.5
229.262	76.5
229.496	108.5
229.73	117.5
229.964	130.5
230.199	102.5
230.433	97.5
230.667	113.5
230.901	123.5
231.136	110.5
231.37	103.5
231.604	106.5
231.838	90.5
232.072	108.5
232.306	118.5
232.541	104.5
232.775	100.5
233.009	113.5
233.243	106.5
233.477	116.5
233.711	109.5
233.945	115.5
234.179	113.5
234.413	110.5
234.647	111.5
234.881	111.5
235.115	112.5
235.349	108.5
235.583	123.5
235.817	107.5
236.051	101.5
236.285	118.5
236.519	123.5
236.753	115.5
236.987	128.5
237.221	163.5
237.455	173.5
237.689	145.5
237.922	134.5
238.156	128.5
238.39	135.5
238.624	113.5
238.858	121.5
239.091	119.5
239.325	109.5
239.559	124.5
239.793	115.5
240.027	144.5
240.26	135.5
240.494	150.5
240.728	147.5
240.961	145.5
241.195	144.5
241.429	125.5
241.662	142.5
241.896	135.5
242.13	150.5
242.363	135.5
242.597	128.5
242.83	129.5
243.064	126.5
243.298	123.5
243.531	149.5
243.765	141.5
243.998	138.5
244.232	128.5
244.465	155.5
244.699	125.5
244.932	143.5
245.166	136.5
245.399	141.5
245.633	144.5
245.866	141.5
246.099	159.5
246.333	133.5
246.566	159.5
246.8	134.5
247.033	129.5
247.266	147.5
247.5	134.5
247.733	161.5
247.966	158.5
248.2	152.5
248.433	152.5
248.666	152.5
248.899	176.5
249.133	183.5
249.366	179.5
249.599	164.5
249.832	162.5
250.066	184.5
250.299	167.5
250.532	195.5
250.765	185.5
250.998	200.5
251.231	188.5
251.465	180.5
251.698	191.5
251.931	172.5
252.164	185.5
252.397	168.5
252.63	195.5
252.863	200.5
253.096	202.5
253.329	196.5
253.562	193.5
253.795	197.5
254.028	186.5
254.261	197.5
254.494	190.5
254.727	212.5
254.96	217.5
255.193	211.5
255.426	209.5
255.659	201.5
255.892	201.5
256.124	202.5
256.357	192.5
256.59	194.5
256.823	190.5
257.056	174.5
257.289	203.5
257.521	197.5
257.754	190.5
257.987	186.5
258.22	199.5
258.452	185.5
258.685	193.5
258.918	204.5
259.151	183.5
259.383	203.5
259.616	199.5
259.849	205.5
260.081	232.5
260.314	234.5
260.547	239.5
260.779	201.5
261.012	206.5
261.244	207.5
261.477	198.5
261.71	217.5
261.942	221.5
262.175	226.5
262.407	217.5
262.64	214.5
262.872	195.5
263.105	198.5
263.337	206.5
263.57	198.5
263.802	195.5
264.035	218.5
264.267	219.5
264.499	201.5
264.732	210.5
264.964	210.5
265.197	199.5
265.429	203.5
265.661	202.5
265.894	216.5
266.126	218.5
266.358	197.5
266.591	202.5
266.823	222.5
267.055	214.5
267.287	218.5
267.52	208.5
267.752	216.5
267.984	225.5
268.216	218.5
268.448	233.5
268.681	224.5
268.913	239.5
269.145	257.5
269.377	250.5
269.609	247.5
269.841	244.5
270.073	246.5
270.306	250.5
270.538	271.5
270.77	259.5
271.002	264.5
271.234	253.5
271.466	247.5
271.698	266.5
271.93	277.5
272.162	277.5
272.394	285.5
272.626	274.5
272.858	257.5
273.09	246.5
273.322	259.5
273.553	248.5
273.785	256.5
274.017	255.5
274.249	246.5
274.481	248.5
274.713	242.5
274.945	256.5
275.176	249.5
275.408	263.5
275.64	257.5
275.872	262.5
276.104	257.5
276.335	258.5
276.567	253.5
276.799	289.5
277.031	281.5
277.262	285.5
277.494	303.5
277.726	283.5
277.957	291.5
278.189	278.5
278.421	269.5
278.652	260.5
278.884	260.5
279.115	277.5
279.347	267.5
279.579	296.5
279.81	276.5
280.042	261.5
280.273	287.5
280.505	278.5
280.736	249.5
280.968	268.5
281.199	285.5
281.431	289.5
281.662	264.5
281.894	274.5
282.125	273.5
282.356	297.5
282.588	287.5
282.819	283.5
283.051	279.5
283.282	280.5
283.513	276.5
283.745	282.5
283.976	315.5
284.207	315.5
284.439	287.5
284.67	287.5
284.901	292.5
285.132	306.5
285.364	299.5
285.595	278.5
285.826	287.5
286.057	282.5
286.288	297.5
286.52	292.5
286.751	293.5
286.982	304.5
287.213	289.5
287.444	294.5
287.675	293.5
287.906	280.5
288.138	307.5
288.369	313.5
288.6	313.5
288.831	314.5
289.062	310.5
289.293	319.5
289.524	294.5
289.755	291.5
289.986	286.5
290.217	280.5
290.448	287.5
290.679	306.5
290.91	316.5
291.141	311.5
291.371	298.5
291.602	311.5
291.833	329.5
292.064	305.5
292.295	310.5
292.526	298.5
292.757	291.5
292.987	301.5
293.218	299.5
293.449	297.5
293.68	293.5
293.91	314.5
294.141	301.5
294.372	294.5
294.603	315.5
294.833	289.5
295.064	298.5
295.295	315.5
295.525	305.5
295.756	303.5
295.987	327.5
296.217	329.5
296.448	326.5
296.679	320.5
296.909	307.5
297.14	309.5
297.37	341.5
297.601	326.5
297.831	328.5
298.062	310.5
298.292	327.5
298.523	315.5
298.753	344.5
298.984	351.5
299.214	325.5
299.445	315.5
299.675	329.5
299.905	329.5
300.136	327.5
300.366	332.5
300.597	316.5
300.827	329.5
301.057	345.5
301.288	350.5
301.518	341.5
301.748	349.5
301.979	361.5
302.209	361.5
302.439	362.5
302.669	351.5
302.9	338.5
303.13	363.5
303.36	351.5
303.59	345.5
303.82	345.5
304.051	341.5
304.281	336.5
304.511	329.5
304.741	350.5
304.971	351.5
305.201	326.5
305.431	335.5
305.661	356.5
305.891	349.5
306.121	354.5
306.352	359.5
306.582	330.5
306.812	358.5
307.042	335.5
307.272	351.5
307.502	343.5
307.731	353.5
307.961	342.5
308.191	337.5
308.421	345.5
308.651	351.5
308.881	337.5
309.111	363.5
309.341	346.5
309.571	330.5
309.8	356.5
310.03	351.5
310.26	365.5
310.49	361.5
310.72	358.5
310.949	393.5
311.179	374.5
311.409	377.5
311.639	362.5
311.868	368.5
312.098	371.5
312.328	381.5
312.557	385.5
312.787	389.5
313.017	380.5
313.246	390.5
313.476	403.5
313.706	382.5
313.935	387.5
314.165	400.5
314.394	391.5
314.624	395.5
314.853	373.5
315.083	387.5
315.312	402.5
315.542	378.5
315.771	364.5
316.001	383.5
316.23	369.5
316.46	375.5
316.689	378.5
316.919	382.5
317.148	383.5
317.377	386.5
317.607	390.5
317.836	370.5
318.065	369.5
318.295	392.5
318.524	383.5
318.753	375.5
318.983	391.5
319.212	379.5
319.441	398.5
319.67	381.5
319.9	389.5
320.129	391.5
320.358	379.5
320.587	400.5
320.816	395.5
321.046	387.5
321.275	373.5
321.504	386.5
321.733	406.5
321.962	384.5
322.191	396.5
322.42	391.5
322.649	404.5
322.878	396.5
323.108	428.5
323.337	411.5
323.566	438.5
323.795	455.5
324.024	497.5
324.253	561.5
324.482	712.5
324.71	1015.5
324.939	1397.5
325.168	1171.5
325.397	632.5
325.626	533.5
325.855	457.5
326.084	468.5
326.313	461.5
326.542	448.5
326.77	463.5
326.999	554.5
327.228	689.5
327.457	935.5
327.686	1084.5
327.914	737.5
328.143	565.5
328.372	518.5
328.6	495.5
328.829	481.5
329.058	484.5
329.287	506.5
329.515	474.5
329.744	482.5
329.972	479.5
330.201	473.5
330.43	482.5
330.658	529.5
330.887	539.5
331.115	540.5
331.344	472.5
331.572	471.5
331.801	477.5
332.03	497.5
332.258	474.5
332.486	473.5
332.715	474.5
332.943	495.5
333.172	495.5
333.4	524.5
333.629	532.5
333.857	538.5
334.085	538.5
334.314	526.5
334.542	547.5
334.771	548.5
334.999	534.5
335.227	507.5
335.455	487.5
335.684	490.5
335.912	500.5
336.14	487.5
336.369	504.5
336.597	469.5
336.825	477.5
337.053	470.5
337.281	489.5
337.51	451.5
337.738	452.5
337.966	439.5
338.194	470.5
338.422	445.5
338.65	453.5
338.878	446.5
339.106	458.5
339.334	446.5
339.562	440.5
339.79	427.5
340.018	436.5
340.246	442.5
340.474	431.5
340.702	425.5
340.93	440.5
341.158	458.5
341.386	426.5
341.614	436.5
341.842	435.5
342.07	434.5
342.298	445.5
342.526	417.5
342.754	431.5
342.981	438.5
343.209	451.5
343.437	443.5
343.665	454.5
343.893	467.5
344.12	495.5
344.348	467.5
344.576	484.5
344.804	459.5
345.031	440.5
345.259	452.5
345.487	449.5
345.714	437.5
345.942	448.5
346.17	416.5
346.397	410.5
346.625	432.5
346.853	417.5
347.08	412.5
347.308	422.5
347.535	402.5
347.763	430.5
347.99	423.5
348.218	453.5
348.445	417.5
348.673	406.5
348.9	409.5
349.128	408.5
349.355	409.5
349.583	421.5
349.81	401.5
350.037	402.5
350.265	401.5
350.492	395.5
350.72	436.5
350.947	419.5
351.174	430.5
351.402	422.5
351.629	413.5
351.856	432.5
352.083	384.5
352.311	411.5
352.538	424.5
352.765	420.5
352.992	432.5
353.22	423.5
353.447	417.5
353.674	394.5
353.901	403.5
354.128	400.5
354.355	390.5
354.583	392.5
354.81	402.5
355.037	404.5
355.264	396.5
355.491	404.5
355.718	409.5
355.945	407.5
356.172	409.5
356.399	398.5
356.626	390.5
356.853	389.5
357.08	403.5
357.307	399.5
357.534	396.5
357.761	394.5
357.988	395.5
358.215	417.5
358.441	413.5
358.668	418.5
358.895	427.5
359.122	409.5
359.349	410.5
359.576	434.5
359.802	418.5
360.029	453.5
360.256	445.5
360.483	447.5
360.709	413.5
360.936	417.5
361.163	421.5
361.39	402.5
361.616	434.5
361.843	407.5
362.07	416.5
362.296	423.5
362.523	425.5
362.749	420.5
362.976	431.5
363.203	441.5
363.429	411.5
363.656	402.5
363.882	429.5
364.109	417.5
364.335	400.5
364.562	417.5
364.788	407.5
365.015	420.5
365.241	414.5
365.468	413.5
365.694	419.5
365.92	398.5
366.147	418.5
366.373	403.5
366.599	393.5
366.826	390.5
367.052	435.5
367.278	413.5
367.505	413.5
367.731	421.5
367.957	426.5
368.184	417.5
368.41	423.5
368.636	435.5
368.862	439.5
369.089	432.5
369.315	429.5
369.541	406.5
369.767	409.5
369.993	426.5
370.219	412.5
370.445	422.5
370.672	433.5
370.898	417.5
371.124	410.5
371.35	413.5
371.576	421.5
371.802	398.5
372.028	408.5
372.254	415.5
372.48	419.5
372.706	451.5
372.932	442.5
373.158	441.5
373.384	419.5
373.61	441.5
373.835	429.5
374.061	423.5
374.287	431.5
374.513	443.5
374.739	465.5
374.965	473.5
375.191	457.5
375.416	454.5
375.642	437.5
375.868	427.5
376.094	447.5
376.319	441.5
376.545	435.5
376.771	416.5
376.997	439.5
377.222	451.5
377.448	424.5
377.674	425.5
377.899	429.5
378.125	429.5
378.35	414.5
378.576	422.5
378.802	448.5
379.027	418.5
379.253	423.5
379.478	419.5
379.704	429.5
379.929	435.5
380.155	429.5
380.38	423.5
380.606	416.5
380.831	432.5
381.057	423.5
381.282	425.5
381.507	435.5
381.733	423.5
381.958	435.5
382.184	448.5
382.409	449.5
382.634	462.5
382.86	455.5
383.085	433.5
383.31	431.5
383.535	465.5
383.761	460.5
383.986	436.5
384.211	453.5
384.436	485.5
384.662	475.5
384.887	497.5
385.112	493.5
385.337	503.5
385.562	499.5
385.787	507.5
386.013	488.5
386.238	516.5
386.463	492.5
386.688	518.5
386.913	479.5
387.138	481.5
387.363	458.5
387.588	475.5
387.813	472.5
388.038	480.5
388.263	473.5
388.488	508.5
388.713	474.5
388.938	456.5
389.163	474.5
389.387	478.5
389.612	477.5
389.837	483.5
390.062	499.5
390.287	481.5
390.512	487.5
390.736	495.5
390.961	497.5
391.186	496.5
391.411	480.5
391.636	504.5
391.86	503.5
392.085	532.5
392.31	551.5
392.534	519.5
392.759	490.5
392.984	501.5
393.208	497.5
393.433	506.5
393.658	541.5
393.882	522.5
394.107	505.5
394.331	509.5
394.556	514.5
394.78	498.5
395.005	512.5
395.229	495.5
395.454	524.5
395.678	542.5
395.903	527.5
396.127	523.5
396.352	511.5
396.576	522.5
396.801	521.5
397.025	494.5
397.249	525.5
397.474	543.5
397.698	544.5
397.922	510.5
398.147	562.5
398.371	530.5
398.595	563.5
398.82	566.5
399.044	596.5
399.268	647.5
399.492	709.5
399.717	804.5
399.941	766.5
400.165	721.5
400.389	713.5
400.613	628.5
400.837	630.5
401.062	584.5
401.286	560.5
401.51	567.5
401.734	585.5
401.958	549.5
402.182	583.5
402.406	592.5
402.63	595.5
402.854	609.5
403.078	629.5
403.302	619.5
403.526	635.5
403.75	634.5
403.974	626.5
404.198	623.5
404.422	647.5
404.645	646.5
404.869	632.5
405.093	632.5
405.317	667.5
405.541	678.5
405.765	671.5
405.988	627.5
406.212	621.5
406.436	666.5
406.66	640.5
406.883	635.5
407.107	692.5
407.331	701.5
407.555	772.5
407.778	758.5
408.002	731.5
408.226	663.5
408.449	657.5
408.673	650.5
408.896	651.5
409.12	711.5
409.344	659.5
409.567	633.5
409.791	609.5
410.014	629.5
410.238	595.5
410.461	597.5
410.685	603.5
410.908	630.5
411.132	649.5
411.355	632.5
411.578	627.5
411.802	594.5
412.025	586.5
412.249	591.5
412.472	608.5
412.695	627.5
412.919	642.5
413.142	601.5
413.365	580.5
413.589	585.5
413.812	570.5
414.035	558.5
414.258	590.5
414.482	563.5
414.705	592.5
414.928	584.5
415.151	559.5
415.374	561.5
415.597	565.5
415.821	547.5
416.044	574.5
416.267	570.5
416.49	585.5
416.713	547.5
416.936	567.5
417.159	558.5
417.382	551.5
417.605	569.5
417.828	573.5
418.051	594.5
418.274	592.5
418.497	583.5
418.72	575.5
418.943	574.5
419.166	592.5
419.389	615.5
419.611	619.5
419.834	611.5
420.057	610.5
420.28	577.5
420.503	584.5
420.726	572.5
420.948	598.5
421.171	625.5
421.394	619.5
421.617	583.5
421.839	569.5
422.062	573.5
422.285	570.5
422.507	654.5
422.73	679.5
422.953	640.5
423.175	607.5
423.398	586.5
423.621	605.5
423.843	629.5
424.066	633.5
424.288	636.5
424.511	627.5
424.733	655.5
424.956	681.5
425.178	677.5
425.401	658.5
425.623	656.5
425.846	618.5
426.068	574.5
426.291	569.5
426.513	563.5
426.735	585.5
426.958	615.5
427.18	653.5
427.402	748.5
427.625	760.5
427.847	688.5
428.069	623.5
428.292	576.5
428.514	570.5
428.736	550.5
428.958	531.5
429.181	537.5
429.403	529.5
429.625	547.5
429.847	545.5
430.069	587.5
430.292	594.5
430.514	575.5
430.736	564.5
430.958	512.5
431.18	535.5
431.402	526.5
431.624	513.5
431.846	518.5
432.068	513.5
432.29	530.5
432.512	519.5
432.734	545.5
432.956	535.5
433.178	529.5
433.4	533.5
433.622	532.5
433.844	525.5
434.066	529.5
434.287	519.5
434.509	517.5
434.731	530.5
434.953	559.5
435.175	573.5
435.397	576.5
435.618	567.5
435.84	589.5
436.062	631.5
436.284	663.5
436.505	614.5
436.727	562.5
436.949	530.5
437.17	513.5
437.392	547.5
437.614	525.5
437.835	543.5
438.057	607.5
438.278	669.5
438.5	644.5
438.721	743.5
438.943	657.5
439.165	575.5
439.386	551.5
439.608	564.5
439.829	559.5
440.05	561.5
440.272	614.5
440.493	581.5
440.715	551.5
440.936	534.5
441.158	560.5
441.379	531.5
441.6	572.5
441.822	605.5
442.043	605.5
442.264	650.5
442.486	690.5
442.707	621.5
442.928	592.5
443.149	584.5
443.371	610.5
443.592	634.5
443.813	685.5
444.034	746.5
444.255	649.5
444.476	649.5
444.698	625.5
444.919	647.5
445.14	733.5
445.361	661.5
445.582	629.5
445.803	630.5
446.024	687.5
446.245	673.5
446.466	639.5
446.687	565.5
446.908	549.5
447.129	534.5
447.35	518.5
447.571	530.5
447.792	488.5
448.013	484.5
448.234	538.5
448.455	555.5
448.675	620.5
448.896	671.5
449.117	590.5
449.338	555.5
449.559	680.5
449.779	723.5
450	592.5
450.221	535.5
450.442	491.5
450.662	485.5
450.883	507.5
451.104	502.5
451.324	502.5
451.545	488.5
451.766	482.5
451.986	485.5
452.207	465.5
452.428	461.5
452.648	465.5
452.869	470.5
453.089	492.5
453.31	469.5
453.53	498.5
453.751	469.5
453.971	455.5
454.192	477.5
454.412	443.5
454.633	448.5
454.853	455.5
455.073	456.5
455.294	473.5
455.514	505.5
455.734	494.5
455.955	446.5
456.175	437.5
456.395	454.5
456.616	441.5
456.836	447.5
457.056	434.5
457.276	432.5
457.497	456.5
457.717	424.5
457.937	435.5
458.157	431.5
458.377	470.5
458.598	461.5
458.818	513.5
459.038	551.5
459.258	570.5
459.478	542.5
459.698	502.5
459.918	529.5
460.138	560.5
460.358	542.5
460.578	574.5
460.798	561.5
461.018	556.5
461.238	569.5
461.458	550.5
461.678	544.5
461.898	575.5
462.118	561.5
462.338	575.5
462.558	578.5
462.777	602.5
462.997	634.5
463.217	677.5
463.437	676.5
463.657	623.5
463.876	616.5
464.096	607.5
464.316	601.5
464.536	634.5
464.755	605.5
464.975	599.5
465.195	599.5
465.414	635.5
465.634	551.5
465.854	525.5
466.073	514.5
466.293	520.5
466.512	515.5
466.732	499.5
466.951	493.5
467.171	473.5
467.391	490.5
467.61	491.5
467.829	508.5
468.049	495.5
468.268	493.5
468.488	465.5
468.707	472.5
468.927	479.5
469.146	481.5
469.365	481.5
469.585	478.5
469.804	489.5
470.023	527.5
470.243	511.5
470.462	485.5
470.681	516.5
470.901	537.5
471.12	474.5
471.339	487.5
471.558	492.5
471.777	491.5
471.997	501.5
472.216	479.5
472.435	514.5
472.654	491.5
472.873	464.5
473.092	451.5
473.311	455.5
473.53	447.5
473.749	479.5
473.968	498.5
474.187	551.5
474.406	567.5
474.625	485.5
474.844	477.5
475.063	468.5
475.282	474.5
475.501	486.5
475.72	481.5
475.939	463.5
476.158	493.5
476.377	477.5
476.596	487.5
476.814	483.5
477.033	507.5
477.252	488.5
477.471	504.5
477.69	535.5
477.908	529.5
478.127	568.5
478.346	561.5
478.564	544.5
478.783	559.5
479.002	568.5
479.22	561.5
479.439	581.5
479.658	575.5
479.876	585.5
480.095	583.5
480.313	631.5
480.532	613.5
480.751	617.5
480.969	608.5
481.188	653.5
481.406	669.5
481.624	602.5
481.843	584.5
482.061	561.5
482.28	551.5
482.498	543.5
482.717	547.5
482.935	532.5
483.153	544.5
483.372	551.5
483.59	552.5
483.808	557.5
484.027	541.5
484.245	541.5
484.463	554.5
484.681	548.5
484.9	575.5
485.118	581.5
485.336	574.5
485.554	567.5
485.772	549.5
485.99	567.5
486.209	581.5
486.427	560.5
486.645	593.5
486.863	592.5
487.081	599.5
487.299	601.5
487.517	582.5
487.735	583.5
487.953	598.5
488.171	596.5
488.389	584.5
488.607	559.5
488.825	579.5
489.043	568.5
489.261	565.5
489.479	598.5
489.696	598.5
489.914	576.5
490.132	591.5
490.35	611.5
490.568	613.5
490.786	614.5
491.003	639.5
491.221	649.5
491.439	651.5
491.657	638.5
491.874	645.5
492.092	641.5
492.31	663.5
492.527	656.5
492.745	657.5
492.963	657.5
493.18	665.5
493.398	659.5
493.615	646.5
493.833	677.5
494.05	682.5
494.268	667.5
494.485	685.5
494.703	681.5
494.92	650.5
495.138	659.5
495.355	680.5
495.573	652.5
495.79	665.5
496.008	686.5
496.225	664.5
496.442	655.5
496.66	689.5
496.877	685.5
497.094	687.5
497.312	713.5
497.529	682.5
497.746	706.5
497.963	733.5
498.181	763.5
498.398	758.5
498.615	772.5
498.832	821.5
499.049	856.5
499.267	881.5
499.484	953.5
499.701	1018.5
499.918	1099.5
500.135	1187.5
500.352	1300.5
500.569	1315.5
500.786	1318.5
501.003	1234.5
501.22	1177.5
501.437	1102.5
501.654	1057.5
501.871	968.5
502.088	925.5
502.305	848.5
502.522	819.5
502.739	806.5
502.956	765.5
503.172	756.5
503.389	710.5
503.606	723.5
503.823	706.5
504.04	701.5
504.256	699.5
504.473	689.5
504.69	696.5
504.907	707.5
505.123	681.5
505.34	671.5
505.557	634.5
505.773	641.5
505.99	625.5
506.207	626.5
506.423	615.5
506.64	602.5
506.856	603.5
507.073	579.5
507.289	617.5
507.506	609.5
507.722	595.5
507.939	614.5
508.155	587.5
508.372	570.5
508.588	572.5
508.805	566.5
509.021	595.5
509.238	589.5
509.454	583.5
509.67	609.5
509.887	573.5
510.103	557.5
510.319	574.5
510.536	611.5
510.752	905.5
510.968	745.5
511.184	566.5
511.401	536.5
511.617	548.5
511.833	547.5
512.049	557.5
512.265	553.5
512.481	528.5
512.698	539.5
512.914	553.5
513.13	544.5
513.346	527.5
513.562	525.5
513.778	545.5
513.994	539.5
514.21	557.5
514.426	585.5
514.642	588.5
514.858	590.5
515.074	619.5
515.29	691.5
515.506	949.5
515.721	813.5
515.937	619.5
516.153	609.5
516.369	565.5
516.585	585.5
516.801	609.5
517.016	611.5
517.232	624.5
517.448	641.5
517.664	663.5
517.879	641.5
518.095	651.5
518.311	627.5
518.527	594.5
518.742	609.5
518.958	576.5
519.173	579.5
519.389	575.5
519.605	564.5
519.82	546.5
