Data from 1960PennyLincolnUp.LampE6.200Scan.07172019.P1_HRD10591_13-05-41-002.txt Node
Date: Thu Jul 18 13:05:41 EDT 2019
User: cochatt
Spectrometer: HR+D1059
Trigger mode: 1
Integration Time (sec): 1.000000E-1
Scans to average: 1
Electric dark correction enabled: true
Nonlinearity correction enabled: false
Boxcar width: 0
XAxis mode: Wavelengths
Number of Pixels in Spectrum: 2048
>>>>>Begin Spectral Data<<<<<
223.165	-13.19
223.4	-13.19
223.635	-13.19
223.869	-2.19
224.104	-37.19
224.338	-26.19
224.573	-14.19
224.808	0.81
225.042	-6.19
225.277	-5.19
225.511	1.81
225.746	-4.19
225.98	1.81
226.215	2.81
226.449	20.81
226.683	36.81
226.918	9.81
227.152	33.81
227.387	27.81
227.621	45.81
227.856	46.81
228.09	24.81
228.324	49.81
228.559	52.81
228.793	59.81
229.027	78.81
229.262	95.81
229.496	111.81
229.73	115.81
229.964	119.81
230.199	104.81
230.433	98.81
230.667	103.81
230.901	103.81
231.136	110.81
231.37	109.81
231.604	115.81
231.838	119.81
232.072	111.81
232.306	109.81
232.541	131.81
232.775	116.81
233.009	119.81
233.243	115.81
233.477	117.81
233.711	101.81
233.945	124.81
234.179	114.81
234.413	119.81
234.647	113.81
234.881	115.81
235.115	119.81
235.349	129.81
235.583	129.81
235.817	112.81
236.051	126.81
236.285	99.81
236.519	134.81
236.753	117.81
236.987	131.81
237.221	138.81
237.455	178.81
237.689	144.81
237.922	117.81
238.156	130.81
238.39	129.81
238.624	111.81
238.858	117.81
239.091	119.81
239.325	108.81
239.559	129.81
239.793	131.81
240.027	132.81
240.26	119.81
240.494	131.81
240.728	134.81
240.961	138.81
241.195	141.81
241.429	129.81
241.662	140.81
241.896	115.81
242.13	123.81
242.363	135.81
242.597	138.81
242.83	142.81
243.064	121.81
243.298	130.81
243.531	135.81
243.765	137.81
243.998	129.81
244.232	133.81
244.465	145.81
244.699	159.81
244.932	146.81
245.166	137.81
245.399	144.81
245.633	146.81
245.866	124.81
246.099	142.81
246.333	143.81
246.566	143.81
246.8	146.81
247.033	150.81
247.266	144.81
247.5	148.81
247.733	165.81
247.966	147.81
248.2	173.81
248.433	154.81
248.666	163.81
248.899	167.81
249.133	189.81
249.366	176.81
249.599	169.81
249.832	159.81
250.066	172.81
250.299	162.81
250.532	165.81
250.765	179.81
250.998	205.81
251.231	190.81
251.465	182.81
251.698	175.81
251.931	189.81
252.164	179.81
252.397	180.81
252.63	181.81
252.863	185.81
253.096	202.81
253.329	208.81
253.562	207.81
253.795	202.81
254.028	192.81
254.261	193.81
254.494	211.81
254.727	227.81
254.96	227.81
255.193	218.81
255.426	198.81
255.659	201.81
255.892	207.81
256.124	229.81
256.357	202.81
256.59	206.81
256.823	195.81
257.056	191.81
257.289	182.81
257.521	187.81
257.754	204.81
257.987	200.81
258.22	202.81
258.452	190.81
258.685	185.81
258.918	178.81
259.151	184.81
259.383	192.81
259.616	194.81
259.849	196.81
260.081	219.81
260.314	234.81
260.547	218.81
260.779	194.81
261.012	215.81
261.244	209.81
261.477	207.81
261.71	194.81
261.942	198.81
262.175	224.81
262.407	206.81
262.64	191.81
262.872	190.81
263.105	199.81
263.337	195.81
263.57	201.81
263.802	198.81
264.035	203.81
264.267	195.81
264.499	196.81
264.732	202.81
264.964	211.81
265.197	211.81
265.429	207.81
265.661	210.81
265.894	201.81
266.126	203.81
266.358	219.81
266.591	205.81
266.823	216.81
267.055	211.81
267.287	208.81
267.52	208.81
267.752	226.81
267.984	214.81
268.216	220.81
268.448	223.81
268.681	209.81
268.913	225.81
269.145	254.81
269.377	243.81
269.609	260.81
269.841	233.81
270.073	242.81
270.306	255.81
270.538	261.81
270.77	273.81
271.002	258.81
271.234	251.81
271.466	241.81
271.698	264.81
271.93	285.81
272.162	276.81
272.394	280.81
272.626	257.81
272.858	242.81
273.09	251.81
273.322	264.81
273.553	256.81
273.785	262.81
274.017	239.81
274.249	239.81
274.481	250.81
274.713	257.81
274.945	258.81
275.176	249.81
275.408	255.81
275.64	243.81
275.872	244.81
276.104	265.81
276.335	249.81
276.567	260.81
276.799	262.81
277.031	278.81
277.262	312.81
277.494	278.81
277.726	280.81
277.957	271.81
278.189	261.81
278.421	269.81
278.652	252.81
278.884	270.81
279.115	257.81
279.347	249.81
279.579	274.81
279.81	257.81
280.042	262.81
280.273	263.81
280.505	268.81
280.736	261.81
280.968	264.81
281.199	247.81
281.431	280.81
281.662	274.81
281.894	278.81
282.125	291.81
282.356	287.81
282.588	288.81
282.819	282.81
283.051	266.81
283.282	257.81
283.513	283.81
283.745	296.81
283.976	287.81
284.207	281.81
284.439	291.81
284.67	295.81
284.901	281.81
285.132	303.81
285.364	271.81
285.595	273.81
285.826	273.81
286.057	272.81
286.288	276.81
286.52	287.81
286.751	284.81
286.982	280.81
287.213	285.81
287.444	283.81
287.675	291.81
287.906	298.81
288.138	299.81
288.369	302.81
288.6	322.81
288.831	282.81
289.062	306.81
289.293	289.81
289.524	293.81
289.755	298.81
289.986	302.81
290.217	282.81
290.448	282.81
290.679	319.81
290.91	306.81
291.141	303.81
291.371	310.81
291.602	311.81
291.833	306.81
292.064	309.81
292.295	295.81
292.526	296.81
292.757	288.81
292.987	302.81
293.218	315.81
293.449	306.81
293.68	309.81
293.91	320.81
294.141	306.81
294.372	298.81
294.603	309.81
294.833	314.81
295.064	275.81
295.295	321.81
295.525	314.81
295.756	324.81
295.987	335.81
296.217	328.81
296.448	344.81
296.679	335.81
296.909	314.81
297.14	300.81
297.37	316.81
297.601	311.81
297.831	319.81
298.062	302.81
298.292	327.81
298.523	328.81
298.753	337.81
298.984	316.81
299.214	312.81
299.445	308.81
299.675	325.81
299.905	321.81
300.136	330.81
300.366	324.81
300.597	314.81
300.827	326.81
301.057	341.81
301.288	337.81
301.518	332.81
301.748	351.81
301.979	359.81
302.209	338.81
302.439	350.81
302.669	338.81
302.9	320.81
303.13	342.81
303.36	323.81
303.59	341.81
303.82	330.81
304.051	362.81
304.281	354.81
304.511	354.81
304.741	336.81
304.971	345.81
305.201	336.81
305.431	345.81
305.661	354.81
305.891	355.81
306.121	346.81
306.352	336.81
306.582	350.81
306.812	346.81
307.042	316.81
307.272	351.81
307.502	319.81
307.731	347.81
307.961	338.81
308.191	347.81
308.421	332.81
308.651	353.81
308.881	340.81
309.111	344.81
309.341	362.81
309.571	361.81
309.8	353.81
310.03	340.81
310.26	346.81
310.49	337.81
310.72	359.81
310.949	367.81
311.179	365.81
311.409	353.81
311.639	344.81
311.868	378.81
312.098	361.81
312.328	380.81
312.557	386.81
312.787	389.81
313.017	374.81
313.246	387.81
313.476	366.81
313.706	379.81
313.935	391.81
314.165	371.81
314.394	386.81
314.624	366.81
314.853	388.81
315.083	367.81
315.312	386.81
315.542	361.81
315.771	367.81
316.001	364.81
316.23	372.81
316.46	378.81
316.689	386.81
316.919	369.81
317.148	395.81
317.377	402.81
317.607	367.81
317.836	377.81
318.065	375.81
318.295	382.81
318.524	379.81
318.753	369.81
318.983	367.81
319.212	370.81
319.441	368.81
319.67	372.81
319.9	378.81
320.129	363.81
320.358	371.81
320.587	385.81
320.816	399.81
321.046	384.81
321.275	380.81
321.504	380.81
321.733	395.81
321.962	394.81
322.191	392.81
322.42	389.81
322.649	424.81
322.878	427.81
323.108	417.81
323.337	429.81
323.566	433.81
323.795	445.81
324.024	460.81
324.253	536.81
324.482	681.81
324.71	984.81
324.939	1331.81
325.168	1117.81
325.397	625.81
325.626	481.81
325.855	453.81
326.084	435.81
326.313	433.81
326.542	443.81
326.77	453.81
326.999	522.81
327.228	651.81
327.457	926.81
327.686	1025.81
327.914	689.81
328.143	528.81
328.372	506.81
328.6	482.81
328.829	467.81
329.058	467.81
329.287	472.81
329.515	479.81
329.744	447.81
329.972	469.81
330.201	465.81
330.43	480.81
330.658	518.81
330.887	516.81
331.115	502.81
331.344	491.81
331.572	469.81
331.801	477.81
332.03	474.81
332.258	460.81
332.486	466.81
332.715	458.81
332.943	476.81
333.172	477.81
333.4	514.81
333.629	532.81
333.857	537.81
334.085	530.81
334.314	540.81
334.542	534.81
334.771	554.81
334.999	517.81
335.227	503.81
335.455	495.81
335.684	482.81
335.912	483.81
336.14	458.81
336.369	474.81
336.597	479.81
336.825	452.81
337.053	460.81
337.281	466.81
337.51	446.81
337.738	448.81
337.966	459.81
338.194	459.81
338.422	461.81
338.65	448.81
338.878	443.81
339.106	444.81
339.334	426.81
339.562	456.81
339.79	417.81
340.018	416.81
340.246	413.81
340.474	440.81
340.702	440.81
340.93	448.81
341.158	426.81
341.386	431.81
341.614	419.81
341.842	437.81
342.07	433.81
342.298	414.81
342.526	435.81
342.754	423.81
342.981	422.81
343.209	452.81
343.437	461.81
343.665	453.81
343.893	479.81
344.12	498.81
344.348	481.81
344.576	443.81
344.804	470.81
345.031	449.81
345.259	427.81
345.487	436.81
345.714	443.81
345.942	430.81
346.17	421.81
346.397	435.81
346.625	418.81
346.853	403.81
347.08	411.81
347.308	421.81
347.535	404.81
347.763	421.81
347.99	419.81
348.218	428.81
348.445	408.81
348.673	410.81
348.9	413.81
349.128	403.81
349.355	416.81
349.583	399.81
349.81	409.81
350.037	399.81
350.265	399.81
350.492	422.81
350.72	387.81
350.947	419.81
351.174	415.81
351.402	401.81
351.629	433.81
351.856	398.81
352.083	406.81
352.311	410.81
352.538	399.81
352.765	418.81
352.992	415.81
353.22	420.81
353.447	413.81
353.674	400.81
353.901	398.81
354.128	384.81
354.355	404.81
354.583	409.81
354.81	422.81
355.037	415.81
355.264	390.81
355.491	378.81
355.718	393.81
355.945	386.81
356.172	397.81
356.399	409.81
356.626	388.81
356.853	407.81
357.08	393.81
357.307	402.81
357.534	402.81
357.761	399.81
357.988	397.81
358.215	397.81
358.441	405.81
358.668	398.81
358.895	407.81
359.122	404.81
359.349	402.81
359.576	433.81
359.802	435.81
360.029	439.81
360.256	440.81
360.483	418.81
360.709	418.81
360.936	419.81
361.163	393.81
361.39	442.81
361.616	427.81
361.843	398.81
362.07	418.81
362.296	423.81
362.523	427.81
362.749	448.81
362.976	416.81
363.203	413.81
363.429	423.81
363.656	409.81
363.882	419.81
364.109	398.81
364.335	394.81
364.562	381.81
364.788	396.81
365.015	387.81
365.241	424.81
365.468	389.81
365.694	402.81
365.92	402.81
366.147	412.81
366.373	408.81
366.599	389.81
366.826	399.81
367.052	390.81
367.278	411.81
367.505	387.81
367.731	409.81
367.957	398.81
368.184	403.81
368.41	397.81
368.636	413.81
368.862	424.81
369.089	394.81
369.315	401.81
369.541	391.81
369.767	413.81
369.993	416.81
370.219	397.81
370.445	408.81
370.672	418.81
370.898	429.81
371.124	410.81
371.35	424.81
371.576	428.81
371.802	420.81
372.028	409.81
372.254	436.81
372.48	433.81
372.706	436.81
372.932	426.81
373.158	423.81
373.384	437.81
373.61	418.81
373.835	436.81
374.061	437.81
374.287	426.81
374.513	429.81
374.739	453.81
374.965	426.81
375.191	453.81
375.416	429.81
375.642	453.81
375.868	438.81
376.094	440.81
376.319	424.81
376.545	435.81
376.771	407.81
376.997	422.81
377.222	437.81
377.448	408.81
377.674	397.81
377.899	406.81
378.125	421.81
378.35	413.81
378.576	430.81
378.802	414.81
379.027	395.81
379.253	426.81
379.478	405.81
379.704	427.81
379.929	422.81
380.155	442.81
380.38	431.81
380.606	415.81
380.831	426.81
381.057	432.81
381.282	422.81
381.507	401.81
381.733	413.81
381.958	446.81
382.184	422.81
382.409	428.81
382.634	440.81
382.86	429.81
383.085	428.81
383.31	449.81
383.535	449.81
383.761	457.81
383.986	451.81
384.211	453.81
384.436	458.81
384.662	485.81
384.887	475.81
385.112	477.81
385.337	453.81
385.562	462.81
385.787	477.81
386.013	506.81
386.238	483.81
386.463	489.81
386.688	472.81
386.913	468.81
387.138	484.81
387.363	484.81
387.588	459.81
387.813	480.81
388.038	495.81
388.263	477.81
388.488	470.81
388.713	483.81
388.938	494.81
389.163	470.81
389.387	457.81
389.612	474.81
389.837	476.81
390.062	457.81
390.287	465.81
390.512	474.81
390.736	485.81
390.961	491.81
391.186	483.81
391.411	478.81
391.636	495.81
391.86	545.81
392.085	520.81
392.31	505.81
392.534	507.81
392.759	517.81
392.984	519.81
393.208	504.81
393.433	498.81
393.658	490.81
393.882	492.81
394.107	501.81
394.331	474.81
394.556	497.81
394.78	508.81
395.005	501.81
395.229	509.81
395.454	493.81
395.678	513.81
395.903	530.81
396.127	537.81
396.352	526.81
396.576	496.81
396.801	505.81
397.025	535.81
397.249	499.81
397.474	517.81
397.698	533.81
397.922	516.81
398.147	552.81
398.371	529.81
398.595	551.81
398.82	561.81
399.044	589.81
399.268	618.81
399.492	726.81
399.717	775.81
399.941	755.81
400.165	720.81
400.389	693.81
400.613	637.81
400.837	616.81
401.062	583.81
401.286	575.81
401.51	586.81
401.734	563.81
401.958	567.81
402.182	576.81
402.406	581.81
402.63	598.81
402.854	619.81
403.078	596.81
403.302	603.81
403.526	601.81
403.75	622.81
403.974	626.81
404.198	626.81
404.422	609.81
404.645	606.81
404.869	590.81
405.093	645.81
405.317	679.81
405.541	678.81
405.765	636.81
405.988	606.81
406.212	644.81
406.436	631.81
406.66	647.81
406.883	642.81
407.107	658.81
407.331	696.81
407.555	773.81
407.778	749.81
408.002	733.81
408.226	664.81
408.449	627.81
408.673	657.81
408.896	655.81
409.12	661.81
409.344	653.81
409.567	601.81
409.791	590.81
410.014	598.81
410.238	598.81
410.461	599.81
410.685	615.81
410.908	604.81
411.132	626.81
411.355	653.81
411.578	618.81
411.802	577.81
412.025	592.81
412.249	586.81
412.472	617.81
412.695	619.81
412.919	639.81
413.142	600.81
413.365	555.81
413.589	550.81
413.812	548.81
414.035	549.81
414.258	552.81
414.482	559.81
414.705	585.81
414.928	572.81
415.151	571.81
415.374	557.81
415.597	559.81
415.821	556.81
416.044	542.81
416.267	534.81
416.49	535.81
416.713	538.81
416.936	552.81
417.159	542.81
417.382	559.81
417.605	560.81
417.828	586.81
418.051	571.81
418.274	585.81
418.497	572.81
418.72	589.81
418.943	570.81
419.166	585.81
419.389	624.81
419.611	611.81
419.834	598.81
420.057	605.81
420.28	583.81
420.503	590.81
420.726	566.81
420.948	579.81
421.171	605.81
421.394	611.81
421.617	596.81
421.839	580.81
422.062	586.81
422.285	579.81
422.507	593.81
422.73	647.81
422.953	663.81
423.175	615.81
423.398	592.81
423.621	591.81
423.843	628.81
424.066	599.81
424.288	593.81
424.511	621.81
424.733	650.81
424.956	687.81
425.178	669.81
425.401	643.81
425.623	667.81
425.846	586.81
426.068	584.81
426.291	571.81
426.513	586.81
426.735	567.81
426.958	602.81
427.18	636.81
427.402	727.81
427.625	760.81
427.847	703.81
428.069	587.81
428.292	574.81
428.514	544.81
428.736	531.81
428.958	546.81
429.181	521.81
429.403	501.81
429.625	523.81
429.847	554.81
430.069	579.81
430.292	598.81
430.514	527.81
430.736	535.81
430.958	505.81
431.18	527.81
431.402	512.81
431.624	511.81
431.846	534.81
432.068	524.81
432.29	508.81
432.512	518.81
432.734	526.81
432.956	512.81
433.178	530.81
433.4	523.81
433.622	528.81
433.844	514.81
434.066	506.81
434.287	508.81
434.509	527.81
434.731	519.81
434.953	573.81
435.175	564.81
435.397	592.81
435.618	574.81
435.84	571.81
436.062	628.81
436.284	666.81
436.505	593.81
436.727	544.81
436.949	544.81
437.17	520.81
437.392	520.81
437.614	511.81
437.835	547.81
438.057	581.81
438.278	658.81
438.5	645.81
438.721	690.81
438.943	667.81
439.165	552.81
439.386	571.81
439.608	547.81
439.829	525.81
440.05	569.81
440.272	590.81
440.493	572.81
440.715	556.81
440.936	556.81
441.158	516.81
441.379	546.81
441.6	567.81
441.822	581.81
442.043	616.81
442.264	646.81
442.486	676.81
442.707	593.81
442.928	588.81
443.149	589.81
443.371	583.81
443.592	650.81
443.813	691.81
444.034	705.81
444.255	624.81
444.476	619.81
444.698	643.81
444.919	649.81
445.14	718.81
445.361	652.81
445.582	613.81
445.803	655.81
446.024	707.81
446.245	651.81
446.466	643.81
446.687	564.81
446.908	545.81
447.129	519.81
447.35	499.81
447.571	503.81
447.792	499.81
448.013	490.81
448.234	508.81
448.455	539.81
448.675	607.81
448.896	663.81
449.117	589.81
449.338	557.81
449.559	635.81
449.779	695.81
450	590.81
450.221	505.81
450.442	485.81
450.662	482.81
450.883	487.81
451.104	519.81
451.324	497.81
451.545	472.81
451.766	470.81
451.986	452.81
452.207	464.81
452.428	465.81
452.648	472.81
452.869	434.81
453.089	454.81
453.31	466.81
453.53	459.81
453.751	461.81
453.971	454.81
454.192	465.81
454.412	439.81
454.633	438.81
454.853	459.81
455.073	444.81
455.294	460.81
455.514	515.81
455.734	490.81
455.955	463.81
456.175	445.81
456.395	437.81
456.616	422.81
456.836	431.81
457.056	422.81
457.276	420.81
457.497	429.81
457.717	414.81
457.937	439.81
458.157	448.81
458.377	453.81
458.598	458.81
458.818	481.81
459.038	575.81
459.258	544.81
459.478	515.81
459.698	496.81
459.918	505.81
460.138	516.81
460.358	553.81
460.578	521.81
460.798	533.81
461.018	579.81
461.238	523.81
461.458	572.81
461.678	519.81
461.898	531.81
462.118	526.81
462.338	555.81
462.558	599.81
462.777	594.81
462.997	630.81
463.217	655.81
463.437	672.81
463.657	639.81
463.876	615.81
464.096	599.81
464.316	619.81
464.536	639.81
464.755	608.81
464.975	599.81
465.195	615.81
465.414	621.81
465.634	552.81
465.854	549.81
466.073	532.81
466.293	499.81
466.512	479.81
466.732	462.81
466.951	461.81
467.171	451.81
467.391	485.81
467.61	501.81
467.829	474.81
468.049	512.81
468.268	471.81
468.488	477.81
468.707	451.81
468.927	476.81
469.146	464.81
469.365	479.81
469.585	457.81
469.804	486.81
470.023	526.81
470.243	507.81
470.462	503.81
470.681	522.81
470.901	507.81
471.12	508.81
471.339	479.81
471.558	488.81
471.777	467.81
471.997	489.81
472.216	492.81
472.435	502.81
472.654	490.81
472.873	457.81
473.092	452.81
473.311	478.81
473.53	467.81
473.749	468.81
473.968	497.81
474.187	566.81
474.406	538.81
474.625	498.81
474.844	466.81
475.063	465.81
475.282	464.81
475.501	496.81
475.72	491.81
475.939	478.81
476.158	463.81
476.377	483.81
476.596	493.81
476.814	487.81
477.033	485.81
477.252	492.81
477.471	510.81
477.69	512.81
477.908	501.81
478.127	522.81
478.346	533.81
478.564	564.81
478.783	526.81
479.002	548.81
479.22	557.81
479.439	558.81
479.658	595.81
479.876	553.81
480.095	565.81
480.313	596.81
480.532	602.81
480.751	612.81
480.969	598.81
481.188	633.81
481.406	643.81
481.624	587.81
481.843	576.81
482.061	546.81
482.28	546.81
482.498	542.81
482.717	532.81
482.935	563.81
483.153	524.81
483.372	550.81
483.59	569.81
483.808	533.81
484.027	555.81
484.245	543.81
484.463	528.81
484.681	534.81
484.9	559.81
485.118	557.81
485.336	577.81
485.554	561.81
485.772	557.81
485.99	559.81
486.209	571.81
486.427	565.81
486.645	575.81
486.863	566.81
487.081	575.81
487.299	577.81
487.517	565.81
487.735	578.81
487.953	569.81
488.171	577.81
488.389	579.81
488.607	587.81
488.825	560.81
489.043	571.81
489.261	580.81
489.479	580.81
489.696	577.81
489.914	561.81
490.132	612.81
490.35	603.81
490.568	597.81
490.786	606.81
491.003	621.81
491.221	632.81
491.439	629.81
491.657	630.81
491.874	656.81
492.092	632.81
492.31	643.81
492.527	634.81
492.745	629.81
492.963	654.81
493.18	656.81
493.398	655.81
493.615	670.81
493.833	651.81
494.05	681.81
494.268	648.81
494.485	655.81
494.703	657.81
494.92	668.81
495.138	673.81
495.355	675.81
495.573	673.81
495.79	662.81
496.008	686.81
496.225	665.81
496.442	661.81
496.66	683.81
496.877	668.81
497.094	666.81
497.312	686.81
497.529	650.81
497.746	705.81
497.963	738.81
498.181	747.81
498.398	729.81
498.615	775.81
498.832	805.81
499.049	854.81
499.267	897.81
499.484	905.81
499.701	981.81
499.918	1085.81
500.135	1176.81
500.352	1254.81
500.569	1304.81
500.786	1327.81
501.003	1252.81
501.22	1159.81
501.437	1118.81
501.654	997.81
501.871	972.81
502.088	889.81
