Data from 1960PennyLincolnUp.LampE5.5.200Scan.07172019.P1.ChangedAngle_HRD10591_13-14-44-821.txt Node
Date: Thu Jul 18 13:14:44 EDT 2019
User: cochatt
Spectrometer: HR+D1059
Trigger mode: 1
Integration Time (sec): 1.000000E-1
Scans to average: 1
Electric dark correction enabled: true
Nonlinearity correction enabled: false
Boxcar width: 0
XAxis mode: Wavelengths
Number of Pixels in Spectrum: 2048
>>>>>Begin Spectral Data<<<<<
223.165	-17.69
223.4	-17.69
223.635	-17.69
223.869	-19.69
224.104	-14.69
224.338	-15.69
224.573	-10.69
224.808	-9.69
225.042	11.31
225.277	-8.69
225.511	-10.69
225.746	4.31
225.98	5.31
226.215	22.31
226.449	19.31
226.683	9.31
226.918	15.31
227.152	20.31
227.387	22.31
227.621	29.31
227.856	31.31
228.09	34.31
228.324	53.31
228.559	46.31
228.793	65.31
229.027	84.31
229.262	82.31
229.496	84.31
229.73	96.31
229.964	117.31
230.199	98.31
230.433	104.31
230.667	91.31
230.901	105.31
231.136	101.31
231.37	110.31
231.604	104.31
231.838	103.31
232.072	98.31
232.306	114.31
232.541	107.31
232.775	118.31
233.009	84.31
233.243	110.31
233.477	100.31
233.711	101.31
233.945	108.31
234.179	106.31
234.413	100.31
234.647	111.31
234.881	100.31
235.115	101.31
235.349	94.31
235.583	110.31
235.817	120.31
236.051	113.31
236.285	115.31
236.519	118.31
236.753	93.31
236.987	124.31
237.221	150.31
237.455	154.31
237.689	144.31
237.922	121.31
238.156	98.31
238.39	113.31
238.624	118.31
238.858	101.31
239.091	104.31
239.325	108.31
239.559	124.31
239.793	106.31
240.027	112.31
240.26	119.31
240.494	124.31
240.728	115.31
240.961	123.31
241.195	131.31
241.429	129.31
241.662	119.31
241.896	108.31
242.13	125.31
242.363	137.31
242.597	131.31
242.83	109.31
243.064	131.31
243.298	124.31
243.531	113.31
243.765	126.31
243.998	129.31
244.232	136.31
244.465	121.31
244.699	123.31
244.932	138.31
245.166	132.31
245.399	130.31
245.633	132.31
245.866	133.31
246.099	137.31
246.333	125.31
246.566	130.31
246.8	137.31
247.033	134.31
247.266	146.31
247.5	125.31
247.733	152.31
247.966	146.31
248.2	142.31
248.433	154.31
248.666	153.31
248.899	155.31
249.133	189.31
249.366	164.31
249.599	168.31
249.832	164.31
250.066	152.31
250.299	158.31
250.532	187.31
250.765	155.31
250.998	181.31
251.231	181.31
251.465	185.31
251.698	183.31
251.931	169.31
252.164	166.31
252.397	161.31
252.63	170.31
252.863	170.31
253.096	186.31
253.329	192.31
253.562	188.31
253.795	201.31
254.028	191.31
254.261	186.31
254.494	216.31
254.727	219.31
254.96	193.31
255.193	208.31
255.426	203.31
255.659	187.31
255.892	193.31
256.124	188.31
256.357	192.31
256.59	193.31
256.823	189.31
257.056	192.31
257.289	170.31
257.521	184.31
257.754	185.31
257.987	193.31
258.22	182.31
258.452	194.31
258.685	190.31
258.918	188.31
259.151	197.31
259.383	184.31
259.616	194.31
259.849	207.31
260.081	209.31
260.314	205.31
260.547	218.31
260.779	198.31
261.012	209.31
261.244	203.31
261.477	203.31
261.71	183.31
261.942	207.31
262.175	196.31
262.407	185.31
262.64	206.31
262.872	186.31
263.105	203.31
263.337	203.31
263.57	193.31
263.802	184.31
264.035	196.31
264.267	207.31
264.499	199.31
264.732	198.31
264.964	187.31
265.197	200.31
265.429	198.31
265.661	185.31
265.894	183.31
266.126	200.31
266.358	194.31
266.591	204.31
266.823	205.31
267.055	207.31
267.287	201.31
267.52	228.31
267.752	218.31
267.984	210.31
268.216	212.31
268.448	218.31
268.681	217.31
268.913	224.31
269.145	213.31
269.377	228.31
269.609	223.31
269.841	243.31
270.073	242.31
270.306	237.31
270.538	244.31
270.77	256.31
271.002	252.31
271.234	253.31
271.466	253.31
271.698	265.31
271.93	265.31
272.162	274.31
272.394	240.31
272.626	260.31
272.858	252.31
273.09	241.31
273.322	246.31
273.553	250.31
273.785	255.31
274.017	247.31
274.249	240.31
274.481	240.31
274.713	258.31
274.945	248.31
275.176	258.31
275.408	249.31
275.64	226.31
275.872	248.31
276.104	245.31
276.335	235.31
276.567	254.31
276.799	260.31
277.031	253.31
277.262	280.31
277.494	264.31
277.726	257.31
277.957	261.31
278.189	261.31
278.421	222.31
278.652	258.31
278.884	255.31
279.115	253.31
279.347	257.31
279.579	247.31
279.81	258.31
280.042	246.31
280.273	253.31
280.505	259.31
280.736	242.31
280.968	245.31
281.199	230.31
281.431	264.31
281.662	267.31
281.894	257.31
282.125	267.31
282.356	269.31
282.588	260.31
282.819	267.31
283.051	256.31
283.282	268.31
283.513	269.31
283.745	272.31
283.976	261.31
284.207	267.31
284.439	260.31
284.67	270.31
284.901	269.31
285.132	245.31
285.364	276.31
285.595	260.31
285.826	258.31
286.057	272.31
286.288	267.31
286.52	281.31
286.751	267.31
286.982	270.31
287.213	277.31
287.444	270.31
287.675	268.31
287.906	267.31
288.138	273.31
288.369	277.31
288.6	275.31
288.831	298.31
289.062	277.31
289.293	296.31
289.524	272.31
289.755	276.31
289.986	265.31
290.217	276.31
290.448	250.31
290.679	272.31
290.91	291.31
291.141	298.31
291.371	292.31
291.602	269.31
291.833	274.31
292.064	278.31
292.295	285.31
292.526	275.31
292.757	265.31
292.987	271.31
293.218	268.31
293.449	279.31
293.68	270.31
293.91	289.31
294.141	280.31
294.372	276.31
294.603	269.31
294.833	280.31
295.064	265.31
295.295	282.31
295.525	267.31
295.756	284.31
295.987	294.31
296.217	294.31
296.448	291.31
296.679	292.31
296.909	291.31
297.14	283.31
297.37	283.31
297.601	274.31
297.831	305.31
298.062	292.31
298.292	301.31
298.523	308.31
298.753	296.31
298.984	290.31
299.214	273.31
299.445	288.31
299.675	298.31
299.905	292.31
300.136	300.31
300.366	318.31
300.597	300.31
300.827	300.31
301.057	300.31
301.288	310.31
301.518	298.31
301.748	308.31
301.979	329.31
302.209	312.31
302.439	312.31
302.669	311.31
302.9	293.31
303.13	315.31
303.36	319.31
303.59	316.31
303.82	328.31
304.051	316.31
304.281	307.31
304.511	308.31
304.741	339.31
304.971	312.31
305.201	313.31
305.431	341.31
305.661	317.31
305.891	321.31
306.121	325.31
306.352	307.31
306.582	329.31
306.812	308.31
307.042	298.31
307.272	322.31
307.502	316.31
307.731	333.31
307.961	316.31
308.191	317.31
308.421	315.31
308.651	325.31
308.881	346.31
309.111	311.31
309.341	334.31
309.571	332.31
309.8	326.31
310.03	336.31
310.26	339.31
310.49	329.31
310.72	319.31
310.949	356.31
311.179	347.31
311.409	351.31
311.639	328.31
311.868	333.31
312.098	358.31
312.328	360.31
312.557	349.31
312.787	368.31
313.017	354.31
313.246	346.31
313.476	341.31
313.706	348.31
313.935	360.31
314.165	344.31
314.394	362.31
314.624	358.31
314.853	340.31
315.083	343.31
315.312	343.31
315.542	355.31
315.771	345.31
316.001	336.31
316.23	352.31
316.46	354.31
316.689	360.31
316.919	327.31
317.148	357.31
317.377	352.31
317.607	350.31
317.836	366.31
318.065	365.31
318.295	361.31
318.524	357.31
318.753	362.31
318.983	350.31
319.212	342.31
319.441	338.31
319.67	360.31
319.9	359.31
320.129	375.31
320.358	361.31
320.587	378.31
320.816	347.31
321.046	360.31
321.275	368.31
321.504	365.31
321.733	369.31
321.962	374.31
322.191	386.31
322.42	363.31
322.649	386.31
322.878	378.31
323.108	387.31
323.337	407.31
323.566	424.31
323.795	423.31
324.024	461.31
324.253	549.31
324.482	683.31
324.71	966.31
324.939	1308.31
325.168	1127.31
325.397	636.31
325.626	498.31
325.855	456.31
326.084	427.31
326.313	452.31
326.542	420.31
326.77	472.31
326.999	533.31
327.228	658.31
327.457	887.31
327.686	997.31
327.914	713.31
328.143	514.31
328.372	475.31
328.6	453.31
328.829	437.31
329.058	461.31
329.287	453.31
329.515	439.31
329.744	412.31
329.972	444.31
330.201	438.31
330.43	444.31
330.658	482.31
330.887	476.31
331.115	482.31
331.344	462.31
331.572	408.31
331.801	432.31
332.03	407.31
332.258	420.31
332.486	407.31
332.715	399.31
332.943	407.31
333.172	426.31
333.4	432.31
333.629	433.31
333.857	434.31
334.085	432.31
334.314	443.31
334.542	454.31
334.771	454.31
334.999	413.31
335.227	428.31
335.455	408.31
335.684	408.31
335.912	422.31
336.14	409.31
336.369	418.31
336.597	389.31
336.825	418.31
337.053	383.31
337.281	404.31
337.51	408.31
337.738	402.31
337.966	423.31
338.194	398.31
338.422	397.31
338.65	411.31
338.878	414.31
339.106	412.31
339.334	397.31
339.562	395.31
339.79	381.31
340.018	392.31
340.246	374.31
340.474	381.31
340.702	394.31
340.93	385.31
341.158	393.31
341.386	383.31
341.614	400.31
341.842	385.31
342.07	384.31
342.298	383.31
342.526	375.31
342.754	385.31
342.981	402.31
343.209	383.31
343.437	402.31
343.665	402.31
343.893	406.31
344.12	418.31
344.348	412.31
344.576	394.31
344.804	393.31
345.031	405.31
345.259	401.31
345.487	382.31
345.714	386.31
345.942	374.31
346.17	359.31
346.397	377.31
346.625	366.31
346.853	368.31
347.08	381.31
347.308	386.31
347.535	382.31
347.763	386.31
347.99	375.31
348.218	357.31
348.445	378.31
348.673	379.31
348.9	389.31
349.128	388.31
349.355	380.31
349.583	384.31
349.81	363.31
350.037	349.31
350.265	357.31
350.492	358.31
350.72	357.31
350.947	373.31
351.174	378.31
351.402	382.31
351.629	365.31
351.856	382.31
352.083	358.31
352.311	371.31
352.538	363.31
352.765	352.31
352.992	370.31
353.22	357.31
353.447	351.31
353.674	359.31
353.901	360.31
354.128	347.31
354.355	354.31
354.583	356.31
354.81	345.31
355.037	348.31
355.264	336.31
355.491	342.31
355.718	349.31
355.945	334.31
356.172	342.31
356.399	345.31
356.626	355.31
356.853	335.31
357.08	336.31
357.307	357.31
357.534	361.31
357.761	373.31
357.988	354.31
358.215	356.31
358.441	353.31
358.668	373.31
358.895	337.31
359.122	353.31
359.349	352.31
359.576	360.31
359.802	368.31
360.029	368.31
360.256	364.31
360.483	383.31
360.709	367.31
360.936	345.31
361.163	368.31
361.39	373.31
361.616	365.31
361.843	360.31
362.07	364.31
362.296	380.31
362.523	356.31
362.749	359.31
362.976	359.31
363.203	333.31
363.429	359.31
363.656	325.31
363.882	352.31
364.109	360.31
364.335	360.31
364.562	345.31
364.788	356.31
365.015	370.31
365.241	344.31
365.468	352.31
365.694	362.31
365.92	350.31
366.147	343.31
366.373	349.31
366.599	355.31
366.826	345.31
367.052	346.31
367.278	343.31
367.505	334.31
367.731	333.31
367.957	330.31
368.184	364.31
368.41	342.31
368.636	358.31
368.862	368.31
369.089	348.31
369.315	352.31
369.541	352.31
369.767	337.31
369.993	358.31
370.219	344.31
370.445	345.31
370.672	328.31
370.898	345.31
371.124	349.31
371.35	353.31
371.576	377.31
371.802	336.31
372.028	368.31
372.254	346.31
372.48	345.31
372.706	346.31
372.932	369.31
373.158	342.31
373.384	338.31
373.61	344.31
373.835	349.31
374.061	365.31
374.287	352.31
374.513	354.31
374.739	344.31
374.965	380.31
375.191	354.31
375.416	345.31
375.642	362.31
375.868	362.31
376.094	349.31
376.319	335.31
376.545	354.31
376.771	354.31
376.997	351.31
377.222	360.31
377.448	341.31
377.674	356.31
377.899	346.31
378.125	340.31
378.35	349.31
378.576	359.31
378.802	328.31
379.027	348.31
379.253	347.31
379.478	338.31
379.704	347.31
379.929	354.31
380.155	352.31
380.38	351.31
380.606	348.31
380.831	336.31
381.057	355.31
381.282	356.31
381.507	346.31
381.733	342.31
381.958	343.31
382.184	345.31
382.409	345.31
382.634	356.31
382.86	352.31
383.085	343.31
383.31	357.31
383.535	362.31
383.761	367.31
383.986	364.31
384.211	360.31
384.436	356.31
384.662	368.31
384.887	357.31
385.112	388.31
385.337	370.31
385.562	358.31
385.787	366.31
386.013	374.31
386.238	384.31
386.463	374.31
386.688	376.31
386.913	387.31
387.138	390.31
387.363	361.31
387.588	376.31
387.813	379.31
388.038	375.31
388.263	379.31
388.488	352.31
388.713	381.31
388.938	385.31
389.163	375.31
389.387	364.31
389.612	384.31
389.837	380.31
390.062	374.31
390.287	377.31
390.512	369.31
390.736	361.31
390.961	381.31
391.186	392.31
391.411	356.31
391.636	366.31
391.86	375.31
392.085	370.31
392.31	383.31
392.534	364.31
392.759	386.31
392.984	405.31
393.208	356.31
393.433	365.31
393.658	378.31
393.882	371.31
394.107	374.31
394.331	376.31
394.556	324.31
394.78	373.31
395.005	376.31
395.229	369.31
395.454	381.31
395.678	386.31
395.903	377.31
396.127	389.31
396.352	401.31
396.576	379.31
396.801	368.31
397.025	394.31
397.249	378.31
397.474	405.31
397.698	375.31
397.922	394.31
398.147	422.31
398.371	403.31
398.595	438.31
398.82	403.31
399.044	421.31
399.268	424.31
399.492	457.31
399.717	468.31
399.941	535.31
400.165	524.31
400.389	507.31
400.613	463.31
400.837	447.31
401.062	428.31
401.286	419.31
401.51	409.31
401.734	422.31
401.958	427.31
402.182	438.31
402.406	432.31
402.63	430.31
402.854	433.31
403.078	425.31
403.302	429.31
403.526	425.31
403.75	398.31
403.974	443.31
404.198	430.31
404.422	436.31
404.645	406.31
404.869	424.31
405.093	456.31
405.317	475.31
405.541	491.31
405.765	447.31
405.988	471.31
406.212	431.31
406.436	465.31
406.66	445.31
406.883	442.31
407.107	467.31
407.331	487.31
407.555	530.31
407.778	544.31
408.002	486.31
408.226	483.31
408.449	458.31
408.673	445.31
408.896	449.31
409.12	514.31
409.344	482.31
409.567	452.31
409.791	449.31
410.014	427.31
410.238	424.31
410.461	420.31
410.685	437.31
410.908	424.31
411.132	449.31
411.355	444.31
411.578	459.31
411.802	430.31
412.025	396.31
412.249	426.31
412.472	472.31
412.695	470.31
412.919	464.31
413.142	424.31
413.365	416.31
413.589	417.31
413.812	400.31
414.035	390.31
414.258	404.31
414.482	405.31
414.705	382.31
414.928	401.31
415.151	416.31
415.374	397.31
415.597	408.31
415.821	389.31
416.044	399.31
416.267	380.31
416.49	384.31
416.713	393.31
416.936	395.31
417.159	393.31
417.382	397.31
417.605	402.31
417.828	378.31
418.051	413.31
418.274	413.31
418.497	408.31
418.72	386.31
418.943	384.31
419.166	391.31
419.389	419.31
419.611	422.31
419.834	400.31
420.057	401.31
420.28	403.31
420.503	397.31
420.726	402.31
420.948	426.31
421.171	442.31
421.394	442.31
421.617	414.31
421.839	401.31
422.062	405.31
422.285	413.31
422.507	436.31
422.73	492.31
422.953	475.31
423.175	432.31
423.398	416.31
423.621	420.31
423.843	413.31
424.066	446.31
424.288	408.31
424.511	438.31
424.733	474.31
424.956	526.31
425.178	531.31
425.401	495.31
425.623	493.31
425.846	426.31
426.068	426.31
426.291	414.31
426.513	413.31
426.735	427.31
426.958	437.31
427.18	504.31
427.402	586.31
427.625	605.31
427.847	551.31
428.069	470.31
428.292	437.31
428.514	419.31
428.736	404.31
428.958	419.31
429.181	392.31
429.403	372.31
429.625	414.31
429.847	418.31
430.069	467.31
430.292	438.31
430.514	390.31
430.736	372.31
430.958	388.31
431.18	382.31
431.402	382.31
431.624	370.31
431.846	386.31
432.068	385.31
432.29	378.31
432.512	359.31
432.734	388.31
432.956	372.31
433.178	387.31
433.4	389.31
433.622	391.31
433.844	383.31
434.066	383.31
434.287	372.31
434.509	365.31
434.731	378.31
434.953	380.31
435.175	382.31
435.397	422.31
435.618	433.31
435.84	446.31
436.062	484.31
436.284	541.31
436.505	418.31
436.727	408.31
436.949	419.31
437.17	412.31
437.392	405.31
437.614	413.31
437.835	422.31
438.057	487.31
438.278	512.31
438.5	542.31
438.721	585.31
438.943	557.31
439.165	452.31
439.386	445.31
439.608	435.31
439.829	413.31
440.05	432.31
440.272	454.31
440.493	443.31
440.715	411.31
440.936	398.31
441.158	407.31
441.379	412.31
441.6	411.31
441.822	422.31
442.043	442.31
442.264	494.31
442.486	500.31
442.707	443.31
442.928	436.31
443.149	423.31
443.371	435.31
443.592	462.31
443.813	545.31
444.034	543.31
444.255	464.31
444.476	447.31
444.698	429.31
444.919	439.31
445.14	546.31
445.361	467.31
445.582	454.31
445.803	473.31
446.024	530.31
446.245	534.31
446.466	480.31
446.687	450.31
446.908	413.31
447.129	413.31
447.35	404.31
447.571	408.31
447.792	376.31
448.013	390.31
448.234	398.31
448.455	419.31
448.675	496.31
448.896	583.31
449.117	485.31
449.338	485.31
449.559	510.31
449.779	582.31
450	468.31
450.221	412.31
450.442	393.31
450.662	392.31
450.883	377.31
451.104	386.31
451.324	364.31
451.545	356.31
451.766	368.31
451.986	356.31
452.207	342.31
452.428	363.31
452.648	356.31
452.869	355.31
453.089	359.31
453.31	355.31
453.53	364.31
453.751	341.31
453.971	334.31
454.192	370.31
454.412	324.31
454.633	341.31
454.853	350.31
455.073	340.31
455.294	357.31
455.514	396.31
455.734	389.31
455.955	364.31
456.175	330.31
456.395	339.31
456.616	332.31
456.836	340.31
457.056	350.31
457.276	336.31
457.497	333.31
457.717	336.31
457.937	346.31
458.157	342.31
458.377	347.31
458.598	349.31
458.818	379.31
459.038	447.31
459.258	420.31
459.478	393.31
459.698	361.31
459.918	366.31
460.138	381.31
460.358	359.31
460.578	390.31
460.798	392.31
461.018	371.31
461.238	392.31
461.458	384.31
461.678	381.31
461.898	383.31
462.118	376.31
462.338	413.31
462.558	415.31
462.777	407.31
462.997	404.31
463.217	419.31
463.437	442.31
463.657	412.31
463.876	410.31
464.096	418.31
464.316	413.31
464.536	422.31
464.755	406.31
464.975	414.31
465.195	420.31
465.414	458.31
465.634	425.31
465.854	390.31
466.073	390.31
466.293	379.31
466.512	376.31
466.732	357.31
466.951	347.31
467.171	364.31
467.391	359.31
467.61	378.31
467.829	392.31
468.049	385.31
468.268	373.31
468.488	363.31
468.707	362.31
468.927	356.31
469.146	333.31
469.365	362.31
469.585	362.31
469.804	358.31
470.023	363.31
470.243	356.31
470.462	369.31
470.681	390.31
470.901	379.31
471.12	360.31
471.339	372.31
471.558	358.31
471.777	362.31
471.997	365.31
472.216	361.31
472.435	368.31
472.654	382.31
472.873	383.31
473.092	376.31
473.311	363.31
473.53	375.31
473.749	375.31
473.968	390.31
474.187	451.31
474.406	441.31
474.625	411.31
474.844	386.31
475.063	374.31
475.282	377.31
475.501	379.31
475.72	398.31
475.939	365.31
476.158	371.31
476.377	381.31
476.596	390.31
476.814	406.31
477.033	379.31
477.252	403.31
477.471	381.31
477.69	386.31
477.908	395.31
478.127	393.31
478.346	404.31
478.564	403.31
478.783	420.31
479.002	414.31
479.22	400.31
479.439	420.31
479.658	434.31
479.876	424.31
480.095	422.31
480.313	459.31
480.532	454.31
480.751	436.31
480.969	445.31
481.188	458.31
481.406	481.31
481.624	445.31
481.843	424.31
482.061	437.31
482.28	443.31
482.498	432.31
482.717	421.31
482.935	433.31
483.153	412.31
483.372	419.31
483.59	425.31
483.808	411.31
484.027	421.31
484.245	422.31
484.463	422.31
484.681	453.31
484.9	428.31
485.118	432.31
485.336	438.31
485.554	429.31
485.772	435.31
485.99	428.31
486.209	451.31
486.427	437.31
486.645	453.31
486.863	447.31
487.081	422.31
487.299	432.31
487.517	440.31
487.735	471.31
487.953	462.31
488.171	448.31
488.389	450.31
488.607	449.31
488.825	436.31
489.043	458.31
489.261	449.31
489.479	466.31
489.696	457.31
489.914	452.31
490.132	458.31
490.35	456.31
490.568	455.31
490.786	484.31
491.003	475.31
491.221	512.31
491.439	492.31
491.657	479.31
491.874	494.31
492.092	503.31
492.31	488.31
492.527	494.31
492.745	504.31
492.963	508.31
493.18	518.31
493.398	512.31
493.615	505.31
493.833	518.31
494.05	524.31
494.268	507.31
494.485	506.31
494.703	524.31
494.92	505.31
495.138	541.31
495.355	522.31
495.573	514.31
495.79	516.31
496.008	533.31
496.225	525.31
496.442	514.31
496.66	532.31
496.877	528.31
497.094	547.31
497.312	531.31
497.529	526.31
497.746	545.31
497.963	566.31
498.181	561.31
498.398	576.31
498.615	598.31
498.832	612.31
499.049	622.31
499.267	601.31
499.484	657.31
499.701	677.31
499.918	706.31
500.135	709.31
500.352	744.31
500.569	743.31
500.786	757.31
501.003	766.31
501.22	730.31
501.437	698.31
501.654	664.31
501.871	630.31
