Data from 1960PennyLincolnUp.LampE5.5.200Scan.07172019.P1.ChangedAngle_HRD10591_13-15-21-821.txt Node
Date: Thu Jul 18 13:15:21 EDT 2019
User: cochatt
Spectrometer: HR+D1059
Trigger mode: 1
Integration Time (sec): 1.000000E-1
Scans to average: 1
Electric dark correction enabled: true
Nonlinearity correction enabled: false
Boxcar width: 0
XAxis mode: Wavelengths
Number of Pixels in Spectrum: 2048
>>>>>Begin Spectral Data<<<<<
223.165	-15.25
223.4	-15.25
223.635	-15.25
223.869	-10.25
224.104	-15.25
224.338	-14.25
224.573	-15.25
224.808	-21.25
225.042	1.75
225.277	-12.25
225.511	8.75
225.746	2.75
225.98	0.75
226.215	4.75
226.449	11.75
226.683	30.75
226.918	21.75
227.152	20.75
227.387	29.75
227.621	32.75
227.856	40.75
228.09	49.75
228.324	54.75
228.559	39.75
228.793	65.75
229.027	92.75
229.262	104.75
229.496	91.75
229.73	100.75
229.964	120.75
230.199	115.75
230.433	104.75
230.667	102.75
230.901	110.75
231.136	104.75
231.37	95.75
231.604	96.75
231.838	91.75
232.072	92.75
232.306	95.75
232.541	99.75
232.775	105.75
233.009	105.75
233.243	104.75
233.477	125.75
233.711	108.75
233.945	113.75
234.179	109.75
234.413	109.75
234.647	117.75
234.881	121.75
235.115	104.75
235.349	111.75
235.583	114.75
235.817	116.75
236.051	117.75
236.285	118.75
236.519	124.75
236.753	113.75
236.987	142.75
237.221	150.75
237.455	181.75
237.689	143.75
237.922	118.75
238.156	122.75
238.39	125.75
238.624	102.75
238.858	130.75
239.091	119.75
239.325	113.75
239.559	121.75
239.793	124.75
240.027	136.75
240.26	123.75
240.494	143.75
240.728	108.75
240.961	139.75
241.195	128.75
241.429	125.75
241.662	129.75
241.896	121.75
242.13	127.75
242.363	133.75
242.597	122.75
242.83	118.75
243.064	140.75
243.298	123.75
243.531	121.75
243.765	123.75
243.998	130.75
244.232	136.75
244.465	127.75
244.699	132.75
244.932	141.75
245.166	129.75
245.399	141.75
245.633	142.75
245.866	136.75
246.099	155.75
246.333	141.75
246.566	149.75
246.8	145.75
247.033	147.75
247.266	147.75
247.5	153.75
247.733	141.75
247.966	175.75
248.2	160.75
248.433	145.75
248.666	151.75
248.899	184.75
249.133	179.75
249.366	181.75
249.599	168.75
249.832	158.75
250.066	161.75
250.299	148.75
250.532	182.75
250.765	199.75
250.998	183.75
251.231	195.75
251.465	181.75
251.698	182.75
251.931	184.75
252.164	191.75
252.397	180.75
252.63	190.75
252.863	187.75
253.096	188.75
253.329	196.75
253.562	181.75
253.795	194.75
254.028	203.75
254.261	189.75
254.494	209.75
254.727	217.75
254.96	236.75
255.193	227.75
255.426	224.75
255.659	199.75
255.892	203.75
256.124	214.75
256.357	218.75
256.59	206.75
256.823	207.75
257.056	174.75
257.289	199.75
257.521	183.75
257.754	206.75
257.987	201.75
258.22	191.75
258.452	189.75
258.685	200.75
258.918	189.75
259.151	199.75
259.383	211.75
259.616	200.75
259.849	220.75
260.081	223.75
260.314	220.75
260.547	245.75
260.779	225.75
261.012	219.75
261.244	217.75
261.477	206.75
261.71	211.75
261.942	207.75
262.175	207.75
262.407	213.75
262.64	198.75
262.872	204.75
263.105	215.75
263.337	209.75
263.57	204.75
263.802	198.75
264.035	212.75
264.267	198.75
264.499	212.75
264.732	198.75
264.964	195.75
265.197	205.75
265.429	199.75
265.661	214.75
265.894	212.75
266.126	218.75
266.358	216.75
266.591	209.75
266.823	214.75
267.055	207.75
267.287	214.75
267.52	226.75
267.752	191.75
267.984	203.75
268.216	220.75
268.448	222.75
268.681	234.75
268.913	243.75
269.145	240.75
269.377	247.75
269.609	247.75
269.841	246.75
270.073	248.75
270.306	261.75
270.538	266.75
270.77	293.75
271.002	271.75
271.234	267.75
271.466	247.75
271.698	280.75
271.93	286.75
272.162	283.75
272.394	283.75
272.626	272.75
272.858	274.75
273.09	248.75
273.322	259.75
273.553	261.75
273.785	257.75
274.017	237.75
274.249	257.75
274.481	244.75
274.713	235.75
274.945	279.75
275.176	254.75
275.408	243.75
275.64	257.75
275.872	251.75
276.104	264.75
276.335	257.75
276.567	281.75
276.799	288.75
277.031	285.75
277.262	284.75
277.494	275.75
277.726	271.75
277.957	272.75
278.189	252.75
278.421	253.75
278.652	250.75
278.884	260.75
279.115	262.75
279.347	267.75
279.579	251.75
279.81	254.75
280.042	265.75
280.273	269.75
280.505	254.75
280.736	242.75
280.968	270.75
281.199	252.75
281.431	251.75
281.662	252.75
281.894	277.75
282.125	278.75
282.356	275.75
282.588	280.75
282.819	294.75
283.051	271.75
283.282	272.75
283.513	283.75
283.745	271.75
283.976	256.75
284.207	269.75
284.439	282.75
284.67	285.75
284.901	277.75
285.132	281.75
285.364	275.75
285.595	284.75
285.826	267.75
286.057	273.75
286.288	270.75
286.52	270.75
286.751	275.75
286.982	271.75
287.213	280.75
287.444	284.75
287.675	295.75
287.906	273.75
288.138	293.75
288.369	302.75
288.6	287.75
288.831	296.75
289.062	291.75
289.293	287.75
289.524	295.75
289.755	286.75
289.986	259.75
290.217	276.75
290.448	289.75
290.679	277.75
290.91	291.75
291.141	271.75
291.371	278.75
291.602	303.75
291.833	287.75
292.064	275.75
292.295	287.75
292.526	288.75
292.757	277.75
292.987	277.75
293.218	260.75
293.449	285.75
293.68	288.75
293.91	287.75
294.141	296.75
294.372	285.75
294.603	296.75
294.833	299.75
295.064	283.75
295.295	295.75
295.525	285.75
295.756	284.75
295.987	317.75
296.217	303.75
296.448	311.75
296.679	295.75
296.909	287.75
297.14	297.75
297.37	286.75
297.601	287.75
297.831	304.75
298.062	297.75
298.292	299.75
298.523	296.75
298.753	303.75
298.984	283.75
299.214	308.75
299.445	308.75
299.675	297.75
299.905	301.75
300.136	301.75
300.366	304.75
300.597	314.75
300.827	320.75
301.057	333.75
301.288	323.75
301.518	304.75
301.748	311.75
301.979	318.75
302.209	313.75
302.439	311.75
302.669	314.75
302.9	317.75
303.13	324.75
303.36	330.75
303.59	335.75
303.82	311.75
304.051	320.75
304.281	316.75
304.511	312.75
304.741	320.75
304.971	301.75
305.201	309.75
305.431	319.75
305.661	318.75
305.891	322.75
306.121	329.75
306.352	336.75
306.582	339.75
306.812	320.75
307.042	311.75
307.272	350.75
307.502	333.75
307.731	329.75
307.961	331.75
308.191	332.75
308.421	331.75
308.651	346.75
308.881	316.75
309.111	356.75
309.341	327.75
309.571	344.75
309.8	329.75
310.03	349.75
310.26	342.75
310.49	349.75
310.72	349.75
310.949	368.75
311.179	365.75
311.409	362.75
311.639	344.75
311.868	356.75
312.098	379.75
312.328	371.75
312.557	383.75
312.787	368.75
313.017	373.75
313.246	364.75
313.476	358.75
313.706	365.75
313.935	379.75
314.165	370.75
314.394	374.75
314.624	364.75
314.853	380.75
315.083	363.75
315.312	365.75
315.542	361.75
315.771	351.75
316.001	354.75
316.23	363.75
316.46	341.75
316.689	359.75
316.919	373.75
317.148	381.75
317.377	378.75
317.607	390.75
317.836	367.75
318.065	343.75
318.295	358.75
318.524	347.75
318.753	375.75
318.983	359.75
319.212	372.75
319.441	360.75
319.67	396.75
319.9	381.75
320.129	367.75
320.358	372.75
320.587	383.75
320.816	364.75
321.046	381.75
321.275	381.75
321.504	384.75
321.733	386.75
321.962	392.75
322.191	380.75
322.42	404.75
322.649	409.75
322.878	413.75
323.108	421.75
323.337	444.75
323.566	445.75
323.795	477.75
324.024	503.75
324.253	584.75
324.482	799.75
324.71	1130.75
324.939	1481.75
325.168	1271.75
325.397	748.75
325.626	527.75
325.855	463.75
326.084	453.75
326.313	454.75
326.542	455.75
326.77	503.75
326.999	558.75
327.228	714.75
327.457	985.75
327.686	1139.75
327.914	827.75
328.143	583.75
328.372	534.75
328.6	496.75
328.829	476.75
329.058	472.75
329.287	494.75
329.515	478.75
329.744	458.75
329.972	452.75
330.201	460.75
330.43	510.75
330.658	501.75
330.887	508.75
331.115	490.75
331.344	454.75
331.572	465.75
331.801	448.75
332.03	446.75
332.258	434.75
332.486	446.75
332.715	422.75
332.943	435.75
333.172	430.75
333.4	442.75
333.629	445.75
333.857	447.75
334.085	462.75
334.314	463.75
334.542	491.75
334.771	497.75
334.999	457.75
335.227	443.75
335.455	447.75
335.684	427.75
335.912	415.75
336.14	419.75
336.369	425.75
336.597	425.75
336.825	420.75
337.053	424.75
337.281	422.75
337.51	425.75
337.738	408.75
337.966	414.75
338.194	427.75
338.422	414.75
338.65	417.75
338.878	409.75
339.106	414.75
339.334	409.75
339.562	396.75
339.79	400.75
340.018	393.75
340.246	399.75
340.474	392.75
340.702	405.75
340.93	382.75
341.158	392.75
341.386	403.75
341.614	412.75
341.842	392.75
342.07	387.75
342.298	408.75
342.526	412.75
342.754	390.75
342.981	391.75
343.209	400.75
343.437	395.75
343.665	413.75
343.893	422.75
344.12	419.75
344.348	415.75
344.576	429.75
344.804	409.75
345.031	411.75
345.259	398.75
345.487	396.75
345.714	396.75
345.942	387.75
346.17	390.75
346.397	384.75
346.625	367.75
346.853	389.75
347.08	377.75
347.308	374.75
347.535	382.75
347.763	379.75
347.99	387.75
348.218	389.75
348.445	386.75
348.673	366.75
348.9	368.75
349.128	363.75
349.355	361.75
349.583	363.75
349.81	362.75
350.037	369.75
350.265	369.75
350.492	391.75
350.72	371.75
350.947	369.75
351.174	373.75
351.402	390.75
351.629	381.75
351.856	375.75
352.083	399.75
352.311	374.75
352.538	388.75
352.765	381.75
352.992	379.75
353.22	359.75
353.447	385.75
353.674	359.75
353.901	364.75
354.128	369.75
354.355	366.75
354.583	366.75
354.81	361.75
355.037	357.75
355.264	365.75
355.491	343.75
355.718	358.75
355.945	363.75
356.172	365.75
356.399	360.75
356.626	340.75
356.853	364.75
357.08	349.75
357.307	350.75
357.534	360.75
357.761	355.75
357.988	347.75
358.215	375.75
358.441	356.75
358.668	344.75
358.895	367.75
359.122	371.75
359.349	359.75
359.576	362.75
359.802	392.75
360.029	388.75
360.256	388.75
360.483	392.75
360.709	380.75
360.936	368.75
361.163	367.75
361.39	371.75
361.616	360.75
361.843	375.75
362.07	381.75
362.296	369.75
362.523	331.75
362.749	387.75
362.976	383.75
363.203	348.75
363.429	361.75
363.656	342.75
363.882	361.75
364.109	365.75
364.335	365.75
364.562	358.75
364.788	356.75
365.015	375.75
365.241	352.75
365.468	371.75
365.694	343.75
365.92	363.75
366.147	359.75
366.373	365.75
366.599	357.75
366.826	356.75
367.052	348.75
367.278	359.75
367.505	355.75
367.731	358.75
367.957	352.75
368.184	361.75
368.41	361.75
368.636	366.75
368.862	356.75
369.089	378.75
369.315	360.75
369.541	351.75
369.767	357.75
369.993	357.75
370.219	344.75
370.445	377.75
370.672	353.75
370.898	349.75
371.124	348.75
371.35	356.75
371.576	348.75
371.802	341.75
372.028	361.75
372.254	367.75
372.48	357.75
372.706	360.75
372.932	352.75
373.158	352.75
373.384	358.75
373.61	376.75
373.835	375.75
374.061	354.75
374.287	351.75
374.513	367.75
374.739	353.75
374.965	352.75
375.191	353.75
375.416	365.75
375.642	361.75
375.868	344.75
376.094	373.75
376.319	363.75
376.545	380.75
376.771	362.75
376.997	362.75
377.222	326.75
377.448	348.75
377.674	347.75
377.899	345.75
378.125	350.75
378.35	343.75
378.576	348.75
378.802	358.75
379.027	360.75
379.253	370.75
379.478	363.75
379.704	347.75
379.929	347.75
380.155	342.75
380.38	365.75
380.606	367.75
380.831	369.75
381.057	362.75
381.282	341.75
381.507	343.75
381.733	358.75
381.958	336.75
382.184	357.75
382.409	367.75
382.634	372.75
382.86	363.75
383.085	351.75
383.31	359.75
383.535	367.75
383.761	353.75
383.986	360.75
384.211	335.75
384.436	363.75
384.662	380.75
384.887	367.75
385.112	379.75
385.337	368.75
385.562	392.75
385.787	388.75
386.013	405.75
386.238	379.75
386.463	382.75
386.688	397.75
386.913	386.75
387.138	371.75
387.363	384.75
387.588	379.75
387.813	392.75
388.038	374.75
388.263	357.75
388.488	377.75
388.713	385.75
388.938	386.75
389.163	389.75
389.387	383.75
389.612	367.75
389.837	386.75
390.062	387.75
390.287	376.75
390.512	366.75
390.736	373.75
390.961	375.75
391.186	385.75
391.411	385.75
391.636	390.75
391.86	389.75
392.085	383.75
392.31	381.75
392.534	390.75
392.759	387.75
392.984	386.75
393.208	368.75
393.433	384.75
393.658	385.75
393.882	383.75
394.107	378.75
394.331	389.75
394.556	371.75
394.78	386.75
395.005	388.75
395.229	374.75
395.454	378.75
395.678	394.75
395.903	411.75
396.127	430.75
396.352	414.75
396.576	397.75
396.801	373.75
397.025	404.75
397.249	396.75
397.474	395.75
397.698	381.75
397.922	397.75
398.147	416.75
398.371	433.75
398.595	431.75
398.82	423.75
399.044	412.75
399.268	419.75
399.492	489.75
399.717	483.75
399.941	490.75
400.165	527.75
400.389	541.75
400.613	478.75
400.837	425.75
401.062	432.75
401.286	423.75
401.51	443.75
401.734	423.75
401.958	424.75
402.182	400.75
402.406	435.75
402.63	423.75
402.854	415.75
403.078	429.75
403.302	427.75
403.526	450.75
403.75	407.75
403.974	427.75
404.198	410.75
404.422	438.75
404.645	445.75
404.869	448.75
405.093	460.75
405.317	460.75
405.541	528.75
405.765	469.75
405.988	441.75
406.212	457.75
406.436	479.75
406.66	456.75
406.883	446.75
407.107	507.75
407.331	533.75
407.555	559.75
407.778	530.75
408.002	486.75
408.226	465.75
408.449	480.75
408.673	491.75
408.896	470.75
409.12	491.75
409.344	475.75
409.567	459.75
409.791	432.75
410.014	431.75
410.238	420.75
410.461	445.75
410.685	436.75
410.908	450.75
411.132	455.75
411.355	489.75
411.578	466.75
411.802	419.75
412.025	441.75
412.249	436.75
412.472	447.75
412.695	463.75
412.919	465.75
413.142	427.75
413.365	417.75
413.589	421.75
413.812	395.75
414.035	410.75
414.258	401.75
414.482	395.75
414.705	402.75
414.928	393.75
415.151	399.75
415.374	420.75
415.597	420.75
415.821	402.75
416.044	392.75
416.267	431.75
416.49	413.75
416.713	407.75
416.936	391.75
417.159	392.75
417.382	412.75
417.605	390.75
417.828	388.75
418.051	416.75
418.274	409.75
418.497	407.75
418.72	391.75
418.943	395.75
419.166	400.75
419.389	431.75
419.611	428.75
419.834	419.75
420.057	413.75
420.28	417.75
420.503	409.75
420.726	429.75
420.948	427.75
421.171	432.75
421.394	462.75
421.617	445.75
421.839	437.75
422.062	418.75
422.285	433.75
422.507	448.75
422.73	506.75
422.953	483.75
423.175	436.75
423.398	411.75
423.621	421.75
423.843	425.75
424.066	449.75
424.288	431.75
424.511	474.75
424.733	491.75
424.956	534.75
425.178	521.75
425.401	527.75
425.623	511.75
425.846	468.75
426.068	427.75
426.291	446.75
426.513	436.75
426.735	423.75
426.958	457.75
427.18	515.75
427.402	607.75
427.625	648.75
427.847	577.75
428.069	501.75
428.292	473.75
428.514	423.75
428.736	437.75
428.958	436.75
429.181	408.75
429.403	408.75
429.625	405.75
429.847	420.75
430.069	465.75
430.292	459.75
430.514	428.75
430.736	405.75
430.958	402.75
431.18	381.75
431.402	410.75
431.624	391.75
431.846	394.75
432.068	395.75
432.29	366.75
432.512	389.75
432.734	401.75
432.956	381.75
433.178	391.75
433.4	404.75
433.622	399.75
433.844	399.75
434.066	367.75
434.287	388.75
434.509	382.75
434.731	392.75
434.953	409.75
435.175	403.75
435.397	429.75
435.618	432.75
435.84	464.75
436.062	509.75
436.284	557.75
436.505	463.75
436.727	433.75
436.949	406.75
437.17	400.75
437.392	409.75
437.614	445.75
437.835	444.75
438.057	502.75
438.278	556.75
438.5	547.75
438.721	621.75
438.943	594.75
439.165	460.75
439.386	435.75
439.608	443.75
439.829	435.75
440.05	441.75
440.272	473.75
440.493	442.75
440.715	423.75
440.936	411.75
441.158	408.75
441.379	411.75
441.6	435.75
441.822	417.75
442.043	457.75
442.264	493.75
442.486	536.75
442.707	455.75
442.928	445.75
443.149	426.75
443.371	464.75
443.592	486.75
443.813	556.75
444.034	580.75
444.255	490.75
444.476	453.75
444.698	427.75
444.919	441.75
445.14	514.75
445.361	476.75
445.582	472.75
445.803	492.75
446.024	565.75
446.245	549.75
446.466	529.75
446.687	450.75
446.908	437.75
447.129	406.75
447.35	414.75
447.571	415.75
447.792	396.75
448.013	398.75
448.234	405.75
448.455	453.75
448.675	530.75
448.896	549.75
449.117	508.75
449.338	475.75
449.559	549.75
449.779	626.75
450	499.75
450.221	449.75
450.442	393.75
450.662	367.75
450.883	380.75
451.104	389.75
451.324	381.75
451.545	357.75
451.766	352.75
451.986	366.75
452.207	354.75
452.428	352.75
452.648	352.75
452.869	357.75
453.089	373.75
453.31	381.75
453.53	384.75
453.751	339.75
453.971	357.75
454.192	367.75
454.412	372.75
454.633	366.75
454.853	367.75
455.073	356.75
455.294	374.75
455.514	428.75
455.734	390.75
455.955	359.75
456.175	363.75
456.395	341.75
456.616	331.75
456.836	349.75
457.056	328.75
457.276	341.75
457.497	366.75
457.717	333.75
457.937	333.75
458.157	358.75
458.377	363.75
458.598	369.75
458.818	389.75
459.038	436.75
459.258	467.75
459.478	415.75
459.698	375.75
459.918	379.75
460.138	373.75
460.358	372.75
460.578	399.75
460.798	403.75
461.018	384.75
461.238	396.75
461.458	382.75
461.678	402.75
461.898	417.75
462.118	402.75
462.338	401.75
462.558	400.75
462.777	406.75
462.997	416.75
463.217	406.75
463.437	421.75
463.657	417.75
463.876	421.75
464.096	412.75
464.316	421.75
464.536	435.75
464.755	432.75
464.975	431.75
465.195	448.75
465.414	459.75
465.634	425.75
465.854	409.75
466.073	391.75
466.293	391.75
466.512	372.75
466.732	375.75
466.951	381.75
467.171	378.75
467.391	375.75
467.61	367.75
467.829	382.75
468.049	367.75
468.268	372.75
468.488	368.75
468.707	358.75
468.927	378.75
469.146	364.75
469.365	364.75
469.585	377.75
469.804	367.75
470.023	378.75
470.243	371.75
470.462	383.75
470.681	377.75
470.901	366.75
471.12	376.75
471.339	383.75
471.558	388.75
471.777	389.75
471.997	366.75
472.216	379.75
472.435	395.75
472.654	368.75
472.873	371.75
473.092	386.75
473.311	381.75
473.53	377.75
473.749	375.75
473.968	415.75
474.187	442.75
474.406	477.75
474.625	411.75
474.844	385.75
475.063	392.75
475.282	372.75
475.501	397.75
475.72	420.75
475.939	377.75
476.158	405.75
476.377	379.75
476.596	392.75
476.814	393.75
477.033	395.75
477.252	392.75
477.471	403.75
477.69	401.75
477.908	409.75
478.127	407.75
478.346	414.75
478.564	418.75
478.783	412.75
479.002	411.75
479.22	440.75
479.439	447.75
479.658	439.75
479.876	438.75
480.095	460.75
480.313	473.75
480.532	436.75
480.751	444.75
480.969	466.75
481.188	455.75
481.406	524.75
481.624	467.75
481.843	452.75
482.061	459.75
482.28	440.75
482.498	437.75
482.717	448.75
482.935	432.75
483.153	432.75
483.372	425.75
483.59	415.75
483.808	419.75
484.027	395.75
484.245	422.75
484.463	442.75
484.681	444.75
484.9	460.75
485.118	427.75
485.336	434.75
485.554	433.75
485.772	449.75
485.99	462.75
486.209	450.75
486.427	456.75
486.645	469.75
486.863	449.75
487.081	462.75
487.299	472.75
487.517	451.75
487.735	454.75
487.953	462.75
488.171	473.75
488.389	455.75
488.607	451.75
488.825	471.75
489.043	468.75
489.261	445.75
489.479	449.75
489.696	463.75
489.914	472.75
490.132	460.75
490.35	476.75
490.568	445.75
490.786	487.75
491.003	491.75
491.221	490.75
491.439	468.75
491.657	508.75
491.874	507.75
492.092	495.75
492.31	514.75
492.527	514.75
492.745	507.75
492.963	522.75
493.18	524.75
493.398	518.75
493.615	525.75
493.833	538.75
494.05	517.75
494.268	509.75
494.485	541.75
494.703	527.75
494.92	527.75
495.138	522.75
495.355	540.75
495.573	516.75
495.79	517.75
496.008	521.75
496.225	533.75
496.442	541.75
496.66	535.75
496.877	528.75
497.094	518.75
497.312	557.75
497.529	536.75
497.746	550.75
497.963	551.75
498.181	567.75
498.398	573.75
498.615	593.75
498.832	629.75
499.049	632.75
499.267	641.75
499.484	664.75
499.701	647.75
499.918	686.75
500.135	714.75
500.352	750.75
500.569	757.75
500.786	759.75
501.003	746.75
501.22	739.75
501.437	685.75
501.654	694.75
501.871	667.75
