Data from 1960PennyLincolnUp.LampE6.200Scan.07172019.P1_HRD10591_13-05-29-003.txt Node
Date: Thu Jul 18 13:05:29 EDT 2019
User: cochatt
Spectrometer: HR+D1059
Trigger mode: 1
Integration Time (sec): 1.000000E-1
Scans to average: 1
Electric dark correction enabled: true
Nonlinearity correction enabled: false
Boxcar width: 0
XAxis mode: Wavelengths
Number of Pixels in Spectrum: 2048
>>>>>Begin Spectral Data<<<<<
223.165	-16.19
223.4	-16.19
223.635	-16.19
223.869	-33.19
224.104	-10.19
224.338	3.81
224.573	-16.19
224.808	-3.19
225.042	1.81
225.277	-0.19
225.511	-6.19
225.746	11.81
225.98	-2.19
226.215	3.81
226.449	7.81
226.683	22.81
226.918	16.81
227.152	18.81
227.387	22.81
227.621	23.81
227.856	37.81
228.09	35.81
228.324	44.81
228.559	61.81
228.793	59.81
229.027	97.81
229.262	106.81
229.496	85.81
229.73	120.81
229.964	127.81
230.199	115.81
230.433	106.81
230.667	93.81
230.901	107.81
231.136	110.81
231.37	105.81
231.604	113.81
231.838	109.81
232.072	104.81
232.306	100.81
232.541	115.81
232.775	101.81
233.009	104.81
233.243	114.81
233.477	105.81
233.711	105.81
233.945	112.81
234.179	107.81
234.413	107.81
234.647	121.81
234.881	107.81
235.115	123.81
235.349	115.81
235.583	125.81
235.817	100.81
236.051	121.81
236.285	117.81
236.519	112.81
236.753	121.81
236.987	129.81
237.221	149.81
237.455	161.81
237.689	147.81
237.922	118.81
238.156	125.81
238.39	114.81
238.624	110.81
238.858	115.81
239.091	130.81
239.325	125.81
239.559	127.81
239.793	115.81
240.027	125.81
240.26	139.81
240.494	131.81
240.728	127.81
240.961	135.81
241.195	128.81
241.429	132.81
241.662	120.81
241.896	120.81
242.13	136.81
242.363	119.81
242.597	123.81
242.83	138.81
243.064	112.81
243.298	145.81
243.531	147.81
243.765	134.81
243.998	127.81
244.232	128.81
244.465	136.81
244.699	140.81
244.932	140.81
245.166	153.81
245.399	134.81
245.633	131.81
245.866	142.81
246.099	135.81
246.333	140.81
246.566	135.81
246.8	146.81
247.033	127.81
247.266	159.81
247.5	165.81
247.733	157.81
247.966	159.81
248.2	161.81
248.433	142.81
248.666	155.81
248.899	149.81
249.133	175.81
249.366	177.81
249.599	168.81
249.832	160.81
250.066	160.81
250.299	164.81
250.532	189.81
250.765	184.81
250.998	184.81
251.231	183.81
251.465	184.81
251.698	164.81
251.931	179.81
252.164	185.81
252.397	177.81
252.63	179.81
252.863	179.81
253.096	170.81
253.329	193.81
253.562	206.81
253.795	173.81
254.028	193.81
254.261	189.81
254.494	204.81
254.727	196.81
254.96	234.81
255.193	200.81
255.426	200.81
255.659	187.81
255.892	227.81
256.124	212.81
256.357	205.81
256.59	204.81
256.823	197.81
257.056	188.81
257.289	195.81
257.521	177.81
257.754	196.81
257.987	186.81
258.22	190.81
258.452	193.81
258.685	195.81
258.918	198.81
259.151	201.81
259.383	202.81
259.616	203.81
259.849	187.81
260.081	196.81
260.314	224.81
260.547	226.81
260.779	215.81
261.012	213.81
261.244	202.81
261.477	206.81
261.71	196.81
261.942	202.81
262.175	185.81
262.407	203.81
262.64	196.81
262.872	190.81
263.105	209.81
263.337	190.81
263.57	186.81
263.802	189.81
264.035	198.81
264.267	197.81
264.499	207.81
264.732	199.81
264.964	203.81
265.197	189.81
265.429	208.81
265.661	202.81
265.894	213.81
266.126	185.81
266.358	204.81
266.591	223.81
266.823	205.81
267.055	215.81
267.287	197.81
267.52	199.81
267.752	197.81
267.984	202.81
268.216	222.81
268.448	222.81
268.681	208.81
268.913	220.81
269.145	236.81
269.377	249.81
269.609	240.81
269.841	236.81
270.073	255.81
270.306	243.81
270.538	254.81
270.77	271.81
271.002	234.81
271.234	235.81
271.466	256.81
271.698	255.81
271.93	243.81
272.162	273.81
272.394	277.81
272.626	255.81
272.858	243.81
273.09	246.81
273.322	250.81
273.553	253.81
273.785	250.81
274.017	253.81
274.249	263.81
274.481	243.81
274.713	252.81
274.945	235.81
275.176	253.81
275.408	257.81
275.64	246.81
275.872	249.81
276.104	262.81
276.335	253.81
276.567	255.81
276.799	277.81
277.031	292.81
277.262	282.81
277.494	298.81
277.726	273.81
277.957	258.81
278.189	248.81
278.421	262.81
278.652	259.81
278.884	262.81
279.115	276.81
279.347	263.81
279.579	241.81
279.81	273.81
280.042	275.81
280.273	261.81
280.505	271.81
280.736	261.81
280.968	260.81
281.199	277.81
281.431	279.81
281.662	268.81
281.894	275.81
282.125	252.81
282.356	263.81
282.588	277.81
282.819	303.81
283.051	255.81
283.282	274.81
283.513	268.81
283.745	281.81
283.976	287.81
284.207	282.81
284.439	279.81
284.67	296.81
284.901	267.81
285.132	287.81
285.364	274.81
285.595	278.81
285.826	297.81
286.057	280.81
286.288	271.81
286.52	285.81
286.751	271.81
286.982	283.81
287.213	276.81
287.444	287.81
287.675	286.81
287.906	321.81
288.138	305.81
288.369	297.81
288.6	291.81
288.831	287.81
289.062	299.81
289.293	284.81
289.524	300.81
289.755	295.81
289.986	310.81
290.217	289.81
290.448	309.81
290.679	292.81
290.91	277.81
291.141	269.81
291.371	294.81
291.602	288.81
291.833	304.81
292.064	299.81
292.295	291.81
292.526	304.81
292.757	297.81
292.987	301.81
293.218	291.81
293.449	293.81
293.68	316.81
293.91	299.81
294.141	301.81
294.372	296.81
294.603	314.81
294.833	294.81
295.064	313.81
295.295	297.81
295.525	301.81
295.756	316.81
295.987	302.81
296.217	321.81
296.448	320.81
296.679	325.81
296.909	297.81
297.14	312.81
297.37	310.81
297.601	338.81
297.831	328.81
298.062	312.81
298.292	310.81
298.523	329.81
298.753	325.81
298.984	295.81
299.214	337.81
299.445	321.81
299.675	305.81
299.905	316.81
300.136	349.81
300.366	322.81
300.597	310.81
300.827	336.81
301.057	345.81
301.288	333.81
301.518	352.81
301.748	353.81
301.979	355.81
302.209	358.81
302.439	336.81
302.669	333.81
302.9	324.81
303.13	339.81
303.36	361.81
303.59	357.81
303.82	331.81
304.051	337.81
304.281	324.81
304.511	351.81
304.741	324.81
304.971	325.81
305.201	341.81
305.431	335.81
305.661	337.81
305.891	347.81
306.121	353.81
306.352	330.81
306.582	336.81
306.812	336.81
307.042	341.81
307.272	341.81
307.502	340.81
307.731	356.81
307.961	333.81
308.191	349.81
308.421	326.81
308.651	339.81
308.881	348.81
309.111	341.81
309.341	342.81
309.571	344.81
309.8	352.81
310.03	347.81
310.26	367.81
310.49	367.81
310.72	359.81
310.949	366.81
311.179	363.81
311.409	369.81
311.639	355.81
311.868	364.81
312.098	356.81
312.328	347.81
312.557	391.81
312.787	373.81
313.017	379.81
313.246	359.81
313.476	368.81
313.706	361.81
313.935	392.81
314.165	387.81
314.394	400.81
314.624	385.81
314.853	360.81
315.083	396.81
315.312	369.81
315.542	381.81
315.771	357.81
316.001	369.81
316.23	359.81
316.46	394.81
316.689	385.81
316.919	384.81
317.148	372.81
317.377	376.81
317.607	377.81
317.836	373.81
318.065	363.81
318.295	344.81
318.524	367.81
318.753	377.81
318.983	359.81
319.212	371.81
319.441	359.81
319.67	380.81
319.9	372.81
320.129	382.81
320.358	385.81
320.587	374.81
320.816	374.81
321.046	381.81
321.275	389.81
321.504	376.81
321.733	367.81
321.962	388.81
322.191	366.81
322.42	401.81
322.649	415.81
322.878	384.81
323.108	383.81
323.337	416.81
323.566	444.81
323.795	431.81
324.024	443.81
324.253	513.81
324.482	647.81
324.71	919.81
324.939	1230.81
325.168	1033.81
325.397	587.81
325.626	467.81
325.855	439.81
326.084	452.81
326.313	430.81
326.542	420.81
326.77	437.81
326.999	527.81
327.228	629.81
327.457	861.81
327.686	961.81
327.914	666.81
328.143	517.81
328.372	494.81
328.6	466.81
328.829	435.81
329.058	456.81
329.287	475.81
329.515	463.81
329.744	446.81
329.972	461.81
330.201	465.81
330.43	476.81
330.658	495.81
330.887	508.81
331.115	490.81
331.344	440.81
331.572	438.81
331.801	445.81
332.03	445.81
332.258	452.81
332.486	448.81
332.715	469.81
332.943	470.81
333.172	512.81
333.4	497.81
333.629	514.81
333.857	523.81
334.085	513.81
334.314	521.81
334.542	513.81
334.771	551.81
334.999	516.81
335.227	492.81
335.455	496.81
335.684	497.81
335.912	469.81
336.14	464.81
336.369	452.81
336.597	476.81
336.825	451.81
337.053	462.81
337.281	442.81
337.51	448.81
337.738	440.81
337.966	424.81
338.194	447.81
338.422	423.81
338.65	438.81
338.878	445.81
339.106	444.81
339.334	439.81
339.562	437.81
339.79	413.81
340.018	431.81
340.246	428.81
340.474	410.81
340.702	419.81
340.93	451.81
341.158	450.81
341.386	409.81
341.614	434.81
341.842	424.81
342.07	426.81
342.298	404.81
342.526	408.81
342.754	399.81
342.981	423.81
343.209	427.81
343.437	429.81
343.665	465.81
343.893	493.81
344.12	502.81
344.348	469.81
344.576	463.81
344.804	439.81
345.031	437.81
345.259	434.81
345.487	422.81
345.714	428.81
345.942	417.81
346.17	412.81
346.397	424.81
346.625	414.81
346.853	425.81
347.08	418.81
347.308	399.81
347.535	403.81
347.763	420.81
347.99	422.81
348.218	418.81
348.445	430.81
348.673	416.81
348.9	399.81
349.128	411.81
349.355	411.81
349.583	389.81
349.81	415.81
350.037	395.81
350.265	408.81
350.492	399.81
350.72	397.81
350.947	392.81
351.174	397.81
351.402	399.81
351.629	403.81
351.856	383.81
352.083	400.81
352.311	413.81
352.538	404.81
352.765	424.81
352.992	400.81
353.22	396.81
353.447	401.81
353.674	415.81
353.901	392.81
354.128	383.81
354.355	400.81
354.583	402.81
354.81	399.81
355.037	403.81
355.264	388.81
355.491	370.81
355.718	383.81
355.945	390.81
356.172	405.81
356.399	373.81
356.626	401.81
356.853	393.81
357.08	407.81
357.307	384.81
357.534	389.81
357.761	370.81
357.988	393.81
358.215	386.81
358.441	426.81
358.668	411.81
358.895	391.81
359.122	396.81
359.349	411.81
359.576	427.81
359.802	425.81
360.029	430.81
360.256	420.81
360.483	421.81
360.709	415.81
360.936	428.81
361.163	402.81
361.39	401.81
361.616	411.81
361.843	411.81
362.07	404.81
362.296	415.81
362.523	413.81
362.749	423.81
362.976	420.81
363.203	400.81
363.429	397.81
363.656	413.81
363.882	408.81
364.109	403.81
364.335	413.81
364.562	403.81
364.788	394.81
365.015	412.81
365.241	387.81
365.468	413.81
365.694	387.81
365.92	383.81
366.147	407.81
366.373	392.81
366.599	405.81
366.826	405.81
367.052	401.81
367.278	387.81
367.505	395.81
367.731	406.81
367.957	378.81
368.184	403.81
368.41	402.81
368.636	384.81
368.862	399.81
369.089	405.81
369.315	397.81
369.541	401.81
369.767	394.81
369.993	395.81
370.219	426.81
370.445	428.81
370.672	422.81
370.898	413.81
371.124	433.81
371.35	438.81
371.576	424.81
371.802	404.81
372.028	428.81
372.254	442.81
372.48	441.81
372.706	424.81
372.932	422.81
373.158	447.81
373.384	409.81
373.61	416.81
373.835	409.81
374.061	424.81
374.287	409.81
374.513	450.81
374.739	442.81
374.965	424.81
375.191	443.81
375.416	429.81
375.642	440.81
375.868	449.81
376.094	421.81
376.319	427.81
376.545	407.81
376.771	415.81
376.997	433.81
377.222	430.81
377.448	407.81
377.674	414.81
377.899	423.81
378.125	423.81
378.35	432.81
378.576	400.81
378.802	420.81
379.027	420.81
379.253	413.81
379.478	429.81
379.704	421.81
379.929	431.81
380.155	425.81
380.38	430.81
380.606	405.81
380.831	421.81
381.057	438.81
381.282	422.81
381.507	434.81
381.733	422.81
381.958	435.81
382.184	424.81
382.409	431.81
382.634	429.81
382.86	424.81
383.085	416.81
383.31	430.81
383.535	438.81
383.761	428.81
383.986	476.81
384.211	430.81
384.436	463.81
384.662	448.81
384.887	472.81
385.112	473.81
385.337	475.81
385.562	483.81
385.787	472.81
386.013	488.81
386.238	479.81
386.463	468.81
386.688	483.81
386.913	478.81
387.138	477.81
387.363	489.81
387.588	467.81
387.813	465.81
388.038	483.81
388.263	463.81
388.488	471.81
388.713	483.81
388.938	473.81
389.163	483.81
389.387	468.81
389.612	492.81
389.837	476.81
390.062	464.81
390.287	477.81
390.512	481.81
390.736	465.81
390.961	460.81
391.186	483.81
391.411	487.81
391.636	498.81
391.86	508.81
392.085	518.81
392.31	528.81
392.534	507.81
392.759	495.81
392.984	502.81
393.208	490.81
393.433	504.81
393.658	525.81
393.882	495.81
394.107	508.81
394.331	512.81
394.556	492.81
394.78	505.81
395.005	494.81
395.229	512.81
395.454	501.81
395.678	536.81
395.903	523.81
396.127	543.81
396.352	515.81
396.576	504.81
396.801	487.81
397.025	505.81
397.249	526.81
397.474	523.81
397.698	527.81
397.922	512.81
398.147	520.81
398.371	544.81
398.595	539.81
398.82	569.81
399.044	604.81
399.268	609.81
399.492	710.81
399.717	755.81
399.941	788.81
400.165	746.81
400.389	703.81
400.613	651.81
400.837	600.81
401.062	587.81
401.286	540.81
401.51	564.81
401.734	545.81
401.958	563.81
402.182	572.81
402.406	581.81
402.63	592.81
402.854	601.81
403.078	615.81
403.302	633.81
403.526	629.81
403.75	632.81
403.974	631.81
404.198	638.81
404.422	641.81
404.645	634.81
404.869	611.81
405.093	628.81
405.317	647.81
405.541	685.81
405.765	645.81
405.988	616.81
406.212	613.81
406.436	640.81
406.66	655.81
406.883	631.81
407.107	662.81
407.331	714.81
407.555	738.81
407.778	746.81
408.002	699.81
408.226	664.81
408.449	645.81
408.673	632.81
408.896	640.81
409.12	670.81
409.344	675.81
409.567	601.81
409.791	614.81
410.014	610.81
410.238	589.81
410.461	573.81
410.685	591.81
410.908	601.81
411.132	624.81
411.355	619.81
411.578	608.81
411.802	592.81
412.025	596.81
412.249	594.81
412.472	616.81
412.695	639.81
412.919	616.81
413.142	579.81
413.365	571.81
413.589	584.81
413.812	569.81
414.035	549.81
414.258	554.81
414.482	562.81
414.705	582.81
414.928	543.81
415.151	561.81
415.374	555.81
415.597	544.81
415.821	572.81
416.044	523.81
416.267	551.81
416.49	565.81
416.713	535.81
416.936	544.81
417.159	531.81
417.382	553.81
417.605	564.81
417.828	558.81
418.051	570.81
418.274	547.81
418.497	589.81
418.72	571.81
418.943	566.81
419.166	590.81
419.389	627.81
419.611	605.81
419.834	603.81
420.057	621.81
420.28	575.81
420.503	583.81
420.726	583.81
420.948	587.81
421.171	575.81
421.394	611.81
421.617	575.81
421.839	577.81
422.062	551.81
422.285	574.81
422.507	610.81
422.73	654.81
422.953	642.81
423.175	596.81
423.398	593.81
423.621	629.81
423.843	608.81
424.066	615.81
424.288	615.81
424.511	578.81
424.733	621.81
424.956	671.81
425.178	653.81
425.401	646.81
425.623	665.81
425.846	590.81
426.068	584.81
426.291	555.81
426.513	566.81
426.735	553.81
426.958	612.81
427.18	651.81
427.402	711.81
427.625	741.81
427.847	677.81
428.069	606.81
428.292	559.81
428.514	542.81
428.736	521.81
428.958	503.81
429.181	531.81
429.403	539.81
429.625	513.81
429.847	545.81
430.069	562.81
430.292	563.81
430.514	526.81
430.736	543.81
430.958	514.81
431.18	514.81
431.402	538.81
431.624	479.81
431.846	494.81
432.068	503.81
432.29	512.81
432.512	512.81
432.734	531.81
432.956	533.81
433.178	523.81
433.4	523.81
433.622	511.81
433.844	528.81
434.066	511.81
434.287	511.81
434.509	548.81
434.731	536.81
434.953	539.81
435.175	571.81
435.397	567.81
435.618	568.81
435.84	577.81
436.062	642.81
436.284	647.81
436.505	574.81
436.727	552.81
436.949	531.81
437.17	533.81
437.392	514.81
437.614	511.81
437.835	528.81
438.057	583.81
438.278	623.81
438.5	643.81
438.721	671.81
438.943	639.81
439.165	575.81
439.386	536.81
439.608	549.81
439.829	547.81
440.05	563.81
440.272	581.81
440.493	555.81
440.715	555.81
440.936	523.81
441.158	528.81
441.379	555.81
441.6	574.81
441.822	555.81
442.043	598.81
442.264	632.81
442.486	632.81
442.707	591.81
442.928	553.81
443.149	576.81
443.371	581.81
443.592	634.81
443.813	651.81
444.034	705.81
444.255	617.81
444.476	619.81
444.698	621.81
444.919	639.81
445.14	702.81
445.361	632.81
445.582	587.81
445.803	635.81
446.024	678.81
446.245	641.81
446.466	615.81
446.687	557.81
446.908	535.81
447.129	532.81
447.35	520.81
447.571	495.81
447.792	508.81
448.013	503.81
448.234	515.81
448.455	531.81
448.675	611.81
448.896	631.81
449.117	584.81
449.338	549.81
449.559	633.81
449.779	650.81
450	577.81
450.221	475.81
450.442	497.81
450.662	479.81
450.883	487.81
451.104	500.81
451.324	467.81
451.545	462.81
451.766	452.81
451.986	445.81
452.207	463.81
452.428	467.81
452.648	454.81
452.869	443.81
453.089	455.81
453.31	472.81
453.53	463.81
453.751	451.81
453.971	448.81
454.192	472.81
454.412	445.81
454.633	443.81
454.853	449.81
455.073	439.81
455.294	455.81
455.514	501.81
455.734	503.81
455.955	452.81
456.175	422.81
456.395	431.81
456.616	430.81
456.836	442.81
457.056	423.81
457.276	420.81
457.497	430.81
457.717	431.81
457.937	432.81
458.157	470.81
458.377	442.81
458.598	479.81
458.818	493.81
459.038	524.81
459.258	544.81
459.478	523.81
459.698	516.81
459.918	498.81
460.138	518.81
460.358	529.81
460.578	562.81
460.798	552.81
461.018	545.81
461.238	550.81
461.458	555.81
461.678	552.81
461.898	551.81
462.118	541.81
462.338	581.81
462.558	585.81
462.777	571.81
462.997	639.81
463.217	661.81
463.437	676.81
463.657	642.81
463.876	593.81
464.096	587.81
464.316	616.81
464.536	631.81
464.755	630.81
464.975	590.81
465.195	589.81
465.414	596.81
465.634	525.81
465.854	508.81
466.073	505.81
466.293	509.81
466.512	483.81
466.732	469.81
466.951	483.81
467.171	495.81
467.391	480.81
467.61	491.81
467.829	485.81
468.049	468.81
468.268	488.81
468.488	477.81
468.707	489.81
468.927	461.81
469.146	457.81
469.365	466.81
469.585	485.81
469.804	479.81
470.023	489.81
470.243	500.81
470.462	510.81
470.681	505.81
470.901	499.81
471.12	483.81
471.339	479.81
471.558	484.81
471.777	495.81
471.997	461.81
472.216	465.81
472.435	486.81
472.654	485.81
472.873	455.81
473.092	472.81
473.311	478.81
473.53	466.81
473.749	464.81
473.968	502.81
474.187	545.81
474.406	546.81
474.625	477.81
474.844	482.81
475.063	470.81
475.282	470.81
475.501	470.81
475.72	480.81
475.939	472.81
476.158	469.81
476.377	486.81
476.596	475.81
476.814	509.81
477.033	490.81
477.252	510.81
477.471	511.81
477.69	506.81
477.908	519.81
478.127	535.81
478.346	530.81
478.564	544.81
478.783	535.81
479.002	560.81
479.22	558.81
479.439	580.81
479.658	561.81
479.876	581.81
480.095	588.81
480.313	593.81
480.532	616.81
480.751	594.81
480.969	576.81
481.188	631.81
481.406	634.81
481.624	582.81
481.843	541.81
482.061	524.81
482.28	529.81
482.498	515.81
482.717	518.81
482.935	533.81
483.153	539.81
483.372	530.81
483.59	534.81
483.808	541.81
484.027	553.81
484.245	538.81
484.463	539.81
484.681	549.81
484.9	541.81
485.118	577.81
485.336	560.81
485.554	558.81
485.772	571.81
485.99	553.81
486.209	589.81
486.427	555.81
486.645	571.81
486.863	575.81
487.081	590.81
487.299	579.81
487.517	582.81
487.735	561.81
487.953	577.81
488.171	583.81
488.389	567.81
488.607	571.81
488.825	566.81
489.043	554.81
489.261	578.81
489.479	593.81
489.696	582.81
489.914	577.81
490.132	580.81
490.35	609.81
490.568	590.81
490.786	595.81
491.003	607.81
491.221	605.81
491.439	592.81
491.657	637.81
491.874	632.81
492.092	637.81
492.31	653.81
492.527	639.81
492.745	622.81
492.963	645.81
493.18	645.81
493.398	660.81
493.615	653.81
493.833	672.81
494.05	659.81
494.268	613.81
494.485	636.81
494.703	644.81
494.92	638.81
495.138	644.81
495.355	641.81
495.573	651.81
495.79	647.81
496.008	641.81
496.225	658.81
496.442	658.81
496.66	654.81
496.877	661.81
497.094	647.81
497.312	651.81
497.529	672.81
497.746	672.81
497.963	699.81
498.181	718.81
498.398	739.81
498.615	767.81
498.832	814.81
499.049	817.81
499.267	886.81
499.484	967.81
499.701	1028.81
499.918	1060.81
500.135	1141.81
500.352	1279.81
500.569	1343.81
500.786	1312.81
501.003	1240.81
501.22	1175.81
501.437	1085.81
501.654	1009.81
501.871	947.81
