Data from 1960PennyLincolnUp.LampE5.5.200Scan.07172019.P1.ChangedAngle_HRD10591_13-15-05-822.txt Node
Date: Thu Jul 18 13:15:05 EDT 2019
User: cochatt
Spectrometer: HR+D1059
Trigger mode: 1
Integration Time (sec): 1.000000E-1
Scans to average: 1
Electric dark correction enabled: true
Nonlinearity correction enabled: false
Boxcar width: 0
XAxis mode: Wavelengths
Number of Pixels in Spectrum: 2048
>>>>>Begin Spectral Data<<<<<
223.165	-1.88
223.4	-1.88
223.635	-1.88
223.869	-24.88
224.104	-17.88
224.338	-16.88
224.573	-0.88
224.808	-6.88
225.042	-3.88
225.277	-5.88
225.511	-1.88
225.746	0.12
225.98	-0.88
226.215	12.12
226.449	19.12
226.683	27.12
226.918	19.12
227.152	4.12
227.387	42.12
227.621	45.12
227.856	52.12
228.09	60.12
228.324	60.12
228.559	63.12
228.793	64.12
229.027	84.12
229.262	94.12
229.496	100.12
229.73	126.12
229.964	126.12
230.199	108.12
230.433	89.12
230.667	113.12
230.901	107.12
231.136	94.12
231.37	114.12
231.604	104.12
231.838	113.12
232.072	96.12
232.306	120.12
232.541	121.12
232.775	95.12
233.009	107.12
233.243	105.12
233.477	110.12
233.711	105.12
233.945	91.12
234.179	100.12
234.413	109.12
234.647	116.12
234.881	109.12
235.115	111.12
235.349	120.12
235.583	127.12
235.817	114.12
236.051	113.12
236.285	118.12
236.519	120.12
236.753	108.12
236.987	137.12
237.221	134.12
237.455	183.12
237.689	141.12
237.922	135.12
238.156	119.12
238.39	108.12
238.624	116.12
238.858	121.12
239.091	118.12
239.325	128.12
239.559	125.12
239.793	121.12
240.027	144.12
240.26	115.12
240.494	135.12
240.728	128.12
240.961	114.12
241.195	126.12
241.429	130.12
241.662	127.12
241.896	118.12
242.13	120.12
242.363	118.12
242.597	121.12
242.83	136.12
243.064	130.12
243.298	122.12
243.531	124.12
243.765	135.12
243.998	118.12
244.232	122.12
244.465	114.12
244.699	140.12
244.932	127.12
245.166	151.12
245.399	147.12
245.633	131.12
245.866	136.12
246.099	129.12
246.333	137.12
246.566	127.12
246.8	133.12
247.033	143.12
247.266	142.12
247.5	138.12
247.733	171.12
247.966	161.12
248.2	174.12
248.433	168.12
248.666	156.12
248.899	167.12
249.133	190.12
249.366	193.12
249.599	195.12
249.832	168.12
250.066	167.12
250.299	171.12
250.532	174.12
250.765	172.12
250.998	184.12
251.231	203.12
251.465	186.12
251.698	182.12
251.931	193.12
252.164	179.12
252.397	187.12
252.63	193.12
252.863	176.12
253.096	204.12
253.329	197.12
253.562	194.12
253.795	188.12
254.028	185.12
254.261	186.12
254.494	193.12
254.727	216.12
254.96	240.12
255.193	216.12
255.426	223.12
255.659	213.12
255.892	209.12
256.124	201.12
256.357	195.12
256.59	215.12
256.823	210.12
257.056	193.12
257.289	190.12
257.521	204.12
257.754	197.12
257.987	195.12
258.22	199.12
258.452	202.12
258.685	197.12
258.918	179.12
259.151	183.12
259.383	203.12
259.616	219.12
259.849	203.12
260.081	215.12
260.314	240.12
260.547	221.12
260.779	238.12
261.012	224.12
261.244	207.12
261.477	211.12
261.71	215.12
261.942	208.12
262.175	219.12
262.407	213.12
262.64	208.12
262.872	198.12
263.105	203.12
263.337	201.12
263.57	200.12
263.802	205.12
264.035	204.12
264.267	211.12
264.499	209.12
264.732	215.12
264.964	202.12
265.197	187.12
265.429	195.12
265.661	216.12
265.894	211.12
266.126	202.12
266.358	196.12
266.591	217.12
266.823	207.12
267.055	209.12
267.287	228.12
267.52	211.12
267.752	204.12
267.984	228.12
268.216	228.12
268.448	222.12
268.681	209.12
268.913	209.12
269.145	250.12
269.377	259.12
269.609	250.12
269.841	257.12
270.073	239.12
270.306	250.12
270.538	263.12
270.77	258.12
271.002	258.12
271.234	251.12
271.466	277.12
271.698	263.12
271.93	267.12
272.162	273.12
272.394	276.12
272.626	267.12
272.858	265.12
273.09	251.12
273.322	260.12
273.553	253.12
273.785	244.12
274.017	264.12
274.249	258.12
274.481	235.12
274.713	230.12
274.945	251.12
275.176	255.12
275.408	256.12
275.64	259.12
275.872	248.12
276.104	258.12
276.335	253.12
276.567	256.12
276.799	262.12
277.031	257.12
277.262	259.12
277.494	256.12
277.726	283.12
277.957	259.12
278.189	281.12
278.421	269.12
278.652	259.12
278.884	256.12
279.115	254.12
279.347	242.12
279.579	245.12
279.81	272.12
280.042	266.12
280.273	257.12
280.505	259.12
280.736	261.12
280.968	237.12
281.199	269.12
281.431	257.12
281.662	268.12
281.894	274.12
282.125	274.12
282.356	297.12
282.588	297.12
282.819	281.12
283.051	277.12
283.282	273.12
283.513	265.12
283.745	266.12
283.976	256.12
284.207	271.12
284.439	267.12
284.67	263.12
284.901	267.12
285.132	271.12
285.364	281.12
285.595	268.12
285.826	259.12
286.057	264.12
286.288	277.12
286.52	288.12
286.751	271.12
286.982	273.12
287.213	273.12
287.444	283.12
287.675	272.12
287.906	273.12
288.138	289.12
288.369	283.12
288.6	304.12
288.831	299.12
289.062	280.12
289.293	279.12
289.524	291.12
289.755	296.12
289.986	283.12
290.217	275.12
290.448	273.12
290.679	284.12
290.91	272.12
291.141	288.12
291.371	264.12
291.602	282.12
291.833	274.12
292.064	280.12
292.295	307.12
292.526	289.12
292.757	275.12
292.987	285.12
293.218	276.12
293.449	282.12
293.68	284.12
293.91	296.12
294.141	278.12
294.372	278.12
294.603	284.12
294.833	277.12
295.064	271.12
295.295	283.12
295.525	282.12
295.756	282.12
295.987	298.12
296.217	318.12
296.448	305.12
296.679	299.12
296.909	302.12
297.14	300.12
297.37	299.12
297.601	303.12
297.831	304.12
298.062	289.12
298.292	306.12
298.523	292.12
298.753	322.12
298.984	299.12
299.214	307.12
299.445	312.12
299.675	284.12
299.905	317.12
300.136	319.12
300.366	298.12
300.597	314.12
300.827	319.12
301.057	311.12
301.288	314.12
301.518	318.12
301.748	326.12
301.979	307.12
302.209	316.12
302.439	301.12
302.669	320.12
302.9	319.12
303.13	311.12
303.36	288.12
303.59	330.12
303.82	322.12
304.051	316.12
304.281	314.12
304.511	303.12
304.741	305.12
304.971	318.12
305.201	319.12
305.431	302.12
305.661	315.12
305.891	343.12
306.121	326.12
306.352	330.12
306.582	322.12
306.812	319.12
307.042	323.12
307.272	335.12
307.502	321.12
307.731	322.12
307.961	323.12
308.191	323.12
308.421	341.12
308.651	335.12
308.881	329.12
309.111	323.12
309.341	352.12
309.571	332.12
309.8	342.12
310.03	333.12
310.26	321.12
310.49	339.12
310.72	335.12
310.949	349.12
311.179	347.12
311.409	347.12
311.639	332.12
311.868	339.12
312.098	364.12
312.328	348.12
312.557	360.12
312.787	358.12
313.017	356.12
313.246	353.12
313.476	350.12
313.706	350.12
313.935	372.12
314.165	383.12
314.394	363.12
314.624	391.12
314.853	361.12
315.083	345.12
315.312	363.12
315.542	356.12
315.771	339.12
316.001	358.12
316.23	362.12
316.46	350.12
316.689	360.12
316.919	358.12
317.148	346.12
317.377	358.12
317.607	350.12
317.836	377.12
318.065	342.12
318.295	348.12
318.524	356.12
318.753	363.12
318.983	327.12
319.212	364.12
319.441	362.12
319.67	363.12
319.9	348.12
320.129	355.12
320.358	358.12
320.587	347.12
320.816	363.12
321.046	384.12
321.275	374.12
321.504	376.12
321.733	380.12
321.962	371.12
322.191	389.12
322.42	385.12
322.649	403.12
322.878	408.12
323.108	400.12
323.337	424.12
323.566	411.12
323.795	448.12
324.024	489.12
324.253	565.12
324.482	760.12
324.71	1049.12
324.939	1390.12
325.168	1200.12
325.397	696.12
325.626	525.12
325.855	458.12
326.084	431.12
326.313	419.12
326.542	432.12
326.77	467.12
326.999	532.12
327.228	688.12
327.457	956.12
327.686	1085.12
327.914	748.12
328.143	560.12
328.372	480.12
328.6	489.12
328.829	476.12
329.058	473.12
329.287	469.12
329.515	443.12
329.744	430.12
329.972	415.12
330.201	433.12
330.43	498.12
330.658	480.12
330.887	504.12
331.115	494.12
331.344	438.12
331.572	424.12
331.801	437.12
332.03	425.12
332.258	425.12
332.486	418.12
332.715	396.12
332.943	407.12
333.172	425.12
333.4	430.12
333.629	426.12
333.857	436.12
334.085	468.12
334.314	468.12
334.542	466.12
334.771	462.12
334.999	445.12
335.227	447.12
335.455	425.12
335.684	429.12
335.912	438.12
336.14	422.12
336.369	403.12
336.597	412.12
336.825	423.12
337.053	422.12
337.281	408.12
337.51	403.12
337.738	393.12
337.966	408.12
338.194	419.12
338.422	394.12
338.65	405.12
338.878	397.12
339.106	405.12
339.334	384.12
339.562	392.12
339.79	403.12
340.018	382.12
340.246	398.12
340.474	395.12
340.702	396.12
340.93	379.12
341.158	384.12
341.386	406.12
341.614	387.12
341.842	409.12
342.07	399.12
342.298	385.12
342.526	400.12
342.754	383.12
342.981	379.12
343.209	402.12
343.437	396.12
343.665	383.12
343.893	406.12
344.12	425.12
344.348	423.12
344.576	424.12
344.804	387.12
345.031	427.12
345.259	385.12
345.487	392.12
345.714	396.12
345.942	385.12
346.17	389.12
346.397	385.12
346.625	367.12
346.853	381.12
347.08	374.12
347.308	393.12
347.535	372.12
347.763	384.12
347.99	374.12
348.218	373.12
348.445	383.12
348.673	366.12
348.9	370.12
349.128	381.12
349.355	370.12
349.583	371.12
349.81	379.12
350.037	369.12
350.265	359.12
350.492	358.12
350.72	370.12
350.947	376.12
351.174	406.12
351.402	376.12
351.629	366.12
351.856	368.12
352.083	378.12
352.311	400.12
352.538	370.12
352.765	390.12
352.992	372.12
353.22	368.12
353.447	365.12
353.674	338.12
353.901	364.12
354.128	366.12
354.355	362.12
354.583	355.12
354.81	353.12
355.037	347.12
355.264	343.12
355.491	348.12
355.718	345.12
355.945	363.12
356.172	359.12
356.399	330.12
356.626	340.12
356.853	359.12
357.08	368.12
357.307	345.12
357.534	355.12
357.761	348.12
357.988	351.12
358.215	361.12
358.441	375.12
358.668	342.12
358.895	365.12
359.122	374.12
359.349	361.12
359.576	349.12
359.802	380.12
360.029	398.12
360.256	386.12
360.483	378.12
360.709	348.12
360.936	365.12
361.163	368.12
361.39	382.12
361.616	352.12
361.843	358.12
362.07	370.12
362.296	350.12
362.523	346.12
362.749	362.12
362.976	363.12
363.203	360.12
363.429	365.12
363.656	361.12
363.882	362.12
364.109	363.12
364.335	353.12
364.562	341.12
364.788	348.12
365.015	361.12
365.241	344.12
365.468	344.12
365.694	347.12
365.92	358.12
366.147	355.12
366.373	350.12
366.599	344.12
366.826	347.12
367.052	342.12
367.278	353.12
367.505	330.12
367.731	352.12
367.957	345.12
368.184	365.12
368.41	350.12
368.636	365.12
368.862	370.12
369.089	351.12
369.315	370.12
369.541	334.12
369.767	358.12
369.993	343.12
370.219	368.12
370.445	351.12
370.672	348.12
370.898	348.12
371.124	361.12
371.35	362.12
371.576	372.12
371.802	364.12
372.028	364.12
372.254	355.12
372.48	328.12
372.706	369.12
372.932	352.12
373.158	367.12
373.384	358.12
373.61	346.12
373.835	363.12
374.061	374.12
374.287	366.12
374.513	371.12
374.739	349.12
374.965	364.12
375.191	368.12
375.416	363.12
375.642	352.12
375.868	343.12
376.094	356.12
376.319	344.12
376.545	352.12
376.771	325.12
376.997	353.12
377.222	363.12
377.448	337.12
377.674	352.12
377.899	335.12
378.125	341.12
378.35	330.12
378.576	340.12
378.802	343.12
379.027	352.12
379.253	362.12
379.478	350.12
379.704	343.12
379.929	335.12
380.155	335.12
380.38	336.12
380.606	343.12
380.831	350.12
381.057	355.12
381.282	339.12
381.507	340.12
381.733	328.12
381.958	335.12
382.184	338.12
382.409	334.12
382.634	333.12
382.86	346.12
383.085	351.12
383.31	340.12
383.535	347.12
383.761	361.12
383.986	361.12
384.211	373.12
384.436	372.12
384.662	349.12
384.887	362.12
385.112	380.12
385.337	361.12
385.562	369.12
385.787	370.12
386.013	363.12
386.238	388.12
386.463	351.12
386.688	370.12
386.913	368.12
387.138	369.12
387.363	349.12
387.588	374.12
387.813	366.12
388.038	359.12
388.263	366.12
388.488	391.12
388.713	395.12
388.938	382.12
389.163	366.12
389.387	376.12
389.612	359.12
389.837	369.12
390.062	392.12
390.287	384.12
390.512	382.12
390.736	357.12
390.961	382.12
391.186	374.12
391.411	373.12
391.636	370.12
391.86	375.12
392.085	386.12
392.31	384.12
392.534	382.12
392.759	379.12
392.984	380.12
393.208	384.12
393.433	381.12
393.658	383.12
393.882	364.12
394.107	374.12
394.331	388.12
394.556	358.12
394.78	381.12
395.005	382.12
395.229	355.12
395.454	387.12
395.678	372.12
395.903	386.12
396.127	417.12
396.352	410.12
396.576	392.12
396.801	403.12
397.025	388.12
397.249	398.12
397.474	391.12
397.698	410.12
397.922	397.12
398.147	407.12
398.371	395.12
398.595	399.12
398.82	411.12
399.044	436.12
399.268	427.12
399.492	463.12
399.717	467.12
399.941	510.12
400.165	488.12
400.389	516.12
400.613	482.12
400.837	452.12
401.062	427.12
401.286	450.12
401.51	431.12
401.734	423.12
401.958	399.12
402.182	400.12
402.406	414.12
402.63	438.12
402.854	422.12
403.078	423.12
403.302	404.12
403.526	411.12
403.75	419.12
403.974	439.12
404.198	434.12
404.422	452.12
404.645	416.12
404.869	457.12
405.093	445.12
405.317	464.12
405.541	497.12
405.765	464.12
405.988	457.12
406.212	447.12
406.436	462.12
406.66	457.12
406.883	455.12
407.107	477.12
407.331	486.12
407.555	553.12
407.778	535.12
408.002	493.12
408.226	446.12
408.449	455.12
408.673	459.12
408.896	465.12
409.12	523.12
409.344	490.12
409.567	440.12
409.791	433.12
410.014	404.12
410.238	434.12
410.461	438.12
410.685	427.12
410.908	440.12
411.132	450.12
411.355	473.12
411.578	478.12
411.802	452.12
412.025	426.12
412.249	435.12
412.472	454.12
412.695	470.12
412.919	458.12
413.142	442.12
413.365	426.12
413.589	419.12
413.812	412.12
414.035	408.12
414.258	396.12
414.482	411.12
414.705	410.12
414.928	401.12
415.151	386.12
415.374	395.12
415.597	402.12
415.821	407.12
416.044	400.12
416.267	408.12
416.49	389.12
416.713	375.12
416.936	393.12
417.159	406.12
417.382	400.12
417.605	383.12
417.828	420.12
418.051	400.12
418.274	409.12
418.497	394.12
418.72	408.12
418.943	391.12
419.166	410.12
419.389	419.12
419.611	433.12
419.834	408.12
420.057	404.12
420.28	415.12
420.503	414.12
420.726	399.12
420.948	424.12
421.171	439.12
421.394	449.12
421.617	414.12
421.839	407.12
422.062	411.12
422.285	410.12
422.507	448.12
422.73	483.12
422.953	472.12
423.175	426.12
423.398	429.12
423.621	422.12
423.843	434.12
424.066	434.12
424.288	425.12
424.511	451.12
424.733	473.12
424.956	508.12
425.178	487.12
425.401	489.12
425.623	521.12
425.846	455.12
426.068	436.12
426.291	426.12
426.513	443.12
426.735	422.12
426.958	451.12
427.18	503.12
427.402	608.12
427.625	630.12
427.847	543.12
428.069	472.12
428.292	436.12
428.514	438.12
428.736	417.12
428.958	415.12
429.181	403.12
429.403	403.12
429.625	416.12
429.847	422.12
430.069	460.12
430.292	460.12
430.514	413.12
430.736	402.12
430.958	378.12
431.18	391.12
431.402	370.12
431.624	376.12
431.846	368.12
432.068	369.12
432.29	378.12
432.512	379.12
432.734	372.12
432.956	411.12
433.178	383.12
433.4	394.12
433.622	362.12
433.844	388.12
434.066	377.12
434.287	397.12
434.509	396.12
434.731	381.12
434.953	409.12
435.175	411.12
435.397	433.12
435.618	434.12
435.84	452.12
436.062	515.12
436.284	552.12
436.505	474.12
436.727	418.12
436.949	386.12
437.17	378.12
437.392	409.12
437.614	385.12
437.835	432.12
438.057	478.12
438.278	524.12
438.5	539.12
438.721	586.12
438.943	574.12
439.165	473.12
439.386	422.12
439.608	416.12
439.829	419.12
440.05	441.12
440.272	454.12
440.493	452.12
440.715	419.12
440.936	413.12
441.158	383.12
441.379	385.12
441.6	411.12
441.822	426.12
442.043	442.12
442.264	487.12
442.486	512.12
442.707	450.12
442.928	439.12
443.149	438.12
443.371	433.12
443.592	472.12
443.813	542.12
444.034	556.12
444.255	495.12
444.476	426.12
444.698	415.12
444.919	426.12
445.14	528.12
445.361	470.12
445.582	450.12
445.803	481.12
446.024	541.12
446.245	542.12
446.466	481.12
446.687	430.12
446.908	434.12
447.129	407.12
447.35	384.12
447.571	396.12
447.792	380.12
448.013	412.12
448.234	410.12
448.455	455.12
448.675	508.12
448.896	581.12
449.117	482.12
449.338	468.12
449.559	531.12
449.779	599.12
450	494.12
450.221	444.12
450.442	402.12
450.662	394.12
450.883	395.12
451.104	396.12
451.324	382.12
451.545	361.12
451.766	338.12
451.986	369.12
452.207	334.12
452.428	376.12
452.648	356.12
452.869	368.12
453.089	380.12
453.31	370.12
453.53	360.12
453.751	344.12
453.971	363.12
454.192	370.12
454.412	370.12
454.633	338.12
454.853	344.12
455.073	369.12
455.294	380.12
455.514	396.12
455.734	391.12
455.955	362.12
456.175	358.12
456.395	328.12
456.616	330.12
456.836	327.12
457.056	330.12
457.276	315.12
457.497	335.12
457.717	335.12
457.937	343.12
458.157	355.12
458.377	356.12
458.598	353.12
458.818	399.12
459.038	427.12
459.258	431.12
459.478	392.12
459.698	382.12
459.918	383.12
460.138	394.12
460.358	407.12
460.578	394.12
460.798	389.12
461.018	394.12
461.238	388.12
461.458	386.12
461.678	372.12
461.898	383.12
462.118	403.12
462.338	409.12
462.558	398.12
462.777	395.12
462.997	429.12
463.217	428.12
463.437	427.12
463.657	415.12
463.876	424.12
464.096	428.12
464.316	404.12
464.536	406.12
464.755	428.12
464.975	408.12
465.195	433.12
465.414	446.12
465.634	404.12
465.854	407.12
466.073	382.12
466.293	368.12
466.512	378.12
466.732	360.12
466.951	375.12
467.171	378.12
467.391	376.12
467.61	371.12
467.829	378.12
468.049	369.12
468.268	361.12
468.488	369.12
468.707	382.12
468.927	350.12
469.146	362.12
469.365	344.12
469.585	350.12
469.804	351.12
470.023	375.12
470.243	352.12
470.462	360.12
470.681	392.12
470.901	368.12
471.12	363.12
471.339	374.12
471.558	367.12
471.777	361.12
471.997	370.12
472.216	374.12
472.435	382.12
472.654	392.12
472.873	380.12
473.092	378.12
473.311	367.12
473.53	369.12
473.749	388.12
473.968	402.12
474.187	432.12
474.406	452.12
474.625	396.12
474.844	375.12
475.063	381.12
475.282	361.12
475.501	360.12
475.72	394.12
475.939	365.12
476.158	373.12
476.377	370.12
476.596	370.12
476.814	392.12
477.033	392.12
477.252	388.12
477.471	402.12
477.69	382.12
477.908	399.12
478.127	411.12
478.346	395.12
478.564	414.12
478.783	413.12
479.002	428.12
479.22	447.12
479.439	449.12
479.658	447.12
479.876	432.12
480.095	442.12
480.313	448.12
480.532	464.12
480.751	432.12
480.969	460.12
481.188	482.12
481.406	498.12
481.624	447.12
481.843	436.12
482.061	431.12
482.28	438.12
482.498	430.12
482.717	426.12
482.935	419.12
483.153	398.12
483.372	419.12
483.59	447.12
483.808	449.12
484.027	412.12
484.245	410.12
484.463	440.12
484.681	451.12
484.9	431.12
485.118	441.12
485.336	412.12
485.554	440.12
485.772	451.12
485.99	437.12
486.209	436.12
486.427	458.12
486.645	432.12
486.863	433.12
487.081	438.12
487.299	454.12
487.517	447.12
487.735	446.12
487.953	467.12
488.171	456.12
488.389	440.12
488.607	455.12
488.825	442.12
489.043	445.12
489.261	432.12
489.479	465.12
489.696	462.12
489.914	447.12
490.132	454.12
490.35	464.12
490.568	464.12
490.786	478.12
491.003	484.12
491.221	474.12
491.439	494.12
491.657	487.12
491.874	490.12
492.092	486.12
492.31	506.12
492.527	508.12
492.745	501.12
492.963	519.12
493.18	531.12
493.398	513.12
493.615	512.12
493.833	507.12
494.05	518.12
494.268	521.12
494.485	507.12
494.703	526.12
494.92	530.12
495.138	529.12
495.355	520.12
495.573	520.12
495.79	505.12
496.008	524.12
496.225	516.12
496.442	532.12
496.66	518.12
496.877	527.12
497.094	540.12
497.312	516.12
497.529	547.12
497.746	564.12
497.963	555.12
498.181	551.12
498.398	556.12
498.615	572.12
498.832	620.12
499.049	632.12
499.267	608.12
499.484	669.12
499.701	656.12
499.918	684.12
500.135	711.12
500.352	748.12
500.569	786.12
500.786	760.12
501.003	735.12
501.22	719.12
501.437	715.12
501.654	679.12
501.871	672.12
