Data from 1960PennyLincolnUp.LampE6.200Scan.07172019.P1_HRD10591_13-05-30-002.txt Node
Date: Thu Jul 18 13:05:30 EDT 2019
User: cochatt
Spectrometer: HR+D1059
Trigger mode: 1
Integration Time (sec): 1.000000E-1
Scans to average: 1
Electric dark correction enabled: true
Nonlinearity correction enabled: false
Boxcar width: 0
XAxis mode: Wavelengths
Number of Pixels in Spectrum: 2048
>>>>>Begin Spectral Data<<<<<
223.165	-10.25
223.4	-10.25
223.635	-10.25
223.869	-26.25
224.104	-15.25
224.338	-12.25
224.573	-13.25
224.808	-6.25
225.042	-6.25
225.277	-7.25
225.511	1.75
225.746	8.75
225.98	0.75
226.215	11.75
226.449	14.75
226.683	18.75
226.918	20.75
227.152	19.75
227.387	29.75
227.621	24.75
227.856	37.75
228.09	45.75
228.324	55.75
228.559	60.75
228.793	56.75
229.027	96.75
229.262	92.75
229.496	82.75
229.73	103.75
229.964	120.75
230.199	97.75
230.433	101.75
230.667	101.75
230.901	107.75
231.136	80.75
231.37	116.75
231.604	109.75
231.838	103.75
232.072	97.75
232.306	116.75
232.541	103.75
232.775	107.75
233.009	119.75
233.243	121.75
233.477	113.75
233.711	114.75
233.945	92.75
234.179	101.75
234.413	105.75
234.647	125.75
234.881	113.75
235.115	106.75
235.349	119.75
235.583	120.75
235.817	108.75
236.051	121.75
236.285	118.75
236.519	112.75
236.753	118.75
236.987	102.75
237.221	120.75
237.455	159.75
237.689	135.75
237.922	126.75
238.156	118.75
238.39	125.75
238.624	115.75
238.858	125.75
239.091	119.75
239.325	114.75
239.559	119.75
239.793	104.75
240.027	118.75
240.26	125.75
240.494	129.75
240.728	116.75
240.961	128.75
241.195	142.75
241.429	139.75
241.662	130.75
241.896	114.75
242.13	117.75
242.363	121.75
242.597	126.75
242.83	147.75
243.064	143.75
243.298	139.75
243.531	128.75
243.765	129.75
243.998	134.75
244.232	131.75
244.465	141.75
244.699	131.75
244.932	125.75
245.166	126.75
245.399	119.75
245.633	125.75
245.866	122.75
246.099	138.75
246.333	130.75
246.566	135.75
246.8	129.75
247.033	130.75
247.266	141.75
247.5	146.75
247.733	163.75
247.966	148.75
248.2	147.75
248.433	144.75
248.666	149.75
248.899	152.75
249.133	162.75
249.366	167.75
249.599	171.75
249.832	144.75
250.066	153.75
250.299	149.75
250.532	172.75
250.765	165.75
250.998	178.75
251.231	178.75
251.465	172.75
251.698	170.75
251.931	178.75
252.164	158.75
252.397	179.75
252.63	171.75
252.863	173.75
253.096	203.75
253.329	193.75
253.562	179.75
253.795	198.75
254.028	191.75
254.261	177.75
254.494	173.75
254.727	206.75
254.96	190.75
255.193	197.75
255.426	199.75
255.659	191.75
255.892	181.75
256.124	191.75
256.357	182.75
256.59	194.75
256.823	199.75
257.056	179.75
257.289	182.75
257.521	185.75
257.754	192.75
257.987	179.75
258.22	193.75
258.452	190.75
258.685	192.75
258.918	163.75
259.151	189.75
259.383	205.75
259.616	189.75
259.849	202.75
260.081	194.75
260.314	207.75
260.547	217.75
260.779	195.75
261.012	192.75
261.244	192.75
261.477	223.75
261.71	196.75
261.942	210.75
262.175	198.75
262.407	185.75
262.64	187.75
262.872	195.75
263.105	192.75
263.337	205.75
263.57	194.75
263.802	185.75
264.035	207.75
264.267	201.75
264.499	205.75
264.732	197.75
264.964	197.75
265.197	207.75
265.429	197.75
265.661	210.75
265.894	216.75
266.126	204.75
266.358	208.75
266.591	197.75
266.823	194.75
267.055	194.75
267.287	212.75
267.52	221.75
267.752	203.75
267.984	199.75
268.216	214.75
268.448	232.75
268.681	235.75
268.913	222.75
269.145	215.75
269.377	224.75
269.609	239.75
269.841	240.75
270.073	219.75
270.306	253.75
270.538	268.75
270.77	260.75
271.002	244.75
271.234	225.75
271.466	252.75
271.698	252.75
271.93	262.75
272.162	256.75
272.394	258.75
272.626	256.75
272.858	260.75
273.09	255.75
273.322	247.75
273.553	258.75
273.785	237.75
274.017	252.75
274.249	237.75
274.481	231.75
274.713	258.75
274.945	238.75
275.176	234.75
275.408	246.75
275.64	246.75
275.872	227.75
276.104	248.75
276.335	247.75
276.567	239.75
276.799	262.75
277.031	262.75
277.262	261.75
277.494	286.75
277.726	256.75
277.957	263.75
278.189	256.75
278.421	241.75
278.652	254.75
278.884	240.75
279.115	245.75
279.347	272.75
279.579	264.75
279.81	260.75
280.042	252.75
280.273	268.75
280.505	244.75
280.736	265.75
280.968	258.75
281.199	243.75
281.431	258.75
281.662	275.75
281.894	250.75
282.125	258.75
282.356	266.75
282.588	273.75
282.819	272.75
283.051	263.75
283.282	271.75
283.513	263.75
283.745	271.75
283.976	262.75
284.207	277.75
284.439	274.75
284.67	272.75
284.901	289.75
285.132	272.75
285.364	281.75
285.595	266.75
285.826	269.75
286.057	272.75
286.288	262.75
286.52	268.75
286.751	281.75
286.982	276.75
287.213	280.75
287.444	287.75
287.675	270.75
287.906	278.75
288.138	279.75
288.369	278.75
288.6	298.75
288.831	274.75
289.062	293.75
289.293	283.75
289.524	288.75
289.755	281.75
289.986	275.75
290.217	291.75
290.448	291.75
290.679	301.75
290.91	297.75
291.141	299.75
291.371	269.75
291.602	291.75
291.833	290.75
292.064	291.75
292.295	300.75
292.526	289.75
292.757	289.75
292.987	292.75
293.218	296.75
293.449	288.75
293.68	290.75
293.91	286.75
294.141	284.75
294.372	292.75
294.603	290.75
294.833	283.75
295.064	296.75
295.295	287.75
295.525	303.75
295.756	310.75
295.987	289.75
296.217	303.75
296.448	302.75
296.679	295.75
296.909	299.75
297.14	304.75
297.37	292.75
297.601	305.75
297.831	278.75
298.062	307.75
298.292	316.75
298.523	312.75
298.753	307.75
298.984	313.75
299.214	309.75
299.445	294.75
299.675	329.75
299.905	321.75
300.136	298.75
300.366	309.75
300.597	304.75
300.827	323.75
301.057	317.75
301.288	320.75
301.518	340.75
301.748	334.75
301.979	332.75
302.209	324.75
302.439	346.75
302.669	319.75
302.9	319.75
303.13	315.75
303.36	343.75
303.59	347.75
303.82	341.75
304.051	312.75
304.281	311.75
304.511	320.75
304.741	323.75
304.971	338.75
305.201	337.75
305.431	339.75
305.661	333.75
305.891	312.75
306.121	312.75
306.352	339.75
306.582	347.75
306.812	325.75
307.042	334.75
307.272	337.75
307.502	329.75
307.731	337.75
307.961	341.75
308.191	344.75
308.421	365.75
308.651	337.75
308.881	310.75
309.111	350.75
309.341	323.75
309.571	342.75
309.8	328.75
310.03	338.75
310.26	347.75
310.49	333.75
310.72	336.75
310.949	344.75
311.179	361.75
311.409	357.75
311.639	342.75
311.868	333.75
312.098	340.75
312.328	340.75
312.557	364.75
312.787	357.75
313.017	378.75
313.246	370.75
313.476	348.75
313.706	355.75
313.935	353.75
314.165	356.75
314.394	369.75
314.624	371.75
314.853	371.75
315.083	358.75
315.312	364.75
315.542	354.75
315.771	371.75
316.001	352.75
316.23	366.75
316.46	360.75
316.689	371.75
316.919	360.75
317.148	379.75
317.377	364.75
317.607	371.75
317.836	369.75
318.065	352.75
318.295	368.75
318.524	344.75
318.753	363.75
318.983	358.75
319.212	387.75
319.441	369.75
319.67	359.75
319.9	352.75
320.129	364.75
320.358	361.75
320.587	354.75
320.816	383.75
321.046	382.75
321.275	384.75
321.504	359.75
321.733	368.75
321.962	372.75
322.191	357.75
322.42	382.75
322.649	357.75
322.878	373.75
323.108	387.75
323.337	387.75
323.566	416.75
323.795	407.75
324.024	421.75
324.253	472.75
324.482	609.75
324.71	835.75
324.939	1095.75
325.168	946.75
325.397	567.75
325.626	474.75
325.855	436.75
326.084	429.75
326.313	405.75
326.542	438.75
326.77	450.75
326.999	473.75
327.228	600.75
327.457	773.75
327.686	896.75
327.914	603.75
328.143	483.75
328.372	470.75
328.6	455.75
328.829	432.75
329.058	419.75
329.287	443.75
329.515	459.75
329.744	420.75
329.972	431.75
330.201	447.75
330.43	447.75
330.658	445.75
330.887	476.75
331.115	455.75
331.344	451.75
331.572	448.75
331.801	443.75
332.03	436.75
332.258	451.75
332.486	445.75
332.715	461.75
332.943	449.75
333.172	461.75
333.4	473.75
333.629	504.75
333.857	498.75
334.085	503.75
334.314	506.75
334.542	512.75
334.771	519.75
334.999	490.75
335.227	467.75
335.455	463.75
335.684	457.75
335.912	453.75
336.14	457.75
336.369	459.75
336.597	467.75
336.825	439.75
337.053	437.75
337.281	428.75
337.51	436.75
337.738	457.75
337.966	438.75
338.194	429.75
338.422	430.75
338.65	422.75
338.878	423.75
339.106	427.75
339.334	421.75
339.562	418.75
339.79	411.75
340.018	400.75
340.246	423.75
340.474	433.75
340.702	416.75
340.93	402.75
341.158	419.75
341.386	435.75
341.614	416.75
341.842	412.75
342.07	420.75
342.298	396.75
342.526	407.75
342.754	425.75
342.981	396.75
343.209	417.75
343.437	432.75
343.665	433.75
343.893	441.75
344.12	466.75
344.348	463.75
344.576	439.75
344.804	432.75
345.031	409.75
345.259	424.75
345.487	437.75
345.714	407.75
345.942	403.75
346.17	408.75
346.397	395.75
346.625	386.75
346.853	401.75
347.08	374.75
347.308	404.75
347.535	383.75
347.763	404.75
347.99	409.75
348.218	396.75
348.445	403.75
348.673	384.75
348.9	383.75
349.128	395.75
349.355	391.75
349.583	397.75
349.81	397.75
350.037	387.75
350.265	391.75
350.492	388.75
350.72	388.75
350.947	377.75
351.174	399.75
351.402	375.75
351.629	388.75
351.856	414.75
352.083	384.75
352.311	409.75
352.538	403.75
352.765	378.75
352.992	391.75
353.22	404.75
353.447	375.75
353.674	379.75
353.901	365.75
354.128	400.75
354.355	389.75
354.583	398.75
354.81	388.75
355.037	389.75
355.264	395.75
355.491	383.75
355.718	365.75
355.945	392.75
356.172	385.75
356.399	372.75
356.626	389.75
356.853	383.75
357.08	372.75
357.307	395.75
357.534	389.75
357.761	398.75
357.988	404.75
358.215	372.75
358.441	385.75
358.668	393.75
358.895	408.75
359.122	412.75
359.349	381.75
359.576	409.75
359.802	387.75
360.029	404.75
360.256	419.75
360.483	421.75
360.709	393.75
360.936	390.75
361.163	384.75
361.39	382.75
361.616	392.75
361.843	372.75
362.07	388.75
362.296	384.75
362.523	408.75
362.749	403.75
362.976	381.75
363.203	402.75
363.429	394.75
363.656	396.75
363.882	394.75
364.109	397.75
364.335	369.75
364.562	374.75
364.788	405.75
365.015	395.75
365.241	392.75
365.468	390.75
365.694	384.75
365.92	393.75
366.147	377.75
366.373	376.75
366.599	383.75
366.826	381.75
367.052	382.75
367.278	404.75
367.505	377.75
367.731	389.75
367.957	384.75
368.184	364.75
368.41	383.75
368.636	381.75
368.862	393.75
369.089	398.75
369.315	377.75
369.541	400.75
369.767	399.75
369.993	397.75
370.219	400.75
370.445	389.75
370.672	374.75
370.898	393.75
371.124	407.75
371.35	406.75
371.576	433.75
371.802	412.75
372.028	392.75
372.254	407.75
372.48	420.75
372.706	423.75
372.932	414.75
373.158	399.75
373.384	416.75
373.61	412.75
373.835	413.75
374.061	391.75
374.287	399.75
374.513	415.75
374.739	427.75
374.965	440.75
375.191	417.75
375.416	448.75
375.642	412.75
375.868	435.75
376.094	413.75
376.319	386.75
376.545	419.75
376.771	397.75
376.997	404.75
377.222	403.75
377.448	401.75
377.674	391.75
377.899	397.75
378.125	396.75
378.35	396.75
378.576	391.75
378.802	387.75
379.027	399.75
379.253	398.75
379.478	399.75
379.704	411.75
379.929	402.75
380.155	438.75
380.38	413.75
380.606	405.75
380.831	411.75
381.057	427.75
381.282	396.75
381.507	419.75
381.733	407.75
381.958	402.75
382.184	424.75
382.409	445.75
382.634	423.75
382.86	427.75
383.085	422.75
383.31	437.75
383.535	415.75
383.761	434.75
383.986	436.75
384.211	431.75
384.436	455.75
384.662	447.75
384.887	452.75
385.112	453.75
385.337	463.75
385.562	467.75
385.787	452.75
386.013	478.75
386.238	463.75
386.463	473.75
386.688	461.75
386.913	465.75
387.138	476.75
387.363	469.75
387.588	462.75
387.813	479.75
388.038	435.75
388.263	451.75
388.488	450.75
388.713	479.75
388.938	468.75
389.163	455.75
389.387	448.75
389.612	432.75
389.837	451.75
390.062	468.75
390.287	456.75
390.512	450.75
390.736	458.75
390.961	450.75
391.186	481.75
391.411	472.75
391.636	473.75
391.86	492.75
392.085	503.75
392.31	477.75
392.534	493.75
392.759	456.75
392.984	477.75
393.208	498.75
393.433	491.75
393.658	482.75
393.882	456.75
394.107	464.75
394.331	485.75
394.556	487.75
394.78	465.75
395.005	496.75
395.229	505.75
395.454	496.75
395.678	496.75
395.903	499.75
396.127	519.75
396.352	505.75
396.576	481.75
396.801	500.75
397.025	495.75
397.249	489.75
397.474	515.75
397.698	518.75
397.922	519.75
398.147	520.75
398.371	506.75
398.595	520.75
398.82	553.75
399.044	568.75
399.268	617.75
399.492	694.75
399.717	744.75
399.941	725.75
400.165	703.75
400.389	655.75
400.613	611.75
400.837	593.75
401.062	557.75
401.286	549.75
401.51	539.75
401.734	569.75
401.958	560.75
402.182	552.75
402.406	539.75
402.63	548.75
402.854	573.75
403.078	591.75
403.302	585.75
403.526	574.75
403.75	595.75
403.974	607.75
404.198	575.75
404.422	617.75
404.645	638.75
404.869	580.75
405.093	621.75
405.317	628.75
405.541	667.75
405.765	620.75
405.988	598.75
406.212	609.75
406.436	606.75
406.66	640.75
406.883	600.75
407.107	664.75
407.331	685.75
407.555	713.75
407.778	708.75
408.002	680.75
408.226	651.75
408.449	639.75
408.673	634.75
408.896	626.75
409.12	631.75
409.344	614.75
409.567	580.75
409.791	588.75
410.014	599.75
410.238	569.75
410.461	568.75
410.685	566.75
410.908	591.75
411.132	591.75
411.355	622.75
411.578	572.75
411.802	562.75
412.025	574.75
412.249	579.75
412.472	580.75
412.695	607.75
412.919	590.75
413.142	557.75
413.365	568.75
413.589	548.75
413.812	535.75
414.035	534.75
414.258	543.75
414.482	535.75
414.705	547.75
414.928	542.75
415.151	549.75
415.374	541.75
415.597	541.75
415.821	532.75
416.044	519.75
416.267	534.75
416.49	532.75
416.713	525.75
416.936	541.75
417.159	524.75
417.382	551.75
417.605	530.75
417.828	543.75
418.051	559.75
418.274	542.75
418.497	515.75
418.72	541.75
418.943	541.75
419.166	566.75
419.389	601.75
419.611	585.75
419.834	575.75
420.057	581.75
420.28	565.75
420.503	551.75
420.726	544.75
420.948	545.75
421.171	561.75
421.394	586.75
421.617	543.75
421.839	552.75
422.062	536.75
422.285	557.75
422.507	596.75
422.73	624.75
422.953	622.75
423.175	576.75
423.398	582.75
423.621	575.75
423.843	596.75
424.066	591.75
424.288	587.75
424.511	591.75
424.733	625.75
424.956	645.75
425.178	617.75
425.401	608.75
425.623	626.75
425.846	564.75
426.068	545.75
426.291	547.75
426.513	556.75
426.735	527.75
426.958	559.75
427.18	630.75
427.402	660.75
427.625	693.75
427.847	607.75
428.069	552.75
428.292	545.75
428.514	516.75
428.736	505.75
428.958	506.75
429.181	498.75
429.403	499.75
429.625	499.75
429.847	524.75
430.069	544.75
430.292	548.75
430.514	503.75
430.736	505.75
430.958	508.75
431.18	499.75
431.402	495.75
431.624	482.75
431.846	484.75
432.068	483.75
432.29	500.75
432.512	501.75
432.734	505.75
432.956	493.75
433.178	508.75
433.4	511.75
433.622	505.75
433.844	500.75
434.066	488.75
434.287	486.75
434.509	515.75
434.731	523.75
434.953	539.75
435.175	540.75
435.397	552.75
435.618	540.75
435.84	546.75
436.062	573.75
436.284	615.75
436.505	569.75
436.727	515.75
436.949	519.75
437.17	512.75
437.392	471.75
437.614	504.75
437.835	519.75
438.057	567.75
438.278	583.75
438.5	596.75
438.721	646.75
438.943	616.75
439.165	543.75
439.386	497.75
439.608	505.75
439.829	503.75
440.05	523.75
440.272	549.75
440.493	520.75
440.715	526.75
440.936	495.75
441.158	512.75
441.379	511.75
441.6	543.75
441.822	555.75
442.043	577.75
442.264	583.75
442.486	632.75
442.707	571.75
442.928	561.75
443.149	574.75
443.371	568.75
443.592	574.75
443.813	632.75
444.034	641.75
444.255	597.75
444.476	568.75
444.698	599.75
444.919	592.75
445.14	678.75
445.361	613.75
445.582	588.75
445.803	593.75
446.024	631.75
446.245	622.75
446.466	578.75
446.687	524.75
446.908	539.75
447.129	508.75
447.35	465.75
447.571	495.75
447.792	489.75
448.013	472.75
448.234	492.75
448.455	505.75
448.675	545.75
448.896	596.75
449.117	553.75
449.338	541.75
449.559	589.75
449.779	619.75
450	561.75
450.221	483.75
450.442	451.75
450.662	456.75
450.883	465.75
451.104	476.75
451.324	452.75
451.545	436.75
451.766	441.75
451.986	452.75
452.207	441.75
452.428	461.75
452.648	452.75
452.869	436.75
453.089	436.75
453.31	435.75
453.53	453.75
453.751	439.75
453.971	432.75
454.192	439.75
454.412	455.75
454.633	426.75
454.853	418.75
455.073	422.75
455.294	463.75
455.514	485.75
455.734	462.75
455.955	422.75
456.175	436.75
456.395	427.75
456.616	429.75
456.836	420.75
457.056	424.75
457.276	406.75
457.497	436.75
457.717	423.75
457.937	436.75
458.157	427.75
458.377	445.75
458.598	442.75
458.818	470.75
459.038	510.75
459.258	512.75
459.478	482.75
459.698	473.75
459.918	503.75
460.138	508.75
460.358	513.75
460.578	534.75
460.798	507.75
461.018	519.75
461.238	544.75
461.458	518.75
461.678	527.75
461.898	530.75
462.118	532.75
462.338	551.75
462.558	565.75
462.777	573.75
462.997	625.75
463.217	652.75
463.437	657.75
463.657	611.75
463.876	574.75
464.096	583.75
464.316	587.75
464.536	592.75
464.755	588.75
464.975	566.75
465.195	568.75
465.414	592.75
465.634	523.75
465.854	507.75
466.073	496.75
466.293	469.75
466.512	461.75
466.732	459.75
466.951	464.75
467.171	451.75
467.391	461.75
467.61	464.75
467.829	465.75
468.049	473.75
468.268	456.75
468.488	479.75
468.707	437.75
468.927	441.75
469.146	468.75
469.365	483.75
469.585	434.75
469.804	476.75
470.023	460.75
470.243	449.75
470.462	487.75
470.681	492.75
470.901	470.75
471.12	483.75
471.339	472.75
471.558	461.75
471.777	470.75
471.997	447.75
472.216	443.75
472.435	475.75
472.654	452.75
472.873	455.75
473.092	438.75
473.311	455.75
473.53	442.75
473.749	443.75
473.968	482.75
474.187	507.75
474.406	512.75
474.625	456.75
474.844	479.75
475.063	446.75
475.282	431.75
475.501	464.75
475.72	471.75
475.939	475.75
476.158	447.75
476.377	470.75
476.596	448.75
476.814	471.75
477.033	477.75
477.252	478.75
477.471	496.75
477.69	494.75
477.908	482.75
478.127	511.75
478.346	535.75
478.564	545.75
478.783	519.75
479.002	515.75
479.22	539.75
479.439	528.75
479.658	547.75
479.876	560.75
480.095	568.75
480.313	579.75
480.532	581.75
480.751	587.75
480.969	568.75
481.188	579.75
481.406	615.75
481.624	552.75
481.843	541.75
482.061	505.75
482.28	527.75
482.498	503.75
482.717	519.75
482.935	524.75
483.153	503.75
483.372	519.75
483.59	511.75
483.808	531.75
484.027	524.75
484.245	515.75
484.463	504.75
484.681	532.75
484.9	513.75
485.118	516.75
485.336	547.75
485.554	525.75
485.772	558.75
485.99	552.75
486.209	551.75
486.427	525.75
486.645	546.75
486.863	547.75
487.081	563.75
487.299	549.75
487.517	549.75
487.735	552.75
487.953	578.75
488.171	576.75
488.389	547.75
488.607	557.75
488.825	530.75
489.043	549.75
489.261	518.75
489.479	581.75
489.696	549.75
489.914	548.75
490.132	561.75
490.35	584.75
490.568	556.75
490.786	584.75
491.003	584.75
491.221	569.75
491.439	579.75
491.657	607.75
491.874	588.75
492.092	585.75
492.31	609.75
492.527	600.75
492.745	593.75
492.963	631.75
493.18	619.75
493.398	629.75
493.615	608.75
493.833	616.75
494.05	624.75
494.268	614.75
494.485	639.75
494.703	640.75
494.92	632.75
495.138	622.75
495.355	658.75
495.573	620.75
495.79	615.75
496.008	639.75
496.225	627.75
496.442	651.75
496.66	633.75
496.877	639.75
497.094	641.75
497.312	642.75
497.529	646.75
497.746	670.75
497.963	686.75
498.181	687.75
498.398	735.75
498.615	744.75
498.832	802.75
499.049	823.75
499.267	843.75
499.484	925.75
499.701	984.75
499.918	1008.75
500.135	1103.75
500.352	1231.75
500.569	1214.75
500.786	1246.75
501.003	1212.75
501.22	1117.75
501.437	1041.75
501.654	967.75
501.871	948.75
502.088	875.75
