Data from 1960PennyLincolnUp.LampE6.200Scan.07172019.P1_HRD10591_13-06-31-002.txt Node
Date: Thu Jul 18 13:06:31 EDT 2019
User: cochatt
Spectrometer: HR+D1059
Trigger mode: 1
Integration Time (sec): 1.000000E-1
Scans to average: 1
Electric dark correction enabled: true
Nonlinearity correction enabled: false
Boxcar width: 0
XAxis mode: Wavelengths
Number of Pixels in Spectrum: 2048
>>>>>Begin Spectral Data<<<<<
223.165	-23.12
223.4	-23.12
223.635	-23.12
223.869	-12.12
224.104	-16.12
224.338	-9.12
224.573	-7.12
224.808	-6.12
225.042	-4.12
225.277	-13.12
225.511	-11.12
225.746	-2.12
225.98	9.88
226.215	14.88
226.449	20.88
226.683	27.88
226.918	9.88
227.152	20.88
227.387	30.88
227.621	40.88
227.856	36.88
228.09	43.88
228.324	49.88
228.559	59.88
228.793	54.88
229.027	88.88
229.262	96.88
229.496	101.88
229.73	114.88
229.964	127.88
230.199	104.88
230.433	101.88
230.667	105.88
230.901	116.88
231.136	93.88
231.37	98.88
231.604	109.88
231.838	113.88
232.072	109.88
232.306	124.88
232.541	104.88
232.775	101.88
233.009	101.88
233.243	110.88
233.477	116.88
233.711	127.88
233.945	119.88
234.179	129.88
234.413	124.88
234.647	116.88
234.881	107.88
235.115	120.88
235.349	123.88
235.583	97.88
235.817	119.88
236.051	125.88
236.285	117.88
236.519	111.88
236.753	113.88
236.987	149.88
237.221	169.88
237.455	178.88
237.689	144.88
237.922	130.88
238.156	126.88
238.39	132.88
238.624	133.88
238.858	114.88
239.091	126.88
239.325	118.88
239.559	123.88
239.793	122.88
240.027	131.88
240.26	149.88
240.494	126.88
240.728	140.88
240.961	136.88
241.195	137.88
241.429	134.88
241.662	121.88
241.896	137.88
242.13	127.88
242.363	153.88
242.597	154.88
242.83	137.88
243.064	127.88
243.298	127.88
243.531	124.88
243.765	145.88
243.998	142.88
244.232	138.88
244.465	134.88
244.699	144.88
244.932	162.88
245.166	133.88
245.399	136.88
245.633	147.88
245.866	141.88
246.099	145.88
246.333	143.88
246.566	133.88
246.8	148.88
247.033	142.88
247.266	149.88
247.5	151.88
247.733	166.88
247.966	158.88
248.2	169.88
248.433	153.88
248.666	160.88
248.899	175.88
249.133	195.88
249.366	193.88
249.599	176.88
249.832	191.88
250.066	178.88
250.299	165.88
250.532	186.88
250.765	186.88
250.998	202.88
251.231	198.88
251.465	182.88
251.698	169.88
251.931	179.88
252.164	203.88
252.397	186.88
252.63	190.88
252.863	178.88
253.096	205.88
253.329	196.88
253.562	193.88
253.795	197.88
254.028	187.88
254.261	190.88
254.494	215.88
254.727	236.88
254.96	227.88
255.193	233.88
255.426	222.88
255.659	195.88
255.892	204.88
256.124	198.88
256.357	210.88
256.59	199.88
256.823	196.88
257.056	203.88
257.289	193.88
257.521	189.88
257.754	193.88
257.987	207.88
258.22	181.88
258.452	198.88
258.685	181.88
258.918	198.88
259.151	203.88
259.383	195.88
259.616	191.88
259.849	202.88
260.081	228.88
260.314	236.88
260.547	237.88
260.779	211.88
261.012	203.88
261.244	229.88
261.477	202.88
261.71	206.88
261.942	210.88
262.175	215.88
262.407	215.88
262.64	216.88
262.872	211.88
263.105	209.88
263.337	208.88
263.57	209.88
263.802	225.88
264.035	199.88
264.267	212.88
264.499	219.88
264.732	199.88
264.964	211.88
265.197	200.88
265.429	218.88
265.661	200.88
265.894	214.88
266.126	209.88
266.358	228.88
266.591	213.88
266.823	226.88
267.055	223.88
267.287	223.88
267.52	224.88
267.752	226.88
267.984	221.88
268.216	220.88
268.448	231.88
268.681	217.88
268.913	237.88
269.145	255.88
269.377	262.88
269.609	264.88
269.841	243.88
270.073	250.88
270.306	266.88
270.538	288.88
270.77	273.88
271.002	278.88
271.234	263.88
271.466	281.88
271.698	288.88
271.93	275.88
272.162	299.88
272.394	291.88
272.626	243.88
272.858	283.88
273.09	258.88
273.322	265.88
273.553	250.88
273.785	257.88
274.017	249.88
274.249	258.88
274.481	265.88
274.713	260.88
274.945	263.88
275.176	249.88
275.408	256.88
275.64	269.88
275.872	255.88
276.104	271.88
276.335	261.88
276.567	267.88
276.799	298.88
277.031	302.88
277.262	286.88
277.494	293.88
277.726	289.88
277.957	254.88
278.189	272.88
278.421	264.88
278.652	254.88
278.884	271.88
279.115	261.88
279.347	254.88
279.579	262.88
279.81	261.88
280.042	248.88
280.273	278.88
280.505	263.88
280.736	270.88
280.968	257.88
281.199	271.88
281.431	290.88
281.662	277.88
281.894	269.88
282.125	282.88
282.356	293.88
282.588	300.88
282.819	285.88
283.051	277.88
283.282	271.88
283.513	279.88
283.745	281.88
283.976	287.88
284.207	289.88
284.439	291.88
284.67	293.88
284.901	282.88
285.132	292.88
285.364	293.88
285.595	293.88
285.826	279.88
286.057	277.88
286.288	302.88
286.52	300.88
286.751	302.88
286.982	299.88
287.213	281.88
287.444	298.88
287.675	295.88
287.906	302.88
288.138	317.88
288.369	305.88
288.6	305.88
288.831	308.88
289.062	322.88
289.293	296.88
289.524	302.88
289.755	300.88
289.986	285.88
290.217	297.88
290.448	310.88
290.679	323.88
290.91	303.88
291.141	303.88
291.371	306.88
291.602	302.88
291.833	313.88
292.064	303.88
292.295	297.88
292.526	312.88
292.757	318.88
292.987	306.88
293.218	313.88
293.449	318.88
293.68	319.88
293.91	306.88
294.141	316.88
294.372	300.88
294.603	307.88
294.833	320.88
295.064	304.88
295.295	303.88
295.525	327.88
295.756	306.88
295.987	317.88
296.217	329.88
296.448	334.88
296.679	329.88
296.909	321.88
297.14	335.88
297.37	319.88
297.601	326.88
297.831	313.88
298.062	329.88
298.292	331.88
298.523	328.88
298.753	331.88
298.984	336.88
299.214	331.88
299.445	327.88
299.675	342.88
299.905	343.88
300.136	338.88
300.366	324.88
300.597	343.88
300.827	340.88
301.057	344.88
301.288	357.88
301.518	343.88
301.748	344.88
301.979	359.88
302.209	343.88
302.439	358.88
302.669	367.88
302.9	344.88
303.13	354.88
303.36	344.88
303.59	345.88
303.82	347.88
304.051	342.88
304.281	358.88
304.511	345.88
304.741	358.88
304.971	362.88
305.201	337.88
305.431	355.88
305.661	361.88
305.891	340.88
306.121	353.88
306.352	355.88
306.582	351.88
306.812	345.88
307.042	338.88
307.272	334.88
307.502	353.88
307.731	349.88
307.961	355.88
308.191	358.88
308.421	356.88
308.651	374.88
308.881	347.88
309.111	356.88
309.341	339.88
309.571	350.88
309.8	374.88
310.03	373.88
310.26	386.88
310.49	377.88
310.72	377.88
310.949	384.88
311.179	364.88
311.409	383.88
311.639	377.88
311.868	366.88
312.098	370.88
312.328	404.88
312.557	390.88
312.787	386.88
313.017	387.88
313.246	395.88
313.476	397.88
313.706	376.88
313.935	381.88
314.165	393.88
314.394	390.88
314.624	399.88
314.853	400.88
315.083	371.88
315.312	383.88
315.542	369.88
315.771	395.88
316.001	377.88
316.23	390.88
316.46	362.88
316.689	387.88
316.919	379.88
317.148	396.88
317.377	397.88
317.607	390.88
317.836	393.88
318.065	372.88
318.295	367.88
318.524	394.88
318.753	386.88
318.983	390.88
319.212	372.88
319.441	393.88
319.67	385.88
319.9	379.88
320.129	375.88
320.358	389.88
320.587	391.88
320.816	389.88
321.046	378.88
321.275	386.88
321.504	408.88
321.733	414.88
321.962	389.88
322.191	407.88
322.42	389.88
322.649	415.88
322.878	440.88
323.108	432.88
323.337	446.88
323.566	450.88
323.795	463.88
324.024	488.88
324.253	555.88
324.482	712.88
324.71	1039.88
324.939	1401.88
325.168	1155.88
325.397	635.88
325.626	506.88
325.855	441.88
326.084	451.88
326.313	450.88
326.542	463.88
326.77	505.88
326.999	551.88
327.228	720.88
327.457	977.88
327.686	1090.88
327.914	726.88
328.143	546.88
328.372	505.88
328.6	494.88
328.829	511.88
329.058	482.88
329.287	493.88
329.515	478.88
329.744	460.88
329.972	459.88
330.201	474.88
330.43	519.88
330.658	526.88
330.887	532.88
331.115	519.88
331.344	477.88
331.572	485.88
331.801	482.88
332.03	484.88
332.258	483.88
332.486	475.88
332.715	495.88
332.943	494.88
333.172	504.88
333.4	506.88
333.629	539.88
333.857	527.88
334.085	534.88
334.314	543.88
334.542	576.88
334.771	567.88
334.999	541.88
335.227	532.88
335.455	507.88
335.684	507.88
335.912	507.88
336.14	508.88
336.369	474.88
336.597	492.88
336.825	477.88
337.053	472.88
337.281	466.88
337.51	462.88
337.738	466.88
337.966	495.88
338.194	460.88
338.422	456.88
338.65	464.88
338.878	458.88
339.106	457.88
339.334	450.88
339.562	452.88
339.79	434.88
340.018	436.88
340.246	429.88
340.474	441.88
340.702	441.88
340.93	467.88
341.158	439.88
341.386	438.88
341.614	455.88
341.842	443.88
342.07	453.88
342.298	423.88
342.526	423.88
342.754	440.88
342.981	442.88
343.209	450.88
343.437	458.88
343.665	465.88
343.893	473.88
344.12	511.88
344.348	495.88
344.576	474.88
344.804	480.88
345.031	465.88
345.259	454.88
345.487	447.88
345.714	446.88
345.942	420.88
346.17	429.88
346.397	422.88
346.625	439.88
346.853	450.88
347.08	422.88
347.308	419.88
347.535	441.88
347.763	436.88
347.99	427.88
348.218	434.88
348.445	433.88
348.673	438.88
348.9	438.88
349.128	415.88
349.355	406.88
349.583	420.88
349.81	421.88
350.037	427.88
350.265	430.88
350.492	396.88
350.72	423.88
350.947	409.88
351.174	430.88
351.402	416.88
351.629	416.88
351.856	417.88
352.083	419.88
352.311	412.88
352.538	443.88
352.765	418.88
352.992	407.88
353.22	409.88
353.447	423.88
353.674	418.88
353.901	409.88
354.128	389.88
354.355	411.88
354.583	399.88
354.81	421.88
355.037	414.88
355.264	390.88
355.491	412.88
355.718	401.88
355.945	404.88
356.172	413.88
356.399	410.88
356.626	411.88
356.853	411.88
357.08	400.88
357.307	417.88
357.534	389.88
357.761	414.88
357.988	408.88
358.215	421.88
358.441	405.88
358.668	415.88
358.895	398.88
359.122	404.88
359.349	411.88
359.576	414.88
359.802	421.88
360.029	447.88
360.256	449.88
360.483	442.88
360.709	427.88
360.936	407.88
361.163	413.88
361.39	425.88
361.616	419.88
361.843	436.88
362.07	425.88
362.296	426.88
362.523	414.88
362.749	408.88
362.976	437.88
363.203	429.88
363.429	408.88
363.656	410.88
363.882	424.88
364.109	425.88
364.335	427.88
364.562	431.88
364.788	405.88
365.015	403.88
365.241	417.88
365.468	416.88
365.694	401.88
365.92	414.88
366.147	399.88
366.373	434.88
366.599	393.88
366.826	410.88
367.052	419.88
367.278	420.88
367.505	415.88
367.731	418.88
367.957	393.88
368.184	424.88
368.41	422.88
368.636	407.88
368.862	416.88
369.089	412.88
369.315	432.88
369.541	442.88
369.767	424.88
369.993	422.88
370.219	415.88
370.445	409.88
370.672	431.88
370.898	419.88
371.124	426.88
371.35	430.88
371.576	451.88
371.802	426.88
372.028	443.88
372.254	437.88
372.48	423.88
372.706	426.88
372.932	442.88
373.158	436.88
373.384	436.88
373.61	438.88
373.835	435.88
374.061	439.88
374.287	443.88
374.513	438.88
374.739	452.88
374.965	444.88
375.191	451.88
375.416	451.88
375.642	443.88
375.868	443.88
376.094	449.88
376.319	437.88
376.545	435.88
376.771	425.88
376.997	428.88
377.222	447.88
377.448	449.88
377.674	433.88
377.899	418.88
378.125	442.88
378.35	442.88
378.576	431.88
378.802	417.88
379.027	449.88
379.253	430.88
379.478	425.88
379.704	419.88
379.929	413.88
380.155	438.88
380.38	442.88
380.606	430.88
380.831	418.88
381.057	444.88
381.282	450.88
381.507	441.88
381.733	435.88
381.958	432.88
382.184	447.88
382.409	453.88
382.634	481.88
382.86	458.88
383.085	451.88
383.31	470.88
383.535	477.88
383.761	449.88
383.986	493.88
384.211	472.88
384.436	472.88
384.662	474.88
384.887	472.88
385.112	478.88
385.337	482.88
385.562	477.88
385.787	500.88
386.013	490.88
386.238	493.88
386.463	495.88
386.688	502.88
386.913	493.88
387.138	486.88
387.363	478.88
387.588	480.88
387.813	480.88
388.038	482.88
388.263	492.88
388.488	479.88
388.713	499.88
388.938	481.88
389.163	508.88
389.387	479.88
389.612	460.88
389.837	477.88
390.062	491.88
390.287	464.88
390.512	475.88
390.736	498.88
390.961	486.88
391.186	490.88
391.411	504.88
391.636	501.88
391.86	526.88
392.085	535.88
392.31	528.88
392.534	507.88
392.759	514.88
392.984	501.88
393.208	505.88
393.433	508.88
393.658	506.88
393.882	515.88
394.107	517.88
394.331	517.88
394.556	506.88
394.78	494.88
395.005	514.88
395.229	511.88
395.454	508.88
395.678	537.88
395.903	534.88
396.127	536.88
396.352	522.88
396.576	505.88
396.801	509.88
397.025	529.88
397.249	520.88
397.474	531.88
397.698	543.88
397.922	551.88
398.147	560.88
398.371	567.88
398.595	575.88
398.82	585.88
399.044	594.88
399.268	638.88
399.492	697.88
399.717	773.88
399.941	777.88
400.165	752.88
400.389	714.88
400.613	654.88
400.837	616.88
401.062	608.88
401.286	585.88
401.51	559.88
401.734	587.88
401.958	585.88
402.182	565.88
402.406	614.88
402.63	616.88
402.854	606.88
403.078	620.88
403.302	606.88
403.526	637.88
403.75	637.88
403.974	622.88
404.198	634.88
404.422	650.88
404.645	631.88
404.869	638.88
405.093	663.88
405.317	690.88
405.541	681.88
405.765	687.88
405.988	643.88
406.212	641.88
406.436	660.88
406.66	673.88
406.883	653.88
407.107	704.88
407.331	721.88
407.555	787.88
407.778	760.88
408.002	728.88
408.226	672.88
408.449	672.88
408.673	661.88
408.896	689.88
409.12	687.88
409.344	677.88
409.567	621.88
409.791	618.88
410.014	586.88
410.238	600.88
410.461	607.88
410.685	617.88
410.908	613.88
411.132	634.88
411.355	650.88
411.578	626.88
411.802	612.88
412.025	598.88
412.249	611.88
412.472	628.88
412.695	625.88
412.919	636.88
413.142	602.88
413.365	589.88
413.589	582.88
413.812	585.88
414.035	575.88
414.258	585.88
414.482	571.88
414.705	575.88
414.928	555.88
415.151	561.88
415.374	564.88
415.597	577.88
415.821	581.88
416.044	557.88
416.267	567.88
416.49	563.88
416.713	525.88
416.936	575.88
417.159	557.88
417.382	575.88
417.605	579.88
417.828	576.88
418.051	609.88
418.274	596.88
418.497	581.88
418.72	586.88
418.943	576.88
419.166	594.88
419.389	617.88
419.611	646.88
419.834	641.88
420.057	601.88
420.28	577.88
420.503	552.88
420.726	571.88
420.948	577.88
421.171	633.88
421.394	626.88
421.617	591.88
421.839	565.88
422.062	582.88
422.285	579.88
422.507	634.88
422.73	667.88
422.953	657.88
423.175	611.88
423.398	602.88
423.621	631.88
423.843	624.88
424.066	623.88
424.288	619.88
424.511	633.88
424.733	678.88
424.956	717.88
425.178	682.88
425.401	669.88
425.623	682.88
425.846	600.88
426.068	598.88
426.291	585.88
426.513	576.88
426.735	562.88
426.958	613.88
427.18	669.88
427.402	753.88
427.625	774.88
427.847	709.88
428.069	642.88
428.292	592.88
428.514	571.88
428.736	545.88
428.958	544.88
429.181	529.88
429.403	531.88
429.625	553.88
429.847	568.88
430.069	578.88
430.292	601.88
430.514	530.88
430.736	525.88
430.958	545.88
431.18	531.88
431.402	522.88
431.624	527.88
431.846	531.88
432.068	523.88
432.29	531.88
432.512	515.88
432.734	553.88
432.956	535.88
433.178	529.88
433.4	535.88
433.622	527.88
433.844	512.88
434.066	524.88
434.287	536.88
434.509	551.88
434.731	557.88
434.953	555.88
435.175	589.88
435.397	615.88
435.618	595.88
435.84	607.88
436.062	643.88
436.284	670.88
436.505	602.88
436.727	556.88
436.949	547.88
437.17	536.88
437.392	530.88
437.614	538.88
437.835	544.88
438.057	605.88
438.278	664.88
438.5	683.88
438.721	741.88
438.943	698.88
439.165	591.88
439.386	555.88
439.608	547.88
439.829	585.88
440.05	605.88
440.272	613.88
440.493	590.88
440.715	557.88
440.936	538.88
441.158	551.88
441.379	562.88
441.6	593.88
441.822	587.88
442.043	623.88
442.264	674.88
442.486	686.88
442.707	609.88
442.928	630.88
443.149	596.88
443.371	616.88
443.592	641.88
443.813	710.88
444.034	714.88
444.255	653.88
444.476	627.88
444.698	616.88
444.919	659.88
445.14	736.88
445.361	687.88
445.582	639.88
445.803	664.88
446.024	703.88
446.245	682.88
446.466	649.88
446.687	592.88
446.908	569.88
447.129	547.88
447.35	527.88
447.571	535.88
447.792	513.88
448.013	529.88
448.234	529.88
448.455	535.88
448.675	603.88
448.896	697.88
449.117	625.88
449.338	581.88
449.559	679.88
449.779	717.88
450	597.88
450.221	528.88
450.442	501.88
450.662	489.88
450.883	523.88
451.104	515.88
451.324	505.88
451.545	467.88
451.766	506.88
451.986	457.88
452.207	464.88
452.428	442.88
452.648	478.88
452.869	481.88
453.089	484.88
453.31	488.88
453.53	481.88
453.751	473.88
453.971	466.88
454.192	490.88
454.412	475.88
454.633	460.88
454.853	438.88
455.073	443.88
455.294	486.88
455.514	523.88
455.734	518.88
455.955	466.88
456.175	443.88
456.395	453.88
456.616	458.88
456.836	439.88
457.056	426.88
457.276	431.88
457.497	453.88
457.717	440.88
457.937	446.88
458.157	467.88
458.377	469.88
458.598	476.88
458.818	480.88
459.038	564.88
459.258	577.88
459.478	531.88
459.698	525.88
459.918	517.88
460.138	535.88
460.358	567.88
460.578	556.88
460.798	562.88
461.018	582.88
461.238	542.88
461.458	573.88
461.678	564.88
461.898	556.88
462.118	558.88
462.338	571.88
462.558	605.88
462.777	616.88
462.997	646.88
463.217	691.88
463.437	680.88
463.657	656.88
463.876	620.88
464.096	612.88
464.316	591.88
464.536	646.88
464.755	610.88
464.975	590.88
465.195	631.88
465.414	631.88
465.634	566.88
465.854	502.88
466.073	514.88
466.293	505.88
466.512	507.88
466.732	480.88
466.951	489.88
467.171	455.88
467.391	489.88
467.61	495.88
467.829	506.88
468.049	515.88
468.268	497.88
468.488	470.88
468.707	465.88
468.927	465.88
469.146	459.88
469.365	490.88
469.585	484.88
469.804	494.88
470.023	511.88
470.243	480.88
470.462	521.88
470.681	521.88
470.901	503.88
471.12	501.88
471.339	515.88
471.558	482.88
471.777	483.88
471.997	482.88
472.216	474.88
472.435	526.88
472.654	503.88
472.873	499.88
473.092	482.88
473.311	470.88
473.53	445.88
473.749	503.88
473.968	504.88
474.187	577.88
474.406	575.88
474.625	510.88
474.844	461.88
475.063	471.88
475.282	491.88
475.501	492.88
475.72	519.88
475.939	482.88
476.158	491.88
476.377	500.88
476.596	495.88
476.814	495.88
477.033	505.88
477.252	509.88
477.471	495.88
477.69	534.88
477.908	545.88
478.127	543.88
478.346	531.88
478.564	563.88
478.783	548.88
479.002	572.88
479.22	576.88
479.439	545.88
479.658	575.88
479.876	591.88
480.095	575.88
480.313	617.88
480.532	609.88
480.751	614.88
480.969	640.88
481.188	639.88
481.406	635.88
481.624	587.88
481.843	543.88
482.061	564.88
482.28	551.88
482.498	541.88
482.717	538.88
482.935	546.88
483.153	538.88
483.372	572.88
483.59	559.88
483.808	545.88
484.027	543.88
484.245	547.88
484.463	561.88
484.681	551.88
484.9	560.88
485.118	570.88
485.336	569.88
485.554	584.88
485.772	590.88
485.99	571.88
486.209	566.88
486.427	570.88
486.645	579.88
486.863	601.88
487.081	607.88
487.299	598.88
487.517	593.88
487.735	580.88
487.953	578.88
488.171	565.88
488.389	606.88
488.607	578.88
488.825	569.88
489.043	584.88
489.261	597.88
489.479	593.88
489.696	584.88
489.914	585.88
490.132	602.88
490.35	594.88
490.568	610.88
490.786	624.88
491.003	625.88
491.221	628.88
491.439	634.88
491.657	664.88
491.874	667.88
492.092	650.88
492.31	711.88
492.527	643.88
492.745	657.88
492.963	676.88
493.18	679.88
493.398	671.88
493.615	676.88
493.833	679.88
494.05	696.88
494.268	682.88
494.485	677.88
494.703	718.88
494.92	677.88
495.138	678.88
495.355	662.88
495.573	682.88
495.79	671.88
496.008	683.88
496.225	662.88
496.442	683.88
496.66	677.88
496.877	695.88
497.094	693.88
497.312	722.88
497.529	702.88
497.746	733.88
497.963	708.88
498.181	759.88
498.398	748.88
498.615	790.88
498.832	834.88
499.049	856.88
499.267	919.88
499.484	970.88
499.701	1013.88
499.918	1113.88
500.135	1209.88
500.352	1282.88
500.569	1352.88
500.786	1321.88
501.003	1282.88
501.22	1206.88
501.437	1108.88
501.654	1037.88
501.871	991.88
