Data from 1960PennyLincolnUp.LampE5.5.200Scan.07172019.P1.ChangedAngle_HRD10591_13-15-32-822.txt Node
Date: Thu Jul 18 13:15:32 EDT 2019
User: cochatt
Spectrometer: HR+D1059
Trigger mode: 1
Integration Time (sec): 1.000000E-1
Scans to average: 1
Electric dark correction enabled: true
Nonlinearity correction enabled: false
Boxcar width: 0
XAxis mode: Wavelengths
Number of Pixels in Spectrum: 2048
>>>>>Begin Spectral Data<<<<<
223.165	-19.12
223.4	-19.12
223.635	-19.12
223.869	-30.12
224.104	-11.12
224.338	2.88
224.573	-22.12
224.808	-17.12
225.042	-18.12
225.277	11.88
225.511	-5.12
225.746	8.88
225.98	18.88
226.215	8.88
226.449	14.88
226.683	7.88
226.918	22.88
227.152	25.88
227.387	45.88
227.621	36.88
227.856	54.88
228.09	37.88
228.324	44.88
228.559	44.88
228.793	64.88
229.027	87.88
229.262	106.88
229.496	114.88
229.73	116.88
229.964	126.88
230.199	101.88
230.433	97.88
230.667	84.88
230.901	99.88
231.136	123.88
231.37	114.88
231.604	106.88
231.838	102.88
232.072	108.88
232.306	114.88
232.541	108.88
232.775	100.88
233.009	100.88
233.243	107.88
233.477	118.88
233.711	118.88
233.945	106.88
234.179	124.88
234.413	104.88
234.647	121.88
234.881	108.88
235.115	122.88
235.349	122.88
235.583	124.88
235.817	116.88
236.051	120.88
236.285	116.88
236.519	109.88
236.753	116.88
236.987	127.88
237.221	155.88
237.455	185.88
237.689	176.88
237.922	130.88
238.156	138.88
238.39	142.88
238.624	122.88
238.858	131.88
239.091	114.88
239.325	131.88
239.559	128.88
239.793	132.88
240.027	113.88
240.26	137.88
240.494	146.88
240.728	143.88
240.961	130.88
241.195	137.88
241.429	151.88
241.662	126.88
241.896	131.88
242.13	123.88
242.363	140.88
242.597	137.88
242.83	139.88
243.064	120.88
243.298	139.88
243.531	128.88
243.765	124.88
243.998	154.88
244.232	145.88
244.465	135.88
244.699	137.88
244.932	133.88
245.166	146.88
245.399	151.88
245.633	139.88
245.866	136.88
246.099	150.88
246.333	136.88
246.566	150.88
246.8	159.88
247.033	128.88
247.266	154.88
247.5	149.88
247.733	163.88
247.966	168.88
248.2	158.88
248.433	163.88
248.666	167.88
248.899	170.88
249.133	159.88
249.366	174.88
249.599	179.88
249.832	175.88
250.066	161.88
250.299	174.88
250.532	168.88
250.765	191.88
250.998	203.88
251.231	202.88
251.465	195.88
251.698	189.88
251.931	180.88
252.164	177.88
252.397	196.88
252.63	211.88
252.863	188.88
253.096	194.88
253.329	190.88
253.562	196.88
253.795	188.88
254.028	191.88
254.261	208.88
254.494	210.88
254.727	238.88
254.96	259.88
255.193	250.88
255.426	220.88
255.659	208.88
255.892	217.88
256.124	229.88
256.357	234.88
256.59	214.88
256.823	197.88
257.056	191.88
257.289	186.88
257.521	193.88
257.754	212.88
257.987	199.88
258.22	198.88
258.452	203.88
258.685	194.88
258.918	203.88
259.151	202.88
259.383	204.88
259.616	214.88
259.849	201.88
260.081	221.88
260.314	255.88
260.547	240.88
260.779	231.88
261.012	223.88
261.244	218.88
261.477	215.88
261.71	213.88
261.942	215.88
262.175	232.88
262.407	213.88
262.64	198.88
262.872	211.88
263.105	216.88
263.337	195.88
263.57	213.88
263.802	213.88
264.035	210.88
264.267	215.88
264.499	187.88
264.732	206.88
264.964	222.88
265.197	217.88
265.429	208.88
265.661	219.88
265.894	192.88
266.126	226.88
266.358	218.88
266.591	214.88
266.823	215.88
267.055	222.88
267.287	236.88
267.52	219.88
267.752	224.88
267.984	217.88
268.216	237.88
268.448	238.88
268.681	219.88
268.913	246.88
269.145	244.88
269.377	279.88
269.609	248.88
269.841	267.88
270.073	241.88
270.306	271.88
270.538	289.88
270.77	273.88
271.002	265.88
271.234	273.88
271.466	261.88
271.698	295.88
271.93	287.88
272.162	291.88
272.394	271.88
272.626	271.88
272.858	272.88
273.09	264.88
273.322	247.88
273.553	265.88
273.785	246.88
274.017	251.88
274.249	264.88
274.481	261.88
274.713	247.88
274.945	263.88
275.176	263.88
275.408	260.88
275.64	243.88
275.872	252.88
276.104	271.88
276.335	276.88
276.567	276.88
276.799	265.88
277.031	294.88
277.262	285.88
277.494	280.88
277.726	291.88
277.957	270.88
278.189	267.88
278.421	272.88
278.652	260.88
278.884	286.88
279.115	257.88
279.347	266.88
279.579	297.88
279.81	283.88
280.042	264.88
280.273	279.88
280.505	254.88
280.736	274.88
280.968	267.88
281.199	290.88
281.431	256.88
281.662	269.88
281.894	270.88
282.125	272.88
282.356	264.88
282.588	292.88
282.819	290.88
283.051	271.88
283.282	278.88
283.513	278.88
283.745	271.88
283.976	289.88
284.207	274.88
284.439	273.88
284.67	271.88
284.901	279.88
285.132	275.88
285.364	283.88
285.595	276.88
285.826	281.88
286.057	271.88
286.288	287.88
286.52	267.88
286.751	277.88
286.982	278.88
287.213	265.88
287.444	287.88
287.675	313.88
287.906	302.88
288.138	303.88
288.369	298.88
288.6	308.88
288.831	303.88
289.062	322.88
289.293	272.88
289.524	283.88
289.755	275.88
289.986	285.88
290.217	298.88
290.448	275.88
290.679	288.88
290.91	295.88
291.141	288.88
291.371	278.88
291.602	304.88
291.833	306.88
292.064	293.88
292.295	317.88
292.526	303.88
292.757	304.88
292.987	287.88
293.218	284.88
293.449	309.88
293.68	300.88
293.91	280.88
294.141	300.88
294.372	274.88
294.603	306.88
294.833	305.88
295.064	317.88
295.295	307.88
295.525	300.88
295.756	314.88
295.987	303.88
296.217	310.88
296.448	305.88
296.679	305.88
296.909	324.88
297.14	290.88
297.37	283.88
297.601	291.88
297.831	283.88
298.062	297.88
298.292	291.88
298.523	304.88
298.753	288.88
298.984	305.88
299.214	324.88
299.445	311.88
299.675	314.88
299.905	322.88
300.136	300.88
300.366	321.88
300.597	301.88
300.827	342.88
301.057	312.88
301.288	333.88
301.518	358.88
301.748	311.88
301.979	308.88
302.209	331.88
302.439	320.88
302.669	313.88
302.9	338.88
303.13	311.88
303.36	341.88
303.59	344.88
303.82	344.88
304.051	334.88
304.281	325.88
304.511	333.88
304.741	330.88
304.971	329.88
305.201	315.88
305.431	314.88
305.661	341.88
305.891	338.88
306.121	355.88
306.352	326.88
306.582	332.88
306.812	315.88
307.042	333.88
307.272	341.88
307.502	336.88
307.731	328.88
307.961	353.88
308.191	346.88
308.421	336.88
308.651	344.88
308.881	343.88
309.111	335.88
309.341	336.88
309.571	341.88
309.8	348.88
310.03	369.88
310.26	354.88
310.49	372.88
310.72	369.88
310.949	394.88
311.179	366.88
311.409	371.88
311.639	366.88
311.868	359.88
312.098	362.88
312.328	382.88
312.557	402.88
312.787	377.88
313.017	382.88
313.246	374.88
313.476	365.88
313.706	379.88
313.935	367.88
314.165	389.88
314.394	361.88
314.624	387.88
314.853	385.88
315.083	379.88
315.312	377.88
315.542	391.88
315.771	363.88
316.001	385.88
316.23	388.88
316.46	387.88
316.689	385.88
316.919	364.88
317.148	385.88
317.377	387.88
317.607	385.88
317.836	366.88
318.065	377.88
318.295	376.88
318.524	362.88
318.753	372.88
318.983	373.88
319.212	376.88
319.441	372.88
319.67	386.88
319.9	388.88
320.129	379.88
320.358	380.88
320.587	373.88
320.816	390.88
321.046	370.88
321.275	390.88
321.504	377.88
321.733	401.88
321.962	392.88
322.191	396.88
322.42	405.88
322.649	420.88
322.878	416.88
323.108	440.88
323.337	435.88
323.566	433.88
323.795	456.88
324.024	521.88
324.253	606.88
324.482	806.88
324.71	1142.88
324.939	1496.88
325.168	1296.88
325.397	731.88
325.626	542.88
325.855	477.88
326.084	456.88
326.313	458.88
326.542	456.88
326.77	491.88
326.999	561.88
327.228	729.88
327.457	1010.88
327.686	1142.88
327.914	790.88
328.143	578.88
328.372	548.88
328.6	511.88
328.829	480.88
329.058	486.88
329.287	470.88
329.515	458.88
329.744	459.88
329.972	449.88
330.201	483.88
330.43	491.88
330.658	482.88
330.887	525.88
331.115	496.88
331.344	476.88
331.572	455.88
331.801	446.88
332.03	451.88
332.258	459.88
332.486	428.88
332.715	444.88
332.943	451.88
333.172	430.88
333.4	423.88
333.629	449.88
333.857	459.88
334.085	470.88
334.314	467.88
334.542	488.88
334.771	506.88
334.999	464.88
335.227	427.88
335.455	424.88
335.684	433.88
335.912	447.88
336.14	447.88
336.369	436.88
336.597	426.88
336.825	446.88
337.053	429.88
337.281	428.88
337.51	411.88
337.738	430.88
337.966	423.88
338.194	422.88
338.422	397.88
338.65	414.88
338.878	427.88
339.106	425.88
339.334	408.88
339.562	395.88
339.79	422.88
340.018	394.88
340.246	414.88
340.474	426.88
340.702	419.88
340.93	408.88
341.158	415.88
341.386	434.88
341.614	429.88
341.842	405.88
342.07	438.88
342.298	423.88
342.526	414.88
342.754	391.88
342.981	406.88
343.209	404.88
343.437	387.88
343.665	402.88
343.893	414.88
344.12	422.88
344.348	434.88
344.576	405.88
344.804	408.88
345.031	404.88
345.259	438.88
345.487	401.88
345.714	418.88
345.942	418.88
346.17	396.88
346.397	402.88
346.625	417.88
346.853	394.88
347.08	375.88
347.308	410.88
347.535	394.88
347.763	430.88
347.99	415.88
348.218	415.88
348.445	410.88
348.673	381.88
348.9	400.88
349.128	415.88
349.355	397.88
349.583	377.88
349.81	398.88
350.037	370.88
350.265	386.88
350.492	381.88
350.72	402.88
350.947	402.88
351.174	392.88
351.402	395.88
351.629	387.88
351.856	380.88
352.083	389.88
352.311	407.88
352.538	386.88
352.765	376.88
352.992	380.88
353.22	392.88
353.447	386.88
353.674	385.88
353.901	387.88
354.128	387.88
354.355	369.88
354.583	389.88
354.81	365.88
355.037	359.88
355.264	350.88
355.491	380.88
355.718	364.88
355.945	346.88
356.172	350.88
356.399	372.88
356.626	372.88
356.853	362.88
357.08	375.88
357.307	368.88
357.534	369.88
357.761	380.88
357.988	372.88
358.215	378.88
358.441	367.88
358.668	381.88
358.895	375.88
359.122	386.88
359.349	377.88
359.576	400.88
359.802	371.88
360.029	409.88
360.256	397.88
360.483	395.88
360.709	368.88
360.936	391.88
361.163	371.88
361.39	378.88
361.616	380.88
361.843	381.88
362.07	374.88
362.296	386.88
362.523	364.88
362.749	390.88
362.976	370.88
363.203	379.88
363.429	369.88
363.656	371.88
363.882	359.88
364.109	368.88
364.335	367.88
364.562	370.88
364.788	370.88
365.015	371.88
365.241	376.88
365.468	376.88
365.694	366.88
365.92	379.88
366.147	384.88
366.373	371.88
366.599	358.88
366.826	362.88
367.052	358.88
367.278	366.88
367.505	352.88
367.731	378.88
367.957	366.88
368.184	376.88
368.41	355.88
368.636	367.88
368.862	397.88
369.089	371.88
369.315	369.88
369.541	354.88
369.767	356.88
369.993	364.88
370.219	376.88
370.445	361.88
370.672	374.88
370.898	364.88
371.124	350.88
371.35	370.88
371.576	359.88
371.802	353.88
372.028	362.88
372.254	379.88
372.48	355.88
372.706	360.88
372.932	368.88
373.158	353.88
373.384	376.88
373.61	368.88
373.835	364.88
374.061	351.88
374.287	380.88
374.513	389.88
374.739	389.88
374.965	371.88
375.191	390.88
375.416	376.88
375.642	371.88
375.868	347.88
376.094	356.88
376.319	363.88
376.545	358.88
376.771	362.88
376.997	389.88
377.222	358.88
377.448	350.88
377.674	354.88
377.899	360.88
378.125	363.88
378.35	349.88
378.576	360.88
378.802	355.88
379.027	343.88
379.253	359.88
379.478	354.88
379.704	354.88
379.929	368.88
380.155	361.88
380.38	345.88
380.606	364.88
380.831	353.88
381.057	356.88
381.282	354.88
381.507	352.88
381.733	356.88
381.958	349.88
382.184	348.88
382.409	376.88
382.634	378.88
382.86	370.88
383.085	361.88
383.31	381.88
383.535	395.88
383.761	393.88
383.986	364.88
384.211	370.88
384.436	381.88
384.662	363.88
384.887	379.88
385.112	385.88
385.337	372.88
385.562	364.88
385.787	377.88
386.013	393.88
386.238	398.88
386.463	381.88
386.688	394.88
386.913	368.88
387.138	382.88
387.363	376.88
387.588	401.88
387.813	398.88
388.038	400.88
388.263	374.88
388.488	387.88
388.713	378.88
388.938	407.88
389.163	376.88
389.387	396.88
389.612	370.88
389.837	386.88
390.062	387.88
390.287	401.88
390.512	369.88
390.736	393.88
390.961	376.88
391.186	392.88
391.411	368.88
391.636	389.88
391.86	415.88
392.085	397.88
392.31	407.88
392.534	394.88
392.759	409.88
392.984	391.88
393.208	386.88
393.433	376.88
393.658	393.88
393.882	380.88
394.107	393.88
394.331	385.88
394.556	377.88
394.78	385.88
395.005	396.88
395.229	374.88
395.454	388.88
395.678	412.88
395.903	424.88
396.127	422.88
396.352	410.88
396.576	406.88
396.801	402.88
397.025	426.88
397.249	394.88
397.474	417.88
397.698	406.88
397.922	403.88
398.147	426.88
398.371	415.88
398.595	400.88
398.82	440.88
399.044	452.88
399.268	454.88
399.492	492.88
399.717	496.88
399.941	518.88
400.165	542.88
400.389	521.88
400.613	488.88
400.837	436.88
401.062	431.88
401.286	447.88
401.51	433.88
401.734	429.88
401.958	435.88
402.182	424.88
402.406	429.88
402.63	431.88
402.854	432.88
403.078	447.88
403.302	419.88
403.526	458.88
403.75	446.88
403.974	445.88
404.198	422.88
404.422	433.88
404.645	440.88
404.869	460.88
405.093	482.88
405.317	511.88
405.541	522.88
405.765	479.88
405.988	474.88
406.212	481.88
406.436	478.88
406.66	490.88
406.883	472.88
407.107	507.88
407.331	522.88
407.555	586.88
407.778	566.88
408.002	515.88
408.226	497.88
408.449	481.88
408.673	483.88
408.896	493.88
409.12	526.88
409.344	510.88
409.567	456.88
409.791	435.88
410.014	446.88
410.238	451.88
410.461	432.88
410.685	431.88
410.908	448.88
411.132	452.88
411.355	472.88
411.578	492.88
411.802	451.88
412.025	449.88
412.249	437.88
412.472	478.88
412.695	482.88
412.919	481.88
413.142	465.88
413.365	423.88
413.589	451.88
413.812	432.88
414.035	412.88
414.258	415.88
414.482	404.88
414.705	417.88
414.928	408.88
415.151	422.88
415.374	416.88
415.597	395.88
415.821	427.88
416.044	414.88
416.267	413.88
416.49	395.88
416.713	391.88
416.936	409.88
417.159	406.88
417.382	414.88
417.605	436.88
417.828	422.88
418.051	434.88
418.274	429.88
418.497	423.88
418.72	404.88
418.943	404.88
419.166	431.88
419.389	446.88
419.611	439.88
419.834	430.88
420.057	432.88
420.28	427.88
420.503	428.88
420.726	427.88
420.948	451.88
421.171	480.88
421.394	482.88
421.617	422.88
421.839	413.88
422.062	406.88
422.285	433.88
422.507	472.88
422.73	549.88
422.953	513.88
423.175	451.88
423.398	444.88
423.621	443.88
423.843	461.88
424.066	439.88
424.288	430.88
424.511	470.88
424.733	499.88
424.956	545.88
425.178	542.88
425.401	527.88
425.623	533.88
425.846	478.88
426.068	476.88
426.291	452.88
426.513	438.88
426.735	447.88
426.958	460.88
427.18	524.88
427.402	622.88
427.625	661.88
427.847	588.88
428.069	491.88
428.292	466.88
428.514	443.88
428.736	462.88
428.958	440.88
429.181	422.88
429.403	395.88
429.625	412.88
429.847	438.88
430.069	495.88
430.292	508.88
430.514	418.88
430.736	410.88
430.958	413.88
431.18	411.88
431.402	397.88
431.624	379.88
431.846	384.88
432.068	388.88
432.29	400.88
432.512	379.88
432.734	400.88
432.956	401.88
433.178	419.88
433.4	413.88
433.622	397.88
433.844	402.88
434.066	386.88
434.287	383.88
434.509	392.88
434.731	403.88
434.953	401.88
435.175	412.88
435.397	432.88
435.618	445.88
435.84	459.88
436.062	529.88
436.284	571.88
436.505	481.88
436.727	449.88
436.949	435.88
437.17	409.88
437.392	424.88
437.614	428.88
437.835	451.88
438.057	496.88
438.278	577.88
438.5	573.88
438.721	605.88
438.943	588.88
439.165	488.88
439.386	451.88
439.608	442.88
439.829	453.88
440.05	480.88
440.272	507.88
440.493	466.88
440.715	428.88
440.936	405.88
441.158	392.88
441.379	423.88
441.6	427.88
441.822	439.88
442.043	474.88
442.264	526.88
442.486	531.88
442.707	484.88
442.928	447.88
443.149	449.88
443.371	481.88
443.592	509.88
443.813	566.88
444.034	580.88
444.255	507.88
444.476	471.88
444.698	455.88
444.919	448.88
445.14	548.88
445.361	488.88
445.582	496.88
445.803	512.88
446.024	570.88
446.245	577.88
446.466	533.88
446.687	467.88
446.908	430.88
447.129	417.88
447.35	414.88
447.571	406.88
447.792	406.88
448.013	401.88
448.234	420.88
448.455	466.88
448.675	538.88
448.896	597.88
449.117	515.88
449.338	510.88
449.559	569.88
449.779	633.88
450	511.88
450.221	466.88
450.442	412.88
450.662	402.88
450.883	406.88
451.104	411.88
451.324	400.88
451.545	396.88
451.766	380.88
451.986	359.88
452.207	370.88
452.428	380.88
452.648	369.88
452.869	355.88
453.089	371.88
453.31	383.88
453.53	402.88
453.751	354.88
453.971	371.88
454.192	378.88
454.412	378.88
454.633	374.88
454.853	371.88
455.073	378.88
455.294	380.88
455.514	426.88
455.734	429.88
455.955	372.88
456.175	363.88
456.395	365.88
456.616	366.88
456.836	347.88
457.056	348.88
457.276	345.88
457.497	346.88
457.717	351.88
457.937	348.88
458.157	356.88
458.377	360.88
458.598	368.88
458.818	411.88
459.038	465.88
459.258	466.88
459.478	427.88
459.698	391.88
459.918	416.88
460.138	403.88
460.358	399.88
460.578	406.88
460.798	407.88
461.018	398.88
461.238	399.88
461.458	409.88
461.678	387.88
461.898	404.88
462.118	412.88
462.338	422.88
462.558	414.88
462.777	440.88
462.997	432.88
463.217	435.88
463.437	449.88
463.657	423.88
463.876	457.88
464.096	436.88
464.316	422.88
464.536	433.88
464.755	433.88
464.975	413.88
465.195	431.88
465.414	463.88
465.634	436.88
465.854	415.88
466.073	395.88
466.293	384.88
466.512	372.88
466.732	384.88
466.951	365.88
467.171	388.88
467.391	382.88
467.61	395.88
467.829	382.88
468.049	370.88
468.268	374.88
468.488	367.88
468.707	375.88
468.927	389.88
469.146	358.88
469.365	371.88
469.585	386.88
469.804	378.88
470.023	375.88
470.243	397.88
470.462	402.88
470.681	377.88
470.901	376.88
471.12	375.88
471.339	391.88
471.558	417.88
471.777	398.88
471.997	377.88
472.216	408.88
472.435	399.88
472.654	395.88
472.873	379.88
473.092	379.88
473.311	365.88
473.53	398.88
473.749	384.88
473.968	426.88
474.187	474.88
474.406	478.88
474.625	420.88
474.844	397.88
475.063	379.88
475.282	372.88
475.501	370.88
475.72	382.88
475.939	384.88
476.158	403.88
476.377	396.88
476.596	396.88
476.814	399.88
477.033	410.88
477.252	420.88
477.471	416.88
477.69	401.88
477.908	415.88
478.127	455.88
478.346	438.88
478.564	427.88
478.783	414.88
479.002	420.88
479.22	413.88
479.439	457.88
479.658	458.88
479.876	465.88
480.095	447.88
480.313	477.88
480.532	462.88
480.751	467.88
480.969	474.88
481.188	509.88
481.406	512.88
481.624	469.88
481.843	459.88
482.061	451.88
482.28	449.88
482.498	442.88
482.717	455.88
482.935	454.88
483.153	442.88
483.372	436.88
483.59	428.88
483.808	445.88
484.027	444.88
484.245	439.88
484.463	444.88
484.681	448.88
484.9	445.88
485.118	451.88
485.336	460.88
485.554	452.88
485.772	439.88
485.99	441.88
486.209	457.88
486.427	447.88
486.645	460.88
486.863	474.88
487.081	473.88
487.299	479.88
487.517	476.88
487.735	475.88
487.953	465.88
488.171	458.88
488.389	481.88
488.607	467.88
488.825	448.88
489.043	450.88
489.261	485.88
489.479	480.88
489.696	482.88
489.914	464.88
490.132	480.88
490.35	467.88
490.568	483.88
490.786	478.88
491.003	496.88
491.221	508.88
491.439	508.88
491.657	516.88
491.874	516.88
492.092	528.88
492.31	514.88
492.527	496.88
492.745	537.88
492.963	537.88
493.18	534.88
493.398	534.88
493.615	541.88
493.833	539.88
494.05	538.88
494.268	552.88
494.485	527.88
494.703	539.88
494.92	567.88
495.138	555.88
495.355	565.88
495.573	551.88
495.79	534.88
496.008	543.88
496.225	557.88
496.442	522.88
496.66	555.88
496.877	560.88
497.094	570.88
497.312	557.88
497.529	570.88
497.746	562.88
497.963	575.88
498.181	580.88
498.398	603.88
498.615	639.88
498.832	619.88
499.049	638.88
499.267	630.88
499.484	660.88
499.701	703.88
499.918	712.88
500.135	731.88
500.352	748.88
500.569	768.88
500.786	790.88
501.003	772.88
501.22	754.88
501.437	736.88
501.654	710.88
501.871	694.88
