Data from 1960PennyLincolnUp.LampE6.200Scan.07172019.P1_HRD10591_13-06-32-002.txt Node
Date: Thu Jul 18 13:06:32 EDT 2019
User: cochatt
Spectrometer: HR+D1059
Trigger mode: 1
Integration Time (sec): 1.000000E-1
Scans to average: 1
Electric dark correction enabled: true
Nonlinearity correction enabled: false
Boxcar width: 0
XAxis mode: Wavelengths
Number of Pixels in Spectrum: 2048
>>>>>Begin Spectral Data<<<<<
223.165	-12.06
223.4	-12.06
223.635	-12.06
223.869	-16.06
224.104	-31.06
224.338	-22.06
224.573	-11.06
224.808	-8.06
225.042	-4.06
225.277	-4.06
225.511	2.94
225.746	1.94
225.98	10.94
226.215	1.94
226.449	14.94
226.683	15.94
226.918	24.94
227.152	34.94
227.387	32.94
227.621	21.94
227.856	39.94
228.09	36.94
228.324	50.94
228.559	62.94
228.793	74.94
229.027	94.94
229.262	101.94
229.496	103.94
229.73	104.94
229.964	131.94
230.199	114.94
230.433	113.94
230.667	118.94
230.901	106.94
231.136	114.94
231.37	102.94
231.604	90.94
231.838	109.94
232.072	123.94
232.306	116.94
232.541	117.94
232.775	115.94
233.009	95.94
233.243	121.94
233.477	116.94
233.711	107.94
233.945	109.94
234.179	109.94
234.413	108.94
234.647	118.94
234.881	119.94
235.115	123.94
235.349	106.94
235.583	114.94
235.817	101.94
236.051	124.94
236.285	111.94
236.519	113.94
236.753	120.94
236.987	123.94
237.221	156.94
237.455	165.94
237.689	147.94
237.922	132.94
238.156	120.94
238.39	95.94
238.624	117.94
238.858	125.94
239.091	105.94
239.325	119.94
239.559	117.94
239.793	115.94
240.027	118.94
240.26	143.94
240.494	145.94
240.728	138.94
240.961	149.94
241.195	153.94
241.429	142.94
241.662	125.94
241.896	137.94
242.13	135.94
242.363	137.94
242.597	138.94
242.83	133.94
243.064	133.94
243.298	130.94
243.531	135.94
243.765	136.94
243.998	129.94
244.232	132.94
244.465	145.94
244.699	133.94
244.932	135.94
245.166	143.94
245.399	146.94
245.633	136.94
245.866	123.94
246.099	140.94
246.333	139.94
246.566	137.94
246.8	144.94
247.033	151.94
247.266	149.94
247.5	157.94
247.733	154.94
247.966	151.94
248.2	169.94
248.433	165.94
248.666	169.94
248.899	174.94
249.133	181.94
249.366	186.94
249.599	184.94
249.832	168.94
250.066	161.94
250.299	161.94
250.532	183.94
250.765	174.94
250.998	208.94
251.231	206.94
251.465	190.94
251.698	183.94
251.931	173.94
252.164	171.94
252.397	172.94
252.63	197.94
252.863	186.94
253.096	208.94
253.329	187.94
253.562	202.94
253.795	187.94
254.028	186.94
254.261	177.94
254.494	193.94
254.727	216.94
254.96	226.94
255.193	227.94
255.426	207.94
255.659	215.94
255.892	207.94
256.124	204.94
256.357	211.94
256.59	197.94
256.823	193.94
257.056	196.94
257.289	198.94
257.521	198.94
257.754	194.94
257.987	194.94
258.22	184.94
258.452	193.94
258.685	208.94
258.918	194.94
259.151	202.94
259.383	198.94
259.616	196.94
259.849	215.94
260.081	207.94
260.314	228.94
260.547	213.94
260.779	228.94
261.012	199.94
261.244	199.94
261.477	212.94
261.71	205.94
261.942	211.94
262.175	216.94
262.407	199.94
262.64	194.94
262.872	210.94
263.105	196.94
263.337	200.94
263.57	199.94
263.802	186.94
264.035	192.94
264.267	203.94
264.499	221.94
264.732	200.94
264.964	203.94
265.197	202.94
265.429	206.94
265.661	196.94
265.894	199.94
266.126	218.94
266.358	209.94
266.591	213.94
266.823	215.94
267.055	233.94
267.287	227.94
267.52	230.94
267.752	202.94
267.984	208.94
268.216	234.94
268.448	238.94
268.681	217.94
268.913	252.94
269.145	256.94
269.377	253.94
269.609	243.94
269.841	261.94
270.073	263.94
270.306	256.94
270.538	298.94
270.77	293.94
271.002	267.94
271.234	274.94
271.466	259.94
271.698	269.94
271.93	289.94
272.162	274.94
272.394	274.94
272.626	261.94
272.858	268.94
273.09	263.94
273.322	261.94
273.553	239.94
273.785	260.94
274.017	250.94
274.249	261.94
274.481	235.94
274.713	251.94
274.945	259.94
275.176	243.94
275.408	251.94
275.64	281.94
275.872	254.94
276.104	263.94
276.335	247.94
276.567	261.94
276.799	278.94
277.031	270.94
277.262	302.94
277.494	280.94
277.726	256.94
277.957	263.94
278.189	246.94
278.421	269.94
278.652	256.94
278.884	267.94
279.115	267.94
279.347	279.94
279.579	269.94
279.81	282.94
280.042	250.94
280.273	258.94
280.505	255.94
280.736	273.94
280.968	263.94
281.199	263.94
281.431	262.94
281.662	276.94
281.894	273.94
282.125	290.94
282.356	285.94
282.588	292.94
282.819	281.94
283.051	294.94
283.282	286.94
283.513	294.94
283.745	277.94
283.976	297.94
284.207	276.94
284.439	274.94
284.67	283.94
284.901	274.94
285.132	253.94
285.364	293.94
285.595	278.94
285.826	281.94
286.057	283.94
286.288	300.94
286.52	307.94
286.751	285.94
286.982	285.94
287.213	299.94
287.444	300.94
287.675	278.94
287.906	293.94
288.138	323.94
288.369	304.94
288.6	303.94
288.831	290.94
289.062	296.94
289.293	303.94
289.524	289.94
289.755	321.94
289.986	313.94
290.217	302.94
290.448	313.94
290.679	306.94
290.91	297.94
291.141	306.94
291.371	301.94
291.602	305.94
291.833	311.94
292.064	323.94
292.295	300.94
292.526	305.94
292.757	310.94
292.987	315.94
293.218	301.94
293.449	307.94
293.68	294.94
293.91	317.94
294.141	312.94
294.372	294.94
294.603	311.94
294.833	309.94
295.064	305.94
295.295	314.94
295.525	304.94
295.756	335.94
295.987	311.94
296.217	328.94
296.448	326.94
296.679	300.94
296.909	321.94
297.14	328.94
297.37	334.94
297.601	328.94
297.831	326.94
298.062	317.94
298.292	318.94
298.523	332.94
298.753	334.94
298.984	342.94
299.214	309.94
299.445	324.94
299.675	321.94
299.905	330.94
300.136	335.94
300.366	299.94
300.597	344.94
300.827	341.94
301.057	343.94
301.288	335.94
301.518	337.94
301.748	359.94
301.979	349.94
302.209	341.94
302.439	321.94
302.669	340.94
302.9	328.94
303.13	351.94
303.36	352.94
303.59	339.94
303.82	336.94
304.051	352.94
304.281	344.94
304.511	333.94
304.741	354.94
304.971	343.94
305.201	340.94
305.431	349.94
305.661	359.94
305.891	337.94
306.121	327.94
306.352	351.94
306.582	350.94
306.812	360.94
307.042	350.94
307.272	338.94
307.502	354.94
307.731	347.94
307.961	338.94
308.191	344.94
308.421	343.94
308.651	339.94
308.881	342.94
309.111	352.94
309.341	365.94
309.571	357.94
309.8	369.94
310.03	370.94
310.26	377.94
310.49	358.94
310.72	379.94
310.949	359.94
311.179	381.94
311.409	374.94
311.639	371.94
311.868	369.94
312.098	370.94
312.328	394.94
312.557	391.94
312.787	384.94
313.017	375.94
313.246	398.94
313.476	377.94
313.706	377.94
313.935	371.94
314.165	401.94
314.394	404.94
314.624	402.94
314.853	378.94
315.083	377.94
315.312	385.94
315.542	379.94
315.771	373.94
316.001	370.94
316.23	357.94
316.46	361.94
316.689	380.94
316.919	378.94
317.148	383.94
317.377	385.94
317.607	397.94
317.836	409.94
318.065	380.94
318.295	357.94
318.524	371.94
318.753	383.94
318.983	388.94
319.212	392.94
319.441	374.94
319.67	379.94
319.9	388.94
320.129	371.94
320.358	377.94
320.587	402.94
320.816	394.94
321.046	398.94
321.275	402.94
321.504	391.94
321.733	399.94
321.962	383.94
322.191	412.94
322.42	399.94
322.649	425.94
322.878	423.94
323.108	393.94
323.337	414.94
323.566	447.94
323.795	471.94
324.024	493.94
324.253	553.94
324.482	669.94
324.71	1043.94
324.939	1401.94
325.168	1186.94
325.397	641.94
325.626	494.94
325.855	469.94
326.084	436.94
326.313	455.94
326.542	434.94
326.77	470.94
326.999	521.94
327.228	702.94
327.457	981.94
327.686	1081.94
327.914	740.94
328.143	535.94
328.372	506.94
328.6	507.94
328.829	484.94
329.058	472.94
329.287	503.94
329.515	495.94
329.744	454.94
329.972	473.94
330.201	495.94
330.43	498.94
330.658	528.94
330.887	506.94
331.115	525.94
331.344	479.94
331.572	457.94
331.801	477.94
332.03	465.94
332.258	465.94
332.486	470.94
332.715	471.94
332.943	482.94
333.172	501.94
333.4	503.94
333.629	518.94
333.857	533.94
334.085	528.94
334.314	534.94
334.542	553.94
334.771	538.94
334.999	544.94
335.227	531.94
335.455	498.94
335.684	469.94
335.912	478.94
336.14	481.94
336.369	479.94
336.597	481.94
336.825	482.94
337.053	478.94
337.281	478.94
337.51	477.94
337.738	485.94
337.966	461.94
338.194	457.94
338.422	448.94
338.65	443.94
338.878	458.94
339.106	454.94
339.334	433.94
339.562	449.94
339.79	450.94
340.018	423.94
340.246	446.94
340.474	447.94
340.702	435.94
340.93	433.94
341.158	448.94
341.386	421.94
341.614	427.94
341.842	446.94
342.07	439.94
342.298	434.94
342.526	435.94
342.754	413.94
342.981	423.94
343.209	417.94
343.437	453.94
343.665	469.94
343.893	483.94
344.12	497.94
344.348	475.94
344.576	471.94
344.804	474.94
345.031	456.94
345.259	443.94
345.487	443.94
345.714	442.94
345.942	428.94
346.17	432.94
346.397	425.94
346.625	441.94
346.853	417.94
347.08	431.94
347.308	422.94
347.535	406.94
347.763	429.94
347.99	429.94
348.218	423.94
348.445	436.94
348.673	449.94
348.9	421.94
349.128	429.94
349.355	429.94
349.583	417.94
349.81	411.94
350.037	399.94
350.265	416.94
350.492	425.94
350.72	391.94
350.947	418.94
351.174	434.94
351.402	414.94
351.629	431.94
351.856	438.94
352.083	406.94
352.311	409.94
352.538	436.94
352.765	427.94
352.992	409.94
353.22	422.94
353.447	419.94
353.674	417.94
353.901	404.94
354.128	389.94
354.355	413.94
354.583	408.94
354.81	422.94
355.037	423.94
355.264	402.94
355.491	409.94
355.718	392.94
355.945	402.94
356.172	396.94
356.399	392.94
356.626	405.94
356.853	407.94
357.08	411.94
357.307	430.94
357.534	405.94
357.761	421.94
357.988	404.94
358.215	408.94
358.441	418.94
358.668	415.94
358.895	411.94
359.122	410.94
359.349	418.94
359.576	434.94
359.802	431.94
360.029	429.94
360.256	433.94
360.483	425.94
360.709	428.94
360.936	411.94
361.163	426.94
361.39	415.94
361.616	424.94
361.843	418.94
362.07	405.94
362.296	421.94
362.523	407.94
362.749	428.94
362.976	409.94
363.203	410.94
363.429	395.94
363.656	406.94
363.882	407.94
364.109	421.94
364.335	404.94
364.562	394.94
364.788	406.94
365.015	396.94
365.241	401.94
365.468	407.94
365.694	414.94
365.92	408.94
366.147	419.94
366.373	410.94
366.599	405.94
366.826	422.94
367.052	415.94
367.278	416.94
367.505	418.94
367.731	400.94
367.957	416.94
368.184	418.94
368.41	420.94
368.636	409.94
368.862	429.94
369.089	417.94
369.315	419.94
369.541	407.94
369.767	420.94
369.993	423.94
370.219	424.94
370.445	406.94
370.672	415.94
370.898	401.94
371.124	421.94
371.35	446.94
371.576	426.94
371.802	423.94
372.028	432.94
372.254	445.94
372.48	428.94
372.706	427.94
372.932	415.94
373.158	426.94
373.384	433.94
373.61	424.94
373.835	420.94
374.061	441.94
374.287	426.94
374.513	450.94
374.739	457.94
374.965	478.94
375.191	453.94
375.416	457.94
375.642	420.94
375.868	447.94
376.094	458.94
376.319	432.94
376.545	435.94
376.771	429.94
376.997	423.94
377.222	426.94
377.448	415.94
377.674	422.94
377.899	422.94
378.125	439.94
378.35	449.94
378.576	416.94
378.802	418.94
379.027	439.94
379.253	438.94
379.478	421.94
379.704	405.94
379.929	457.94
380.155	420.94
380.38	432.94
380.606	423.94
380.831	432.94
381.057	425.94
381.282	418.94
381.507	422.94
381.733	441.94
381.958	440.94
382.184	430.94
382.409	426.94
382.634	442.94
382.86	449.94
383.085	445.94
383.31	464.94
383.535	455.94
383.761	455.94
383.986	477.94
384.211	455.94
384.436	487.94
384.662	472.94
384.887	486.94
385.112	468.94
385.337	495.94
385.562	495.94
385.787	490.94
386.013	493.94
386.238	495.94
386.463	504.94
386.688	471.94
386.913	491.94
387.138	470.94
387.363	467.94
387.588	464.94
387.813	468.94
388.038	478.94
388.263	465.94
388.488	482.94
388.713	474.94
388.938	483.94
389.163	472.94
389.387	460.94
389.612	485.94
389.837	489.94
390.062	465.94
390.287	463.94
390.512	486.94
390.736	483.94
390.961	483.94
391.186	496.94
391.411	494.94
391.636	504.94
391.86	533.94
392.085	546.94
392.31	517.94
392.534	523.94
392.759	520.94
392.984	488.94
393.208	509.94
393.433	503.94
393.658	526.94
393.882	489.94
394.107	494.94
394.331	507.94
394.556	515.94
394.78	511.94
395.005	515.94
395.229	505.94
395.454	533.94
395.678	532.94
395.903	544.94
396.127	547.94
396.352	544.94
396.576	520.94
396.801	499.94
397.025	502.94
397.249	524.94
397.474	527.94
397.698	546.94
397.922	541.94
398.147	546.94
398.371	552.94
398.595	538.94
398.82	543.94
399.044	616.94
399.268	641.94
399.492	703.94
399.717	761.94
399.941	760.94
400.165	728.94
400.389	693.94
400.613	628.94
400.837	603.94
401.062	618.94
401.286	585.94
401.51	595.94
401.734	562.94
401.958	571.94
402.182	590.94
402.406	605.94
402.63	603.94
402.854	617.94
403.078	614.94
403.302	630.94
403.526	612.94
403.75	644.94
403.974	635.94
404.198	658.94
404.422	649.94
404.645	620.94
404.869	655.94
405.093	669.94
405.317	659.94
405.541	696.94
405.765	656.94
405.988	628.94
406.212	632.94
406.436	667.94
406.66	671.94
406.883	663.94
407.107	684.94
407.331	713.94
407.555	761.94
407.778	758.94
408.002	709.94
408.226	657.94
408.449	665.94
408.673	659.94
408.896	651.94
409.12	684.94
409.344	669.94
409.567	617.94
409.791	617.94
410.014	625.94
410.238	593.94
410.461	617.94
410.685	605.94
410.908	612.94
411.132	609.94
411.355	632.94
411.578	614.94
411.802	618.94
412.025	597.94
412.249	618.94
412.472	618.94
412.695	602.94
412.919	603.94
413.142	595.94
413.365	586.94
413.589	569.94
413.812	580.94
414.035	584.94
414.258	544.94
414.482	577.94
414.705	564.94
414.928	571.94
415.151	566.94
415.374	557.94
415.597	561.94
415.821	536.94
416.044	563.94
416.267	553.94
416.49	565.94
416.713	559.94
416.936	560.94
417.159	560.94
417.382	557.94
417.605	538.94
417.828	592.94
418.051	586.94
418.274	579.94
418.497	563.94
418.72	561.94
418.943	570.94
419.166	612.94
419.389	626.94
419.611	613.94
419.834	604.94
420.057	599.94
420.28	590.94
420.503	587.94
420.726	554.94
420.948	592.94
421.171	603.94
421.394	610.94
421.617	578.94
421.839	555.94
422.062	558.94
422.285	607.94
422.507	625.94
422.73	672.94
422.953	655.94
423.175	591.94
423.398	623.94
423.621	604.94
423.843	614.94
424.066	638.94
424.288	625.94
424.511	611.94
424.733	643.94
424.956	704.94
425.178	666.94
425.401	658.94
425.623	685.94
425.846	603.94
426.068	587.94
426.291	566.94
426.513	565.94
426.735	590.94
426.958	609.94
427.18	666.94
427.402	703.94
427.625	801.94
427.847	687.94
428.069	615.94
428.292	593.94
428.514	559.94
428.736	541.94
428.958	532.94
429.181	522.94
429.403	511.94
429.625	513.94
429.847	534.94
430.069	587.94
430.292	555.94
430.514	531.94
430.736	512.94
430.958	539.94
431.18	502.94
431.402	509.94
431.624	500.94
431.846	509.94
432.068	490.94
432.29	503.94
432.512	518.94
432.734	512.94
432.956	510.94
433.178	527.94
433.4	521.94
433.622	509.94
433.844	522.94
434.066	529.94
434.287	519.94
434.509	535.94
434.731	557.94
434.953	551.94
435.175	579.94
435.397	574.94
435.618	563.94
435.84	606.94
436.062	632.94
436.284	672.94
436.505	608.94
436.727	579.94
436.949	545.94
437.17	548.94
437.392	534.94
437.614	518.94
437.835	556.94
438.057	617.94
438.278	667.94
438.5	666.94
438.721	720.94
438.943	719.94
439.165	578.94
439.386	558.94
439.608	548.94
439.829	577.94
440.05	587.94
440.272	593.94
440.493	580.94
440.715	553.94
440.936	545.94
441.158	525.94
441.379	544.94
441.6	554.94
441.822	582.94
442.043	613.94
442.264	632.94
442.486	678.94
442.707	604.94
442.928	593.94
443.149	599.94
443.371	609.94
443.592	649.94
443.813	695.94
444.034	721.94
444.255	652.94
444.476	621.94
444.698	641.94
444.919	642.94
445.14	729.94
445.361	675.94
445.582	650.94
445.803	636.94
446.024	685.94
446.245	691.94
446.466	639.94
446.687	609.94
446.908	536.94
447.129	535.94
447.35	511.94
447.571	508.94
447.792	485.94
448.013	513.94
448.234	519.94
448.455	544.94
448.675	650.94
448.896	700.94
449.117	618.94
449.338	576.94
449.559	640.94
449.779	710.94
450	601.94
450.221	538.94
450.442	510.94
450.662	487.94
450.883	515.94
451.104	537.94
451.324	511.94
451.545	492.94
451.766	463.94
451.986	471.94
452.207	463.94
452.428	450.94
452.648	461.94
452.869	472.94
453.089	451.94
453.31	489.94
453.53	451.94
453.751	447.94
453.971	490.94
454.192	462.94
454.412	451.94
454.633	452.94
454.853	454.94
455.073	432.94
455.294	493.94
455.514	516.94
455.734	520.94
455.955	437.94
456.175	443.94
456.395	442.94
456.616	403.94
456.836	432.94
457.056	437.94
457.276	429.94
457.497	431.94
457.717	450.94
457.937	439.94
458.157	454.94
458.377	451.94
458.598	485.94
458.818	521.94
459.038	568.94
459.258	587.94
459.478	542.94
459.698	518.94
459.918	520.94
460.138	522.94
460.358	538.94
460.578	548.94
460.798	563.94
461.018	561.94
461.238	568.94
461.458	566.94
461.678	549.94
461.898	536.94
462.118	565.94
462.338	570.94
462.558	600.94
462.777	585.94
462.997	612.94
463.217	677.94
463.437	657.94
463.657	602.94
463.876	626.94
464.096	598.94
464.316	609.94
464.536	621.94
464.755	578.94
464.975	583.94
465.195	613.94
465.414	631.94
465.634	578.94
465.854	529.94
466.073	525.94
466.293	497.94
466.512	492.94
466.732	493.94
466.951	466.94
467.171	465.94
467.391	503.94
467.61	483.94
467.829	509.94
468.049	497.94
468.268	479.94
468.488	474.94
468.707	474.94
468.927	463.94
469.146	457.94
469.365	468.94
469.585	453.94
469.804	477.94
470.023	517.94
470.243	510.94
470.462	500.94
470.681	516.94
470.901	522.94
471.12	523.94
471.339	502.94
471.558	482.94
471.777	491.94
471.997	473.94
472.216	477.94
472.435	501.94
472.654	487.94
472.873	471.94
473.092	446.94
473.311	464.94
473.53	473.94
473.749	457.94
473.968	479.94
474.187	579.94
474.406	565.94
474.625	483.94
474.844	477.94
475.063	458.94
475.282	461.94
475.501	492.94
475.72	483.94
475.939	477.94
476.158	486.94
476.377	479.94
476.596	513.94
476.814	485.94
477.033	523.94
477.252	490.94
477.471	490.94
477.69	522.94
477.908	517.94
478.127	518.94
478.346	548.94
478.564	543.94
478.783	546.94
479.002	579.94
479.22	567.94
479.439	564.94
479.658	564.94
479.876	603.94
480.095	596.94
480.313	639.94
480.532	630.94
480.751	598.94
480.969	613.94
481.188	643.94
481.406	618.94
481.624	577.94
481.843	580.94
482.061	552.94
482.28	540.94
482.498	532.94
482.717	511.94
482.935	551.94
483.153	537.94
483.372	544.94
483.59	557.94
483.808	534.94
484.027	535.94
484.245	524.94
484.463	555.94
484.681	580.94
484.9	545.94
485.118	575.94
485.336	550.94
485.554	557.94
485.772	574.94
485.99	569.94
486.209	575.94
486.427	569.94
486.645	592.94
486.863	573.94
487.081	584.94
487.299	583.94
487.517	554.94
487.735	591.94
487.953	574.94
488.171	596.94
488.389	586.94
488.607	580.94
488.825	587.94
489.043	570.94
489.261	590.94
489.479	587.94
489.696	589.94
489.914	589.94
490.132	588.94
490.35	590.94
490.568	591.94
490.786	592.94
491.003	611.94
491.221	619.94
491.439	634.94
491.657	651.94
491.874	666.94
492.092	661.94
492.31	666.94
492.527	657.94
492.745	644.94
492.963	666.94
493.18	658.94
493.398	669.94
493.615	672.94
493.833	685.94
494.05	674.94
494.268	672.94
494.485	673.94
494.703	649.94
494.92	651.94
495.138	655.94
495.355	672.94
495.573	681.94
495.79	687.94
496.008	659.94
496.225	669.94
496.442	664.94
496.66	696.94
496.877	673.94
497.094	682.94
497.312	691.94
497.529	689.94
497.746	700.94
497.963	707.94
498.181	756.94
498.398	765.94
498.615	821.94
498.832	813.94
499.049	834.94
499.267	903.94
499.484	963.94
499.701	1002.94
499.918	1112.94
500.135	1157.94
500.352	1286.94
500.569	1322.94
500.786	1341.94
501.003	1277.94
501.22	1192.94
501.437	1118.94
501.654	1013.94
501.871	970.94
