Data from 1960PennyLincolnUp.LampE6.200Scan.07172019.P1_HRD10591_13-06-07-001.txt Node
Date: Thu Jul 18 13:06:07 EDT 2019
User: cochatt
Spectrometer: HR+D1059
Trigger mode: 1
Integration Time (sec): 1.000000E-1
Scans to average: 1
Electric dark correction enabled: true
Nonlinearity correction enabled: false
Boxcar width: 0
XAxis mode: Wavelengths
Number of Pixels in Spectrum: 2048
>>>>>Begin Spectral Data<<<<<
223.165	-13.38
223.4	-13.38
223.635	-13.38
223.869	-28.38
224.104	-12.38
224.338	-23.38
224.573	-11.38
224.808	-15.38
225.042	-0.38
225.277	2.62
225.511	2.62
225.746	1.62
225.98	9.62
226.215	7.62
226.449	20.62
226.683	10.62
226.918	15.62
227.152	33.62
227.387	45.62
227.621	37.62
227.856	39.62
228.09	35.62
228.324	41.62
228.559	51.62
228.793	56.62
229.027	71.62
229.262	83.62
229.496	113.62
229.73	98.62
229.964	107.62
230.199	121.62
230.433	117.62
230.667	104.62
230.901	96.62
231.136	83.62
231.37	94.62
231.604	109.62
231.838	108.62
232.072	101.62
232.306	101.62
232.541	102.62
232.775	109.62
233.009	103.62
233.243	103.62
233.477	103.62
233.711	118.62
233.945	102.62
234.179	118.62
234.413	104.62
234.647	122.62
234.881	117.62
235.115	120.62
235.349	107.62
235.583	115.62
235.817	95.62
236.051	119.62
236.285	120.62
236.519	118.62
236.753	124.62
236.987	135.62
237.221	147.62
237.455	175.62
237.689	156.62
237.922	113.62
238.156	127.62
238.39	113.62
238.624	115.62
238.858	114.62
239.091	118.62
239.325	114.62
239.559	125.62
239.793	137.62
240.027	142.62
240.26	140.62
240.494	137.62
240.728	131.62
240.961	135.62
241.195	126.62
241.429	133.62
241.662	118.62
241.896	114.62
242.13	115.62
242.363	127.62
242.597	135.62
242.83	147.62
243.064	140.62
243.298	125.62
243.531	114.62
243.765	118.62
243.998	148.62
244.232	134.62
244.465	129.62
244.699	138.62
244.932	147.62
245.166	140.62
245.399	128.62
245.633	143.62
245.866	132.62
246.099	136.62
246.333	146.62
246.566	150.62
246.8	131.62
247.033	154.62
247.266	138.62
247.5	143.62
247.733	162.62
247.966	160.62
248.2	163.62
248.433	146.62
248.666	149.62
248.899	167.62
249.133	164.62
249.366	179.62
249.599	166.62
249.832	166.62
250.066	149.62
250.299	165.62
250.532	177.62
250.765	170.62
250.998	192.62
251.231	197.62
251.465	165.62
251.698	187.62
251.931	174.62
252.164	160.62
252.397	184.62
252.63	183.62
252.863	166.62
253.096	196.62
253.329	184.62
253.562	194.62
253.795	190.62
254.028	167.62
254.261	175.62
254.494	195.62
254.727	209.62
254.96	223.62
255.193	221.62
255.426	202.62
255.659	192.62
255.892	181.62
256.124	188.62
256.357	211.62
256.59	198.62
256.823	189.62
257.056	181.62
257.289	184.62
257.521	208.62
257.754	174.62
257.987	187.62
258.22	190.62
258.452	196.62
258.685	188.62
258.918	173.62
259.151	193.62
259.383	199.62
259.616	192.62
259.849	200.62
260.081	217.62
260.314	226.62
260.547	239.62
260.779	228.62
261.012	202.62
261.244	206.62
261.477	203.62
261.71	200.62
261.942	201.62
262.175	203.62
262.407	215.62
262.64	180.62
262.872	193.62
263.105	204.62
263.337	205.62
263.57	202.62
263.802	203.62
264.035	206.62
264.267	192.62
264.499	197.62
264.732	193.62
264.964	194.62
265.197	203.62
265.429	217.62
265.661	208.62
265.894	211.62
266.126	203.62
266.358	209.62
266.591	210.62
266.823	223.62
267.055	208.62
267.287	218.62
267.52	214.62
267.752	221.62
267.984	202.62
268.216	226.62
268.448	215.62
268.681	225.62
268.913	234.62
269.145	251.62
269.377	250.62
269.609	244.62
269.841	246.62
270.073	244.62
270.306	246.62
270.538	263.62
270.77	276.62
271.002	276.62
271.234	254.62
271.466	242.62
271.698	248.62
271.93	249.62
272.162	263.62
272.394	257.62
272.626	248.62
272.858	255.62
273.09	262.62
273.322	245.62
273.553	244.62
273.785	251.62
274.017	232.62
274.249	248.62
274.481	240.62
274.713	248.62
274.945	240.62
275.176	256.62
275.408	246.62
275.64	261.62
275.872	247.62
276.104	244.62
276.335	240.62
276.567	267.62
276.799	276.62
277.031	284.62
277.262	280.62
277.494	271.62
277.726	278.62
277.957	251.62
278.189	262.62
278.421	238.62
278.652	254.62
278.884	258.62
279.115	267.62
279.347	264.62
279.579	271.62
279.81	253.62
280.042	280.62
280.273	260.62
280.505	266.62
280.736	266.62
280.968	247.62
281.199	255.62
281.431	265.62
281.662	271.62
281.894	255.62
282.125	294.62
282.356	254.62
282.588	286.62
282.819	289.62
283.051	285.62
283.282	289.62
283.513	289.62
283.745	295.62
283.976	285.62
284.207	281.62
284.439	293.62
284.67	288.62
284.901	285.62
285.132	259.62
285.364	261.62
285.595	286.62
285.826	264.62
286.057	285.62
286.288	288.62
286.52	289.62
286.751	268.62
286.982	284.62
287.213	289.62
287.444	297.62
287.675	306.62
287.906	288.62
288.138	290.62
288.369	314.62
288.6	313.62
288.831	291.62
289.062	290.62
289.293	292.62
289.524	288.62
289.755	286.62
289.986	285.62
290.217	290.62
290.448	279.62
290.679	308.62
290.91	289.62
291.141	277.62
291.371	280.62
291.602	296.62
291.833	294.62
292.064	299.62
292.295	318.62
292.526	295.62
292.757	291.62
292.987	299.62
293.218	279.62
293.449	283.62
293.68	294.62
293.91	288.62
294.141	292.62
294.372	291.62
294.603	290.62
294.833	308.62
295.064	297.62
295.295	287.62
295.525	318.62
295.756	297.62
295.987	313.62
296.217	310.62
296.448	316.62
296.679	327.62
296.909	294.62
297.14	296.62
297.37	311.62
297.601	321.62
297.831	317.62
298.062	311.62
298.292	321.62
298.523	303.62
298.753	306.62
298.984	327.62
299.214	318.62
299.445	319.62
299.675	312.62
299.905	311.62
300.136	323.62
300.366	325.62
300.597	330.62
300.827	344.62
301.057	343.62
301.288	329.62
301.518	322.62
301.748	329.62
301.979	352.62
302.209	344.62
302.439	342.62
302.669	342.62
302.9	337.62
303.13	349.62
303.36	338.62
303.59	354.62
303.82	337.62
304.051	324.62
304.281	324.62
304.511	335.62
304.741	330.62
304.971	355.62
305.201	326.62
305.431	332.62
305.661	335.62
305.891	323.62
306.121	354.62
306.352	343.62
306.582	353.62
306.812	312.62
307.042	339.62
307.272	323.62
307.502	347.62
307.731	341.62
307.961	322.62
308.191	312.62
308.421	333.62
308.651	328.62
308.881	308.62
309.111	334.62
309.341	351.62
309.571	349.62
309.8	356.62
310.03	335.62
310.26	352.62
310.49	347.62
310.72	355.62
310.949	351.62
311.179	373.62
311.409	339.62
311.639	365.62
311.868	367.62
312.098	363.62
312.328	358.62
312.557	386.62
312.787	368.62
313.017	372.62
313.246	355.62
313.476	356.62
313.706	355.62
313.935	365.62
314.165	376.62
314.394	374.62
314.624	385.62
314.853	388.62
315.083	373.62
315.312	374.62
315.542	367.62
315.771	356.62
316.001	361.62
316.23	356.62
316.46	375.62
316.689	359.62
316.919	374.62
317.148	385.62
317.377	375.62
317.607	365.62
317.836	370.62
318.065	382.62
318.295	364.62
318.524	359.62
318.753	362.62
318.983	364.62
319.212	385.62
319.441	356.62
319.67	370.62
319.9	357.62
320.129	380.62
320.358	370.62
320.587	389.62
320.816	392.62
321.046	396.62
321.275	370.62
321.504	375.62
321.733	376.62
321.962	396.62
322.191	372.62
322.42	393.62
322.649	396.62
322.878	410.62
323.108	417.62
323.337	418.62
323.566	422.62
323.795	428.62
324.024	468.62
324.253	503.62
324.482	673.62
324.71	965.62
324.939	1269.62
325.168	1064.62
325.397	595.62
325.626	479.62
325.855	452.62
326.084	445.62
326.313	434.62
326.542	428.62
326.77	450.62
326.999	522.62
327.228	628.62
327.457	899.62
327.686	1017.62
327.914	666.62
328.143	514.62
328.372	492.62
328.6	477.62
328.829	456.62
329.058	461.62
329.287	501.62
329.515	447.62
329.744	464.62
329.972	441.62
330.201	467.62
330.43	475.62
330.658	496.62
330.887	490.62
331.115	487.62
331.344	457.62
331.572	437.62
331.801	447.62
332.03	476.62
332.258	460.62
332.486	474.62
332.715	454.62
332.943	493.62
333.172	483.62
333.4	490.62
333.629	503.62
333.857	532.62
334.085	512.62
334.314	509.62
334.542	525.62
334.771	570.62
334.999	514.62
335.227	492.62
335.455	482.62
335.684	465.62
335.912	478.62
336.14	458.62
336.369	469.62
336.597	455.62
336.825	479.62
337.053	446.62
337.281	459.62
337.51	436.62
337.738	465.62
337.966	438.62
338.194	454.62
338.422	442.62
338.65	430.62
338.878	425.62
339.106	432.62
339.334	435.62
339.562	447.62
339.79	410.62
340.018	418.62
340.246	414.62
340.474	424.62
340.702	430.62
340.93	423.62
341.158	404.62
341.386	440.62
341.614	439.62
341.842	429.62
342.07	425.62
342.298	430.62
342.526	401.62
342.754	406.62
342.981	410.62
343.209	417.62
343.437	433.62
343.665	456.62
343.893	470.62
344.12	478.62
344.348	465.62
344.576	466.62
344.804	454.62
345.031	426.62
345.259	440.62
345.487	424.62
345.714	407.62
345.942	415.62
346.17	421.62
346.397	398.62
346.625	414.62
346.853	400.62
347.08	384.62
347.308	428.62
347.535	413.62
347.763	411.62
347.99	420.62
348.218	425.62
348.445	394.62
348.673	398.62
348.9	416.62
349.128	382.62
349.355	384.62
349.583	403.62
349.81	395.62
350.037	398.62
350.265	405.62
350.492	394.62
350.72	395.62
350.947	395.62
351.174	396.62
351.402	408.62
351.629	393.62
351.856	406.62
352.083	407.62
352.311	425.62
352.538	412.62
352.765	405.62
352.992	404.62
353.22	415.62
353.447	405.62
353.674	410.62
353.901	400.62
354.128	410.62
354.355	388.62
354.583	395.62
354.81	395.62
355.037	395.62
355.264	384.62
355.491	389.62
355.718	393.62
355.945	405.62
356.172	388.62
356.399	394.62
356.626	394.62
356.853	385.62
357.08	379.62
357.307	385.62
357.534	396.62
357.761	395.62
357.988	396.62
358.215	394.62
358.441	405.62
358.668	423.62
358.895	399.62
359.122	395.62
359.349	389.62
359.576	423.62
359.802	419.62
360.029	427.62
360.256	426.62
360.483	424.62
360.709	405.62
360.936	398.62
361.163	386.62
361.39	400.62
361.616	421.62
361.843	398.62
362.07	411.62
362.296	412.62
362.523	422.62
362.749	388.62
362.976	409.62
363.203	406.62
363.429	388.62
363.656	403.62
363.882	402.62
364.109	402.62
364.335	400.62
364.562	399.62
364.788	402.62
365.015	394.62
365.241	378.62
365.468	398.62
365.694	402.62
365.92	413.62
366.147	396.62
366.373	398.62
366.599	390.62
366.826	389.62
367.052	383.62
367.278	400.62
367.505	389.62
367.731	401.62
367.957	404.62
368.184	393.62
368.41	394.62
368.636	422.62
368.862	396.62
369.089	402.62
369.315	420.62
369.541	398.62
369.767	381.62
369.993	413.62
370.219	414.62
370.445	424.62
370.672	397.62
370.898	407.62
371.124	411.62
371.35	397.62
371.576	411.62
371.802	402.62
372.028	404.62
372.254	415.62
372.48	392.62
372.706	414.62
372.932	423.62
373.158	418.62
373.384	416.62
373.61	407.62
373.835	422.62
374.061	414.62
374.287	435.62
374.513	428.62
374.739	426.62
374.965	427.62
375.191	448.62
375.416	426.62
375.642	412.62
375.868	414.62
376.094	417.62
376.319	421.62
376.545	446.62
376.771	424.62
376.997	431.62
377.222	407.62
377.448	410.62
377.674	407.62
377.899	412.62
378.125	422.62
378.35	406.62
378.576	423.62
378.802	407.62
379.027	404.62
379.253	406.62
379.478	408.62
379.704	396.62
379.929	403.62
380.155	399.62
380.38	420.62
380.606	410.62
380.831	406.62
381.057	434.62
381.282	414.62
381.507	416.62
381.733	406.62
381.958	421.62
382.184	423.62
382.409	434.62
382.634	427.62
382.86	428.62
383.085	430.62
383.31	427.62
383.535	450.62
383.761	442.62
383.986	432.62
384.211	458.62
384.436	446.62
384.662	459.62
384.887	460.62
385.112	478.62
385.337	495.62
385.562	469.62
385.787	476.62
386.013	492.62
386.238	480.62
386.463	474.62
386.688	466.62
386.913	466.62
387.138	470.62
387.363	455.62
387.588	461.62
387.813	461.62
388.038	457.62
388.263	447.62
388.488	464.62
388.713	465.62
388.938	455.62
389.163	499.62
389.387	469.62
389.612	451.62
389.837	477.62
390.062	467.62
390.287	454.62
390.512	463.62
390.736	466.62
390.961	489.62
391.186	472.62
391.411	495.62
391.636	477.62
391.86	499.62
392.085	535.62
392.31	501.62
392.534	499.62
392.759	494.62
392.984	487.62
393.208	490.62
393.433	483.62
393.658	498.62
393.882	496.62
394.107	484.62
394.331	487.62
394.556	476.62
394.78	494.62
395.005	491.62
395.229	471.62
395.454	514.62
395.678	494.62
395.903	503.62
396.127	526.62
396.352	514.62
396.576	498.62
396.801	481.62
397.025	497.62
397.249	496.62
397.474	510.62
397.698	520.62
397.922	542.62
398.147	522.62
398.371	514.62
398.595	518.62
398.82	546.62
399.044	588.62
399.268	636.62
399.492	687.62
399.717	739.62
399.941	752.62
400.165	714.62
400.389	706.62
400.613	627.62
400.837	587.62
401.062	584.62
401.286	578.62
401.51	564.62
401.734	563.62
401.958	565.62
402.182	558.62
402.406	572.62
402.63	555.62
402.854	567.62
403.078	599.62
403.302	595.62
403.526	589.62
403.75	622.62
403.974	603.62
404.198	616.62
404.422	619.62
404.645	635.62
404.869	606.62
405.093	626.62
405.317	674.62
405.541	667.62
405.765	634.62
405.988	632.62
406.212	604.62
406.436	636.62
406.66	651.62
406.883	642.62
407.107	664.62
407.331	705.62
407.555	730.62
407.778	746.62
408.002	693.62
408.226	670.62
408.449	629.62
408.673	639.62
408.896	637.62
409.12	689.62
409.344	631.62
409.567	609.62
409.791	588.62
410.014	606.62
410.238	587.62
410.461	569.62
410.685	579.62
410.908	588.62
411.132	604.62
411.355	622.62
411.578	590.62
411.802	596.62
412.025	596.62
412.249	601.62
412.472	596.62
412.695	612.62
412.919	610.62
413.142	582.62
413.365	586.62
413.589	568.62
413.812	536.62
414.035	549.62
414.258	555.62
414.482	562.62
414.705	565.62
414.928	552.62
415.151	562.62
415.374	557.62
415.597	532.62
415.821	536.62
416.044	546.62
416.267	550.62
416.49	564.62
416.713	518.62
416.936	540.62
417.159	554.62
417.382	541.62
417.605	522.62
417.828	574.62
418.051	579.62
418.274	564.62
418.497	539.62
418.72	553.62
418.943	565.62
419.166	581.62
419.389	597.62
419.611	608.62
419.834	582.62
420.057	599.62
420.28	582.62
420.503	562.62
420.726	546.62
420.948	558.62
421.171	595.62
421.394	594.62
421.617	584.62
421.839	566.62
422.062	561.62
422.285	586.62
422.507	621.62
422.73	636.62
422.953	628.62
423.175	588.62
423.398	579.62
423.621	603.62
423.843	600.62
424.066	622.62
424.288	603.62
424.511	629.62
424.733	634.62
424.956	674.62
425.178	638.62
425.401	643.62
425.623	681.62
425.846	592.62
426.068	558.62
426.291	556.62
426.513	551.62
426.735	559.62
426.958	594.62
427.18	635.62
427.402	700.62
427.625	762.62
427.847	673.62
428.069	582.62
428.292	563.62
428.514	535.62
428.736	534.62
428.958	495.62
429.181	515.62
429.403	508.62
429.625	529.62
429.847	518.62
430.069	572.62
430.292	557.62
430.514	510.62
430.736	516.62
430.958	515.62
431.18	494.62
431.402	482.62
431.624	480.62
431.846	510.62
432.068	519.62
432.29	514.62
432.512	502.62
432.734	519.62
432.956	522.62
433.178	482.62
433.4	528.62
433.622	497.62
433.844	508.62
434.066	519.62
434.287	506.62
434.509	504.62
434.731	530.62
434.953	547.62
435.175	574.62
435.397	569.62
435.618	568.62
435.84	588.62
436.062	589.62
436.284	634.62
436.505	561.62
436.727	554.62
436.949	519.62
437.17	512.62
437.392	521.62
437.614	517.62
437.835	532.62
438.057	572.62
438.278	629.62
438.5	628.62
438.721	667.62
438.943	672.62
439.165	594.62
439.386	554.62
439.608	528.62
439.829	548.62
440.05	534.62
440.272	572.62
440.493	540.62
440.715	504.62
440.936	527.62
441.158	513.62
441.379	524.62
441.6	561.62
441.822	570.62
442.043	588.62
442.264	622.62
442.486	642.62
442.707	577.62
442.928	552.62
443.149	572.62
443.371	584.62
443.592	612.62
443.813	663.62
444.034	685.62
444.255	651.62
444.476	620.62
444.698	623.62
444.919	621.62
445.14	725.62
445.361	646.62
445.582	602.62
445.803	642.62
446.024	684.62
446.245	675.62
446.466	620.62
446.687	554.62
446.908	535.62
447.129	517.62
447.35	507.62
447.571	518.62
447.792	490.62
448.013	502.62
448.234	500.62
448.455	519.62
448.675	588.62
448.896	661.62
449.117	571.62
449.338	550.62
449.559	628.62
449.779	683.62
450	578.62
450.221	504.62
450.442	467.62
450.662	493.62
450.883	479.62
451.104	478.62
451.324	474.62
451.545	461.62
451.766	435.62
451.986	450.62
452.207	454.62
452.428	457.62
452.648	465.62
452.869	443.62
453.089	455.62
453.31	467.62
453.53	446.62
453.751	446.62
453.971	465.62
454.192	443.62
454.412	428.62
454.633	435.62
454.853	447.62
455.073	446.62
455.294	448.62
455.514	469.62
455.734	479.62
455.955	437.62
456.175	422.62
456.395	432.62
456.616	424.62
456.836	404.62
457.056	427.62
457.276	422.62
457.497	416.62
457.717	451.62
457.937	422.62
458.157	448.62
458.377	439.62
458.598	445.62
458.818	523.62
459.038	540.62
459.258	550.62
459.478	522.62
459.698	494.62
459.918	528.62
460.138	527.62
460.358	536.62
460.578	559.62
460.798	532.62
461.018	547.62
461.238	542.62
461.458	533.62
461.678	540.62
461.898	538.62
462.118	560.62
462.338	557.62
462.558	584.62
462.777	583.62
462.997	634.62
463.217	636.62
463.437	650.62
463.657	602.62
463.876	594.62
464.096	611.62
464.316	595.62
464.536	584.62
464.755	588.62
464.975	588.62
465.195	590.62
465.414	595.62
465.634	532.62
465.854	505.62
466.073	509.62
466.293	478.62
466.512	464.62
466.732	474.62
466.951	493.62
467.171	471.62
467.391	476.62
467.61	474.62
467.829	470.62
468.049	476.62
468.268	469.62
468.488	448.62
468.707	453.62
468.927	456.62
469.146	452.62
469.365	459.62
469.585	447.62
469.804	481.62
470.023	466.62
470.243	477.62
470.462	483.62
470.681	488.62
470.901	506.62
471.12	484.62
471.339	470.62
471.558	471.62
471.777	474.62
471.997	484.62
472.216	479.62
472.435	498.62
472.654	478.62
472.873	465.62
473.092	470.62
473.311	469.62
473.53	464.62
473.749	467.62
473.968	478.62
474.187	540.62
474.406	565.62
474.625	505.62
474.844	461.62
475.063	465.62
475.282	460.62
475.501	471.62
475.72	462.62
475.939	459.62
476.158	454.62
476.377	466.62
476.596	480.62
476.814	476.62
477.033	471.62
477.252	470.62
477.471	491.62
477.69	519.62
477.908	535.62
478.127	521.62
478.346	519.62
478.564	524.62
478.783	566.62
479.002	529.62
479.22	538.62
479.439	555.62
479.658	566.62
479.876	575.62
480.095	571.62
480.313	614.62
480.532	598.62
480.751	591.62
480.969	593.62
481.188	627.62
481.406	652.62
481.624	576.62
481.843	551.62
482.061	528.62
482.28	533.62
482.498	553.62
482.717	526.62
482.935	511.62
483.153	536.62
483.372	525.62
483.59	561.62
483.808	516.62
484.027	533.62
484.245	538.62
484.463	535.62
484.681	529.62
484.9	545.62
485.118	552.62
485.336	554.62
485.554	562.62
485.772	542.62
485.99	552.62
486.209	523.62
486.427	538.62
486.645	558.62
486.863	572.62
487.081	593.62
487.299	565.62
487.517	558.62
487.735	586.62
487.953	571.62
488.171	568.62
488.389	556.62
488.607	532.62
488.825	544.62
489.043	564.62
489.261	574.62
489.479	583.62
489.696	569.62
489.914	575.62
490.132	582.62
490.35	579.62
490.568	573.62
490.786	592.62
491.003	615.62
491.221	603.62
491.439	604.62
491.657	631.62
491.874	617.62
492.092	632.62
492.31	643.62
492.527	647.62
492.745	629.62
492.963	643.62
493.18	664.62
493.398	653.62
493.615	638.62
493.833	642.62
494.05	650.62
494.268	659.62
494.485	644.62
494.703	653.62
494.92	636.62
495.138	641.62
495.355	654.62
495.573	651.62
495.79	632.62
496.008	662.62
496.225	635.62
496.442	661.62
496.66	652.62
496.877	643.62
497.094	678.62
497.312	654.62
497.529	693.62
497.746	694.62
497.963	688.62
498.181	719.62
498.398	755.62
498.615	774.62
498.832	810.62
499.049	827.62
499.267	872.62
499.484	930.62
499.701	979.62
499.918	1047.62
500.135	1137.62
500.352	1282.62
500.569	1291.62
500.786	1312.62
501.003	1228.62
501.22	1164.62
501.437	1058.62
501.654	978.62
501.871	933.62
502.088	862.62
