Data from 1960PennyLincolnUp.LampE6.200Scan.07172019.P1_HRD10591_13-06-21-001.txt Node
Date: Thu Jul 18 13:06:21 EDT 2019
User: cochatt
Spectrometer: HR+D1059
Trigger mode: 1
Integration Time (sec): 1.000000E-1
Scans to average: 1
Electric dark correction enabled: true
Nonlinearity correction enabled: false
Boxcar width: 0
XAxis mode: Wavelengths
Number of Pixels in Spectrum: 2048
>>>>>Begin Spectral Data<<<<<
223.165	-7.56
223.4	-7.56
223.635	-7.56
223.869	-16.56
224.104	-28.56
224.338	-17.56
224.573	-17.56
224.808	-14.56
225.042	-0.56
225.277	-3.56
225.511	-9.56
225.746	-4.56
225.98	8.44
226.215	25.44
226.449	16.44
226.683	12.44
226.918	27.44
227.152	30.44
227.387	30.44
227.621	39.44
227.856	40.44
228.09	41.44
228.324	51.44
228.559	59.44
228.793	73.44
229.027	101.44
229.262	103.44
229.496	94.44
229.73	114.44
229.964	125.44
230.199	109.44
230.433	99.44
230.667	109.44
230.901	110.44
231.136	103.44
231.37	100.44
231.604	111.44
231.838	101.44
232.072	121.44
232.306	91.44
232.541	102.44
232.775	127.44
233.009	100.44
233.243	102.44
233.477	104.44
233.711	118.44
233.945	127.44
234.179	108.44
234.413	112.44
234.647	114.44
234.881	122.44
235.115	118.44
235.349	118.44
235.583	127.44
235.817	132.44
236.051	104.44
236.285	123.44
236.519	116.44
236.753	110.44
236.987	125.44
237.221	155.44
237.455	176.44
237.689	161.44
237.922	118.44
238.156	115.44
238.39	109.44
238.624	114.44
238.858	105.44
239.091	118.44
239.325	138.44
239.559	132.44
239.793	118.44
240.027	122.44
240.26	123.44
240.494	134.44
240.728	139.44
240.961	141.44
241.195	140.44
241.429	130.44
241.662	119.44
241.896	125.44
242.13	132.44
242.363	128.44
242.597	133.44
242.83	131.44
243.064	142.44
243.298	127.44
243.531	135.44
243.765	134.44
243.998	132.44
244.232	155.44
244.465	144.44
244.699	125.44
244.932	141.44
245.166	144.44
245.399	126.44
245.633	132.44
245.866	148.44
246.099	134.44
246.333	129.44
246.566	131.44
246.8	145.44
247.033	155.44
247.266	141.44
247.5	159.44
247.733	148.44
247.966	164.44
248.2	141.44
248.433	146.44
248.666	152.44
248.899	157.44
249.133	170.44
249.366	174.44
249.599	172.44
249.832	166.44
250.066	173.44
250.299	176.44
250.532	167.44
250.765	185.44
250.998	192.44
251.231	202.44
251.465	196.44
251.698	182.44
251.931	175.44
252.164	176.44
252.397	181.44
252.63	182.44
252.863	200.44
253.096	205.44
253.329	199.44
253.562	193.44
253.795	192.44
254.028	182.44
254.261	182.44
254.494	208.44
254.727	213.44
254.96	228.44
255.193	221.44
255.426	205.44
255.659	197.44
255.892	195.44
256.124	185.44
256.357	206.44
256.59	169.44
256.823	197.44
257.056	205.44
257.289	196.44
257.521	199.44
257.754	193.44
257.987	188.44
258.22	199.44
258.452	195.44
258.685	187.44
258.918	194.44
259.151	196.44
259.383	193.44
259.616	209.44
259.849	197.44
260.081	239.44
260.314	218.44
260.547	230.44
260.779	229.44
261.012	204.44
261.244	186.44
261.477	207.44
261.71	205.44
261.942	204.44
262.175	210.44
262.407	214.44
262.64	202.44
262.872	204.44
263.105	195.44
263.337	201.44
263.57	193.44
263.802	199.44
264.035	211.44
264.267	191.44
264.499	193.44
264.732	203.44
264.964	215.44
265.197	202.44
265.429	215.44
265.661	226.44
265.894	222.44
266.126	203.44
266.358	204.44
266.591	219.44
266.823	221.44
267.055	216.44
267.287	212.44
267.52	226.44
267.752	219.44
267.984	208.44
268.216	229.44
268.448	238.44
268.681	233.44
268.913	234.44
269.145	248.44
269.377	252.44
269.609	256.44
269.841	262.44
270.073	245.44
270.306	256.44
270.538	267.44
270.77	275.44
271.002	264.44
271.234	275.44
271.466	276.44
271.698	267.44
271.93	289.44
272.162	273.44
272.394	283.44
272.626	276.44
272.858	270.44
273.09	254.44
273.322	233.44
273.553	252.44
273.785	238.44
274.017	260.44
274.249	252.44
274.481	256.44
274.713	248.44
274.945	241.44
275.176	269.44
275.408	263.44
275.64	264.44
275.872	266.44
276.104	253.44
276.335	256.44
276.567	266.44
276.799	259.44
277.031	281.44
277.262	296.44
277.494	306.44
277.726	290.44
277.957	281.44
278.189	259.44
278.421	280.44
278.652	268.44
278.884	255.44
279.115	260.44
279.347	258.44
279.579	259.44
279.81	267.44
280.042	270.44
280.273	263.44
280.505	283.44
280.736	263.44
280.968	276.44
281.199	261.44
281.431	276.44
281.662	266.44
281.894	270.44
282.125	274.44
282.356	288.44
282.588	285.44
282.819	286.44
283.051	295.44
283.282	271.44
283.513	291.44
283.745	282.44
283.976	264.44
284.207	297.44
284.439	296.44
284.67	272.44
284.901	292.44
285.132	286.44
285.364	284.44
285.595	275.44
285.826	302.44
286.057	300.44
286.288	269.44
286.52	300.44
286.751	294.44
286.982	301.44
287.213	299.44
287.444	290.44
287.675	280.44
287.906	316.44
288.138	292.44
288.369	321.44
288.6	311.44
288.831	314.44
289.062	310.44
289.293	293.44
289.524	289.44
289.755	299.44
289.986	304.44
290.217	303.44
290.448	310.44
290.679	306.44
290.91	311.44
291.141	306.44
291.371	293.44
291.602	311.44
291.833	307.44
292.064	303.44
292.295	303.44
292.526	312.44
292.757	301.44
292.987	297.44
293.218	299.44
293.449	302.44
293.68	318.44
293.91	316.44
294.141	293.44
294.372	294.44
294.603	309.44
294.833	307.44
295.064	298.44
295.295	308.44
295.525	325.44
295.756	327.44
295.987	333.44
296.217	320.44
296.448	336.44
296.679	323.44
296.909	319.44
297.14	324.44
297.37	317.44
297.601	323.44
297.831	331.44
298.062	333.44
298.292	309.44
298.523	324.44
298.753	319.44
298.984	333.44
299.214	339.44
299.445	332.44
299.675	328.44
299.905	318.44
300.136	333.44
300.366	338.44
300.597	320.44
300.827	343.44
301.057	346.44
301.288	322.44
301.518	334.44
301.748	362.44
301.979	335.44
302.209	338.44
302.439	335.44
302.669	330.44
302.9	351.44
303.13	348.44
303.36	328.44
303.59	343.44
303.82	346.44
304.051	348.44
304.281	348.44
304.511	342.44
304.741	356.44
304.971	355.44
305.201	337.44
305.431	340.44
305.661	348.44
305.891	358.44
306.121	340.44
306.352	364.44
306.582	361.44
306.812	334.44
307.042	352.44
307.272	342.44
307.502	337.44
307.731	332.44
307.961	353.44
308.191	360.44
308.421	348.44
308.651	358.44
308.881	334.44
309.111	324.44
309.341	363.44
309.571	346.44
309.8	369.44
310.03	371.44
310.26	368.44
310.49	359.44
310.72	372.44
310.949	390.44
311.179	395.44
311.409	370.44
311.639	383.44
311.868	356.44
312.098	376.44
312.328	391.44
312.557	360.44
312.787	379.44
313.017	391.44
313.246	369.44
313.476	392.44
313.706	360.44
313.935	391.44
314.165	381.44
314.394	406.44
314.624	399.44
314.853	374.44
315.083	398.44
315.312	415.44
315.542	381.44
315.771	382.44
316.001	367.44
316.23	372.44
316.46	358.44
316.689	378.44
316.919	381.44
317.148	407.44
317.377	404.44
317.607	384.44
317.836	375.44
318.065	370.44
318.295	354.44
318.524	376.44
318.753	374.44
318.983	391.44
319.212	404.44
319.441	384.44
319.67	390.44
319.9	383.44
320.129	374.44
320.358	378.44
320.587	389.44
320.816	394.44
321.046	403.44
321.275	395.44
321.504	383.44
321.733	402.44
321.962	384.44
322.191	381.44
322.42	405.44
322.649	422.44
322.878	419.44
323.108	427.44
323.337	435.44
323.566	423.44
323.795	433.44
324.024	464.44
324.253	543.44
324.482	733.44
324.71	1035.44
324.939	1367.44
325.168	1129.44
325.397	626.44
325.626	516.44
325.855	460.44
326.084	435.44
326.313	457.44
326.542	451.44
326.77	451.44
326.999	540.44
327.228	679.44
327.457	943.44
327.686	1073.44
327.914	734.44
328.143	518.44
328.372	527.44
328.6	505.44
328.829	491.44
329.058	485.44
329.287	511.44
329.515	485.44
329.744	469.44
329.972	479.44
330.201	465.44
330.43	500.44
330.658	514.44
330.887	496.44
331.115	505.44
331.344	471.44
331.572	457.44
331.801	468.44
332.03	458.44
332.258	486.44
332.486	479.44
332.715	447.44
332.943	491.44
333.172	534.44
333.4	505.44
333.629	520.44
333.857	530.44
334.085	529.44
334.314	554.44
334.542	557.44
334.771	558.44
334.999	533.44
335.227	518.44
335.455	502.44
335.684	496.44
335.912	480.44
336.14	476.44
336.369	496.44
336.597	486.44
336.825	454.44
337.053	479.44
337.281	479.44
337.51	458.44
337.738	461.44
337.966	444.44
338.194	452.44
338.422	457.44
338.65	440.44
338.878	440.44
339.106	455.44
339.334	434.44
339.562	431.44
339.79	452.44
340.018	430.44
340.246	440.44
340.474	427.44
340.702	445.44
340.93	434.44
341.158	441.44
341.386	432.44
341.614	442.44
341.842	443.44
342.07	438.44
342.298	438.44
342.526	414.44
342.754	415.44
342.981	440.44
343.209	430.44
343.437	453.44
343.665	467.44
343.893	464.44
344.12	487.44
344.348	482.44
344.576	449.44
344.804	435.44
345.031	438.44
345.259	466.44
345.487	454.44
345.714	430.44
345.942	425.44
346.17	446.44
346.397	445.44
346.625	424.44
346.853	420.44
347.08	410.44
347.308	436.44
347.535	421.44
347.763	441.44
347.99	415.44
348.218	416.44
348.445	430.44
348.673	413.44
348.9	426.44
349.128	422.44
349.355	410.44
349.583	436.44
349.81	421.44
350.037	416.44
350.265	413.44
350.492	397.44
350.72	407.44
350.947	388.44
351.174	418.44
351.402	432.44
351.629	412.44
351.856	419.44
352.083	436.44
352.311	438.44
352.538	423.44
352.765	423.44
352.992	429.44
353.22	415.44
353.447	422.44
353.674	407.44
353.901	396.44
354.128	405.44
354.355	389.44
354.583	407.44
354.81	402.44
355.037	409.44
355.264	384.44
355.491	412.44
355.718	412.44
355.945	387.44
356.172	416.44
356.399	421.44
356.626	392.44
356.853	391.44
357.08	397.44
357.307	396.44
357.534	406.44
357.761	416.44
357.988	396.44
358.215	395.44
358.441	402.44
358.668	403.44
358.895	407.44
359.122	426.44
359.349	396.44
359.576	404.44
359.802	426.44
360.029	432.44
360.256	445.44
360.483	448.44
360.709	411.44
360.936	439.44
361.163	437.44
361.39	402.44
361.616	418.44
361.843	432.44
362.07	420.44
362.296	428.44
362.523	418.44
362.749	398.44
362.976	417.44
363.203	396.44
363.429	407.44
363.656	405.44
363.882	403.44
364.109	418.44
364.335	410.44
364.562	411.44
364.788	411.44
365.015	399.44
365.241	405.44
365.468	407.44
365.694	406.44
365.92	407.44
366.147	396.44
366.373	397.44
366.599	394.44
366.826	395.44
367.052	416.44
367.278	417.44
367.505	393.44
367.731	412.44
367.957	395.44
368.184	407.44
368.41	419.44
368.636	411.44
368.862	409.44
369.089	415.44
369.315	416.44
369.541	406.44
369.767	404.44
369.993	408.44
370.219	408.44
370.445	427.44
370.672	407.44
370.898	430.44
371.124	419.44
371.35	435.44
371.576	410.44
371.802	434.44
372.028	429.44
372.254	407.44
372.48	421.44
372.706	451.44
372.932	436.44
373.158	432.44
373.384	451.44
373.61	435.44
373.835	412.44
374.061	431.44
374.287	451.44
374.513	436.44
374.739	468.44
374.965	466.44
375.191	444.44
375.416	446.44
375.642	444.44
375.868	465.44
376.094	423.44
376.319	427.44
376.545	418.44
376.771	435.44
376.997	427.44
377.222	414.44
377.448	406.44
377.674	413.44
377.899	423.44
378.125	415.44
378.35	414.44
378.576	413.44
378.802	419.44
379.027	439.44
379.253	438.44
379.478	433.44
379.704	433.44
379.929	414.44
380.155	434.44
380.38	437.44
380.606	437.44
380.831	429.44
381.057	436.44
381.282	423.44
381.507	419.44
381.733	436.44
381.958	440.44
382.184	435.44
382.409	422.44
382.634	439.44
382.86	447.44
383.085	426.44
383.31	445.44
383.535	448.44
383.761	462.44
383.986	465.44
384.211	465.44
384.436	460.44
384.662	464.44
384.887	497.44
385.112	471.44
385.337	480.44
385.562	508.44
385.787	483.44
386.013	478.44
386.238	491.44
386.463	492.44
386.688	502.44
386.913	475.44
387.138	486.44
387.363	473.44
387.588	499.44
387.813	450.44
388.038	474.44
388.263	477.44
388.488	469.44
388.713	470.44
388.938	470.44
389.163	490.44
389.387	461.44
389.612	471.44
389.837	466.44
390.062	460.44
390.287	475.44
390.512	456.44
390.736	494.44
390.961	482.44
391.186	493.44
391.411	486.44
391.636	501.44
391.86	524.44
392.085	532.44
392.31	541.44
392.534	529.44
392.759	516.44
392.984	511.44
393.208	496.44
393.433	510.44
393.658	517.44
393.882	485.44
394.107	496.44
394.331	517.44
394.556	502.44
394.78	483.44
395.005	492.44
395.229	490.44
395.454	498.44
395.678	522.44
395.903	516.44
396.127	542.44
396.352	532.44
396.576	514.44
396.801	514.44
397.025	479.44
397.249	532.44
397.474	496.44
397.698	518.44
397.922	534.44
398.147	534.44
398.371	576.44
398.595	558.44
398.82	593.44
399.044	599.44
399.268	624.44
399.492	690.44
399.717	759.44
399.941	774.44
400.165	742.44
400.389	684.44
400.613	646.44
400.837	571.44
401.062	586.44
401.286	575.44
401.51	590.44
401.734	559.44
401.958	588.44
402.182	574.44
402.406	598.44
402.63	596.44
402.854	582.44
403.078	602.44
403.302	603.44
403.526	629.44
403.75	615.44
403.974	625.44
404.198	639.44
404.422	622.44
404.645	642.44
404.869	638.44
405.093	662.44
405.317	648.44
405.541	688.44
405.765	654.44
405.988	640.44
406.212	612.44
406.436	640.44
406.66	652.44
406.883	637.44
407.107	675.44
407.331	738.44
407.555	765.44
407.778	767.44
408.002	688.44
408.226	666.44
408.449	661.44
408.673	648.44
408.896	666.44
409.12	684.44
409.344	670.44
409.567	606.44
409.791	628.44
410.014	606.44
410.238	613.44
410.461	591.44
410.685	584.44
410.908	616.44
411.132	620.44
411.355	616.44
411.578	631.44
411.802	594.44
412.025	595.44
412.249	610.44
412.472	620.44
412.695	621.44
412.919	606.44
413.142	584.44
413.365	587.44
413.589	593.44
413.812	591.44
414.035	569.44
414.258	562.44
414.482	540.44
414.705	568.44
414.928	556.44
415.151	553.44
415.374	570.44
415.597	547.44
415.821	560.44
416.044	558.44
416.267	565.44
416.49	563.44
416.713	539.44
416.936	572.44
417.159	553.44
417.382	558.44
417.605	547.44
417.828	563.44
418.051	548.44
418.274	578.44
418.497	573.44
418.72	546.44
418.943	576.44
419.166	580.44
419.389	618.44
419.611	599.44
419.834	593.44
420.057	608.44
420.28	608.44
420.503	562.44
420.726	585.44
420.948	580.44
421.171	593.44
421.394	595.44
421.617	586.44
421.839	559.44
422.062	570.44
422.285	577.44
422.507	621.44
422.73	674.44
422.953	655.44
423.175	572.44
423.398	592.44
423.621	612.44
423.843	615.44
424.066	623.44
424.288	636.44
424.511	640.44
424.733	659.44
424.956	678.44
425.178	659.44
425.401	670.44
425.623	671.44
425.846	609.44
426.068	604.44
426.291	568.44
426.513	584.44
426.735	586.44
426.958	626.44
427.18	645.44
427.402	719.44
427.625	797.44
427.847	693.44
428.069	609.44
428.292	592.44
428.514	573.44
428.736	536.44
428.958	543.44
429.181	511.44
429.403	534.44
429.625	508.44
429.847	544.44
430.069	576.44
430.292	611.44
430.514	556.44
430.736	554.44
430.958	521.44
431.18	531.44
431.402	515.44
431.624	507.44
431.846	510.44
432.068	524.44
432.29	522.44
432.512	526.44
432.734	522.44
432.956	530.44
433.178	515.44
433.4	524.44
433.622	522.44
433.844	533.44
434.066	536.44
434.287	533.44
434.509	532.44
434.731	520.44
434.953	548.44
435.175	598.44
435.397	612.44
435.618	563.44
435.84	589.44
436.062	651.44
436.284	664.44
436.505	599.44
436.727	556.44
436.949	534.44
437.17	522.44
437.392	523.44
437.614	531.44
437.835	551.44
438.057	604.44
438.278	660.44
438.5	662.44
438.721	693.44
438.943	694.44
439.165	560.44
439.386	534.44
439.608	569.44
439.829	556.44
440.05	577.44
440.272	602.44
440.493	580.44
440.715	556.44
440.936	515.44
441.158	532.44
441.379	538.44
441.6	587.44
441.822	604.44
442.043	611.44
442.264	657.44
442.486	694.44
442.707	628.44
442.928	575.44
443.149	578.44
443.371	601.44
443.592	646.44
443.813	677.44
444.034	727.44
444.255	667.44
444.476	618.44
444.698	623.44
444.919	622.44
445.14	747.44
445.361	665.44
445.582	606.44
445.803	658.44
446.024	655.44
446.245	685.44
446.466	658.44
446.687	582.44
446.908	542.44
447.129	533.44
447.35	516.44
447.571	522.44
447.792	500.44
448.013	505.44
448.234	504.44
448.455	568.44
448.675	617.44
448.896	660.44
449.117	602.44
449.338	586.44
449.559	640.44
449.779	713.44
450	583.44
450.221	519.44
450.442	520.44
450.662	507.44
450.883	510.44
451.104	517.44
451.324	495.44
451.545	495.44
451.766	477.44
451.986	462.44
452.207	458.44
452.428	456.44
452.648	471.44
452.869	483.44
453.089	467.44
453.31	488.44
453.53	474.44
453.751	445.44
453.971	450.44
454.192	460.44
454.412	440.44
454.633	446.44
454.853	453.44
455.073	447.44
455.294	476.44
455.514	511.44
455.734	499.44
455.955	482.44
456.175	448.44
456.395	428.44
456.616	435.44
456.836	435.44
457.056	424.44
457.276	446.44
457.497	445.44
457.717	437.44
457.937	450.44
458.157	452.44
458.377	447.44
458.598	461.44
458.818	508.44
459.038	549.44
459.258	549.44
459.478	523.44
459.698	520.44
459.918	523.44
460.138	527.44
460.358	564.44
460.578	542.44
460.798	551.44
461.018	580.44
461.238	547.44
461.458	547.44
461.678	529.44
461.898	560.44
462.118	554.44
462.338	567.44
462.558	567.44
462.777	612.44
462.997	622.44
463.217	681.44
463.437	661.44
463.657	630.44
463.876	612.44
464.096	609.44
464.316	614.44
464.536	599.44
464.755	599.44
464.975	597.44
465.195	575.44
465.414	623.44
465.634	551.44
465.854	524.44
466.073	517.44
466.293	517.44
466.512	474.44
466.732	484.44
466.951	466.44
467.171	485.44
467.391	469.44
467.61	500.44
467.829	500.44
468.049	488.44
468.268	463.44
468.488	463.44
468.707	453.44
468.927	458.44
469.146	469.44
469.365	480.44
469.585	464.44
469.804	480.44
470.023	502.44
470.243	484.44
470.462	504.44
470.681	532.44
470.901	501.44
471.12	482.44
471.339	499.44
471.558	485.44
471.777	474.44
471.997	486.44
472.216	488.44
472.435	512.44
472.654	490.44
472.873	475.44
473.092	472.44
473.311	488.44
473.53	475.44
473.749	455.44
473.968	501.44
474.187	552.44
474.406	557.44
474.625	501.44
474.844	482.44
475.063	476.44
475.282	466.44
475.501	465.44
475.72	452.44
475.939	490.44
476.158	467.44
476.377	491.44
476.596	495.44
476.814	518.44
477.033	478.44
477.252	524.44
477.471	522.44
477.69	499.44
477.908	523.44
478.127	545.44
478.346	534.44
478.564	556.44
478.783	550.44
479.002	568.44
479.22	563.44
479.439	563.44
479.658	565.44
479.876	593.44
480.095	607.44
480.313	608.44
480.532	609.44
480.751	605.44
480.969	606.44
481.188	638.44
481.406	643.44
481.624	582.44
481.843	544.44
482.061	567.44
482.28	547.44
482.498	559.44
482.717	559.44
482.935	541.44
483.153	540.44
483.372	518.44
483.59	550.44
483.808	532.44
484.027	558.44
484.245	557.44
484.463	547.44
484.681	591.44
484.9	546.44
485.118	548.44
485.336	552.44
485.554	546.44
485.772	561.44
485.99	581.44
486.209	564.44
486.427	559.44
486.645	588.44
486.863	584.44
487.081	589.44
487.299	591.44
487.517	577.44
487.735	578.44
487.953	567.44
488.171	572.44
488.389	584.44
488.607	576.44
488.825	578.44
489.043	586.44
489.261	569.44
489.479	580.44
489.696	584.44
489.914	578.44
490.132	601.44
490.35	590.44
490.568	610.44
490.786	607.44
491.003	594.44
491.221	625.44
491.439	644.44
491.657	616.44
491.874	631.44
492.092	654.44
492.31	683.44
492.527	653.44
492.745	677.44
492.963	672.44
493.18	662.44
493.398	674.44
493.615	692.44
493.833	695.44
494.05	678.44
494.268	676.44
494.485	661.44
494.703	676.44
494.92	672.44
495.138	671.44
495.355	677.44
495.573	697.44
495.79	695.44
496.008	683.44
496.225	683.44
496.442	668.44
496.66	673.44
496.877	677.44
497.094	700.44
497.312	695.44
497.529	691.44
497.746	731.44
497.963	710.44
498.181	748.44
498.398	770.44
498.615	813.44
498.832	814.44
499.049	840.44
499.267	903.44
499.484	934.44
499.701	1018.44
499.918	1040.44
500.135	1140.44
500.352	1259.44
500.569	1335.44
500.786	1306.44
501.003	1277.44
501.22	1145.44
501.437	1084.44
501.654	1002.44
501.871	960.44
