Data from 1960PennyLincolnUp.LampE6.200Scan.07172019.P1_HRD10591_13-05-54-001.txt Node
Date: Thu Jul 18 13:05:54 EDT 2019
User: cochatt
Spectrometer: HR+D1059
Trigger mode: 1
Integration Time (sec): 1.000000E-1
Scans to average: 1
Electric dark correction enabled: true
Nonlinearity correction enabled: false
Boxcar width: 0
XAxis mode: Wavelengths
Number of Pixels in Spectrum: 2048
>>>>>Begin Spectral Data<<<<<
223.165	-8.88
223.4	-8.88
223.635	-8.88
223.869	-12.88
224.104	-37.88
224.338	-3.88
224.573	-24.88
224.808	-16.88
225.042	-6.88
225.277	1.12
225.511	-11.88
225.746	-1.88
225.98	16.12
226.215	5.12
226.449	10.12
226.683	31.12
226.918	37.12
227.152	25.12
227.387	21.12
227.621	24.12
227.856	40.12
228.09	55.12
228.324	34.12
228.559	48.12
228.793	63.12
229.027	69.12
229.262	95.12
229.496	101.12
229.73	125.12
229.964	115.12
230.199	104.12
230.433	95.12
230.667	112.12
230.901	96.12
231.136	103.12
231.37	112.12
231.604	104.12
231.838	109.12
232.072	114.12
232.306	104.12
232.541	109.12
232.775	99.12
233.009	107.12
233.243	120.12
233.477	105.12
233.711	119.12
233.945	109.12
234.179	114.12
234.413	103.12
234.647	102.12
234.881	127.12
235.115	108.12
235.349	123.12
235.583	106.12
235.817	110.12
236.051	106.12
236.285	118.12
236.519	120.12
236.753	128.12
236.987	121.12
237.221	151.12
237.455	168.12
237.689	150.12
237.922	115.12
238.156	126.12
238.39	116.12
238.624	109.12
238.858	116.12
239.091	113.12
239.325	113.12
239.559	123.12
239.793	127.12
240.027	120.12
240.26	136.12
240.494	125.12
240.728	130.12
240.961	144.12
241.195	129.12
241.429	109.12
241.662	110.12
241.896	131.12
242.13	126.12
242.363	124.12
242.597	132.12
242.83	116.12
243.064	148.12
243.298	117.12
243.531	149.12
243.765	130.12
243.998	148.12
244.232	129.12
244.465	133.12
244.699	136.12
244.932	136.12
245.166	129.12
245.399	142.12
245.633	118.12
245.866	128.12
246.099	130.12
246.333	132.12
246.566	131.12
246.8	150.12
247.033	150.12
247.266	159.12
247.5	156.12
247.733	157.12
247.966	147.12
248.2	156.12
248.433	152.12
248.666	167.12
248.899	153.12
249.133	179.12
249.366	193.12
249.599	176.12
249.832	159.12
250.066	155.12
250.299	161.12
250.532	174.12
250.765	181.12
250.998	196.12
251.231	191.12
251.465	185.12
251.698	178.12
251.931	169.12
252.164	168.12
252.397	172.12
252.63	174.12
252.863	198.12
253.096	204.12
253.329	203.12
253.562	192.12
253.795	196.12
254.028	201.12
254.261	191.12
254.494	199.12
254.727	215.12
254.96	242.12
255.193	227.12
255.426	191.12
255.659	191.12
255.892	195.12
256.124	203.12
256.357	196.12
256.59	209.12
256.823	190.12
257.056	197.12
257.289	202.12
257.521	177.12
257.754	188.12
257.987	195.12
258.22	199.12
258.452	187.12
258.685	196.12
258.918	191.12
259.151	199.12
259.383	210.12
259.616	202.12
259.849	209.12
260.081	194.12
260.314	217.12
260.547	230.12
260.779	244.12
261.012	202.12
261.244	216.12
261.477	211.12
261.71	208.12
261.942	229.12
262.175	205.12
262.407	217.12
262.64	198.12
262.872	200.12
263.105	182.12
263.337	195.12
263.57	205.12
263.802	191.12
264.035	189.12
264.267	207.12
264.499	190.12
264.732	204.12
264.964	217.12
265.197	185.12
265.429	195.12
265.661	197.12
265.894	210.12
266.126	209.12
266.358	206.12
266.591	217.12
266.823	204.12
267.055	212.12
267.287	208.12
267.52	222.12
267.752	229.12
267.984	225.12
268.216	214.12
268.448	215.12
268.681	208.12
268.913	231.12
269.145	255.12
269.377	261.12
269.609	238.12
269.841	246.12
270.073	238.12
270.306	251.12
270.538	296.12
270.77	280.12
271.002	263.12
271.234	234.12
271.466	254.12
271.698	253.12
271.93	286.12
272.162	269.12
272.394	284.12
272.626	261.12
272.858	259.12
273.09	248.12
273.322	251.12
273.553	241.12
273.785	250.12
274.017	242.12
274.249	255.12
274.481	254.12
274.713	255.12
274.945	257.12
275.176	248.12
275.408	230.12
275.64	243.12
275.872	247.12
276.104	252.12
276.335	248.12
276.567	261.12
276.799	248.12
277.031	276.12
277.262	290.12
277.494	294.12
277.726	278.12
277.957	265.12
278.189	266.12
278.421	251.12
278.652	268.12
278.884	270.12
279.115	270.12
279.347	271.12
279.579	258.12
279.81	240.12
280.042	258.12
280.273	267.12
280.505	252.12
280.736	257.12
280.968	276.12
281.199	271.12
281.431	259.12
281.662	256.12
281.894	265.12
282.125	263.12
282.356	284.12
282.588	280.12
282.819	284.12
283.051	271.12
283.282	269.12
283.513	271.12
283.745	275.12
283.976	281.12
284.207	273.12
284.439	288.12
284.67	269.12
284.901	277.12
285.132	264.12
285.364	274.12
285.595	289.12
285.826	280.12
286.057	287.12
286.288	276.12
286.52	289.12
286.751	301.12
286.982	273.12
287.213	267.12
287.444	303.12
287.675	292.12
287.906	304.12
288.138	309.12
288.369	297.12
288.6	314.12
288.831	290.12
289.062	288.12
289.293	306.12
289.524	303.12
289.755	304.12
289.986	273.12
290.217	297.12
290.448	288.12
290.679	296.12
290.91	296.12
291.141	274.12
291.371	303.12
291.602	302.12
291.833	301.12
292.064	294.12
292.295	303.12
292.526	302.12
292.757	298.12
292.987	299.12
293.218	307.12
293.449	296.12
293.68	308.12
293.91	313.12
294.141	286.12
294.372	301.12
294.603	314.12
294.833	291.12
295.064	311.12
295.295	307.12
295.525	298.12
295.756	297.12
295.987	311.12
296.217	321.12
296.448	324.12
296.679	308.12
296.909	314.12
297.14	323.12
297.37	309.12
297.601	303.12
297.831	300.12
298.062	321.12
298.292	300.12
298.523	327.12
298.753	329.12
298.984	312.12
299.214	320.12
299.445	309.12
299.675	329.12
299.905	329.12
300.136	343.12
300.366	312.12
300.597	333.12
300.827	329.12
301.057	334.12
301.288	362.12
301.518	339.12
301.748	344.12
301.979	334.12
302.209	339.12
302.439	341.12
302.669	333.12
302.9	344.12
303.13	352.12
303.36	357.12
303.59	335.12
303.82	338.12
304.051	338.12
304.281	323.12
304.511	354.12
304.741	321.12
304.971	330.12
305.201	338.12
305.431	348.12
305.661	336.12
305.891	322.12
306.121	355.12
306.352	341.12
306.582	350.12
306.812	342.12
307.042	350.12
307.272	334.12
307.502	326.12
307.731	344.12
307.961	345.12
308.191	335.12
308.421	349.12
308.651	337.12
308.881	336.12
309.111	359.12
309.341	329.12
309.571	343.12
309.8	358.12
310.03	356.12
310.26	375.12
310.49	355.12
310.72	350.12
310.949	365.12
311.179	368.12
311.409	359.12
311.639	357.12
311.868	371.12
312.098	392.12
312.328	376.12
312.557	374.12
312.787	378.12
313.017	381.12
313.246	377.12
313.476	373.12
313.706	370.12
313.935	362.12
314.165	387.12
314.394	398.12
314.624	393.12
314.853	389.12
315.083	372.12
315.312	366.12
315.542	364.12
315.771	353.12
316.001	364.12
316.23	377.12
316.46	369.12
316.689	385.12
316.919	377.12
317.148	386.12
317.377	397.12
317.607	384.12
317.836	341.12
318.065	370.12
318.295	371.12
318.524	364.12
318.753	374.12
318.983	372.12
319.212	355.12
319.441	386.12
319.67	380.12
319.9	385.12
320.129	384.12
320.358	357.12
320.587	368.12
320.816	372.12
321.046	389.12
321.275	413.12
321.504	382.12
321.733	376.12
321.962	386.12
322.191	372.12
322.42	392.12
322.649	395.12
322.878	433.12
323.108	412.12
323.337	428.12
323.566	440.12
323.795	429.12
324.024	488.12
324.253	542.12
324.482	672.12
324.71	982.12
324.939	1352.12
325.168	1097.12
325.397	617.12
325.626	481.12
325.855	440.12
326.084	436.12
326.313	445.12
326.542	447.12
326.77	471.12
326.999	514.12
327.228	666.12
327.457	933.12
327.686	1036.12
327.914	726.12
328.143	513.12
328.372	506.12
328.6	502.12
328.829	493.12
329.058	477.12
329.287	481.12
329.515	483.12
329.744	444.12
329.972	451.12
330.201	477.12
330.43	496.12
330.658	500.12
330.887	542.12
331.115	504.12
331.344	474.12
331.572	445.12
331.801	461.12
332.03	478.12
332.258	468.12
332.486	459.12
332.715	465.12
332.943	479.12
333.172	479.12
333.4	517.12
333.629	505.12
333.857	517.12
334.085	527.12
334.314	537.12
334.542	551.12
334.771	552.12
334.999	545.12
335.227	466.12
335.455	494.12
335.684	462.12
335.912	478.12
336.14	461.12
336.369	500.12
336.597	482.12
336.825	491.12
337.053	481.12
337.281	464.12
337.51	452.12
337.738	441.12
337.966	452.12
338.194	452.12
338.422	448.12
338.65	447.12
338.878	464.12
339.106	443.12
339.334	441.12
339.562	414.12
339.79	425.12
340.018	445.12
340.246	428.12
340.474	431.12
340.702	420.12
340.93	432.12
341.158	432.12
341.386	427.12
341.614	421.12
341.842	429.12
342.07	428.12
342.298	421.12
342.526	422.12
342.754	417.12
342.981	424.12
343.209	412.12
343.437	453.12
343.665	479.12
343.893	471.12
344.12	493.12
344.348	478.12
344.576	452.12
344.804	450.12
345.031	425.12
345.259	412.12
345.487	434.12
345.714	428.12
345.942	415.12
346.17	420.12
346.397	402.12
346.625	431.12
346.853	416.12
347.08	405.12
347.308	407.12
347.535	386.12
347.763	403.12
347.99	418.12
348.218	424.12
348.445	410.12
348.673	422.12
348.9	416.12
349.128	407.12
349.355	398.12
349.583	407.12
349.81	399.12
350.037	396.12
350.265	384.12
350.492	395.12
350.72	393.12
350.947	400.12
351.174	396.12
351.402	406.12
351.629	421.12
351.856	432.12
352.083	416.12
352.311	407.12
352.538	424.12
352.765	422.12
352.992	392.12
353.22	410.12
353.447	412.12
353.674	406.12
353.901	400.12
354.128	413.12
354.355	407.12
354.583	394.12
354.81	384.12
355.037	381.12
355.264	402.12
355.491	405.12
355.718	393.12
355.945	409.12
356.172	401.12
356.399	383.12
356.626	404.12
356.853	402.12
357.08	406.12
357.307	395.12
357.534	384.12
357.761	397.12
357.988	410.12
358.215	391.12
358.441	378.12
358.668	399.12
358.895	398.12
359.122	408.12
359.349	390.12
359.576	407.12
359.802	404.12
360.029	421.12
360.256	443.12
360.483	422.12
360.709	422.12
360.936	401.12
361.163	416.12
361.39	412.12
361.616	408.12
361.843	409.12
362.07	405.12
362.296	392.12
362.523	390.12
362.749	403.12
362.976	397.12
363.203	420.12
363.429	398.12
363.656	378.12
363.882	410.12
364.109	416.12
364.335	412.12
364.562	375.12
364.788	364.12
365.015	410.12
365.241	406.12
365.468	396.12
365.694	408.12
365.92	406.12
366.147	408.12
366.373	397.12
366.599	396.12
366.826	385.12
367.052	406.12
367.278	381.12
367.505	402.12
367.731	417.12
367.957	402.12
368.184	409.12
368.41	417.12
368.636	414.12
368.862	429.12
369.089	401.12
369.315	415.12
369.541	390.12
369.767	405.12
369.993	418.12
370.219	428.12
370.445	405.12
370.672	424.12
370.898	424.12
371.124	428.12
371.35	410.12
371.576	429.12
371.802	417.12
372.028	418.12
372.254	426.12
372.48	421.12
372.706	423.12
372.932	427.12
373.158	456.12
373.384	432.12
373.61	420.12
373.835	416.12
374.061	425.12
374.287	434.12
374.513	439.12
374.739	435.12
374.965	457.12
375.191	455.12
375.416	462.12
375.642	454.12
375.868	444.12
376.094	425.12
376.319	423.12
376.545	400.12
376.771	422.12
376.997	420.12
377.222	410.12
377.448	426.12
377.674	425.12
377.899	432.12
378.125	409.12
378.35	422.12
378.576	422.12
378.802	414.12
379.027	404.12
379.253	418.12
379.478	415.12
379.704	417.12
379.929	420.12
380.155	393.12
380.38	414.12
380.606	424.12
380.831	410.12
381.057	402.12
381.282	431.12
381.507	425.12
381.733	422.12
381.958	417.12
382.184	422.12
382.409	431.12
382.634	453.12
382.86	430.12
383.085	440.12
383.31	425.12
383.535	445.12
383.761	437.12
383.986	446.12
384.211	450.12
384.436	436.12
384.662	453.12
384.887	463.12
385.112	482.12
385.337	492.12
385.562	472.12
385.787	466.12
386.013	486.12
386.238	493.12
386.463	488.12
386.688	469.12
386.913	497.12
387.138	466.12
387.363	479.12
387.588	464.12
387.813	470.12
388.038	488.12
388.263	489.12
388.488	492.12
388.713	487.12
388.938	472.12
389.163	472.12
389.387	484.12
389.612	462.12
389.837	467.12
390.062	462.12
390.287	465.12
390.512	478.12
390.736	440.12
390.961	477.12
391.186	465.12
391.411	493.12
391.636	504.12
391.86	506.12
392.085	518.12
392.31	516.12
392.534	509.12
392.759	495.12
392.984	489.12
393.208	498.12
393.433	488.12
393.658	500.12
393.882	486.12
394.107	473.12
394.331	478.12
394.556	486.12
394.78	513.12
395.005	479.12
395.229	511.12
395.454	508.12
395.678	508.12
395.903	527.12
396.127	542.12
396.352	514.12
396.576	512.12
396.801	496.12
397.025	518.12
397.249	500.12
397.474	543.12
397.698	526.12
397.922	530.12
398.147	521.12
398.371	532.12
398.595	546.12
398.82	555.12
399.044	588.12
399.268	631.12
399.492	688.12
399.717	765.12
399.941	777.12
400.165	712.12
400.389	687.12
400.613	612.12
400.837	586.12
401.062	573.12
401.286	549.12
401.51	561.12
401.734	553.12
401.958	573.12
402.182	592.12
402.406	569.12
402.63	596.12
402.854	592.12
403.078	606.12
403.302	609.12
403.526	599.12
403.75	613.12
403.974	634.12
404.198	601.12
404.422	634.12
404.645	620.12
404.869	619.12
405.093	628.12
405.317	636.12
405.541	692.12
405.765	651.12
405.988	638.12
406.212	620.12
406.436	630.12
406.66	648.12
406.883	640.12
407.107	681.12
407.331	729.12
407.555	772.12
407.778	729.12
408.002	709.12
408.226	652.12
408.449	649.12
408.673	662.12
408.896	645.12
409.12	675.12
409.344	654.12
409.567	594.12
409.791	584.12
410.014	601.12
410.238	578.12
410.461	583.12
410.685	592.12
410.908	606.12
411.132	624.12
411.355	616.12
411.578	611.12
411.802	589.12
412.025	584.12
412.249	620.12
412.472	601.12
412.695	644.12
412.919	635.12
413.142	599.12
413.365	575.12
413.589	591.12
413.812	553.12
414.035	546.12
414.258	554.12
414.482	562.12
414.705	581.12
414.928	547.12
415.151	530.12
415.374	565.12
415.597	548.12
415.821	533.12
416.044	568.12
416.267	548.12
416.49	550.12
416.713	548.12
416.936	574.12
417.159	548.12
417.382	567.12
417.605	567.12
417.828	560.12
418.051	590.12
418.274	576.12
418.497	576.12
418.72	563.12
418.943	550.12
419.166	600.12
419.389	623.12
419.611	592.12
419.834	580.12
420.057	578.12
420.28	581.12
420.503	608.12
420.726	564.12
420.948	572.12
421.171	597.12
421.394	626.12
421.617	582.12
421.839	568.12
422.062	583.12
422.285	590.12
422.507	604.12
422.73	651.12
422.953	654.12
423.175	596.12
423.398	596.12
423.621	597.12
423.843	643.12
424.066	608.12
424.288	578.12
424.511	595.12
424.733	630.12
424.956	700.12
425.178	652.12
425.401	638.12
425.623	645.12
425.846	600.12
426.068	585.12
426.291	565.12
426.513	561.12
426.735	579.12
426.958	602.12
427.18	651.12
427.402	728.12
427.625	770.12
427.847	668.12
428.069	605.12
428.292	583.12
428.514	574.12
428.736	530.12
428.958	543.12
429.181	490.12
429.403	504.12
429.625	528.12
429.847	566.12
430.069	566.12
430.292	589.12
430.514	527.12
430.736	501.12
430.958	516.12
431.18	510.12
431.402	518.12
431.624	519.12
431.846	535.12
432.068	512.12
432.29	504.12
432.512	507.12
432.734	540.12
432.956	516.12
433.178	519.12
433.4	505.12
433.622	529.12
433.844	525.12
434.066	535.12
434.287	524.12
434.509	525.12
434.731	530.12
434.953	557.12
435.175	569.12
435.397	579.12
435.618	559.12
435.84	586.12
436.062	608.12
436.284	663.12
436.505	600.12
436.727	533.12
436.949	532.12
437.17	502.12
437.392	508.12
437.614	509.12
437.835	548.12
438.057	591.12
438.278	660.12
438.5	631.12
438.721	706.12
438.943	654.12
439.165	602.12
439.386	558.12
439.608	556.12
439.829	559.12
440.05	551.12
440.272	580.12
440.493	573.12
440.715	542.12
440.936	546.12
441.158	531.12
441.379	548.12
441.6	562.12
441.822	565.12
442.043	603.12
442.264	641.12
442.486	668.12
442.707	599.12
442.928	586.12
443.149	575.12
443.371	602.12
443.592	635.12
443.813	701.12
444.034	724.12
444.255	648.12
444.476	611.12
444.698	622.12
444.919	642.12
445.14	737.12
445.361	659.12
445.582	595.12
445.803	643.12
446.024	688.12
446.245	672.12
446.466	626.12
446.687	564.12
446.908	556.12
447.129	506.12
447.35	515.12
447.571	510.12
447.792	506.12
448.013	501.12
448.234	499.12
448.455	525.12
448.675	585.12
448.896	663.12
449.117	583.12
449.338	568.12
449.559	637.12
449.779	706.12
450	608.12
450.221	527.12
450.442	494.12
450.662	496.12
450.883	509.12
451.104	510.12
451.324	506.12
451.545	480.12
451.766	494.12
451.986	496.12
452.207	451.12
452.428	451.12
452.648	440.12
452.869	450.12
453.089	471.12
453.31	468.12
453.53	463.12
453.751	479.12
453.971	455.12
454.192	471.12
454.412	451.12
454.633	467.12
454.853	425.12
455.073	422.12
455.294	464.12
455.514	523.12
455.734	492.12
455.955	456.12
456.175	442.12
456.395	434.12
456.616	446.12
456.836	432.12
457.056	423.12
457.276	416.12
457.497	414.12
457.717	437.12
457.937	427.12
458.157	435.12
458.377	440.12
458.598	465.12
458.818	496.12
459.038	567.12
459.258	564.12
459.478	545.12
459.698	516.12
459.918	508.12
460.138	512.12
460.358	524.12
460.578	550.12
460.798	555.12
461.018	543.12
461.238	548.12
461.458	546.12
461.678	542.12
461.898	534.12
462.118	547.12
462.338	572.12
462.558	594.12
462.777	593.12
462.997	632.12
463.217	662.12
463.437	678.12
463.657	624.12
463.876	597.12
464.096	599.12
464.316	599.12
464.536	609.12
464.755	626.12
464.975	578.12
465.195	605.12
465.414	610.12
465.634	551.12
465.854	506.12
466.073	499.12
466.293	483.12
466.512	486.12
466.732	472.12
466.951	486.12
467.171	492.12
467.391	480.12
467.61	470.12
467.829	501.12
468.049	501.12
468.268	472.12
468.488	474.12
468.707	449.12
468.927	471.12
469.146	465.12
469.365	493.12
469.585	463.12
469.804	478.12
470.023	484.12
470.243	504.12
470.462	497.12
470.681	494.12
470.901	497.12
471.12	507.12
471.339	494.12
471.558	488.12
471.777	470.12
471.997	465.12
472.216	476.12
472.435	500.12
472.654	471.12
472.873	456.12
473.092	458.12
473.311	459.12
473.53	463.12
473.749	480.12
473.968	487.12
474.187	535.12
474.406	552.12
474.625	473.12
474.844	458.12
475.063	478.12
475.282	460.12
475.501	483.12
475.72	471.12
475.939	468.12
476.158	481.12
476.377	488.12
476.596	492.12
476.814	498.12
477.033	472.12
477.252	483.12
477.471	510.12
477.69	524.12
477.908	532.12
478.127	536.12
478.346	520.12
478.564	564.12
478.783	533.12
479.002	569.12
479.22	555.12
479.439	551.12
479.658	550.12
479.876	566.12
480.095	560.12
480.313	620.12
480.532	620.12
480.751	594.12
480.969	584.12
481.188	642.12
481.406	649.12
481.624	598.12
481.843	552.12
482.061	552.12
482.28	545.12
482.498	518.12
482.717	528.12
482.935	544.12
483.153	522.12
483.372	524.12
483.59	540.12
483.808	541.12
484.027	524.12
484.245	536.12
484.463	541.12
484.681	565.12
484.9	553.12
485.118	566.12
485.336	556.12
485.554	559.12
485.772	565.12
485.99	570.12
486.209	582.12
486.427	572.12
486.645	565.12
486.863	582.12
487.081	604.12
487.299	601.12
487.517	569.12
487.735	585.12
487.953	583.12
488.171	580.12
488.389	560.12
488.607	581.12
488.825	562.12
489.043	572.12
489.261	563.12
489.479	575.12
489.696	578.12
489.914	585.12
490.132	581.12
490.35	591.12
490.568	585.12
490.786	602.12
491.003	599.12
491.221	608.12
491.439	608.12
491.657	621.12
491.874	652.12
492.092	630.12
492.31	650.12
492.527	634.12
492.745	639.12
492.963	624.12
493.18	643.12
493.398	680.12
493.615	652.12
493.833	656.12
494.05	642.12
494.268	669.12
494.485	664.12
494.703	657.12
494.92	671.12
495.138	660.12
495.355	644.12
495.573	661.12
495.79	687.12
496.008	654.12
496.225	672.12
496.442	657.12
496.66	677.12
496.877	676.12
497.094	680.12
497.312	671.12
497.529	674.12
497.746	685.12
497.963	708.12
498.181	734.12
498.398	772.12
498.615	749.12
498.832	813.12
499.049	846.12
499.267	864.12
499.484	926.12
499.701	999.12
499.918	1049.12
500.135	1199.12
500.352	1260.12
500.569	1275.12
500.786	1308.12
501.003	1274.12
501.22	1180.12
501.437	1083.12
501.654	1022.12
501.871	935.12
502.088	884.12
