Data from 1960PennyLincolnUp.LampE5.5.200Scan.07172019.P1.ChangedAngle_HRD10591_13-14-25-821.txt Node
Date: Thu Jul 18 13:14:25 EDT 2019
User: cochatt
Spectrometer: HR+D1059
Trigger mode: 1
Integration Time (sec): 1.000000E-1
Scans to average: 1
Electric dark correction enabled: true
Nonlinearity correction enabled: false
Boxcar width: 0
XAxis mode: Wavelengths
Number of Pixels in Spectrum: 2048
>>>>>Begin Spectral Data<<<<<
223.165	-12.94
223.4	-12.94
223.635	-12.94
223.869	-15.94
224.104	-17.94
224.338	5.06
224.573	-16.94
224.808	-9.94
225.042	-9.94
225.277	-12.94
225.511	-7.94
225.746	10.06
225.98	8.06
226.215	7.06
226.449	8.06
226.683	12.06
226.918	20.06
227.152	34.06
227.387	42.06
227.621	44.06
227.856	39.06
228.09	43.06
228.324	44.06
228.559	55.06
228.793	53.06
229.027	88.06
229.262	91.06
229.496	96.06
229.73	111.06
229.964	115.06
230.199	99.06
230.433	93.06
230.667	107.06
230.901	110.06
231.136	108.06
231.37	108.06
231.604	91.06
231.838	110.06
232.072	105.06
232.306	107.06
232.541	117.06
232.775	107.06
233.009	129.06
233.243	101.06
233.477	104.06
233.711	111.06
233.945	105.06
234.179	119.06
234.413	115.06
234.647	112.06
234.881	111.06
235.115	118.06
235.349	113.06
235.583	102.06
235.817	129.06
236.051	115.06
236.285	109.06
236.519	115.06
236.753	109.06
236.987	123.06
237.221	137.06
237.455	162.06
237.689	135.06
237.922	136.06
238.156	121.06
238.39	133.06
238.624	131.06
238.858	115.06
239.091	106.06
239.325	108.06
239.559	112.06
239.793	120.06
240.027	113.06
240.26	132.06
240.494	128.06
240.728	129.06
240.961	121.06
241.195	125.06
241.429	130.06
241.662	116.06
241.896	140.06
242.13	113.06
242.363	134.06
242.597	125.06
242.83	139.06
243.064	139.06
243.298	125.06
243.531	148.06
243.765	127.06
243.998	135.06
244.232	133.06
244.465	126.06
244.699	134.06
244.932	132.06
245.166	127.06
245.399	123.06
245.633	128.06
245.866	139.06
246.099	142.06
246.333	133.06
246.566	141.06
246.8	145.06
247.033	147.06
247.266	130.06
247.5	134.06
247.733	143.06
247.966	150.06
248.2	151.06
248.433	158.06
248.666	152.06
248.899	173.06
249.133	176.06
249.366	166.06
249.599	164.06
249.832	156.06
250.066	148.06
250.299	152.06
250.532	187.06
250.765	180.06
250.998	196.06
251.231	198.06
251.465	182.06
251.698	172.06
251.931	179.06
252.164	169.06
252.397	187.06
252.63	178.06
252.863	185.06
253.096	192.06
253.329	191.06
253.562	191.06
253.795	195.06
254.028	197.06
254.261	184.06
254.494	192.06
254.727	215.06
254.96	213.06
255.193	213.06
255.426	216.06
255.659	197.06
255.892	194.06
256.124	200.06
256.357	187.06
256.59	191.06
256.823	180.06
257.056	195.06
257.289	179.06
257.521	189.06
257.754	193.06
257.987	186.06
258.22	193.06
258.452	200.06
258.685	195.06
258.918	197.06
259.151	190.06
259.383	200.06
259.616	196.06
259.849	205.06
260.081	211.06
260.314	208.06
260.547	209.06
260.779	197.06
261.012	204.06
261.244	203.06
261.477	214.06
261.71	192.06
261.942	206.06
262.175	196.06
262.407	199.06
262.64	196.06
262.872	195.06
263.105	205.06
263.337	196.06
263.57	192.06
263.802	184.06
264.035	205.06
264.267	204.06
264.499	197.06
264.732	191.06
264.964	196.06
265.197	209.06
265.429	204.06
265.661	217.06
265.894	204.06
266.126	209.06
266.358	196.06
266.591	199.06
266.823	216.06
267.055	213.06
267.287	224.06
267.52	197.06
267.752	201.06
267.984	212.06
268.216	224.06
268.448	220.06
268.681	220.06
268.913	219.06
269.145	231.06
269.377	242.06
269.609	227.06
269.841	238.06
270.073	249.06
270.306	261.06
270.538	267.06
270.77	269.06
271.002	273.06
271.234	266.06
271.466	260.06
271.698	265.06
271.93	270.06
272.162	266.06
272.394	271.06
272.626	260.06
272.858	235.06
273.09	252.06
273.322	260.06
273.553	245.06
273.785	246.06
274.017	237.06
274.249	236.06
274.481	231.06
274.713	243.06
274.945	246.06
275.176	257.06
275.408	223.06
275.64	237.06
275.872	249.06
276.104	241.06
276.335	240.06
276.567	248.06
276.799	264.06
277.031	274.06
277.262	274.06
277.494	270.06
277.726	264.06
277.957	269.06
278.189	261.06
278.421	252.06
278.652	269.06
278.884	252.06
279.115	262.06
279.347	245.06
279.579	256.06
279.81	260.06
280.042	272.06
280.273	266.06
280.505	254.06
280.736	276.06
280.968	251.06
281.199	259.06
281.431	264.06
281.662	252.06
281.894	249.06
282.125	263.06
282.356	261.06
282.588	275.06
282.819	257.06
283.051	252.06
283.282	269.06
283.513	265.06
283.745	273.06
283.976	254.06
284.207	267.06
284.439	255.06
284.67	265.06
284.901	263.06
285.132	249.06
285.364	278.06
285.595	266.06
285.826	261.06
286.057	264.06
286.288	269.06
286.52	268.06
286.751	255.06
286.982	289.06
287.213	272.06
287.444	265.06
287.675	264.06
287.906	284.06
288.138	284.06
288.369	272.06
288.6	289.06
288.831	288.06
289.062	276.06
289.293	286.06
289.524	266.06
289.755	277.06
289.986	289.06
290.217	273.06
290.448	271.06
290.679	286.06
290.91	301.06
291.141	275.06
291.371	271.06
291.602	259.06
291.833	275.06
292.064	280.06
292.295	291.06
292.526	288.06
292.757	280.06
292.987	295.06
293.218	280.06
293.449	277.06
293.68	276.06
293.91	293.06
294.141	280.06
294.372	261.06
294.603	284.06
294.833	295.06
295.064	292.06
295.295	265.06
295.525	280.06
295.756	277.06
295.987	281.06
296.217	312.06
296.448	294.06
296.679	285.06
296.909	277.06
297.14	275.06
297.37	282.06
297.601	292.06
297.831	274.06
298.062	302.06
298.292	307.06
298.523	296.06
298.753	301.06
298.984	278.06
299.214	304.06
299.445	309.06
299.675	297.06
299.905	315.06
300.136	299.06
300.366	288.06
300.597	297.06
300.827	298.06
301.057	295.06
301.288	327.06
301.518	322.06
301.748	308.06
301.979	298.06
302.209	328.06
302.439	310.06
302.669	312.06
302.9	309.06
303.13	344.06
303.36	315.06
303.59	318.06
303.82	320.06
304.051	304.06
304.281	330.06
304.511	305.06
304.741	317.06
304.971	300.06
305.201	299.06
305.431	315.06
305.661	301.06
305.891	310.06
306.121	310.06
306.352	321.06
306.582	307.06
306.812	313.06
307.042	317.06
307.272	321.06
307.502	301.06
307.731	313.06
307.961	317.06
308.191	332.06
308.421	327.06
308.651	329.06
308.881	331.06
309.111	308.06
309.341	311.06
309.571	340.06
309.8	316.06
310.03	329.06
310.26	331.06
310.49	336.06
310.72	327.06
310.949	336.06
311.179	331.06
311.409	346.06
311.639	357.06
311.868	336.06
312.098	335.06
312.328	333.06
312.557	359.06
312.787	349.06
313.017	352.06
313.246	364.06
313.476	356.06
313.706	360.06
313.935	347.06
314.165	346.06
314.394	365.06
314.624	350.06
314.853	353.06
315.083	345.06
315.312	350.06
315.542	356.06
315.771	352.06
316.001	333.06
316.23	343.06
316.46	367.06
316.689	345.06
316.919	359.06
317.148	339.06
317.377	347.06
317.607	348.06
317.836	341.06
318.065	348.06
318.295	356.06
318.524	369.06
318.753	366.06
318.983	360.06
319.212	355.06
319.441	356.06
319.67	352.06
319.9	347.06
320.129	343.06
320.358	345.06
320.587	364.06
320.816	373.06
321.046	370.06
321.275	378.06
321.504	382.06
321.733	352.06
321.962	371.06
322.191	367.06
322.42	390.06
322.649	375.06
322.878	397.06
323.108	381.06
323.337	411.06
323.566	422.06
323.795	439.06
324.024	454.06
324.253	504.06
324.482	655.06
324.71	995.06
324.939	1285.06
325.168	1074.06
325.397	644.06
325.626	477.06
325.855	440.06
326.084	440.06
326.313	404.06
326.542	428.06
326.77	440.06
326.999	511.06
327.228	663.06
327.457	842.06
327.686	961.06
327.914	669.06
328.143	508.06
328.372	447.06
328.6	456.06
328.829	428.06
329.058	449.06
329.287	451.06
329.515	414.06
329.744	423.06
329.972	403.06
330.201	405.06
330.43	437.06
330.658	450.06
330.887	472.06
331.115	457.06
331.344	428.06
331.572	419.06
331.801	425.06
332.03	408.06
332.258	406.06
332.486	400.06
332.715	408.06
332.943	415.06
333.172	422.06
333.4	412.06
333.629	423.06
333.857	439.06
334.085	435.06
334.314	444.06
334.542	456.06
334.771	456.06
334.999	439.06
335.227	441.06
335.455	416.06
335.684	413.06
335.912	407.06
336.14	409.06
336.369	398.06
336.597	417.06
336.825	408.06
337.053	423.06
337.281	396.06
337.51	410.06
337.738	421.06
337.966	419.06
338.194	437.06
338.422	417.06
338.65	403.06
338.878	397.06
339.106	399.06
339.334	394.06
339.562	400.06
339.79	377.06
340.018	405.06
340.246	402.06
340.474	386.06
340.702	382.06
340.93	382.06
341.158	409.06
341.386	372.06
341.614	381.06
341.842	403.06
342.07	389.06
342.298	391.06
342.526	385.06
342.754	404.06
342.981	382.06
343.209	366.06
343.437	382.06
343.665	388.06
343.893	416.06
344.12	429.06
344.348	406.06
344.576	411.06
344.804	391.06
345.031	399.06
345.259	385.06
345.487	403.06
345.714	379.06
345.942	391.06
346.17	375.06
346.397	377.06
346.625	383.06
346.853	375.06
347.08	369.06
347.308	392.06
347.535	364.06
347.763	371.06
347.99	376.06
348.218	375.06
348.445	371.06
348.673	377.06
348.9	383.06
349.128	368.06
349.355	371.06
349.583	357.06
349.81	378.06
350.037	369.06
350.265	351.06
350.492	367.06
350.72	343.06
350.947	367.06
351.174	351.06
351.402	359.06
351.629	361.06
351.856	350.06
352.083	375.06
352.311	357.06
352.538	365.06
352.765	377.06
352.992	368.06
353.22	361.06
353.447	356.06
353.674	365.06
353.901	357.06
354.128	349.06
354.355	375.06
354.583	339.06
354.81	344.06
355.037	347.06
355.264	353.06
355.491	360.06
355.718	351.06
355.945	344.06
356.172	347.06
356.399	334.06
356.626	332.06
356.853	345.06
357.08	354.06
357.307	363.06
357.534	365.06
357.761	362.06
357.988	357.06
358.215	340.06
358.441	348.06
358.668	355.06
358.895	343.06
359.122	355.06
359.349	354.06
359.576	356.06
359.802	371.06
360.029	371.06
360.256	372.06
360.483	373.06
360.709	382.06
360.936	363.06
361.163	358.06
361.39	350.06
361.616	346.06
361.843	353.06
362.07	381.06
362.296	357.06
362.523	363.06
362.749	362.06
362.976	346.06
363.203	363.06
363.429	325.06
363.656	357.06
363.882	349.06
364.109	346.06
364.335	365.06
364.562	350.06
364.788	344.06
365.015	352.06
365.241	350.06
365.468	355.06
365.694	345.06
365.92	342.06
366.147	347.06
366.373	348.06
366.599	363.06
366.826	332.06
367.052	338.06
367.278	341.06
367.505	348.06
367.731	349.06
367.957	353.06
368.184	356.06
368.41	366.06
368.636	353.06
368.862	361.06
369.089	347.06
369.315	339.06
369.541	349.06
369.767	349.06
369.993	383.06
370.219	341.06
370.445	328.06
370.672	347.06
370.898	352.06
371.124	346.06
371.35	351.06
371.576	347.06
371.802	345.06
372.028	359.06
372.254	344.06
372.48	360.06
372.706	351.06
372.932	341.06
373.158	351.06
373.384	355.06
373.61	349.06
373.835	355.06
374.061	343.06
374.287	367.06
374.513	389.06
374.739	376.06
374.965	355.06
375.191	367.06
375.416	344.06
375.642	363.06
375.868	382.06
376.094	357.06
376.319	346.06
376.545	347.06
376.771	353.06
376.997	353.06
377.222	360.06
377.448	369.06
377.674	350.06
377.899	339.06
378.125	328.06
378.35	344.06
378.576	342.06
378.802	321.06
379.027	338.06
379.253	352.06
379.478	336.06
379.704	344.06
379.929	344.06
380.155	353.06
380.38	355.06
380.606	355.06
380.831	345.06
381.057	361.06
381.282	336.06
381.507	352.06
381.733	345.06
381.958	336.06
382.184	329.06
382.409	355.06
382.634	360.06
382.86	351.06
383.085	361.06
383.31	357.06
383.535	356.06
383.761	372.06
383.986	368.06
384.211	351.06
384.436	345.06
384.662	374.06
384.887	371.06
385.112	373.06
385.337	388.06
385.562	386.06
385.787	387.06
386.013	399.06
386.238	386.06
386.463	361.06
386.688	382.06
386.913	381.06
387.138	363.06
387.363	370.06
387.588	379.06
387.813	378.06
388.038	381.06
388.263	397.06
388.488	370.06
388.713	378.06
388.938	385.06
389.163	362.06
389.387	367.06
389.612	344.06
389.837	379.06
390.062	365.06
390.287	368.06
390.512	384.06
390.736	357.06
390.961	381.06
391.186	396.06
391.411	392.06
391.636	382.06
391.86	393.06
392.085	387.06
392.31	377.06
392.534	377.06
392.759	397.06
392.984	385.06
393.208	399.06
393.433	378.06
393.658	393.06
393.882	365.06
394.107	386.06
394.331	372.06
394.556	364.06
394.78	377.06
395.005	380.06
395.229	390.06
395.454	389.06
395.678	365.06
395.903	394.06
396.127	399.06
396.352	411.06
396.576	405.06
396.801	389.06
397.025	371.06
397.249	398.06
397.474	371.06
397.698	381.06
397.922	379.06
398.147	414.06
398.371	410.06
398.595	399.06
398.82	416.06
399.044	417.06
399.268	451.06
399.492	459.06
399.717	465.06
399.941	486.06
400.165	503.06
400.389	511.06
400.613	461.06
400.837	429.06
401.062	432.06
401.286	418.06
401.51	422.06
401.734	408.06
401.958	414.06
402.182	422.06
402.406	414.06
402.63	437.06
402.854	414.06
403.078	422.06
403.302	436.06
403.526	423.06
403.75	421.06
403.974	440.06
404.198	414.06
404.422	435.06
404.645	412.06
404.869	450.06
405.093	440.06
405.317	468.06
405.541	472.06
405.765	459.06
405.988	463.06
406.212	421.06
406.436	459.06
406.66	461.06
406.883	451.06
407.107	476.06
407.331	468.06
407.555	525.06
407.778	537.06
408.002	493.06
408.226	457.06
408.449	460.06
408.673	466.06
408.896	473.06
409.12	478.06
409.344	479.06
409.567	432.06
409.791	434.06
410.014	441.06
410.238	446.06
410.461	414.06
410.685	445.06
410.908	455.06
411.132	460.06
411.355	458.06
411.578	442.06
411.802	443.06
412.025	427.06
412.249	413.06
412.472	441.06
412.695	468.06
412.919	446.06
413.142	433.06
413.365	427.06
413.589	408.06
413.812	377.06
414.035	421.06
414.258	382.06
414.482	384.06
414.705	398.06
414.928	401.06
415.151	395.06
415.374	392.06
415.597	400.06
415.821	390.06
416.044	395.06
416.267	397.06
416.49	405.06
416.713	404.06
416.936	397.06
417.159	414.06
417.382	417.06
417.605	398.06
417.828	363.06
418.051	399.06
418.274	410.06
418.497	401.06
418.72	392.06
418.943	386.06
419.166	416.06
419.389	442.06
419.611	420.06
419.834	406.06
420.057	421.06
420.28	417.06
420.503	388.06
420.726	401.06
420.948	406.06
421.171	452.06
421.394	463.06
421.617	407.06
421.839	399.06
422.062	401.06
422.285	415.06
422.507	444.06
422.73	491.06
422.953	468.06
423.175	434.06
423.398	439.06
423.621	424.06
423.843	402.06
424.066	431.06
424.288	422.06
424.511	437.06
424.733	471.06
424.956	508.06
425.178	486.06
425.401	500.06
425.623	520.06
425.846	436.06
426.068	419.06
426.291	432.06
426.513	425.06
426.735	411.06
426.958	444.06
427.18	499.06
427.402	576.06
427.625	615.06
427.847	523.06
428.069	481.06
428.292	437.06
428.514	427.06
428.736	407.06
428.958	373.06
429.181	403.06
429.403	374.06
429.625	387.06
429.847	412.06
430.069	445.06
430.292	437.06
430.514	413.06
430.736	384.06
430.958	379.06
431.18	399.06
431.402	392.06
431.624	373.06
431.846	380.06
432.068	384.06
432.29	388.06
432.512	392.06
432.734	382.06
432.956	373.06
433.178	377.06
433.4	372.06
433.622	368.06
433.844	399.06
434.066	372.06
434.287	383.06
434.509	381.06
434.731	386.06
434.953	387.06
435.175	392.06
435.397	413.06
435.618	414.06
435.84	453.06
436.062	501.06
436.284	559.06
436.505	474.06
436.727	419.06
436.949	404.06
437.17	383.06
437.392	391.06
437.614	407.06
437.835	414.06
438.057	476.06
438.278	525.06
438.5	550.06
438.721	585.06
438.943	544.06
439.165	468.06
439.386	432.06
439.608	399.06
439.829	425.06
440.05	392.06
440.272	438.06
440.493	432.06
440.715	410.06
440.936	411.06
441.158	412.06
441.379	407.06
441.6	414.06
441.822	417.06
442.043	455.06
442.264	480.06
442.486	504.06
442.707	436.06
442.928	426.06
443.149	424.06
443.371	445.06
443.592	463.06
443.813	533.06
444.034	570.06
444.255	480.06
444.476	434.06
444.698	413.06
444.919	421.06
445.14	531.06
445.361	478.06
445.582	424.06
445.803	458.06
446.024	528.06
446.245	507.06
446.466	496.06
446.687	441.06
446.908	431.06
447.129	377.06
447.35	398.06
447.571	367.06
447.792	378.06
448.013	381.06
448.234	408.06
448.455	412.06
448.675	487.06
448.896	559.06
449.117	501.06
449.338	465.06
449.559	551.06
449.779	580.06
450	469.06
450.221	405.06
450.442	398.06
450.662	381.06
450.883	396.06
451.104	375.06
451.324	385.06
451.545	351.06
451.766	356.06
451.986	347.06
452.207	363.06
452.428	345.06
452.648	355.06
452.869	344.06
453.089	347.06
453.31	354.06
453.53	345.06
453.751	345.06
453.971	341.06
454.192	367.06
454.412	349.06
454.633	337.06
454.853	347.06
455.073	345.06
455.294	372.06
455.514	407.06
455.734	388.06
455.955	332.06
456.175	334.06
456.395	333.06
456.616	351.06
456.836	347.06
457.056	329.06
457.276	321.06
457.497	331.06
457.717	349.06
457.937	335.06
458.157	365.06
458.377	342.06
458.598	355.06
458.818	375.06
459.038	415.06
459.258	449.06
459.478	385.06
459.698	372.06
459.918	374.06
460.138	390.06
460.358	386.06
460.578	360.06
460.798	376.06
461.018	385.06
461.238	393.06
461.458	380.06
461.678	393.06
461.898	381.06
462.118	398.06
462.338	408.06
462.558	398.06
462.777	416.06
462.997	415.06
463.217	430.06
463.437	447.06
463.657	415.06
463.876	413.06
464.096	430.06
464.316	416.06
464.536	387.06
464.755	412.06
464.975	411.06
465.195	414.06
465.414	426.06
465.634	396.06
465.854	396.06
466.073	392.06
466.293	380.06
466.512	371.06
466.732	371.06
466.951	370.06
467.171	361.06
467.391	367.06
467.61	368.06
467.829	380.06
468.049	367.06
468.268	367.06
468.488	361.06
468.707	359.06
468.927	354.06
469.146	362.06
469.365	360.06
469.585	353.06
469.804	361.06
470.023	364.06
470.243	344.06
470.462	351.06
470.681	371.06
470.901	387.06
471.12	391.06
471.339	362.06
471.558	381.06
471.777	370.06
471.997	359.06
472.216	335.06
472.435	384.06
472.654	368.06
472.873	381.06
473.092	371.06
473.311	357.06
473.53	370.06
473.749	381.06
473.968	393.06
474.187	444.06
474.406	456.06
474.625	383.06
474.844	414.06
475.063	382.06
475.282	384.06
475.501	369.06
475.72	365.06
475.939	375.06
476.158	384.06
476.377	401.06
476.596	352.06
476.814	387.06
477.033	385.06
477.252	380.06
477.471	390.06
477.69	386.06
477.908	413.06
478.127	414.06
478.346	416.06
478.564	424.06
478.783	410.06
479.002	418.06
479.22	410.06
479.439	435.06
479.658	427.06
479.876	442.06
480.095	432.06
480.313	449.06
480.532	451.06
480.751	455.06
480.969	456.06
481.188	464.06
481.406	486.06
481.624	447.06
481.843	415.06
482.061	416.06
482.28	434.06
482.498	416.06
482.717	395.06
482.935	410.06
483.153	441.06
483.372	414.06
483.59	409.06
483.808	438.06
484.027	421.06
484.245	425.06
484.463	452.06
484.681	434.06
484.9	435.06
485.118	442.06
485.336	438.06
485.554	468.06
485.772	439.06
485.99	428.06
486.209	448.06
486.427	460.06
486.645	435.06
486.863	437.06
487.081	459.06
487.299	452.06
487.517	446.06
487.735	446.06
487.953	440.06
488.171	429.06
488.389	430.06
488.607	449.06
488.825	464.06
489.043	452.06
489.261	436.06
489.479	451.06
489.696	451.06
489.914	461.06
490.132	483.06
490.35	488.06
490.568	468.06
490.786	470.06
491.003	485.06
491.221	488.06
491.439	484.06
491.657	475.06
491.874	489.06
492.092	506.06
492.31	509.06
492.527	479.06
492.745	490.06
492.963	508.06
493.18	503.06
493.398	504.06
493.615	524.06
493.833	495.06
494.05	501.06
494.268	499.06
494.485	505.06
494.703	525.06
494.92	497.06
495.138	513.06
495.355	500.06
495.573	518.06
495.79	516.06
496.008	515.06
496.225	505.06
496.442	530.06
496.66	540.06
496.877	523.06
497.094	524.06
497.312	514.06
497.529	552.06
497.746	512.06
497.963	569.06
498.181	566.06
498.398	587.06
498.615	599.06
498.832	604.06
499.049	591.06
499.267	611.06
499.484	648.06
499.701	683.06
499.918	676.06
500.135	716.06
500.352	751.06
500.569	747.06
500.786	754.06
501.003	722.06
501.22	720.06
501.437	696.06
501.654	653.06
501.871	681.06
