Data from 1960PennyLincolnUp.LampE5.5.200Scan.07172019.P1.ChangedAngle_HRD10591_13-14-20-821.txt Node
Date: Thu Jul 18 13:14:20 EDT 2019
User: cochatt
Spectrometer: HR+D1059
Trigger mode: 1
Integration Time (sec): 1.000000E-1
Scans to average: 1
Electric dark correction enabled: true
Nonlinearity correction enabled: false
Boxcar width: 0
XAxis mode: Wavelengths
Number of Pixels in Spectrum: 2048
>>>>>Begin Spectral Data<<<<<
223.165	-12.88
223.4	-12.88
223.635	-12.88
223.869	-18.88
224.104	-11.88
224.338	4.12
224.573	-5.88
224.808	-4.88
225.042	-19.88
225.277	-5.88
225.511	-5.88
225.746	0.12
225.98	-3.88
226.215	6.12
226.449	20.12
226.683	9.12
226.918	28.12
227.152	22.12
227.387	24.12
227.621	22.12
227.856	43.12
228.09	38.12
228.324	40.12
228.559	45.12
228.793	56.12
229.027	81.12
229.262	96.12
229.496	93.12
229.73	97.12
229.964	117.12
230.199	97.12
230.433	89.12
230.667	94.12
230.901	77.12
231.136	101.12
231.37	90.12
231.604	99.12
231.838	87.12
232.072	100.12
232.306	107.12
232.541	109.12
232.775	103.12
233.009	102.12
233.243	109.12
233.477	117.12
233.711	109.12
233.945	91.12
234.179	105.12
234.413	116.12
234.647	112.12
234.881	96.12
235.115	108.12
235.349	104.12
235.583	103.12
235.817	94.12
236.051	106.12
236.285	109.12
236.519	114.12
236.753	110.12
236.987	106.12
237.221	138.12
237.455	162.12
237.689	129.12
237.922	110.12
238.156	110.12
238.39	115.12
238.624	114.12
238.858	108.12
239.091	99.12
239.325	122.12
239.559	112.12
239.793	115.12
240.027	127.12
240.26	123.12
240.494	131.12
240.728	132.12
240.961	117.12
241.195	110.12
241.429	120.12
241.662	102.12
241.896	116.12
242.13	127.12
242.363	107.12
242.597	115.12
242.83	133.12
243.064	136.12
243.298	114.12
243.531	131.12
243.765	118.12
243.998	136.12
244.232	125.12
244.465	130.12
244.699	136.12
244.932	131.12
245.166	128.12
245.399	129.12
245.633	112.12
245.866	142.12
246.099	135.12
246.333	141.12
246.566	147.12
246.8	139.12
247.033	128.12
247.266	138.12
247.5	150.12
247.733	144.12
247.966	162.12
248.2	159.12
248.433	158.12
248.666	155.12
248.899	162.12
249.133	179.12
249.366	168.12
249.599	178.12
249.832	156.12
250.066	166.12
250.299	169.12
250.532	157.12
250.765	156.12
250.998	185.12
251.231	184.12
251.465	188.12
251.698	167.12
251.931	164.12
252.164	176.12
252.397	166.12
252.63	167.12
252.863	184.12
253.096	177.12
253.329	194.12
253.562	208.12
253.795	172.12
254.028	196.12
254.261	178.12
254.494	201.12
254.727	205.12
254.96	204.12
255.193	204.12
255.426	187.12
255.659	201.12
255.892	202.12
256.124	191.12
256.357	186.12
256.59	207.12
256.823	193.12
257.056	172.12
257.289	186.12
257.521	178.12
257.754	180.12
257.987	173.12
258.22	174.12
258.452	192.12
258.685	196.12
258.918	184.12
259.151	182.12
259.383	169.12
259.616	197.12
259.849	205.12
260.081	186.12
260.314	207.12
260.547	203.12
260.779	217.12
261.012	187.12
261.244	196.12
261.477	189.12
261.71	193.12
261.942	178.12
262.175	203.12
262.407	189.12
262.64	206.12
262.872	184.12
263.105	194.12
263.337	204.12
263.57	188.12
263.802	183.12
264.035	194.12
264.267	207.12
264.499	190.12
264.732	191.12
264.964	195.12
265.197	193.12
265.429	177.12
265.661	194.12
265.894	202.12
266.126	213.12
266.358	180.12
266.591	189.12
266.823	196.12
267.055	197.12
267.287	209.12
267.52	197.12
267.752	197.12
267.984	193.12
268.216	215.12
268.448	212.12
268.681	210.12
268.913	227.12
269.145	210.12
269.377	237.12
269.609	248.12
269.841	240.12
270.073	240.12
270.306	260.12
270.538	260.12
270.77	241.12
271.002	256.12
271.234	257.12
271.466	268.12
271.698	258.12
271.93	258.12
272.162	269.12
272.394	272.12
272.626	251.12
272.858	247.12
273.09	231.12
273.322	235.12
273.553	230.12
273.785	232.12
274.017	244.12
274.249	245.12
274.481	224.12
274.713	245.12
274.945	258.12
275.176	229.12
275.408	245.12
275.64	236.12
275.872	255.12
276.104	259.12
276.335	229.12
276.567	244.12
276.799	236.12
277.031	267.12
277.262	283.12
277.494	252.12
277.726	245.12
277.957	244.12
278.189	252.12
278.421	254.12
278.652	247.12
278.884	256.12
279.115	255.12
279.347	243.12
279.579	252.12
279.81	271.12
280.042	253.12
280.273	270.12
280.505	237.12
280.736	259.12
280.968	251.12
281.199	258.12
281.431	257.12
281.662	249.12
281.894	259.12
282.125	251.12
282.356	264.12
282.588	250.12
282.819	255.12
283.051	263.12
283.282	253.12
283.513	261.12
283.745	260.12
283.976	250.12
284.207	261.12
284.439	269.12
284.67	272.12
284.901	265.12
285.132	283.12
285.364	260.12
285.595	260.12
285.826	276.12
286.057	276.12
286.288	264.12
286.52	245.12
286.751	268.12
286.982	266.12
287.213	283.12
287.444	267.12
287.675	276.12
287.906	284.12
288.138	273.12
288.369	290.12
288.6	272.12
288.831	270.12
289.062	275.12
289.293	264.12
289.524	272.12
289.755	289.12
289.986	272.12
290.217	283.12
290.448	278.12
290.679	273.12
290.91	274.12
291.141	270.12
291.371	291.12
291.602	277.12
291.833	288.12
292.064	271.12
292.295	270.12
292.526	276.12
292.757	270.12
292.987	269.12
293.218	274.12
293.449	261.12
293.68	282.12
293.91	274.12
294.141	259.12
294.372	267.12
294.603	273.12
294.833	286.12
295.064	296.12
295.295	280.12
295.525	280.12
295.756	288.12
295.987	291.12
296.217	299.12
296.448	301.12
296.679	278.12
296.909	277.12
297.14	286.12
297.37	306.12
297.601	280.12
297.831	285.12
298.062	285.12
298.292	281.12
298.523	290.12
298.753	277.12
298.984	294.12
299.214	299.12
299.445	310.12
299.675	287.12
299.905	298.12
300.136	267.12
300.366	301.12
300.597	312.12
300.827	289.12
301.057	296.12
301.288	305.12
301.518	320.12
301.748	307.12
301.979	316.12
302.209	294.12
302.439	316.12
302.669	311.12
302.9	305.12
303.13	310.12
303.36	308.12
303.59	324.12
303.82	315.12
304.051	293.12
304.281	316.12
304.511	315.12
304.741	307.12
304.971	311.12
305.201	311.12
305.431	291.12
305.661	316.12
305.891	294.12
306.121	334.12
306.352	299.12
306.582	305.12
306.812	300.12
307.042	309.12
307.272	306.12
307.502	305.12
307.731	317.12
307.961	317.12
308.191	309.12
308.421	323.12
308.651	326.12
308.881	307.12
309.111	310.12
309.341	332.12
309.571	303.12
309.8	338.12
310.03	345.12
310.26	337.12
310.49	340.12
310.72	338.12
310.949	321.12
311.179	341.12
311.409	333.12
311.639	326.12
311.868	337.12
312.098	356.12
312.328	340.12
312.557	335.12
312.787	361.12
313.017	356.12
313.246	344.12
313.476	337.12
313.706	339.12
313.935	338.12
314.165	337.12
314.394	338.12
314.624	323.12
314.853	324.12
315.083	329.12
315.312	356.12
315.542	343.12
315.771	347.12
316.001	333.12
316.23	347.12
316.46	344.12
316.689	351.12
316.919	352.12
317.148	372.12
317.377	354.12
317.607	352.12
317.836	363.12
318.065	357.12
318.295	352.12
318.524	345.12
318.753	335.12
318.983	348.12
319.212	345.12
319.441	345.12
319.67	358.12
319.9	339.12
320.129	352.12
320.358	331.12
320.587	364.12
320.816	361.12
321.046	342.12
321.275	367.12
321.504	352.12
321.733	381.12
321.962	352.12
322.191	378.12
322.42	377.12
322.649	367.12
322.878	388.12
323.108	410.12
323.337	381.12
323.566	410.12
323.795	405.12
324.024	444.12
324.253	505.12
324.482	677.12
324.71	938.12
324.939	1236.12
325.168	1070.12
325.397	599.12
325.626	502.12
325.855	430.12
326.084	394.12
326.313	419.12
326.542	394.12
326.77	425.12
326.999	494.12
327.228	599.12
327.457	828.12
327.686	954.12
327.914	664.12
328.143	485.12
328.372	424.12
328.6	454.12
328.829	436.12
329.058	435.12
329.287	412.12
329.515	420.12
329.744	427.12
329.972	420.12
330.201	442.12
330.43	445.12
330.658	428.12
330.887	439.12
331.115	470.12
331.344	413.12
331.572	421.12
331.801	423.12
332.03	422.12
332.258	402.12
332.486	426.12
332.715	409.12
332.943	395.12
333.172	409.12
333.4	407.12
333.629	400.12
333.857	417.12
334.085	424.12
334.314	430.12
334.542	430.12
334.771	442.12
334.999	422.12
335.227	402.12
335.455	409.12
335.684	392.12
335.912	399.12
336.14	392.12
336.369	409.12
336.597	411.12
336.825	400.12
337.053	384.12
337.281	397.12
337.51	395.12
337.738	383.12
337.966	406.12
338.194	391.12
338.422	384.12
338.65	382.12
338.878	398.12
339.106	412.12
339.334	386.12
339.562	375.12
339.79	383.12
340.018	377.12
340.246	373.12
340.474	376.12
340.702	389.12
340.93	404.12
341.158	387.12
341.386	375.12
341.614	390.12
341.842	383.12
342.07	386.12
342.298	355.12
342.526	372.12
342.754	359.12
342.981	379.12
343.209	383.12
343.437	396.12
343.665	406.12
343.893	409.12
344.12	400.12
344.348	409.12
344.576	399.12
344.804	392.12
345.031	421.12
345.259	393.12
345.487	398.12
345.714	379.12
345.942	365.12
346.17	384.12
346.397	362.12
346.625	360.12
346.853	359.12
347.08	358.12
347.308	376.12
347.535	378.12
347.763	377.12
347.99	366.12
348.218	346.12
348.445	402.12
348.673	356.12
348.9	359.12
349.128	332.12
349.355	353.12
349.583	347.12
349.81	360.12
350.037	345.12
350.265	349.12
350.492	351.12
350.72	363.12
350.947	348.12
351.174	343.12
351.402	364.12
351.629	361.12
351.856	364.12
352.083	373.12
352.311	363.12
352.538	370.12
352.765	363.12
352.992	342.12
353.22	346.12
353.447	365.12
353.674	356.12
353.901	330.12
354.128	345.12
354.355	337.12
354.583	354.12
354.81	343.12
355.037	351.12
355.264	350.12
355.491	354.12
355.718	337.12
355.945	338.12
356.172	357.12
356.399	344.12
356.626	341.12
356.853	349.12
357.08	343.12
357.307	341.12
357.534	320.12
357.761	353.12
357.988	345.12
358.215	334.12
358.441	338.12
358.668	331.12
358.895	346.12
359.122	327.12
359.349	349.12
359.576	357.12
359.802	368.12
360.029	370.12
360.256	362.12
360.483	370.12
360.709	348.12
360.936	353.12
361.163	349.12
361.39	355.12
361.616	358.12
361.843	359.12
362.07	345.12
362.296	332.12
362.523	327.12
362.749	322.12
362.976	341.12
363.203	360.12
363.429	338.12
363.656	333.12
363.882	347.12
364.109	342.12
364.335	336.12
364.562	351.12
364.788	332.12
365.015	338.12
365.241	327.12
365.468	336.12
365.694	354.12
365.92	338.12
366.147	352.12
366.373	339.12
366.599	326.12
366.826	342.12
367.052	341.12
367.278	342.12
367.505	330.12
367.731	344.12
367.957	332.12
368.184	336.12
368.41	337.12
368.636	354.12
368.862	342.12
369.089	339.12
369.315	336.12
369.541	344.12
369.767	344.12
369.993	332.12
370.219	338.12
370.445	344.12
370.672	350.12
370.898	354.12
371.124	346.12
371.35	344.12
371.576	333.12
371.802	347.12
372.028	357.12
372.254	370.12
372.48	352.12
372.706	355.12
372.932	340.12
373.158	344.12
373.384	324.12
373.61	341.12
373.835	358.12
374.061	347.12
374.287	349.12
374.513	358.12
374.739	350.12
374.965	360.12
375.191	344.12
375.416	350.12
375.642	362.12
375.868	358.12
376.094	345.12
376.319	354.12
376.545	331.12
376.771	328.12
376.997	333.12
377.222	340.12
377.448	336.12
377.674	334.12
377.899	336.12
378.125	339.12
378.35	333.12
378.576	339.12
378.802	323.12
379.027	356.12
379.253	355.12
379.478	333.12
379.704	346.12
379.929	338.12
380.155	339.12
380.38	349.12
380.606	352.12
380.831	331.12
381.057	345.12
381.282	336.12
381.507	331.12
381.733	349.12
381.958	332.12
382.184	348.12
382.409	360.12
382.634	335.12
382.86	364.12
383.085	344.12
383.31	349.12
383.535	369.12
383.761	364.12
383.986	356.12
384.211	355.12
384.436	358.12
384.662	357.12
384.887	371.12
385.112	365.12
385.337	373.12
385.562	369.12
385.787	370.12
386.013	373.12
386.238	389.12
386.463	362.12
386.688	385.12
386.913	374.12
387.138	385.12
387.363	388.12
387.588	362.12
387.813	381.12
388.038	357.12
388.263	365.12
388.488	362.12
388.713	382.12
388.938	370.12
389.163	390.12
389.387	380.12
389.612	362.12
389.837	371.12
390.062	359.12
390.287	368.12
390.512	378.12
390.736	366.12
390.961	363.12
391.186	370.12
391.411	372.12
391.636	379.12
391.86	375.12
392.085	385.12
392.31	370.12
392.534	378.12
392.759	392.12
392.984	394.12
393.208	386.12
393.433	377.12
393.658	377.12
393.882	390.12
394.107	370.12
394.331	377.12
394.556	379.12
394.78	372.12
395.005	371.12
395.229	369.12
395.454	372.12
395.678	383.12
395.903	385.12
396.127	406.12
396.352	381.12
396.576	369.12
396.801	370.12
397.025	391.12
397.249	406.12
397.474	382.12
397.698	393.12
397.922	406.12
398.147	423.12
398.371	412.12
398.595	410.12
398.82	397.12
399.044	411.12
399.268	431.12
399.492	458.12
399.717	468.12
399.941	524.12
400.165	492.12
400.389	515.12
400.613	464.12
400.837	426.12
401.062	429.12
401.286	421.12
401.51	431.12
401.734	431.12
401.958	419.12
402.182	402.12
402.406	406.12
402.63	418.12
402.854	417.12
403.078	407.12
403.302	420.12
403.526	412.12
403.75	422.12
403.974	425.12
404.198	413.12
404.422	423.12
404.645	428.12
404.869	428.12
405.093	431.12
405.317	465.12
405.541	471.12
405.765	452.12
405.988	447.12
406.212	446.12
406.436	430.12
406.66	446.12
406.883	446.12
407.107	468.12
407.331	481.12
407.555	524.12
407.778	516.12
408.002	490.12
408.226	464.12
408.449	469.12
408.673	465.12
408.896	462.12
409.12	508.12
409.344	486.12
409.567	441.12
409.791	421.12
410.014	435.12
410.238	408.12
410.461	409.12
410.685	422.12
410.908	410.12
411.132	432.12
411.355	473.12
411.578	455.12
411.802	445.12
412.025	416.12
412.249	440.12
412.472	444.12
412.695	452.12
412.919	434.12
413.142	424.12
413.365	405.12
413.589	395.12
413.812	404.12
414.035	393.12
414.258	389.12
414.482	393.12
414.705	380.12
414.928	389.12
415.151	404.12
415.374	408.12
415.597	406.12
415.821	383.12
416.044	386.12
416.267	393.12
416.49	379.12
416.713	398.12
416.936	380.12
417.159	384.12
417.382	398.12
417.605	370.12
417.828	389.12
418.051	400.12
418.274	397.12
418.497	387.12
418.72	397.12
418.943	396.12
419.166	386.12
419.389	416.12
419.611	404.12
419.834	389.12
420.057	402.12
420.28	380.12
420.503	397.12
420.726	411.12
420.948	415.12
421.171	428.12
421.394	429.12
421.617	405.12
421.839	401.12
422.062	400.12
422.285	407.12
422.507	430.12
422.73	484.12
422.953	453.12
423.175	400.12
423.398	385.12
423.621	405.12
423.843	424.12
424.066	432.12
424.288	432.12
424.511	428.12
424.733	471.12
424.956	492.12
425.178	481.12
425.401	471.12
425.623	524.12
425.846	441.12
426.068	414.12
426.291	400.12
426.513	392.12
426.735	430.12
426.958	428.12
427.18	494.12
427.402	560.12
427.625	617.12
427.847	530.12
428.069	460.12
428.292	407.12
428.514	397.12
428.736	405.12
428.958	413.12
429.181	391.12
429.403	401.12
429.625	381.12
429.847	410.12
430.069	462.12
430.292	455.12
430.514	396.12
430.736	383.12
430.958	360.12
431.18	366.12
431.402	375.12
431.624	383.12
431.846	369.12
432.068	360.12
432.29	358.12
432.512	389.12
432.734	374.12
432.956	367.12
433.178	389.12
433.4	365.12
433.622	376.12
433.844	379.12
434.066	361.12
434.287	382.12
434.509	378.12
434.731	382.12
434.953	385.12
435.175	383.12
435.397	427.12
435.618	429.12
435.84	440.12
436.062	464.12
436.284	510.12
436.505	451.12
436.727	412.12
436.949	394.12
437.17	382.12
437.392	386.12
437.614	384.12
437.835	414.12
438.057	461.12
438.278	511.12
438.5	528.12
438.721	572.12
438.943	531.12
439.165	433.12
439.386	426.12
439.608	418.12
439.829	419.12
440.05	416.12
440.272	455.12
440.493	399.12
440.715	407.12
440.936	382.12
441.158	392.12
441.379	370.12
441.6	404.12
441.822	400.12
442.043	434.12
442.264	472.12
442.486	504.12
442.707	444.12
442.928	424.12
443.149	413.12
443.371	429.12
443.592	469.12
443.813	520.12
444.034	544.12
444.255	469.12
444.476	417.12
444.698	414.12
444.919	416.12
445.14	547.12
445.361	487.12
445.582	426.12
445.803	457.12
446.024	536.12
446.245	523.12
446.466	473.12
446.687	432.12
446.908	392.12
447.129	399.12
447.35	392.12
447.571	368.12
447.792	373.12
448.013	373.12
448.234	381.12
448.455	424.12
448.675	474.12
448.896	550.12
449.117	472.12
449.338	454.12
449.559	525.12
449.779	577.12
450	470.12
450.221	400.12
450.442	378.12
450.662	349.12
450.883	372.12
451.104	364.12
451.324	358.12
451.545	366.12
451.766	348.12
451.986	333.12
452.207	336.12
452.428	342.12
452.648	361.12
452.869	332.12
453.089	350.12
453.31	349.12
453.53	347.12
453.751	349.12
453.971	328.12
454.192	354.12
454.412	345.12
454.633	336.12
454.853	330.12
455.073	338.12
455.294	338.12
455.514	400.12
455.734	387.12
455.955	311.12
456.175	336.12
456.395	334.12
456.616	331.12
456.836	353.12
457.056	334.12
457.276	314.12
457.497	328.12
457.717	309.12
457.937	317.12
458.157	341.12
458.377	355.12
458.598	340.12
458.818	398.12
459.038	408.12
459.258	429.12
459.478	399.12
459.698	363.12
459.918	350.12
460.138	364.12
460.358	376.12
460.578	398.12
460.798	376.12
461.018	392.12
461.238	379.12
461.458	371.12
461.678	389.12
461.898	389.12
462.118	365.12
462.338	381.12
462.558	387.12
462.777	403.12
462.997	408.12
463.217	419.12
463.437	434.12
463.657	400.12
463.876	403.12
464.096	402.12
464.316	409.12
464.536	399.12
464.755	409.12
464.975	405.12
465.195	420.12
465.414	404.12
465.634	399.12
465.854	395.12
466.073	386.12
466.293	373.12
466.512	342.12
466.732	355.12
466.951	354.12
467.171	337.12
467.391	368.12
467.61	345.12
467.829	356.12
468.049	366.12
468.268	347.12
468.488	352.12
468.707	354.12
468.927	361.12
469.146	348.12
469.365	343.12
469.585	340.12
469.804	358.12
470.023	354.12
470.243	375.12
470.462	350.12
470.681	358.12
470.901	376.12
471.12	359.12
471.339	355.12
471.558	375.12
471.777	361.12
471.997	353.12
472.216	368.12
472.435	387.12
472.654	362.12
472.873	342.12
473.092	351.12
473.311	375.12
473.53	374.12
473.749	369.12
473.968	386.12
474.187	442.12
474.406	459.12
474.625	400.12
474.844	369.12
475.063	389.12
475.282	368.12
475.501	382.12
475.72	352.12
475.939	362.12
476.158	357.12
476.377	362.12
476.596	373.12
476.814	387.12
477.033	388.12
477.252	379.12
477.471	387.12
477.69	391.12
477.908	380.12
478.127	387.12
478.346	408.12
478.564	381.12
478.783	411.12
479.002	411.12
479.22	429.12
479.439	401.12
479.658	425.12
479.876	410.12
480.095	439.12
480.313	460.12
480.532	452.12
480.751	425.12
480.969	445.12
481.188	459.12
481.406	470.12
481.624	439.12
481.843	406.12
482.061	419.12
482.28	436.12
482.498	419.12
482.717	420.12
482.935	425.12
483.153	393.12
483.372	433.12
483.59	430.12
483.808	403.12
484.027	437.12
484.245	427.12
484.463	433.12
484.681	427.12
484.9	441.12
485.118	429.12
485.336	417.12
485.554	412.12
485.772	445.12
485.99	438.12
486.209	442.12
486.427	451.12
486.645	442.12
486.863	450.12
487.081	444.12
487.299	444.12
487.517	443.12
487.735	448.12
487.953	454.12
488.171	432.12
488.389	452.12
488.607	437.12
488.825	435.12
489.043	441.12
489.261	455.12
489.479	444.12
489.696	448.12
489.914	452.12
490.132	450.12
490.35	461.12
490.568	476.12
490.786	459.12
491.003	459.12
491.221	490.12
491.439	476.12
491.657	486.12
491.874	479.12
492.092	485.12
492.31	484.12
492.527	485.12
492.745	501.12
492.963	514.12
493.18	486.12
493.398	492.12
493.615	485.12
493.833	499.12
494.05	506.12
494.268	499.12
494.485	505.12
494.703	498.12
494.92	521.12
495.138	488.12
495.355	511.12
495.573	505.12
495.79	488.12
496.008	520.12
496.225	496.12
496.442	489.12
496.66	531.12
496.877	525.12
497.094	519.12
497.312	544.12
497.529	537.12
497.746	528.12
497.963	534.12
498.181	547.12
498.398	530.12
498.615	584.12
498.832	592.12
499.049	597.12
499.267	606.12
499.484	630.12
499.701	662.12
499.918	694.12
500.135	716.12
500.352	743.12
500.569	792.12
500.786	752.12
501.003	740.12
501.22	738.12
501.437	693.12
501.654	656.12
501.871	653.12
502.088	616.12
