Data from 1960PennyLincolnUp.LampE6.200Scan.07172019.P1_HRD10591_13-05-55-002.txt Node
Date: Thu Jul 18 13:05:55 EDT 2019
User: cochatt
Spectrometer: HR+D1059
Trigger mode: 1
Integration Time (sec): 1.000000E-1
Scans to average: 1
Electric dark correction enabled: true
Nonlinearity correction enabled: false
Boxcar width: 0
XAxis mode: Wavelengths
Number of Pixels in Spectrum: 2048
>>>>>Begin Spectral Data<<<<<
223.165	-15.25
223.4	-15.25
223.635	-15.25
223.869	-9.25
224.104	-5.25
224.338	-16.25
224.573	-9.25
224.808	-21.25
225.042	-10.25
225.277	-2.25
225.511	-6.25
225.746	11.75
225.98	9.75
226.215	-0.25
226.449	11.75
226.683	15.75
226.918	30.75
227.152	15.75
227.387	41.75
227.621	20.75
227.856	45.75
228.09	50.75
228.324	53.75
228.559	48.75
228.793	64.75
229.027	81.75
229.262	88.75
229.496	110.75
229.73	104.75
229.964	128.75
230.199	109.75
230.433	104.75
230.667	101.75
230.901	100.75
231.136	106.75
231.37	111.75
231.604	103.75
231.838	105.75
232.072	113.75
232.306	106.75
232.541	84.75
232.775	112.75
233.009	108.75
233.243	117.75
233.477	109.75
233.711	112.75
233.945	114.75
234.179	134.75
234.413	112.75
234.647	122.75
234.881	114.75
235.115	117.75
235.349	135.75
235.583	117.75
235.817	129.75
236.051	121.75
236.285	122.75
236.519	118.75
236.753	118.75
236.987	140.75
237.221	166.75
237.455	185.75
237.689	160.75
237.922	131.75
238.156	134.75
238.39	120.75
238.624	116.75
238.858	128.75
239.091	111.75
239.325	119.75
239.559	128.75
239.793	118.75
240.027	131.75
240.26	143.75
240.494	137.75
240.728	140.75
240.961	132.75
241.195	128.75
241.429	124.75
241.662	122.75
241.896	128.75
242.13	132.75
242.363	126.75
242.597	125.75
242.83	129.75
243.064	116.75
243.298	124.75
243.531	127.75
243.765	131.75
243.998	137.75
244.232	131.75
244.465	140.75
244.699	157.75
244.932	143.75
245.166	143.75
245.399	128.75
245.633	146.75
245.866	136.75
246.099	140.75
246.333	139.75
246.566	137.75
246.8	128.75
247.033	138.75
247.266	146.75
247.5	138.75
247.733	146.75
247.966	168.75
248.2	163.75
248.433	168.75
248.666	148.75
248.899	173.75
249.133	177.75
249.366	184.75
249.599	177.75
249.832	163.75
250.066	154.75
250.299	167.75
250.532	172.75
250.765	175.75
250.998	189.75
251.231	194.75
251.465	193.75
251.698	169.75
251.931	174.75
252.164	165.75
252.397	175.75
252.63	183.75
252.863	203.75
253.096	180.75
253.329	202.75
253.562	203.75
253.795	205.75
254.028	186.75
254.261	190.75
254.494	190.75
254.727	221.75
254.96	245.75
255.193	236.75
255.426	198.75
255.659	201.75
255.892	222.75
256.124	210.75
256.357	205.75
256.59	199.75
256.823	188.75
257.056	198.75
257.289	202.75
257.521	199.75
257.754	191.75
257.987	192.75
258.22	176.75
258.452	196.75
258.685	196.75
258.918	191.75
259.151	185.75
259.383	207.75
259.616	216.75
259.849	212.75
260.081	212.75
260.314	208.75
260.547	224.75
260.779	209.75
261.012	208.75
261.244	210.75
261.477	208.75
261.71	203.75
261.942	211.75
262.175	209.75
262.407	214.75
262.64	206.75
262.872	201.75
263.105	199.75
263.337	200.75
263.57	192.75
263.802	203.75
264.035	208.75
264.267	197.75
264.499	196.75
264.732	216.75
264.964	207.75
265.197	196.75
265.429	197.75
265.661	210.75
265.894	213.75
266.126	216.75
266.358	214.75
266.591	205.75
266.823	195.75
267.055	215.75
267.287	235.75
267.52	213.75
267.752	213.75
267.984	232.75
268.216	217.75
268.448	214.75
268.681	232.75
268.913	239.75
269.145	243.75
269.377	249.75
269.609	269.75
269.841	245.75
270.073	254.75
270.306	264.75
270.538	294.75
270.77	279.75
271.002	271.75
271.234	276.75
271.466	300.75
271.698	292.75
271.93	279.75
272.162	282.75
272.394	286.75
272.626	268.75
272.858	266.75
273.09	255.75
273.322	257.75
273.553	260.75
273.785	248.75
274.017	248.75
274.249	273.75
274.481	250.75
274.713	250.75
274.945	249.75
275.176	248.75
275.408	241.75
275.64	257.75
275.872	267.75
276.104	257.75
276.335	269.75
276.567	260.75
276.799	272.75
277.031	295.75
277.262	295.75
277.494	293.75
277.726	276.75
277.957	292.75
278.189	274.75
278.421	278.75
278.652	271.75
278.884	264.75
279.115	257.75
279.347	263.75
279.579	257.75
279.81	275.75
280.042	248.75
280.273	268.75
280.505	283.75
280.736	280.75
280.968	263.75
281.199	294.75
281.431	276.75
281.662	261.75
281.894	275.75
282.125	271.75
282.356	279.75
282.588	305.75
282.819	281.75
283.051	279.75
283.282	287.75
283.513	273.75
283.745	290.75
283.976	276.75
284.207	285.75
284.439	286.75
284.67	296.75
284.901	294.75
285.132	294.75
285.364	271.75
285.595	279.75
285.826	284.75
286.057	286.75
286.288	272.75
286.52	271.75
286.751	294.75
286.982	298.75
287.213	296.75
287.444	301.75
287.675	297.75
287.906	288.75
288.138	300.75
288.369	314.75
288.6	308.75
288.831	305.75
289.062	321.75
289.293	306.75
289.524	304.75
289.755	296.75
289.986	311.75
290.217	297.75
290.448	306.75
290.679	320.75
290.91	304.75
291.141	307.75
291.371	306.75
291.602	309.75
291.833	309.75
292.064	298.75
292.295	310.75
292.526	288.75
292.757	309.75
292.987	293.75
293.218	294.75
293.449	316.75
293.68	321.75
293.91	334.75
294.141	293.75
294.372	308.75
294.603	297.75
294.833	300.75
295.064	315.75
295.295	318.75
295.525	321.75
295.756	319.75
295.987	324.75
296.217	339.75
296.448	326.75
296.679	316.75
296.909	294.75
297.14	321.75
297.37	318.75
297.601	311.75
297.831	334.75
298.062	323.75
298.292	333.75
298.523	345.75
298.753	335.75
298.984	332.75
299.214	330.75
299.445	334.75
299.675	333.75
299.905	333.75
300.136	318.75
300.366	319.75
300.597	326.75
300.827	348.75
301.057	345.75
301.288	348.75
301.518	341.75
301.748	339.75
301.979	344.75
302.209	355.75
302.439	362.75
302.669	345.75
302.9	344.75
303.13	326.75
303.36	356.75
303.59	352.75
303.82	354.75
304.051	357.75
304.281	350.75
304.511	348.75
304.741	334.75
304.971	341.75
305.201	345.75
305.431	346.75
305.661	339.75
305.891	332.75
306.121	312.75
306.352	352.75
306.582	352.75
306.812	361.75
307.042	358.75
307.272	345.75
307.502	352.75
307.731	367.75
307.961	347.75
308.191	362.75
308.421	354.75
308.651	343.75
308.881	366.75
309.111	356.75
309.341	350.75
309.571	367.75
309.8	353.75
310.03	362.75
310.26	365.75
310.49	360.75
310.72	376.75
310.949	393.75
311.179	371.75
311.409	380.75
311.639	374.75
311.868	388.75
312.098	369.75
312.328	381.75
312.557	384.75
312.787	408.75
313.017	401.75
313.246	387.75
313.476	372.75
313.706	378.75
313.935	382.75
314.165	407.75
314.394	386.75
314.624	382.75
314.853	385.75
315.083	386.75
315.312	386.75
315.542	370.75
315.771	386.75
316.001	396.75
316.23	367.75
316.46	362.75
316.689	391.75
316.919	360.75
317.148	397.75
317.377	388.75
317.607	393.75
317.836	383.75
318.065	400.75
318.295	383.75
318.524	387.75
318.753	386.75
318.983	378.75
319.212	376.75
319.441	382.75
319.67	388.75
319.9	382.75
320.129	399.75
320.358	376.75
320.587	377.75
320.816	386.75
321.046	374.75
321.275	380.75
321.504	386.75
321.733	384.75
321.962	408.75
322.191	412.75
322.42	404.75
322.649	420.75
322.878	414.75
323.108	427.75
323.337	419.75
323.566	450.75
323.795	456.75
324.024	501.75
324.253	562.75
324.482	757.75
324.71	1058.75
324.939	1472.75
325.168	1235.75
325.397	676.75
325.626	481.75
325.855	468.75
326.084	451.75
326.313	454.75
326.542	456.75
326.77	498.75
326.999	555.75
327.228	696.75
327.457	983.75
327.686	1140.75
327.914	734.75
328.143	564.75
328.372	532.75
328.6	491.75
328.829	505.75
329.058	504.75
329.287	485.75
329.515	481.75
329.744	451.75
329.972	470.75
330.201	492.75
330.43	516.75
330.658	530.75
330.887	545.75
331.115	518.75
331.344	485.75
331.572	466.75
331.801	498.75
332.03	479.75
332.258	462.75
332.486	489.75
332.715	466.75
332.943	497.75
333.172	508.75
333.4	524.75
333.629	538.75
333.857	544.75
334.085	546.75
334.314	535.75
334.542	538.75
334.771	558.75
334.999	535.75
335.227	499.75
335.455	496.75
335.684	496.75
335.912	489.75
336.14	472.75
336.369	483.75
336.597	479.75
336.825	469.75
337.053	467.75
337.281	455.75
337.51	466.75
337.738	479.75
337.966	455.75
338.194	456.75
338.422	460.75
338.65	454.75
338.878	471.75
339.106	447.75
339.334	450.75
339.562	445.75
339.79	444.75
340.018	445.75
340.246	432.75
340.474	448.75
340.702	446.75
340.93	435.75
341.158	422.75
341.386	442.75
341.614	436.75
341.842	440.75
342.07	447.75
342.298	433.75
342.526	422.75
342.754	429.75
342.981	442.75
343.209	423.75
343.437	462.75
343.665	486.75
343.893	485.75
344.12	491.75
344.348	481.75
344.576	471.75
344.804	469.75
345.031	453.75
345.259	457.75
345.487	451.75
345.714	455.75
345.942	431.75
346.17	439.75
346.397	426.75
346.625	418.75
346.853	422.75
347.08	431.75
347.308	440.75
347.535	448.75
347.763	426.75
347.99	433.75
348.218	423.75
348.445	426.75
348.673	430.75
348.9	433.75
349.128	420.75
349.355	406.75
349.583	428.75
349.81	407.75
350.037	418.75
350.265	418.75
350.492	410.75
350.72	396.75
350.947	420.75
351.174	403.75
351.402	437.75
351.629	440.75
351.856	414.75
352.083	414.75
352.311	436.75
352.538	420.75
352.765	416.75
352.992	429.75
353.22	411.75
353.447	419.75
353.674	403.75
353.901	409.75
354.128	385.75
354.355	388.75
354.583	395.75
354.81	401.75
355.037	405.75
355.264	410.75
355.491	396.75
355.718	394.75
355.945	402.75
356.172	399.75
356.399	417.75
356.626	397.75
356.853	386.75
357.08	421.75
357.307	410.75
357.534	400.75
357.761	403.75
357.988	406.75
358.215	383.75
358.441	376.75
358.668	395.75
358.895	409.75
359.122	409.75
359.349	385.75
359.576	416.75
359.802	437.75
360.029	450.75
360.256	451.75
360.483	440.75
360.709	399.75
360.936	426.75
361.163	398.75
361.39	433.75
361.616	417.75
361.843	420.75
362.07	405.75
362.296	425.75
362.523	405.75
362.749	410.75
362.976	408.75
363.203	415.75
363.429	418.75
363.656	393.75
363.882	400.75
364.109	422.75
364.335	412.75
364.562	429.75
364.788	414.75
365.015	435.75
365.241	403.75
365.468	388.75
365.694	389.75
365.92	408.75
366.147	424.75
366.373	438.75
366.599	416.75
366.826	389.75
367.052	396.75
367.278	408.75
367.505	395.75
367.731	429.75
367.957	419.75
368.184	399.75
368.41	409.75
368.636	417.75
368.862	430.75
369.089	432.75
369.315	427.75
369.541	421.75
369.767	408.75
369.993	424.75
370.219	408.75
370.445	407.75
370.672	418.75
370.898	420.75
371.124	426.75
371.35	422.75
371.576	428.75
371.802	404.75
372.028	436.75
372.254	440.75
372.48	407.75
372.706	442.75
372.932	450.75
373.158	441.75
373.384	455.75
373.61	422.75
373.835	430.75
374.061	434.75
374.287	429.75
374.513	429.75
374.739	430.75
374.965	446.75
375.191	456.75
375.416	439.75
375.642	449.75
375.868	449.75
376.094	429.75
376.319	437.75
376.545	416.75
376.771	432.75
376.997	445.75
377.222	430.75
377.448	418.75
377.674	425.75
377.899	432.75
378.125	417.75
378.35	428.75
378.576	430.75
378.802	420.75
379.027	412.75
379.253	417.75
379.478	421.75
379.704	415.75
379.929	431.75
380.155	405.75
380.38	416.75
380.606	416.75
380.831	410.75
381.057	444.75
381.282	406.75
381.507	420.75
381.733	428.75
381.958	415.75
382.184	444.75
382.409	423.75
382.634	444.75
382.86	431.75
383.085	456.75
383.31	447.75
383.535	463.75
383.761	460.75
383.986	462.75
384.211	468.75
384.436	449.75
384.662	506.75
384.887	475.75
385.112	486.75
385.337	482.75
385.562	493.75
385.787	479.75
386.013	481.75
386.238	505.75
386.463	498.75
386.688	484.75
386.913	469.75
387.138	476.75
387.363	494.75
387.588	496.75
387.813	485.75
388.038	488.75
388.263	497.75
388.488	472.75
388.713	474.75
388.938	483.75
389.163	468.75
389.387	474.75
389.612	478.75
389.837	465.75
390.062	471.75
390.287	498.75
390.512	480.75
390.736	475.75
390.961	483.75
391.186	482.75
391.411	513.75
391.636	518.75
391.86	509.75
392.085	526.75
392.31	500.75
392.534	500.75
392.759	500.75
392.984	496.75
393.208	492.75
393.433	522.75
393.658	507.75
393.882	513.75
394.107	474.75
394.331	496.75
394.556	490.75
394.78	506.75
395.005	513.75
395.229	516.75
395.454	536.75
395.678	536.75
395.903	536.75
396.127	558.75
396.352	526.75
396.576	515.75
396.801	502.75
397.025	500.75
397.249	521.75
397.474	526.75
397.698	533.75
397.922	530.75
398.147	545.75
398.371	548.75
398.595	566.75
398.82	589.75
399.044	596.75
399.268	644.75
399.492	700.75
399.717	776.75
399.941	768.75
400.165	754.75
400.389	707.75
400.613	630.75
400.837	606.75
401.062	594.75
401.286	597.75
401.51	573.75
401.734	573.75
401.958	574.75
402.182	576.75
402.406	604.75
402.63	620.75
402.854	598.75
403.078	622.75
403.302	613.75
403.526	612.75
403.75	620.75
403.974	616.75
404.198	608.75
404.422	641.75
404.645	642.75
404.869	637.75
405.093	668.75
405.317	656.75
405.541	695.75
405.765	661.75
405.988	617.75
406.212	642.75
406.436	670.75
406.66	649.75
406.883	666.75
407.107	713.75
407.331	729.75
407.555	770.75
407.778	777.75
408.002	692.75
408.226	674.75
408.449	672.75
408.673	624.75
408.896	674.75
409.12	688.75
409.344	661.75
409.567	627.75
409.791	622.75
410.014	624.75
410.238	622.75
410.461	624.75
410.685	617.75
410.908	612.75
411.132	624.75
411.355	657.75
411.578	643.75
411.802	585.75
412.025	598.75
412.249	617.75
412.472	635.75
412.695	649.75
412.919	612.75
413.142	608.75
413.365	577.75
413.589	572.75
413.812	545.75
414.035	556.75
414.258	556.75
414.482	580.75
414.705	576.75
414.928	594.75
415.151	567.75
415.374	556.75
415.597	561.75
415.821	554.75
416.044	564.75
416.267	557.75
416.49	551.75
416.713	549.75
416.936	558.75
417.159	546.75
417.382	554.75
417.605	557.75
417.828	579.75
418.051	587.75
418.274	567.75
418.497	585.75
418.72	578.75
418.943	553.75
419.166	580.75
419.389	608.75
419.611	616.75
419.834	597.75
420.057	601.75
420.28	598.75
420.503	562.75
420.726	594.75
420.948	592.75
421.171	600.75
421.394	595.75
421.617	578.75
421.839	584.75
422.062	586.75
422.285	599.75
422.507	638.75
422.73	663.75
422.953	671.75
423.175	612.75
423.398	606.75
423.621	614.75
423.843	625.75
424.066	645.75
424.288	613.75
424.511	639.75
424.733	619.75
424.956	704.75
425.178	688.75
425.401	662.75
425.623	661.75
425.846	616.75
426.068	577.75
426.291	572.75
426.513	585.75
426.735	566.75
426.958	608.75
427.18	652.75
427.402	740.75
427.625	772.75
427.847	710.75
428.069	618.75
428.292	598.75
428.514	569.75
428.736	544.75
428.958	525.75
429.181	513.75
429.403	526.75
429.625	521.75
429.847	535.75
430.069	585.75
430.292	594.75
430.514	524.75
430.736	518.75
430.958	521.75
431.18	510.75
431.402	507.75
431.624	525.75
431.846	509.75
432.068	510.75
432.29	519.75
432.512	500.75
432.734	506.75
432.956	515.75
433.178	522.75
433.4	541.75
433.622	520.75
433.844	518.75
434.066	511.75
434.287	536.75
434.509	528.75
434.731	539.75
434.953	570.75
435.175	590.75
435.397	613.75
435.618	588.75
435.84	606.75
436.062	653.75
436.284	686.75
436.505	578.75
436.727	548.75
436.949	524.75
437.17	534.75
437.392	545.75
437.614	533.75
437.835	546.75
438.057	604.75
438.278	659.75
438.5	642.75
438.721	719.75
438.943	648.75
439.165	574.75
439.386	546.75
439.608	552.75
439.829	558.75
440.05	570.75
440.272	606.75
440.493	593.75
440.715	546.75
440.936	528.75
441.158	553.75
441.379	543.75
441.6	566.75
441.822	582.75
442.043	612.75
442.264	646.75
442.486	669.75
442.707	607.75
442.928	598.75
443.149	616.75
443.371	602.75
443.592	636.75
443.813	703.75
444.034	734.75
444.255	653.75
444.476	621.75
444.698	648.75
444.919	647.75
445.14	747.75
445.361	658.75
445.582	628.75
445.803	664.75
446.024	688.75
446.245	717.75
446.466	637.75
446.687	574.75
446.908	564.75
447.129	533.75
447.35	516.75
447.571	520.75
447.792	511.75
448.013	533.75
448.234	505.75
448.455	534.75
448.675	604.75
448.896	686.75
449.117	597.75
449.338	562.75
449.559	641.75
449.779	700.75
450	589.75
450.221	500.75
450.442	504.75
450.662	494.75
450.883	525.75
451.104	524.75
451.324	497.75
451.545	493.75
451.766	473.75
451.986	494.75
452.207	470.75
452.428	460.75
452.648	461.75
452.869	476.75
453.089	474.75
453.31	502.75
453.53	487.75
453.751	442.75
453.971	453.75
454.192	452.75
454.412	465.75
454.633	460.75
454.853	462.75
455.073	450.75
455.294	475.75
455.514	520.75
455.734	504.75
455.955	465.75
456.175	453.75
456.395	431.75
456.616	430.75
456.836	453.75
457.056	424.75
457.276	434.75
457.497	438.75
457.717	440.75
457.937	454.75
458.157	452.75
458.377	445.75
458.598	475.75
458.818	511.75
459.038	569.75
459.258	562.75
459.478	534.75
459.698	540.75
459.918	541.75
460.138	522.75
460.358	552.75
460.578	548.75
460.798	561.75
461.018	552.75
461.238	547.75
461.458	562.75
461.678	554.75
461.898	550.75
462.118	548.75
462.338	575.75
462.558	572.75
462.777	606.75
462.997	634.75
463.217	656.75
463.437	647.75
463.657	644.75
463.876	619.75
464.096	606.75
464.316	616.75
464.536	621.75
464.755	615.75
464.975	592.75
465.195	598.75
465.414	650.75
465.634	564.75
465.854	512.75
466.073	507.75
466.293	513.75
466.512	474.75
466.732	469.75
466.951	493.75
467.171	473.75
467.391	479.75
467.61	498.75
467.829	498.75
468.049	484.75
468.268	468.75
468.488	483.75
468.707	473.75
468.927	461.75
469.146	465.75
469.365	438.75
469.585	463.75
469.804	501.75
470.023	512.75
470.243	505.75
470.462	478.75
470.681	536.75
470.901	513.75
471.12	503.75
471.339	479.75
471.558	485.75
471.777	474.75
471.997	473.75
472.216	476.75
472.435	501.75
472.654	484.75
472.873	484.75
473.092	470.75
473.311	485.75
473.53	458.75
473.749	474.75
473.968	501.75
474.187	551.75
474.406	561.75
474.625	506.75
474.844	477.75
475.063	477.75
475.282	470.75
475.501	486.75
475.72	485.75
475.939	462.75
476.158	495.75
476.377	504.75
476.596	489.75
476.814	495.75
477.033	498.75
477.252	496.75
477.471	517.75
477.69	536.75
477.908	534.75
478.127	561.75
478.346	556.75
478.564	554.75
478.783	547.75
479.002	575.75
479.22	580.75
479.439	568.75
479.658	568.75
479.876	561.75
480.095	580.75
480.313	614.75
480.532	603.75
480.751	624.75
480.969	609.75
481.188	644.75
481.406	650.75
481.624	570.75
481.843	567.75
482.061	560.75
482.28	565.75
482.498	546.75
482.717	537.75
482.935	530.75
483.153	534.75
483.372	567.75
483.59	544.75
483.808	533.75
484.027	525.75
484.245	538.75
484.463	554.75
484.681	548.75
484.9	572.75
485.118	556.75
485.336	554.75
485.554	557.75
485.772	567.75
485.99	556.75
486.209	568.75
486.427	562.75
486.645	567.75
486.863	580.75
487.081	569.75
487.299	606.75
487.517	560.75
487.735	599.75
487.953	597.75
488.171	594.75
488.389	604.75
488.607	601.75
488.825	579.75
489.043	578.75
489.261	594.75
489.479	576.75
489.696	594.75
489.914	598.75
490.132	633.75
490.35	591.75
490.568	599.75
490.786	606.75
491.003	615.75
491.221	617.75
491.439	618.75
491.657	650.75
491.874	673.75
492.092	642.75
492.31	691.75
492.527	670.75
492.745	659.75
492.963	662.75
493.18	698.75
493.398	673.75
493.615	638.75
493.833	682.75
494.05	681.75
494.268	674.75
494.485	686.75
494.703	679.75
494.92	681.75
495.138	681.75
495.355	681.75
495.573	669.75
495.79	679.75
496.008	672.75
496.225	665.75
496.442	665.75
496.66	650.75
496.877	669.75
497.094	692.75
497.312	701.75
497.529	711.75
497.746	702.75
497.963	707.75
498.181	711.75
498.398	786.75
498.615	790.75
498.832	816.75
499.049	863.75
499.267	901.75
499.484	969.75
499.701	1002.75
499.918	1092.75
500.135	1205.75
500.352	1303.75
500.569	1328.75
500.786	1338.75
501.003	1279.75
501.22	1172.75
501.437	1110.75
501.654	1004.75
501.871	978.75
