Data from 1960PennyLincolnUp.LampE5.5.200Scan.07172019.P1.ChangedAngle_HRD10591_13-15-28-821.txt Node
Date: Thu Jul 18 13:15:28 EDT 2019
User: cochatt
Spectrometer: HR+D1059
Trigger mode: 1
Integration Time (sec): 1.000000E-1
Scans to average: 1
Electric dark correction enabled: true
Nonlinearity correction enabled: false
Boxcar width: 0
XAxis mode: Wavelengths
Number of Pixels in Spectrum: 2048
>>>>>Begin Spectral Data<<<<<
223.165	-15.81
223.4	-15.81
223.635	-15.81
223.869	-8.81
224.104	-15.81
224.338	-23.81
224.573	-1.81
224.808	-11.81
225.042	-7.81
225.277	2.19
225.511	-8.81
225.746	-3.81
225.98	8.19
226.215	3.19
226.449	6.19
226.683	29.19
226.918	33.19
227.152	16.19
227.387	35.19
227.621	38.19
227.856	28.19
228.09	55.19
228.324	49.19
228.559	50.19
228.793	53.19
229.027	100.19
229.262	94.19
229.496	105.19
229.73	101.19
229.964	129.19
230.199	111.19
230.433	111.19
230.667	102.19
230.901	116.19
231.136	103.19
231.37	111.19
231.604	105.19
231.838	111.19
232.072	107.19
232.306	124.19
232.541	118.19
232.775	109.19
233.009	119.19
233.243	111.19
233.477	98.19
233.711	108.19
233.945	119.19
234.179	114.19
234.413	110.19
234.647	114.19
234.881	112.19
235.115	112.19
235.349	130.19
235.583	99.19
235.817	120.19
236.051	119.19
236.285	116.19
236.519	123.19
236.753	132.19
236.987	137.19
237.221	163.19
237.455	196.19
237.689	146.19
237.922	136.19
238.156	121.19
238.39	130.19
238.624	122.19
238.858	124.19
239.091	126.19
239.325	128.19
239.559	115.19
239.793	133.19
240.027	127.19
240.26	132.19
240.494	131.19
240.728	137.19
240.961	131.19
241.195	145.19
241.429	155.19
241.662	140.19
241.896	125.19
242.13	131.19
242.363	151.19
242.597	148.19
242.83	124.19
243.064	137.19
243.298	140.19
243.531	131.19
243.765	154.19
243.998	122.19
244.232	137.19
244.465	152.19
244.699	135.19
244.932	135.19
245.166	128.19
245.399	143.19
245.633	143.19
245.866	156.19
246.099	141.19
246.333	143.19
246.566	151.19
246.8	146.19
247.033	142.19
247.266	147.19
247.5	149.19
247.733	159.19
247.966	161.19
248.2	145.19
248.433	156.19
248.666	167.19
248.899	159.19
249.133	178.19
249.366	190.19
249.599	186.19
249.832	175.19
250.066	166.19
250.299	169.19
250.532	181.19
250.765	197.19
250.998	193.19
251.231	208.19
251.465	199.19
251.698	186.19
251.931	193.19
252.164	190.19
252.397	185.19
252.63	195.19
252.863	196.19
253.096	193.19
253.329	204.19
253.562	209.19
253.795	199.19
254.028	193.19
254.261	197.19
254.494	209.19
254.727	240.19
254.96	228.19
255.193	224.19
255.426	232.19
255.659	233.19
255.892	209.19
256.124	227.19
256.357	207.19
256.59	204.19
256.823	226.19
257.056	197.19
257.289	201.19
257.521	206.19
257.754	198.19
257.987	208.19
258.22	197.19
258.452	192.19
258.685	202.19
258.918	212.19
259.151	202.19
259.383	205.19
259.616	203.19
259.849	204.19
260.081	222.19
260.314	244.19
260.547	232.19
260.779	237.19
261.012	225.19
261.244	206.19
261.477	210.19
261.71	217.19
261.942	208.19
262.175	215.19
262.407	220.19
262.64	192.19
262.872	215.19
263.105	201.19
263.337	197.19
263.57	202.19
263.802	203.19
264.035	203.19
264.267	223.19
264.499	205.19
264.732	207.19
264.964	219.19
265.197	222.19
265.429	225.19
265.661	208.19
265.894	205.19
266.126	217.19
266.358	211.19
266.591	213.19
266.823	226.19
267.055	224.19
267.287	229.19
267.52	232.19
267.752	220.19
267.984	222.19
268.216	223.19
268.448	225.19
268.681	225.19
268.913	230.19
269.145	256.19
269.377	263.19
269.609	253.19
269.841	277.19
270.073	260.19
270.306	280.19
270.538	287.19
270.77	287.19
271.002	281.19
271.234	264.19
271.466	270.19
271.698	298.19
271.93	301.19
272.162	288.19
272.394	288.19
272.626	300.19
272.858	275.19
273.09	267.19
273.322	237.19
273.553	273.19
273.785	264.19
274.017	255.19
274.249	265.19
274.481	250.19
274.713	259.19
274.945	253.19
275.176	265.19
275.408	271.19
275.64	280.19
275.872	240.19
276.104	255.19
276.335	248.19
276.567	263.19
276.799	273.19
277.031	305.19
277.262	300.19
277.494	287.19
277.726	287.19
277.957	280.19
278.189	252.19
278.421	266.19
278.652	260.19
278.884	275.19
279.115	275.19
279.347	248.19
279.579	260.19
279.81	275.19
280.042	266.19
280.273	269.19
280.505	280.19
280.736	282.19
280.968	267.19
281.199	281.19
281.431	272.19
281.662	258.19
281.894	265.19
282.125	271.19
282.356	287.19
282.588	272.19
282.819	298.19
283.051	279.19
283.282	269.19
283.513	268.19
283.745	284.19
283.976	272.19
284.207	297.19
284.439	289.19
284.67	262.19
284.901	283.19
285.132	275.19
285.364	298.19
285.595	284.19
285.826	278.19
286.057	276.19
286.288	277.19
286.52	290.19
286.751	291.19
286.982	297.19
287.213	290.19
287.444	289.19
287.675	302.19
287.906	303.19
288.138	295.19
288.369	299.19
288.6	292.19
288.831	311.19
289.062	309.19
289.293	303.19
289.524	287.19
289.755	296.19
289.986	286.19
290.217	292.19
290.448	306.19
290.679	283.19
290.91	302.19
291.141	283.19
291.371	292.19
291.602	300.19
291.833	285.19
292.064	287.19
292.295	283.19
292.526	295.19
292.757	292.19
292.987	297.19
293.218	303.19
293.449	303.19
293.68	297.19
293.91	322.19
294.141	300.19
294.372	296.19
294.603	300.19
294.833	297.19
295.064	300.19
295.295	290.19
295.525	311.19
295.756	306.19
295.987	317.19
296.217	326.19
296.448	315.19
296.679	306.19
296.909	302.19
297.14	324.19
297.37	324.19
297.601	313.19
297.831	293.19
298.062	307.19
298.292	327.19
298.523	318.19
298.753	318.19
298.984	313.19
299.214	316.19
299.445	307.19
299.675	309.19
299.905	303.19
300.136	309.19
300.366	326.19
300.597	318.19
300.827	323.19
301.057	330.19
301.288	330.19
301.518	333.19
301.748	346.19
301.979	345.19
302.209	333.19
302.439	325.19
302.669	339.19
302.9	323.19
303.13	337.19
303.36	339.19
303.59	335.19
303.82	340.19
304.051	344.19
304.281	311.19
304.511	336.19
304.741	343.19
304.971	325.19
305.201	330.19
305.431	334.19
305.661	333.19
305.891	325.19
306.121	330.19
306.352	344.19
306.582	348.19
306.812	336.19
307.042	343.19
307.272	351.19
307.502	339.19
307.731	352.19
307.961	324.19
308.191	342.19
308.421	328.19
308.651	338.19
308.881	325.19
309.111	343.19
309.341	336.19
309.571	346.19
309.8	341.19
310.03	368.19
310.26	379.19
310.49	367.19
310.72	358.19
310.949	365.19
311.179	380.19
311.409	381.19
311.639	368.19
311.868	350.19
312.098	369.19
312.328	390.19
312.557	387.19
312.787	392.19
313.017	386.19
313.246	367.19
313.476	349.19
313.706	367.19
313.935	381.19
314.165	389.19
314.394	385.19
314.624	367.19
314.853	360.19
315.083	355.19
315.312	348.19
315.542	355.19
315.771	370.19
316.001	371.19
316.23	369.19
316.46	373.19
316.689	380.19
316.919	390.19
317.148	394.19
317.377	391.19
317.607	384.19
317.836	351.19
318.065	370.19
318.295	348.19
318.524	389.19
318.753	380.19
318.983	366.19
319.212	370.19
319.441	368.19
319.67	392.19
319.9	369.19
320.129	371.19
320.358	386.19
320.587	388.19
320.816	386.19
321.046	393.19
321.275	389.19
321.504	397.19
321.733	397.19
321.962	401.19
322.191	423.19
322.42	401.19
322.649	428.19
322.878	419.19
323.108	409.19
323.337	432.19
323.566	451.19
323.795	464.19
324.024	497.19
324.253	574.19
324.482	804.19
324.71	1151.19
324.939	1514.19
325.168	1315.19
325.397	732.19
325.626	548.19
325.855	508.19
326.084	448.19
326.313	466.19
326.542	454.19
326.77	476.19
326.999	575.19
327.228	771.19
327.457	1025.19
327.686	1145.19
327.914	823.19
328.143	602.19
328.372	546.19
328.6	505.19
328.829	504.19
329.058	458.19
329.287	509.19
329.515	471.19
329.744	476.19
329.972	480.19
330.201	473.19
330.43	507.19
330.658	516.19
330.887	508.19
331.115	500.19
331.344	484.19
331.572	463.19
331.801	443.19
332.03	452.19
332.258	437.19
332.486	425.19
332.715	446.19
332.943	444.19
333.172	441.19
333.4	432.19
333.629	471.19
333.857	458.19
334.085	499.19
334.314	489.19
334.542	480.19
334.771	488.19
334.999	467.19
335.227	459.19
335.455	448.19
335.684	437.19
335.912	436.19
336.14	436.19
336.369	445.19
336.597	439.19
336.825	443.19
337.053	437.19
337.281	423.19
337.51	418.19
337.738	418.19
337.966	430.19
338.194	415.19
338.422	431.19
338.65	423.19
338.878	434.19
339.106	425.19
339.334	416.19
339.562	414.19
339.79	423.19
340.018	410.19
340.246	413.19
340.474	442.19
340.702	433.19
340.93	421.19
341.158	415.19
341.386	416.19
341.614	428.19
341.842	415.19
342.07	425.19
342.298	412.19
342.526	389.19
342.754	429.19
342.981	392.19
343.209	393.19
343.437	427.19
343.665	421.19
343.893	412.19
344.12	447.19
344.348	403.19
344.576	414.19
344.804	416.19
345.031	413.19
345.259	423.19
345.487	417.19
345.714	399.19
345.942	407.19
346.17	406.19
346.397	390.19
346.625	405.19
346.853	401.19
347.08	393.19
347.308	399.19
347.535	390.19
347.763	385.19
347.99	396.19
348.218	392.19
348.445	397.19
348.673	402.19
348.9	393.19
349.128	399.19
349.355	396.19
349.583	387.19
349.81	384.19
350.037	390.19
350.265	383.19
350.492	387.19
350.72	370.19
350.947	396.19
351.174	390.19
351.402	403.19
351.629	389.19
351.856	404.19
352.083	402.19
352.311	402.19
352.538	419.19
352.765	415.19
352.992	394.19
353.22	393.19
353.447	408.19
353.674	385.19
353.901	390.19
354.128	374.19
354.355	348.19
354.583	366.19
354.81	372.19
355.037	361.19
355.264	354.19
355.491	352.19
355.718	377.19
355.945	356.19
356.172	369.19
356.399	369.19
356.626	378.19
356.853	363.19
357.08	359.19
357.307	371.19
357.534	380.19
357.761	361.19
357.988	365.19
358.215	349.19
358.441	395.19
358.668	376.19
358.895	396.19
359.122	348.19
359.349	381.19
359.576	385.19
359.802	395.19
360.029	410.19
360.256	409.19
360.483	404.19
360.709	368.19
360.936	379.19
361.163	386.19
361.39	380.19
361.616	373.19
361.843	397.19
362.07	378.19
362.296	382.19
362.523	383.19
362.749	379.19
362.976	381.19
363.203	375.19
363.429	377.19
363.656	377.19
363.882	378.19
364.109	375.19
364.335	359.19
364.562	369.19
364.788	368.19
365.015	359.19
365.241	369.19
365.468	377.19
365.694	376.19
365.92	375.19
366.147	382.19
366.373	373.19
366.599	359.19
366.826	379.19
367.052	368.19
367.278	363.19
367.505	368.19
367.731	366.19
367.957	359.19
368.184	391.19
368.41	395.19
368.636	382.19
368.862	387.19
369.089	374.19
369.315	361.19
369.541	356.19
369.767	360.19
369.993	367.19
370.219	375.19
370.445	353.19
370.672	358.19
370.898	373.19
371.124	363.19
371.35	372.19
371.576	365.19
371.802	364.19
372.028	366.19
372.254	367.19
372.48	360.19
372.706	371.19
372.932	371.19
373.158	364.19
373.384	392.19
373.61	384.19
373.835	382.19
374.061	371.19
374.287	357.19
374.513	379.19
374.739	387.19
374.965	374.19
375.191	355.19
375.416	391.19
375.642	375.19
375.868	373.19
376.094	378.19
376.319	380.19
376.545	339.19
376.771	347.19
376.997	360.19
377.222	339.19
377.448	356.19
377.674	363.19
377.899	356.19
378.125	371.19
378.35	379.19
378.576	356.19
378.802	363.19
379.027	361.19
379.253	365.19
379.478	363.19
379.704	355.19
379.929	351.19
380.155	363.19
380.38	354.19
380.606	376.19
380.831	345.19
381.057	351.19
381.282	363.19
381.507	361.19
381.733	365.19
381.958	351.19
382.184	359.19
382.409	359.19
382.634	373.19
382.86	359.19
383.085	359.19
383.31	381.19
383.535	389.19
383.761	396.19
383.986	381.19
384.211	375.19
384.436	389.19
384.662	375.19
384.887	410.19
385.112	372.19
385.337	381.19
385.562	383.19
385.787	383.19
386.013	408.19
386.238	402.19
386.463	393.19
386.688	391.19
386.913	374.19
387.138	372.19
387.363	381.19
387.588	396.19
387.813	389.19
388.038	369.19
388.263	407.19
388.488	394.19
388.713	393.19
388.938	388.19
389.163	385.19
389.387	407.19
389.612	383.19
389.837	379.19
390.062	391.19
390.287	394.19
390.512	391.19
390.736	369.19
390.961	404.19
391.186	393.19
391.411	400.19
391.636	409.19
391.86	399.19
392.085	394.19
392.31	381.19
392.534	407.19
392.759	389.19
392.984	383.19
393.208	395.19
393.433	398.19
393.658	400.19
393.882	405.19
394.107	366.19
394.331	393.19
394.556	397.19
394.78	387.19
395.005	394.19
395.229	387.19
395.454	379.19
395.678	403.19
395.903	409.19
396.127	433.19
396.352	413.19
396.576	425.19
396.801	413.19
397.025	389.19
397.249	424.19
397.474	419.19
397.698	409.19
397.922	397.19
398.147	440.19
398.371	447.19
398.595	423.19
398.82	447.19
399.044	457.19
399.268	434.19
399.492	459.19
399.717	499.19
399.941	538.19
400.165	531.19
400.389	505.19
400.613	503.19
400.837	458.19
401.062	424.19
401.286	420.19
401.51	451.19
401.734	419.19
401.958	440.19
402.182	452.19
402.406	437.19
402.63	430.19
402.854	424.19
403.078	466.19
403.302	440.19
403.526	426.19
403.75	451.19
403.974	432.19
404.198	444.19
404.422	435.19
404.645	461.19
404.869	468.19
405.093	493.19
405.317	511.19
405.541	543.19
405.765	506.19
405.988	471.19
406.212	477.19
406.436	484.19
406.66	499.19
406.883	480.19
407.107	499.19
407.331	528.19
407.555	575.19
407.778	558.19
408.002	506.19
408.226	480.19
408.449	479.19
408.673	474.19
408.896	496.19
409.12	494.19
409.344	516.19
409.567	480.19
409.791	441.19
410.014	440.19
410.238	448.19
410.461	434.19
410.685	454.19
410.908	449.19
411.132	482.19
411.355	516.19
411.578	492.19
411.802	463.19
412.025	433.19
412.249	446.19
412.472	479.19
412.695	498.19
412.919	481.19
413.142	458.19
413.365	437.19
413.589	440.19
413.812	425.19
414.035	434.19
414.258	436.19
414.482	439.19
414.705	427.19
414.928	418.19
415.151	403.19
415.374	405.19
415.597	401.19
415.821	416.19
416.044	419.19
416.267	415.19
416.49	425.19
416.713	405.19
416.936	421.19
417.159	407.19
417.382	416.19
417.605	433.19
417.828	433.19
418.051	419.19
418.274	431.19
418.497	412.19
418.72	409.19
418.943	418.19
419.166	432.19
419.389	427.19
419.611	444.19
419.834	452.19
420.057	454.19
420.28	459.19
420.503	421.19
420.726	437.19
420.948	438.19
421.171	461.19
421.394	479.19
421.617	466.19
421.839	435.19
422.062	435.19
422.285	437.19
422.507	477.19
422.73	532.19
422.953	509.19
423.175	429.19
423.398	431.19
423.621	457.19
423.843	465.19
424.066	471.19
424.288	451.19
424.511	461.19
424.733	515.19
424.956	559.19
425.178	548.19
425.401	531.19
425.623	559.19
425.846	461.19
426.068	448.19
426.291	441.19
426.513	446.19
426.735	468.19
426.958	482.19
427.18	529.19
427.402	637.19
427.625	693.19
427.847	577.19
428.069	515.19
428.292	481.19
428.514	437.19
428.736	443.19
428.958	426.19
429.181	438.19
429.403	411.19
429.625	412.19
429.847	447.19
430.069	511.19
430.292	500.19
430.514	416.19
430.736	403.19
430.958	427.19
431.18	410.19
431.402	403.19
431.624	393.19
431.846	380.19
432.068	379.19
432.29	401.19
432.512	401.19
432.734	413.19
432.956	391.19
433.178	394.19
433.4	432.19
433.622	375.19
433.844	397.19
434.066	399.19
434.287	404.19
434.509	425.19
434.731	412.19
434.953	403.19
435.175	429.19
435.397	428.19
435.618	441.19
435.84	481.19
436.062	525.19
436.284	569.19
436.505	477.19
436.727	425.19
436.949	433.19
437.17	420.19
437.392	418.19
437.614	433.19
437.835	451.19
438.057	513.19
438.278	559.19
438.5	577.19
438.721	642.19
438.943	591.19
439.165	498.19
439.386	463.19
439.608	449.19
439.829	431.19
440.05	451.19
440.272	463.19
440.493	436.19
440.715	439.19
440.936	431.19
441.158	420.19
441.379	423.19
441.6	423.19
441.822	449.19
442.043	466.19
442.264	531.19
442.486	507.19
442.707	473.19
442.928	450.19
443.149	459.19
443.371	488.19
443.592	503.19
443.813	556.19
444.034	595.19
444.255	505.19
444.476	458.19
444.698	443.19
444.919	435.19
445.14	522.19
445.361	488.19
445.582	491.19
445.803	499.19
446.024	565.19
446.245	560.19
446.466	553.19
446.687	470.19
446.908	441.19
447.129	424.19
447.35	420.19
447.571	393.19
447.792	415.19
448.013	423.19
448.234	439.19
448.455	466.19
448.675	552.19
448.896	619.19
449.117	524.19
449.338	516.19
449.559	572.19
449.779	616.19
450	501.19
450.221	460.19
450.442	435.19
450.662	409.19
450.883	407.19
451.104	407.19
451.324	416.19
451.545	387.19
451.766	382.19
451.986	372.19
452.207	361.19
452.428	382.19
452.648	369.19
452.869	368.19
453.089	363.19
453.31	387.19
453.53	375.19
453.751	377.19
453.971	385.19
454.192	387.19
454.412	371.19
454.633	362.19
454.853	368.19
455.073	369.19
455.294	398.19
455.514	447.19
455.734	417.19
455.955	371.19
456.175	364.19
456.395	357.19
456.616	361.19
456.836	351.19
457.056	347.19
457.276	355.19
457.497	364.19
457.717	373.19
457.937	361.19
458.157	362.19
458.377	367.19
458.598	378.19
458.818	416.19
459.038	456.19
459.258	479.19
459.478	428.19
459.698	394.19
459.918	406.19
460.138	394.19
460.358	386.19
460.578	394.19
460.798	393.19
461.018	402.19
461.238	407.19
461.458	419.19
461.678	400.19
461.898	427.19
462.118	399.19
462.338	401.19
462.558	403.19
462.777	407.19
462.997	423.19
463.217	441.19
463.437	425.19
463.657	412.19
463.876	445.19
464.096	433.19
464.316	429.19
464.536	403.19
464.755	444.19
464.975	422.19
465.195	452.19
465.414	478.19
465.634	420.19
465.854	399.19
466.073	405.19
466.293	396.19
466.512	381.19
466.732	379.19
466.951	376.19
467.171	388.19
467.391	383.19
467.61	389.19
467.829	374.19
468.049	383.19
468.268	382.19
468.488	383.19
468.707	368.19
468.927	382.19
469.146	364.19
469.365	374.19
469.585	368.19
469.804	379.19
470.023	389.19
470.243	401.19
470.462	376.19
470.681	407.19
470.901	379.19
471.12	395.19
471.339	409.19
471.558	372.19
471.777	401.19
471.997	380.19
472.216	406.19
472.435	407.19
472.654	399.19
472.873	384.19
473.092	377.19
473.311	390.19
473.53	389.19
473.749	401.19
473.968	435.19
474.187	472.19
474.406	481.19
474.625	425.19
474.844	410.19
475.063	391.19
475.282	367.19
475.501	385.19
475.72	375.19
475.939	372.19
476.158	391.19
476.377	410.19
476.596	430.19
476.814	400.19
477.033	414.19
477.252	412.19
477.471	408.19
477.69	399.19
477.908	425.19
478.127	418.19
478.346	420.19
478.564	433.19
478.783	429.19
479.002	429.19
479.22	453.19
479.439	447.19
479.658	442.19
479.876	442.19
480.095	459.19
480.313	498.19
480.532	465.19
480.751	453.19
480.969	470.19
481.188	533.19
481.406	518.19
481.624	513.19
481.843	439.19
482.061	458.19
482.28	441.19
482.498	453.19
482.717	443.19
482.935	462.19
483.153	460.19
483.372	443.19
483.59	445.19
483.808	444.19
484.027	449.19
484.245	437.19
484.463	446.19
484.681	462.19
484.9	466.19
485.118	452.19
485.336	468.19
485.554	457.19
485.772	456.19
485.99	449.19
486.209	452.19
486.427	471.19
486.645	472.19
486.863	474.19
487.081	472.19
487.299	480.19
487.517	461.19
487.735	474.19
487.953	474.19
488.171	450.19
488.389	447.19
488.607	462.19
488.825	466.19
489.043	474.19
489.261	474.19
489.479	486.19
489.696	457.19
489.914	473.19
490.132	512.19
490.35	487.19
490.568	477.19
490.786	469.19
491.003	502.19
491.221	504.19
491.439	525.19
491.657	523.19
491.874	484.19
492.092	494.19
492.31	496.19
492.527	502.19
492.745	532.19
492.963	538.19
493.18	530.19
493.398	532.19
493.615	536.19
493.833	555.19
494.05	537.19
494.268	551.19
494.485	531.19
494.703	529.19
494.92	557.19
495.138	557.19
495.355	545.19
495.573	535.19
495.79	543.19
496.008	546.19
496.225	562.19
496.442	554.19
496.66	551.19
496.877	555.19
497.094	563.19
497.312	562.19
497.529	556.19
497.746	586.19
497.963	585.19
498.181	583.19
498.398	612.19
498.615	615.19
498.832	625.19
499.049	640.19
499.267	649.19
499.484	640.19
499.701	696.19
499.918	714.19
500.135	730.19
500.352	748.19
500.569	774.19
500.786	781.19
501.003	762.19
501.22	770.19
501.437	727.19
501.654	705.19
501.871	693.19
