Data from 1960PennyLincolnUp.LampE6.200Scan.07172019.P1_HRD10591_13-06-33-002.txt Node
Date: Thu Jul 18 13:06:33 EDT 2019
User: cochatt
Spectrometer: HR+D1059
Trigger mode: 1
Integration Time (sec): 1.000000E-1
Scans to average: 1
Electric dark correction enabled: true
Nonlinearity correction enabled: false
Boxcar width: 0
XAxis mode: Wavelengths
Number of Pixels in Spectrum: 2048
>>>>>Begin Spectral Data<<<<<
223.165	-4.44
223.4	-4.44
223.635	-4.44
223.869	-18.44
224.104	-19.44
224.338	-16.44
224.573	-8.44
224.808	-7.44
225.042	-1.44
225.277	8.56
225.511	-4.44
225.746	-5.44
225.98	3.56
226.215	8.56
226.449	9.56
226.683	5.56
226.918	22.56
227.152	27.56
227.387	13.56
227.621	43.56
227.856	35.56
228.09	53.56
228.324	52.56
228.559	47.56
228.793	58.56
229.027	93.56
229.262	107.56
229.496	103.56
229.73	109.56
229.964	125.56
230.199	106.56
230.433	113.56
230.667	100.56
230.901	118.56
231.136	98.56
231.37	105.56
231.604	102.56
231.838	106.56
232.072	113.56
232.306	121.56
232.541	121.56
232.775	115.56
233.009	118.56
233.243	103.56
233.477	115.56
233.711	107.56
233.945	125.56
234.179	118.56
234.413	117.56
234.647	111.56
234.881	119.56
235.115	120.56
235.349	126.56
235.583	102.56
235.817	104.56
236.051	105.56
236.285	105.56
236.519	103.56
236.753	136.56
236.987	123.56
237.221	151.56
237.455	177.56
237.689	149.56
237.922	127.56
238.156	132.56
238.39	129.56
238.624	124.56
238.858	115.56
239.091	106.56
239.325	104.56
239.559	113.56
239.793	127.56
240.027	120.56
240.26	129.56
240.494	137.56
240.728	134.56
240.961	137.56
241.195	125.56
241.429	135.56
241.662	135.56
241.896	142.56
242.13	128.56
242.363	127.56
242.597	117.56
242.83	130.56
243.064	136.56
243.298	132.56
243.531	124.56
243.765	129.56
243.998	141.56
244.232	139.56
244.465	150.56
244.699	146.56
244.932	139.56
245.166	125.56
245.399	149.56
245.633	146.56
245.866	134.56
246.099	140.56
246.333	137.56
246.566	142.56
246.8	132.56
247.033	158.56
247.266	136.56
247.5	139.56
247.733	163.56
247.966	161.56
248.2	172.56
248.433	148.56
248.666	175.56
248.899	160.56
249.133	171.56
249.366	178.56
249.599	182.56
249.832	180.56
250.066	169.56
250.299	174.56
250.532	169.56
250.765	178.56
250.998	200.56
251.231	203.56
251.465	197.56
251.698	177.56
251.931	175.56
252.164	171.56
252.397	195.56
252.63	195.56
252.863	197.56
253.096	195.56
253.329	206.56
253.562	195.56
253.795	194.56
254.028	209.56
254.261	214.56
254.494	197.56
254.727	214.56
254.96	216.56
255.193	233.56
255.426	205.56
255.659	192.56
255.892	197.56
256.124	193.56
256.357	214.56
256.59	219.56
256.823	209.56
257.056	205.56
257.289	187.56
257.521	206.56
257.754	200.56
257.987	187.56
258.22	201.56
258.452	200.56
258.685	199.56
258.918	200.56
259.151	187.56
259.383	199.56
259.616	209.56
259.849	210.56
260.081	212.56
260.314	223.56
260.547	219.56
260.779	198.56
261.012	214.56
261.244	212.56
261.477	210.56
261.71	186.56
261.942	206.56
262.175	195.56
262.407	213.56
262.64	197.56
262.872	204.56
263.105	204.56
263.337	208.56
263.57	226.56
263.802	202.56
264.035	205.56
264.267	203.56
264.499	226.56
264.732	193.56
264.964	189.56
265.197	209.56
265.429	217.56
265.661	217.56
265.894	202.56
266.126	195.56
266.358	210.56
266.591	223.56
266.823	225.56
267.055	219.56
267.287	213.56
267.52	215.56
267.752	214.56
267.984	227.56
268.216	224.56
268.448	242.56
268.681	239.56
268.913	241.56
269.145	243.56
269.377	252.56
269.609	237.56
269.841	259.56
270.073	249.56
270.306	251.56
270.538	272.56
270.77	274.56
271.002	267.56
271.234	278.56
271.466	262.56
271.698	258.56
271.93	281.56
272.162	262.56
272.394	269.56
272.626	281.56
272.858	269.56
273.09	255.56
273.322	234.56
273.553	243.56
273.785	246.56
274.017	246.56
274.249	255.56
274.481	245.56
274.713	257.56
274.945	248.56
275.176	267.56
275.408	267.56
275.64	257.56
275.872	251.56
276.104	263.56
276.335	242.56
276.567	245.56
276.799	277.56
277.031	290.56
277.262	291.56
277.494	294.56
277.726	267.56
277.957	272.56
278.189	261.56
278.421	265.56
278.652	267.56
278.884	250.56
279.115	258.56
279.347	266.56
279.579	291.56
279.81	279.56
280.042	282.56
280.273	262.56
280.505	273.56
280.736	255.56
280.968	269.56
281.199	277.56
281.431	262.56
281.662	269.56
281.894	291.56
282.125	274.56
282.356	281.56
282.588	287.56
282.819	287.56
283.051	278.56
283.282	264.56
283.513	305.56
283.745	289.56
283.976	293.56
284.207	289.56
284.439	264.56
284.67	302.56
284.901	291.56
285.132	297.56
285.364	296.56
285.595	300.56
285.826	273.56
286.057	292.56
286.288	294.56
286.52	295.56
286.751	282.56
286.982	301.56
287.213	293.56
287.444	315.56
287.675	304.56
287.906	305.56
288.138	303.56
288.369	329.56
288.6	315.56
288.831	313.56
289.062	309.56
289.293	316.56
289.524	297.56
289.755	301.56
289.986	301.56
290.217	299.56
290.448	319.56
290.679	320.56
290.91	306.56
291.141	306.56
291.371	307.56
291.602	308.56
291.833	291.56
292.064	307.56
292.295	288.56
292.526	296.56
292.757	289.56
292.987	312.56
293.218	307.56
293.449	291.56
293.68	293.56
293.91	291.56
294.141	292.56
294.372	304.56
294.603	294.56
294.833	319.56
295.064	302.56
295.295	307.56
295.525	307.56
295.756	309.56
295.987	330.56
296.217	323.56
296.448	330.56
296.679	321.56
296.909	321.56
297.14	311.56
297.37	334.56
297.601	317.56
297.831	309.56
298.062	323.56
298.292	303.56
298.523	323.56
298.753	311.56
298.984	326.56
299.214	318.56
299.445	349.56
299.675	323.56
299.905	332.56
300.136	336.56
300.366	296.56
300.597	338.56
300.827	351.56
301.057	357.56
301.288	360.56
301.518	349.56
301.748	341.56
301.979	355.56
302.209	359.56
302.439	371.56
302.669	354.56
302.9	378.56
303.13	334.56
303.36	325.56
303.59	339.56
303.82	342.56
304.051	351.56
304.281	359.56
304.511	357.56
304.741	342.56
304.971	348.56
305.201	332.56
305.431	343.56
305.661	364.56
305.891	337.56
306.121	355.56
306.352	351.56
306.582	362.56
306.812	349.56
307.042	338.56
307.272	362.56
307.502	359.56
307.731	360.56
307.961	342.56
308.191	354.56
308.421	348.56
308.651	358.56
308.881	336.56
309.111	360.56
309.341	346.56
309.571	365.56
309.8	367.56
310.03	368.56
310.26	358.56
310.49	361.56
310.72	375.56
310.949	386.56
311.179	366.56
311.409	357.56
311.639	361.56
311.868	355.56
312.098	361.56
312.328	362.56
312.557	352.56
312.787	407.56
313.017	375.56
313.246	375.56
313.476	385.56
313.706	386.56
313.935	371.56
314.165	374.56
314.394	387.56
314.624	385.56
314.853	390.56
315.083	395.56
315.312	373.56
315.542	376.56
315.771	380.56
316.001	385.56
316.23	385.56
316.46	362.56
316.689	371.56
316.919	375.56
317.148	380.56
317.377	385.56
317.607	370.56
317.836	369.56
318.065	381.56
318.295	356.56
318.524	369.56
318.753	365.56
318.983	383.56
319.212	374.56
319.441	388.56
319.67	373.56
319.9	395.56
320.129	378.56
320.358	376.56
320.587	392.56
320.816	397.56
321.046	395.56
321.275	407.56
321.504	371.56
321.733	395.56
321.962	392.56
322.191	410.56
322.42	413.56
322.649	401.56
322.878	425.56
323.108	425.56
323.337	439.56
323.566	442.56
323.795	428.56
324.024	475.56
324.253	553.56
324.482	692.56
324.71	1016.56
324.939	1325.56
325.168	1114.56
325.397	625.56
325.626	505.56
325.855	461.56
326.084	431.56
326.313	450.56
326.542	463.56
326.77	471.56
326.999	527.56
327.228	662.56
327.457	927.56
327.686	1059.56
327.914	725.56
328.143	549.56
328.372	525.56
328.6	487.56
328.829	491.56
329.058	484.56
329.287	520.56
329.515	481.56
329.744	452.56
329.972	469.56
330.201	474.56
330.43	498.56
330.658	531.56
330.887	512.56
331.115	504.56
331.344	504.56
331.572	471.56
331.801	457.56
332.03	471.56
332.258	466.56
332.486	505.56
332.715	487.56
332.943	498.56
333.172	511.56
333.4	506.56
333.629	527.56
333.857	530.56
334.085	513.56
334.314	545.56
334.542	540.56
334.771	561.56
334.999	519.56
335.227	506.56
335.455	501.56
335.684	474.56
335.912	459.56
336.14	475.56
336.369	487.56
336.597	479.56
336.825	496.56
337.053	464.56
337.281	461.56
337.51	475.56
337.738	454.56
337.966	461.56
338.194	471.56
338.422	448.56
338.65	447.56
338.878	448.56
339.106	425.56
339.334	457.56
339.562	446.56
339.79	433.56
340.018	432.56
340.246	427.56
340.474	429.56
340.702	431.56
340.93	439.56
341.158	452.56
341.386	435.56
341.614	449.56
341.842	432.56
342.07	425.56
342.298	433.56
342.526	427.56
342.754	447.56
342.981	439.56
343.209	442.56
343.437	453.56
343.665	454.56
343.893	494.56
344.12	489.56
344.348	487.56
344.576	472.56
344.804	457.56
345.031	453.56
345.259	455.56
345.487	442.56
345.714	427.56
345.942	416.56
346.17	427.56
346.397	419.56
346.625	419.56
346.853	410.56
347.08	442.56
347.308	427.56
347.535	421.56
347.763	410.56
347.99	435.56
348.218	431.56
348.445	411.56
348.673	400.56
348.9	420.56
349.128	425.56
349.355	400.56
349.583	423.56
349.81	413.56
350.037	403.56
350.265	397.56
350.492	413.56
350.72	431.56
350.947	412.56
351.174	405.56
351.402	428.56
351.629	413.56
351.856	404.56
352.083	438.56
352.311	397.56
352.538	405.56
352.765	424.56
352.992	445.56
353.22	426.56
353.447	426.56
353.674	409.56
353.901	419.56
354.128	403.56
354.355	407.56
354.583	398.56
354.81	411.56
355.037	398.56
355.264	383.56
355.491	383.56
355.718	406.56
355.945	401.56
356.172	407.56
356.399	393.56
356.626	402.56
356.853	387.56
357.08	407.56
357.307	390.56
357.534	413.56
357.761	405.56
357.988	411.56
358.215	394.56
358.441	405.56
358.668	398.56
358.895	401.56
359.122	403.56
359.349	400.56
359.576	399.56
359.802	429.56
360.029	428.56
360.256	435.56
360.483	446.56
360.709	415.56
360.936	421.56
361.163	411.56
361.39	406.56
361.616	414.56
361.843	414.56
362.07	415.56
362.296	420.56
362.523	400.56
362.749	440.56
362.976	407.56
363.203	422.56
363.429	421.56
363.656	408.56
363.882	408.56
364.109	411.56
364.335	404.56
364.562	390.56
364.788	411.56
365.015	393.56
365.241	410.56
365.468	422.56
365.694	403.56
365.92	417.56
366.147	380.56
366.373	410.56
366.599	402.56
366.826	409.56
367.052	427.56
367.278	422.56
367.505	420.56
367.731	414.56
367.957	407.56
368.184	433.56
368.41	394.56
368.636	405.56
368.862	408.56
369.089	416.56
369.315	417.56
369.541	427.56
369.767	417.56
369.993	402.56
370.219	411.56
370.445	443.56
370.672	429.56
370.898	433.56
371.124	422.56
371.35	433.56
371.576	417.56
371.802	431.56
372.028	421.56
372.254	427.56
372.48	416.56
372.706	429.56
372.932	422.56
373.158	434.56
373.384	442.56
373.61	418.56
373.835	440.56
374.061	420.56
374.287	425.56
374.513	441.56
374.739	464.56
374.965	447.56
375.191	453.56
375.416	439.56
375.642	454.56
375.868	446.56
376.094	422.56
376.319	424.56
376.545	402.56
376.771	420.56
376.997	453.56
377.222	421.56
377.448	437.56
377.674	433.56
377.899	430.56
378.125	411.56
378.35	413.56
378.576	433.56
378.802	420.56
379.027	441.56
379.253	430.56
379.478	439.56
379.704	429.56
379.929	439.56
380.155	437.56
380.38	398.56
380.606	435.56
380.831	437.56
381.057	436.56
381.282	447.56
381.507	419.56
381.733	423.56
381.958	442.56
382.184	426.56
382.409	443.56
382.634	435.56
382.86	446.56
383.085	459.56
383.31	457.56
383.535	458.56
383.761	447.56
383.986	465.56
384.211	480.56
384.436	456.56
384.662	485.56
384.887	458.56
385.112	497.56
385.337	477.56
385.562	469.56
385.787	491.56
386.013	497.56
386.238	512.56
386.463	488.56
386.688	494.56
386.913	483.56
387.138	491.56
387.363	470.56
387.588	484.56
387.813	461.56
388.038	482.56
388.263	491.56
388.488	473.56
388.713	486.56
388.938	489.56
389.163	490.56
389.387	459.56
389.612	486.56
389.837	493.56
390.062	458.56
390.287	461.56
390.512	452.56
390.736	477.56
390.961	506.56
391.186	486.56
391.411	523.56
391.636	517.56
391.86	510.56
392.085	548.56
392.31	517.56
392.534	529.56
392.759	531.56
392.984	495.56
393.208	510.56
393.433	498.56
393.658	485.56
393.882	503.56
394.107	506.56
394.331	505.56
394.556	505.56
394.78	479.56
395.005	499.56
395.229	503.56
395.454	525.56
395.678	534.56
395.903	527.56
396.127	529.56
396.352	517.56
396.576	503.56
396.801	491.56
397.025	526.56
397.249	508.56
397.474	537.56
397.698	519.56
397.922	525.56
398.147	543.56
398.371	550.56
398.595	571.56
398.82	564.56
399.044	612.56
399.268	633.56
399.492	707.56
399.717	775.56
399.941	791.56
400.165	762.56
400.389	689.56
400.613	656.56
400.837	614.56
401.062	583.56
401.286	592.56
401.51	559.56
401.734	589.56
401.958	578.56
402.182	590.56
402.406	585.56
402.63	589.56
402.854	607.56
403.078	611.56
403.302	602.56
403.526	635.56
403.75	641.56
403.974	628.56
404.198	627.56
404.422	641.56
404.645	617.56
404.869	644.56
405.093	633.56
405.317	645.56
405.541	687.56
405.765	652.56
405.988	625.56
406.212	657.56
406.436	629.56
406.66	669.56
406.883	657.56
407.107	679.56
407.331	701.56
407.555	766.56
407.778	759.56
408.002	728.56
408.226	681.56
408.449	662.56
408.673	647.56
408.896	666.56
409.12	676.56
409.344	663.56
409.567	643.56
409.791	639.56
410.014	620.56
410.238	614.56
410.461	606.56
410.685	599.56
410.908	600.56
411.132	623.56
411.355	651.56
411.578	631.56
411.802	611.56
412.025	570.56
412.249	629.56
412.472	602.56
412.695	651.56
412.919	637.56
413.142	626.56
413.365	592.56
413.589	574.56
413.812	581.56
414.035	568.56
414.258	563.56
414.482	552.56
414.705	577.56
414.928	573.56
415.151	583.56
415.374	558.56
415.597	573.56
415.821	548.56
416.044	567.56
416.267	580.56
416.49	553.56
416.713	536.56
416.936	563.56
417.159	569.56
417.382	576.56
417.605	566.56
417.828	565.56
418.051	579.56
418.274	601.56
418.497	597.56
418.72	546.56
418.943	578.56
419.166	602.56
419.389	646.56
419.611	603.56
419.834	584.56
420.057	592.56
420.28	574.56
420.503	561.56
420.726	580.56
420.948	607.56
421.171	594.56
421.394	631.56
421.617	599.56
421.839	579.56
422.062	558.56
422.285	559.56
422.507	616.56
422.73	666.56
422.953	671.56
423.175	615.56
423.398	602.56
423.621	611.56
423.843	597.56
424.066	609.56
424.288	636.56
424.511	617.56
424.733	631.56
424.956	688.56
425.178	664.56
425.401	664.56
425.623	663.56
425.846	599.56
426.068	588.56
426.291	584.56
426.513	571.56
426.735	592.56
426.958	615.56
427.18	658.56
427.402	729.56
427.625	785.56
427.847	687.56
428.069	638.56
428.292	584.56
428.514	568.56
428.736	529.56
428.958	539.56
429.181	531.56
429.403	537.56
429.625	515.56
429.847	554.56
430.069	588.56
430.292	578.56
430.514	526.56
430.736	536.56
430.958	505.56
431.18	507.56
431.402	518.56
431.624	521.56
431.846	525.56
432.068	518.56
432.29	518.56
432.512	535.56
432.734	513.56
432.956	511.56
433.178	515.56
433.4	519.56
433.622	537.56
433.844	521.56
434.066	543.56
434.287	528.56
434.509	534.56
434.731	561.56
434.953	578.56
435.175	593.56
435.397	582.56
435.618	577.56
435.84	598.56
436.062	631.56
436.284	654.56
436.505	602.56
436.727	534.56
436.949	549.56
437.17	538.56
437.392	529.56
437.614	537.56
437.835	537.56
438.057	596.56
438.278	642.56
438.5	643.56
438.721	687.56
438.943	669.56
439.165	577.56
439.386	560.56
439.608	562.56
439.829	545.56
440.05	601.56
440.272	603.56
440.493	582.56
440.715	536.56
440.936	541.56
441.158	531.56
441.379	559.56
441.6	559.56
441.822	600.56
442.043	607.56
442.264	649.56
442.486	674.56
442.707	624.56
442.928	585.56
443.149	586.56
443.371	583.56
443.592	625.56
443.813	696.56
444.034	705.56
444.255	647.56
444.476	600.56
444.698	626.56
444.919	645.56
445.14	731.56
445.361	659.56
445.582	639.56
445.803	633.56
446.024	686.56
446.245	674.56
446.466	633.56
446.687	571.56
446.908	557.56
447.129	541.56
447.35	519.56
447.571	522.56
447.792	510.56
448.013	502.56
448.234	515.56
448.455	526.56
448.675	610.56
448.896	685.56
449.117	603.56
449.338	575.56
449.559	619.56
449.779	698.56
450	579.56
450.221	543.56
450.442	502.56
450.662	508.56
450.883	505.56
451.104	491.56
451.324	498.56
451.545	474.56
451.766	469.56
451.986	457.56
452.207	478.56
452.428	458.56
452.648	485.56
452.869	454.56
453.089	465.56
453.31	499.56
453.53	474.56
453.751	456.56
453.971	440.56
454.192	464.56
454.412	457.56
454.633	489.56
454.853	460.56
455.073	464.56
455.294	466.56
455.514	505.56
455.734	504.56
455.955	465.56
456.175	427.56
456.395	430.56
456.616	445.56
456.836	431.56
457.056	443.56
457.276	410.56
457.497	441.56
457.717	450.56
457.937	437.56
458.157	434.56
458.377	450.56
458.598	467.56
458.818	506.56
459.038	595.56
459.258	570.56
459.478	518.56
459.698	513.56
459.918	490.56
460.138	527.56
460.358	531.56
460.578	562.56
460.798	533.56
461.018	554.56
461.238	542.56
461.458	551.56
461.678	577.56
461.898	574.56
462.118	574.56
462.338	596.56
462.558	584.56
462.777	595.56
462.997	631.56
463.217	663.56
463.437	688.56
463.657	642.56
463.876	619.56
464.096	633.56
464.316	631.56
464.536	623.56
464.755	596.56
464.975	588.56
465.195	610.56
465.414	621.56
465.634	530.56
465.854	531.56
466.073	541.56
466.293	505.56
466.512	480.56
466.732	493.56
466.951	473.56
467.171	487.56
467.391	520.56
467.61	482.56
467.829	486.56
468.049	477.56
468.268	473.56
468.488	457.56
468.707	468.56
468.927	477.56
469.146	467.56
469.365	456.56
469.585	469.56
469.804	498.56
470.023	528.56
470.243	499.56
470.462	511.56
470.681	527.56
470.901	517.56
471.12	500.56
471.339	490.56
471.558	496.56
471.777	507.56
471.997	483.56
472.216	489.56
472.435	493.56
472.654	466.56
472.873	458.56
473.092	467.56
473.311	446.56
473.53	465.56
473.749	473.56
473.968	499.56
474.187	563.56
474.406	544.56
474.625	482.56
474.844	506.56
475.063	471.56
475.282	478.56
475.501	485.56
475.72	471.56
475.939	468.56
476.158	488.56
476.377	495.56
476.596	491.56
476.814	501.56
477.033	488.56
477.252	498.56
477.471	517.56
477.69	507.56
477.908	521.56
478.127	506.56
478.346	534.56
478.564	545.56
478.783	527.56
479.002	567.56
479.22	571.56
479.439	570.56
479.658	572.56
479.876	573.56
480.095	593.56
480.313	617.56
480.532	622.56
480.751	610.56
480.969	626.56
481.188	612.56
481.406	635.56
481.624	572.56
481.843	559.56
482.061	560.56
482.28	534.56
482.498	517.56
482.717	541.56
482.935	517.56
483.153	559.56
483.372	531.56
483.59	530.56
483.808	515.56
484.027	541.56
484.245	558.56
484.463	565.56
484.681	560.56
484.9	574.56
485.118	564.56
485.336	574.56
485.554	553.56
485.772	557.56
485.99	569.56
486.209	563.56
486.427	575.56
486.645	576.56
486.863	590.56
487.081	584.56
487.299	583.56
487.517	566.56
487.735	595.56
487.953	587.56
488.171	602.56
488.389	581.56
488.607	572.56
488.825	591.56
489.043	576.56
489.261	574.56
489.479	602.56
489.696	586.56
489.914	582.56
490.132	583.56
490.35	590.56
490.568	607.56
490.786	617.56
491.003	615.56
491.221	631.56
491.439	645.56
491.657	649.56
491.874	649.56
492.092	656.56
492.31	657.56
492.527	673.56
492.745	666.56
492.963	669.56
493.18	659.56
493.398	666.56
493.615	637.56
493.833	653.56
494.05	658.56
494.268	681.56
494.485	677.56
494.703	664.56
494.92	664.56
495.138	664.56
495.355	670.56
495.573	660.56
495.79	674.56
496.008	666.56
496.225	671.56
496.442	673.56
496.66	690.56
496.877	664.56
497.094	686.56
497.312	697.56
497.529	670.56
497.746	722.56
497.963	723.56
498.181	787.56
498.398	773.56
498.615	784.56
498.832	831.56
499.049	861.56
499.267	903.56
499.484	957.56
499.701	1003.56
499.918	1071.56
500.135	1176.56
500.352	1327.56
500.569	1324.56
500.786	1321.56
501.003	1255.56
501.22	1205.56
501.437	1113.56
501.654	1026.56
501.871	953.56
502.088	901.56
