Data from 1960PennyLincolnUp.LampE6.200Scan.07172019.P1_HRD10591_13-05-18-001.txt Node
Date: Thu Jul 18 13:05:18 EDT 2019
User: cochatt
Spectrometer: HR+D1059
Trigger mode: 1
Integration Time (sec): 1.000000E-1
Scans to average: 1
Electric dark correction enabled: true
Nonlinearity correction enabled: false
Boxcar width: 0
XAxis mode: Wavelengths
Number of Pixels in Spectrum: 2048
>>>>>Begin Spectral Data<<<<<
223.165	-25.69
223.4	-25.69
223.635	-25.69
223.869	-11.69
224.104	-22.69
224.338	-15.69
224.573	-2.69
224.808	-12.69
225.042	-12.69
225.277	-0.69
225.511	9.31
225.746	11.31
225.98	6.31
226.215	10.31
226.449	9.31
226.683	17.31
226.918	23.31
227.152	17.31
227.387	41.31
227.621	25.31
227.856	45.31
228.09	33.31
228.324	53.31
228.559	65.31
228.793	67.31
229.027	71.31
229.262	88.31
229.496	95.31
229.73	104.31
229.964	125.31
230.199	101.31
230.433	100.31
230.667	98.31
230.901	88.31
231.136	96.31
231.37	105.31
231.604	114.31
231.838	106.31
232.072	107.31
232.306	113.31
232.541	110.31
232.775	113.31
233.009	96.31
233.243	103.31
233.477	117.31
233.711	113.31
233.945	118.31
234.179	121.31
234.413	126.31
234.647	121.31
234.881	112.31
235.115	117.31
235.349	113.31
235.583	109.31
235.817	118.31
236.051	117.31
236.285	120.31
236.519	117.31
236.753	115.31
236.987	121.31
237.221	130.31
237.455	159.31
237.689	164.31
237.922	120.31
238.156	132.31
238.39	136.31
238.624	119.31
238.858	109.31
239.091	122.31
239.325	141.31
239.559	125.31
239.793	133.31
240.027	128.31
240.26	143.31
240.494	133.31
240.728	131.31
240.961	139.31
241.195	131.31
241.429	135.31
241.662	130.31
241.896	135.31
242.13	141.31
242.363	128.31
242.597	127.31
242.83	135.31
243.064	123.31
243.298	127.31
243.531	129.31
243.765	127.31
243.998	149.31
244.232	129.31
244.465	137.31
244.699	138.31
244.932	130.31
245.166	130.31
245.399	137.31
245.633	137.31
245.866	134.31
246.099	126.31
246.333	152.31
246.566	147.31
246.8	152.31
247.033	138.31
247.266	142.31
247.5	144.31
247.733	141.31
247.966	134.31
248.2	146.31
248.433	162.31
248.666	140.31
248.899	164.31
249.133	164.31
249.366	175.31
249.599	160.31
249.832	147.31
250.066	169.31
250.299	161.31
250.532	165.31
250.765	167.31
250.998	187.31
251.231	189.31
251.465	179.31
251.698	183.31
251.931	178.31
252.164	154.31
252.397	157.31
252.63	164.31
252.863	168.31
253.096	182.31
253.329	181.31
253.562	184.31
253.795	187.31
254.028	181.31
254.261	182.31
254.494	201.31
254.727	191.31
254.96	231.31
255.193	204.31
255.426	199.31
255.659	180.31
255.892	202.31
256.124	199.31
256.357	194.31
256.59	187.31
256.823	194.31
257.056	183.31
257.289	208.31
257.521	197.31
257.754	188.31
257.987	198.31
258.22	190.31
258.452	178.31
258.685	168.31
258.918	191.31
259.151	192.31
259.383	201.31
259.616	206.31
259.849	208.31
260.081	207.31
260.314	212.31
260.547	221.31
260.779	216.31
261.012	199.31
261.244	213.31
261.477	189.31
261.71	195.31
261.942	207.31
262.175	214.31
262.407	204.31
262.64	194.31
262.872	201.31
263.105	196.31
263.337	181.31
263.57	207.31
263.802	184.31
264.035	207.31
264.267	207.31
264.499	192.31
264.732	183.31
264.964	202.31
265.197	198.31
265.429	213.31
265.661	208.31
265.894	203.31
266.126	205.31
266.358	191.31
266.591	224.31
266.823	223.31
267.055	211.31
267.287	196.31
267.52	206.31
267.752	204.31
267.984	223.31
268.216	194.31
268.448	223.31
268.681	224.31
268.913	225.31
269.145	231.31
269.377	235.31
269.609	241.31
269.841	223.31
270.073	234.31
270.306	253.31
270.538	253.31
270.77	257.31
271.002	248.31
271.234	255.31
271.466	251.31
271.698	251.31
271.93	272.31
272.162	244.31
272.394	254.31
272.626	263.31
272.858	256.31
273.09	218.31
273.322	249.31
273.553	227.31
273.785	232.31
274.017	241.31
274.249	243.31
274.481	238.31
274.713	235.31
274.945	240.31
275.176	261.31
275.408	231.31
275.64	241.31
275.872	237.31
276.104	237.31
276.335	253.31
276.567	250.31
276.799	263.31
277.031	275.31
277.262	277.31
277.494	272.31
277.726	242.31
277.957	263.31
278.189	258.31
278.421	251.31
278.652	261.31
278.884	255.31
279.115	257.31
279.347	262.31
279.579	258.31
279.81	262.31
280.042	270.31
280.273	252.31
280.505	278.31
280.736	254.31
280.968	290.31
281.199	262.31
281.431	258.31
281.662	231.31
281.894	253.31
282.125	269.31
282.356	284.31
282.588	293.31
282.819	282.31
283.051	257.31
283.282	257.31
283.513	287.31
283.745	278.31
283.976	287.31
284.207	279.31
284.439	273.31
284.67	291.31
284.901	289.31
285.132	264.31
285.364	267.31
285.595	270.31
285.826	289.31
286.057	279.31
286.288	259.31
286.52	278.31
286.751	278.31
286.982	282.31
287.213	286.31
287.444	287.31
287.675	276.31
287.906	299.31
288.138	308.31
288.369	285.31
288.6	295.31
288.831	304.31
289.062	302.31
289.293	281.31
289.524	299.31
289.755	294.31
289.986	298.31
290.217	291.31
290.448	279.31
290.679	309.31
290.91	294.31
291.141	299.31
291.371	294.31
291.602	273.31
291.833	301.31
292.064	294.31
292.295	288.31
292.526	287.31
292.757	280.31
292.987	294.31
293.218	301.31
293.449	271.31
293.68	288.31
293.91	279.31
294.141	278.31
294.372	300.31
294.603	309.31
294.833	302.31
295.064	283.31
295.295	304.31
295.525	299.31
295.756	290.31
295.987	300.31
296.217	310.31
296.448	321.31
296.679	315.31
296.909	296.31
297.14	311.31
297.37	319.31
297.601	330.31
297.831	327.31
298.062	293.31
298.292	306.31
298.523	325.31
298.753	336.31
298.984	323.31
299.214	306.31
299.445	319.31
299.675	309.31
299.905	302.31
300.136	309.31
300.366	310.31
300.597	317.31
300.827	323.31
301.057	322.31
301.288	343.31
301.518	347.31
301.748	345.31
301.979	335.31
302.209	343.31
302.439	358.31
302.669	337.31
302.9	320.31
303.13	338.31
303.36	326.31
303.59	340.31
303.82	353.31
304.051	351.31
304.281	324.31
304.511	339.31
304.741	345.31
304.971	343.31
305.201	312.31
305.431	327.31
305.661	330.31
305.891	339.31
306.121	332.31
306.352	323.31
306.582	325.31
306.812	348.31
307.042	329.31
307.272	330.31
307.502	327.31
307.731	335.31
307.961	333.31
308.191	332.31
308.421	328.31
308.651	325.31
308.881	351.31
309.111	342.31
309.341	325.31
309.571	338.31
309.8	337.31
310.03	353.31
310.26	352.31
310.49	362.31
310.72	355.31
310.949	358.31
311.179	353.31
311.409	338.31
311.639	337.31
311.868	338.31
312.098	356.31
312.328	359.31
312.557	386.31
312.787	377.31
313.017	390.31
313.246	359.31
313.476	339.31
313.706	357.31
313.935	326.31
314.165	357.31
314.394	386.31
314.624	385.31
314.853	363.31
315.083	354.31
315.312	375.31
315.542	367.31
315.771	358.31
316.001	355.31
316.23	379.31
316.46	353.31
316.689	349.31
316.919	365.31
317.148	392.31
317.377	359.31
317.607	361.31
317.836	363.31
318.065	365.31
318.295	369.31
318.524	354.31
318.753	377.31
318.983	373.31
319.212	359.31
319.441	368.31
319.67	359.31
319.9	359.31
320.129	358.31
320.358	364.31
320.587	363.31
320.816	347.31
321.046	374.31
321.275	377.31
321.504	395.31
321.733	357.31
321.962	383.31
322.191	387.31
322.42	375.31
322.649	377.31
322.878	384.31
323.108	389.31
323.337	403.31
323.566	413.31
323.795	422.31
324.024	447.31
324.253	496.31
324.482	634.31
324.71	856.31
324.939	1152.31
325.168	953.31
325.397	570.31
325.626	464.31
325.855	431.31
326.084	425.31
326.313	420.31
326.542	419.31
326.77	442.31
326.999	483.31
327.228	579.31
327.457	804.31
327.686	892.31
327.914	631.31
328.143	493.31
328.372	474.31
328.6	448.31
328.829	443.31
329.058	455.31
329.287	437.31
329.515	439.31
329.744	433.31
329.972	413.31
330.201	433.31
330.43	466.31
330.658	463.31
330.887	468.31
331.115	458.31
331.344	453.31
331.572	448.31
331.801	438.31
332.03	456.31
332.258	469.31
332.486	445.31
332.715	446.31
332.943	457.31
333.172	467.31
333.4	489.31
333.629	497.31
333.857	504.31
334.085	506.31
334.314	521.31
334.542	531.31
334.771	533.31
334.999	493.31
335.227	477.31
335.455	482.31
335.684	466.31
335.912	463.31
336.14	447.31
336.369	444.31
336.597	450.31
336.825	452.31
337.053	465.31
337.281	431.31
337.51	442.31
337.738	451.31
337.966	449.31
338.194	411.31
338.422	437.31
338.65	436.31
338.878	453.31
339.106	422.31
339.334	419.31
339.562	439.31
339.79	416.31
340.018	456.31
340.246	425.31
340.474	404.31
340.702	417.31
340.93	403.31
341.158	421.31
341.386	406.31
341.614	405.31
341.842	438.31
342.07	416.31
342.298	412.31
342.526	415.31
342.754	427.31
342.981	399.31
343.209	422.31
343.437	422.31
343.665	440.31
343.893	465.31
344.12	478.31
344.348	454.31
344.576	428.31
344.804	446.31
345.031	433.31
345.259	441.31
345.487	413.31
345.714	414.31
345.942	407.31
346.17	417.31
346.397	388.31
346.625	396.31
346.853	404.31
347.08	402.31
347.308	401.31
347.535	397.31
347.763	385.31
347.99	408.31
348.218	398.31
348.445	386.31
348.673	392.31
348.9	392.31
349.128	383.31
349.355	384.31
349.583	385.31
349.81	385.31
350.037	399.31
350.265	404.31
350.492	419.31
350.72	388.31
350.947	399.31
351.174	389.31
351.402	402.31
351.629	387.31
351.856	382.31
352.083	424.31
352.311	399.31
352.538	389.31
352.765	393.31
352.992	382.31
353.22	417.31
353.447	392.31
353.674	382.31
353.901	389.31
354.128	391.31
354.355	370.31
354.583	376.31
354.81	390.31
355.037	375.31
355.264	385.31
355.491	386.31
355.718	391.31
355.945	387.31
356.172	380.31
356.399	374.31
356.626	369.31
356.853	389.31
357.08	389.31
357.307	390.31
357.534	380.31
357.761	367.31
357.988	387.31
358.215	387.31
358.441	389.31
358.668	398.31
358.895	382.31
359.122	391.31
359.349	386.31
359.576	425.31
359.802	408.31
360.029	417.31
360.256	397.31
360.483	410.31
360.709	387.31
360.936	393.31
361.163	403.31
361.39	386.31
361.616	398.31
361.843	408.31
362.07	393.31
362.296	400.31
362.523	398.31
362.749	402.31
362.976	372.31
363.203	415.31
363.429	406.31
363.656	391.31
363.882	387.31
364.109	401.31
364.335	387.31
364.562	389.31
364.788	393.31
365.015	376.31
365.241	409.31
365.468	377.31
365.694	383.31
365.92	388.31
366.147	381.31
366.373	387.31
366.599	406.31
366.826	375.31
367.052	375.31
367.278	410.31
367.505	392.31
367.731	385.31
367.957	386.31
368.184	387.31
368.41	388.31
368.636	419.31
368.862	407.31
369.089	397.31
369.315	397.31
369.541	388.31
369.767	397.31
369.993	391.31
370.219	384.31
370.445	425.31
370.672	381.31
370.898	395.31
371.124	415.31
371.35	413.31
371.576	404.31
371.802	424.31
372.028	421.31
372.254	424.31
372.48	420.31
372.706	432.31
372.932	424.31
373.158	425.31
373.384	388.31
373.61	409.31
373.835	416.31
374.061	413.31
374.287	409.31
374.513	426.31
374.739	444.31
374.965	429.31
375.191	426.31
375.416	454.31
375.642	443.31
375.868	433.31
376.094	431.31
376.319	430.31
376.545	416.31
376.771	413.31
376.997	403.31
377.222	404.31
377.448	422.31
377.674	397.31
377.899	399.31
378.125	404.31
378.35	411.31
378.576	397.31
378.802	395.31
379.027	408.31
379.253	421.31
379.478	413.31
379.704	410.31
379.929	397.31
380.155	414.31
380.38	421.31
380.606	417.31
380.831	409.31
381.057	407.31
381.282	397.31
381.507	400.31
381.733	424.31
381.958	410.31
382.184	420.31
382.409	415.31
382.634	427.31
382.86	423.31
383.085	419.31
383.31	448.31
383.535	433.31
383.761	445.31
383.986	442.31
384.211	451.31
384.436	454.31
384.662	471.31
384.887	464.31
385.112	459.31
385.337	481.31
385.562	447.31
385.787	466.31
386.013	481.31
386.238	488.31
386.463	498.31
386.688	501.31
386.913	470.31
387.138	474.31
387.363	465.31
387.588	464.31
387.813	478.31
388.038	458.31
388.263	466.31
388.488	453.31
388.713	458.31
388.938	473.31
389.163	471.31
389.387	477.31
389.612	461.31
389.837	461.31
390.062	470.31
390.287	491.31
390.512	479.31
390.736	454.31
390.961	478.31
391.186	445.31
391.411	497.31
391.636	501.31
391.86	503.31
392.085	500.31
392.31	502.31
392.534	477.31
392.759	509.31
392.984	481.31
393.208	479.31
393.433	503.31
393.658	484.31
393.882	484.31
394.107	496.31
394.331	472.31
394.556	486.31
394.78	497.31
395.005	493.31
395.229	494.31
395.454	522.31
395.678	499.31
395.903	506.31
396.127	505.31
396.352	506.31
396.576	495.31
396.801	505.31
397.025	486.31
397.249	514.31
397.474	511.31
397.698	494.31
397.922	519.31
398.147	522.31
398.371	518.31
398.595	531.31
398.82	543.31
399.044	590.31
399.268	626.31
399.492	699.31
399.717	752.31
399.941	727.31
400.165	701.31
400.389	707.31
400.613	610.31
400.837	577.31
401.062	548.31
401.286	565.31
401.51	538.31
401.734	553.31
401.958	546.31
402.182	537.31
402.406	564.31
402.63	617.31
402.854	587.31
403.078	584.31
403.302	601.31
403.526	596.31
403.75	597.31
403.974	610.31
404.198	596.31
404.422	619.31
404.645	591.31
404.869	600.31
405.093	617.31
405.317	647.31
405.541	677.31
405.765	633.31
405.988	633.31
406.212	596.31
406.436	627.31
406.66	639.31
406.883	628.31
407.107	672.31
407.331	676.31
407.555	723.31
407.778	715.31
408.002	686.31
408.226	644.31
408.449	632.31
408.673	616.31
408.896	619.31
409.12	664.31
409.344	631.31
409.567	595.31
409.791	577.31
410.014	575.31
410.238	585.31
410.461	597.31
410.685	582.31
410.908	600.31
411.132	596.31
411.355	600.31
411.578	609.31
411.802	573.31
412.025	577.31
412.249	592.31
412.472	598.31
412.695	589.31
412.919	578.31
413.142	574.31
413.365	572.31
413.589	554.31
413.812	545.31
414.035	545.31
414.258	542.31
414.482	548.31
414.705	542.31
414.928	545.31
415.151	537.31
415.374	558.31
415.597	549.31
415.821	534.31
416.044	539.31
416.267	542.31
416.49	521.31
416.713	549.31
416.936	551.31
417.159	535.31
417.382	560.31
417.605	538.31
417.828	550.31
418.051	581.31
418.274	547.31
418.497	534.31
418.72	568.31
418.943	566.31
419.166	590.31
419.389	587.31
419.611	590.31
419.834	570.31
420.057	585.31
420.28	571.31
420.503	552.31
420.726	551.31
420.948	548.31
421.171	575.31
421.394	569.31
421.617	523.31
421.839	541.31
422.062	562.31
422.285	565.31
422.507	601.31
422.73	647.31
422.953	627.31
423.175	580.31
423.398	575.31
423.621	581.31
423.843	592.31
424.066	601.31
424.288	611.31
424.511	587.31
424.733	607.31
424.956	640.31
425.178	598.31
425.401	652.31
425.623	654.31
425.846	578.31
426.068	552.31
426.291	562.31
426.513	526.31
426.735	550.31
426.958	577.31
427.18	617.31
427.402	693.31
427.625	727.31
427.847	649.31
428.069	570.31
428.292	547.31
428.514	523.31
428.736	533.31
428.958	511.31
429.181	505.31
429.403	506.31
429.625	503.31
429.847	531.31
430.069	576.31
430.292	553.31
430.514	528.31
430.736	495.31
430.958	506.31
431.18	493.31
431.402	489.31
431.624	493.31
431.846	525.31
432.068	487.31
432.29	495.31
432.512	486.31
432.734	515.31
432.956	483.31
433.178	505.31
433.4	499.31
433.622	493.31
433.844	500.31
434.066	498.31
434.287	511.31
434.509	522.31
434.731	538.31
434.953	544.31
435.175	555.31
435.397	550.31
435.618	534.31
435.84	555.31
436.062	599.31
436.284	626.31
436.505	563.31
436.727	544.31
436.949	514.31
437.17	515.31
437.392	511.31
437.614	494.31
437.835	507.31
438.057	552.31
438.278	625.31
438.5	602.31
438.721	650.31
438.943	627.31
439.165	547.31
439.386	529.31
439.608	514.31
439.829	528.31
440.05	549.31
440.272	552.31
440.493	556.31
440.715	544.31
440.936	507.31
441.158	526.31
441.379	539.31
441.6	559.31
441.822	556.31
442.043	551.31
442.264	599.31
442.486	636.31
442.707	584.31
442.928	577.31
443.149	576.31
443.371	567.31
443.592	588.31
443.813	625.31
444.034	665.31
444.255	612.31
444.476	605.31
444.698	621.31
444.919	599.31
445.14	694.31
445.361	641.31
445.582	595.31
445.803	612.31
446.024	652.31
446.245	635.31
446.466	586.31
446.687	546.31
446.908	538.31
447.129	509.31
447.35	495.31
447.571	477.31
447.792	484.31
448.013	486.31
448.234	493.31
448.455	505.31
448.675	588.31
448.896	641.31
449.117	574.31
449.338	550.31
449.559	589.31
449.779	677.31
450	558.31
450.221	487.31
450.442	477.31
450.662	482.31
450.883	460.31
451.104	476.31
451.324	457.31
451.545	468.31
451.766	490.31
451.986	455.31
452.207	450.31
452.428	438.31
452.648	451.31
452.869	450.31
453.089	464.31
453.31	435.31
453.53	450.31
453.751	454.31
453.971	446.31
454.192	440.31
454.412	433.31
454.633	445.31
454.853	422.31
455.073	423.31
455.294	480.31
455.514	469.31
455.734	489.31
455.955	449.31
456.175	422.31
456.395	425.31
456.616	397.31
456.836	433.31
457.056	391.31
457.276	403.31
457.497	423.31
457.717	425.31
457.937	411.31
458.157	433.31
458.377	434.31
458.598	457.31
458.818	474.31
459.038	549.31
459.258	549.31
459.478	504.31
459.698	483.31
459.918	515.31
460.138	512.31
460.358	535.31
460.578	544.31
460.798	549.31
461.018	553.31
461.238	536.31
461.458	524.31
461.678	519.31
461.898	540.31
462.118	541.31
462.338	556.31
462.558	580.31
462.777	584.31
462.997	612.31
463.217	651.31
463.437	655.31
463.657	612.31
463.876	615.31
464.096	577.31
464.316	587.31
464.536	610.31
464.755	605.31
464.975	580.31
465.195	551.31
465.414	600.31
465.634	543.31
465.854	506.31
466.073	499.31
466.293	475.31
466.512	460.31
466.732	469.31
466.951	470.31
467.171	482.31
467.391	484.31
467.61	448.31
467.829	490.31
468.049	465.31
468.268	464.31
468.488	450.31
468.707	463.31
468.927	440.31
469.146	462.31
469.365	454.31
469.585	449.31
469.804	482.31
470.023	483.31
470.243	486.31
470.462	478.31
470.681	480.31
470.901	496.31
471.12	488.31
471.339	469.31
471.558	474.31
471.777	465.31
471.997	442.31
472.216	465.31
472.435	481.31
472.654	466.31
472.873	437.31
473.092	452.31
473.311	449.31
473.53	455.31
473.749	447.31
473.968	468.31
474.187	498.31
474.406	562.31
474.625	483.31
474.844	447.31
475.063	465.31
475.282	461.31
475.501	455.31
475.72	474.31
475.939	472.31
476.158	469.31
476.377	463.31
476.596	456.31
476.814	491.31
477.033	486.31
477.252	479.31
477.471	494.31
477.69	525.31
477.908	511.31
478.127	521.31
478.346	534.31
478.564	538.31
478.783	558.31
479.002	554.31
479.22	537.31
479.439	549.31
479.658	566.31
479.876	538.31
480.095	568.31
480.313	579.31
480.532	571.31
480.751	581.31
480.969	562.31
481.188	603.31
481.406	613.31
481.624	547.31
481.843	538.31
482.061	525.31
482.28	512.31
482.498	503.31
482.717	520.31
482.935	534.31
483.153	507.31
483.372	533.31
483.59	535.31
483.808	533.31
484.027	547.31
484.245	535.31
484.463	511.31
484.681	537.31
484.9	526.31
485.118	538.31
485.336	544.31
485.554	549.31
485.772	543.31
485.99	542.31
486.209	550.31
486.427	561.31
486.645	578.31
486.863	566.31
487.081	566.31
487.299	570.31
487.517	563.31
487.735	563.31
487.953	552.31
488.171	566.31
488.389	583.31
488.607	536.31
488.825	542.31
489.043	559.31
489.261	568.31
489.479	551.31
489.696	560.31
489.914	564.31
490.132	594.31
490.35	582.31
490.568	583.31
490.786	571.31
491.003	601.31
491.221	610.31
491.439	621.31
491.657	621.31
491.874	618.31
492.092	632.31
492.31	625.31
492.527	618.31
492.745	623.31
492.963	626.31
493.18	615.31
493.398	611.31
493.615	621.31
493.833	617.31
494.05	620.31
494.268	615.31
494.485	626.31
494.703	614.31
494.92	619.31
495.138	617.31
495.355	618.31
495.573	623.31
495.79	625.31
496.008	621.31
496.225	636.31
496.442	651.31
496.66	653.31
496.877	641.31
497.094	666.31
497.312	652.31
497.529	674.31
497.746	692.31
497.963	697.31
498.181	708.31
498.398	735.31
498.615	755.31
498.832	765.31
499.049	824.31
499.267	888.31
499.484	914.31
499.701	987.31
499.918	1057.31
500.135	1158.31
500.352	1245.31
500.569	1293.31
500.786	1271.31
501.003	1238.31
501.22	1154.31
501.437	1011.31
501.654	986.31
501.871	929.31
502.088	875.31
