Data from 1960PennyLincolnUp.LampE5.5.200Scan.07172019.P1.ChangedAngle_HRD10591_13-14-11-821.txt Node
Date: Thu Jul 18 13:14:11 EDT 2019
User: cochatt
Spectrometer: HR+D1059
Trigger mode: 1
Integration Time (sec): 1.000000E-1
Scans to average: 1
Electric dark correction enabled: true
Nonlinearity correction enabled: false
Boxcar width: 0
XAxis mode: Wavelengths
Number of Pixels in Spectrum: 2048
>>>>>Begin Spectral Data<<<<<
223.165	-13.94
223.4	-13.94
223.635	-13.94
223.869	-14.94
224.104	-21.94
224.338	-4.94
224.573	-21.94
224.808	-4.94
225.042	-10.94
225.277	-9.94
225.511	-5.94
225.746	3.06
225.98	-7.94
226.215	3.06
226.449	26.06
226.683	16.06
226.918	40.06
227.152	29.06
227.387	26.06
227.621	38.06
227.856	48.06
228.09	58.06
228.324	53.06
228.559	44.06
228.793	72.06
229.027	79.06
229.262	89.06
229.496	99.06
229.73	100.06
229.964	106.06
230.199	98.06
230.433	82.06
230.667	101.06
230.901	99.06
231.136	88.06
231.37	111.06
231.604	80.06
231.838	99.06
232.072	92.06
232.306	109.06
232.541	99.06
232.775	118.06
233.009	99.06
233.243	105.06
233.477	94.06
233.711	108.06
233.945	101.06
234.179	109.06
234.413	103.06
234.647	106.06
234.881	102.06
235.115	107.06
235.349	113.06
235.583	98.06
235.817	109.06
236.051	104.06
236.285	123.06
236.519	93.06
236.753	113.06
236.987	105.06
237.221	130.06
237.455	145.06
237.689	122.06
237.922	105.06
238.156	105.06
238.39	107.06
238.624	99.06
238.858	111.06
239.091	119.06
239.325	103.06
239.559	112.06
239.793	117.06
240.027	114.06
240.26	134.06
240.494	113.06
240.728	119.06
240.961	121.06
241.195	106.06
241.429	116.06
241.662	118.06
241.896	107.06
242.13	100.06
242.363	127.06
242.597	120.06
242.83	122.06
243.064	119.06
243.298	108.06
243.531	107.06
243.765	112.06
243.998	122.06
244.232	118.06
244.465	117.06
244.699	122.06
244.932	123.06
245.166	113.06
245.399	122.06
245.633	120.06
245.866	122.06
246.099	121.06
246.333	147.06
246.566	119.06
246.8	142.06
247.033	139.06
247.266	119.06
247.5	131.06
247.733	146.06
247.966	154.06
248.2	142.06
248.433	151.06
248.666	143.06
248.899	141.06
249.133	154.06
249.366	155.06
249.599	143.06
249.832	125.06
250.066	149.06
250.299	128.06
250.532	148.06
250.765	151.06
250.998	161.06
251.231	166.06
251.465	152.06
251.698	163.06
251.931	167.06
252.164	142.06
252.397	177.06
252.63	166.06
252.863	153.06
253.096	171.06
253.329	186.06
253.562	182.06
253.795	177.06
254.028	169.06
254.261	174.06
254.494	178.06
254.727	183.06
254.96	212.06
255.193	180.06
255.426	170.06
255.659	183.06
255.892	194.06
256.124	178.06
256.357	196.06
256.59	168.06
256.823	172.06
257.056	161.06
257.289	158.06
257.521	172.06
257.754	161.06
257.987	184.06
258.22	169.06
258.452	186.06
258.685	179.06
258.918	175.06
259.151	185.06
259.383	176.06
259.616	184.06
259.849	178.06
260.081	191.06
260.314	192.06
260.547	204.06
260.779	185.06
261.012	193.06
261.244	190.06
261.477	188.06
261.71	195.06
261.942	172.06
262.175	178.06
262.407	176.06
262.64	191.06
262.872	184.06
263.105	187.06
263.337	194.06
263.57	171.06
263.802	189.06
264.035	177.06
264.267	194.06
264.499	170.06
264.732	162.06
264.964	174.06
265.197	175.06
265.429	185.06
265.661	189.06
265.894	197.06
266.126	192.06
266.358	185.06
266.591	182.06
266.823	195.06
267.055	196.06
267.287	198.06
267.52	189.06
267.752	195.06
267.984	208.06
268.216	210.06
268.448	189.06
268.681	204.06
268.913	215.06
269.145	205.06
269.377	215.06
269.609	211.06
269.841	227.06
270.073	215.06
270.306	249.06
270.538	243.06
270.77	231.06
271.002	221.06
271.234	211.06
271.466	227.06
271.698	241.06
271.93	221.06
272.162	236.06
272.394	253.06
272.626	230.06
272.858	232.06
273.09	221.06
273.322	197.06
273.553	210.06
273.785	219.06
274.017	223.06
274.249	210.06
274.481	230.06
274.713	214.06
274.945	237.06
275.176	228.06
275.408	218.06
275.64	217.06
275.872	222.06
276.104	221.06
276.335	213.06
276.567	231.06
276.799	229.06
277.031	229.06
277.262	245.06
277.494	241.06
277.726	252.06
277.957	248.06
278.189	243.06
278.421	229.06
278.652	223.06
278.884	229.06
279.115	243.06
279.347	239.06
279.579	240.06
279.81	247.06
280.042	228.06
280.273	243.06
280.505	255.06
280.736	234.06
280.968	230.06
281.199	258.06
281.431	230.06
281.662	229.06
281.894	229.06
282.125	249.06
282.356	259.06
282.588	275.06
282.819	222.06
283.051	249.06
283.282	259.06
283.513	251.06
283.745	241.06
283.976	253.06
284.207	255.06
284.439	253.06
284.67	245.06
284.901	251.06
285.132	239.06
285.364	243.06
285.595	265.06
285.826	251.06
286.057	248.06
286.288	240.06
286.52	245.06
286.751	251.06
286.982	245.06
287.213	258.06
287.444	239.06
287.675	247.06
287.906	250.06
288.138	248.06
288.369	273.06
288.6	265.06
288.831	245.06
289.062	268.06
289.293	251.06
289.524	246.06
289.755	268.06
289.986	245.06
290.217	257.06
290.448	254.06
290.679	265.06
290.91	254.06
291.141	255.06
291.371	249.06
291.602	255.06
291.833	258.06
292.064	245.06
292.295	250.06
292.526	255.06
292.757	268.06
292.987	262.06
293.218	261.06
293.449	262.06
293.68	263.06
293.91	273.06
294.141	247.06
294.372	254.06
294.603	261.06
294.833	251.06
295.064	243.06
295.295	252.06
295.525	247.06
295.756	273.06
295.987	255.06
296.217	260.06
296.448	284.06
296.679	268.06
296.909	245.06
297.14	267.06
297.37	261.06
297.601	282.06
297.831	260.06
298.062	273.06
298.292	256.06
298.523	275.06
298.753	282.06
298.984	274.06
299.214	259.06
299.445	275.06
299.675	268.06
299.905	283.06
300.136	280.06
300.366	274.06
300.597	273.06
300.827	287.06
301.057	295.06
301.288	287.06
301.518	291.06
301.748	283.06
301.979	289.06
302.209	285.06
302.439	309.06
302.669	291.06
302.9	275.06
303.13	294.06
303.36	282.06
303.59	283.06
303.82	301.06
304.051	304.06
304.281	302.06
304.511	291.06
304.741	278.06
304.971	283.06
305.201	301.06
305.431	295.06
305.661	291.06
305.891	297.06
306.121	297.06
306.352	278.06
306.582	280.06
306.812	286.06
307.042	279.06
307.272	279.06
307.502	294.06
307.731	307.06
307.961	308.06
308.191	279.06
308.421	279.06
308.651	301.06
308.881	299.06
309.111	299.06
309.341	302.06
309.571	308.06
309.8	302.06
310.03	330.06
310.26	302.06
310.49	301.06
310.72	330.06
310.949	307.06
311.179	328.06
311.409	329.06
311.639	301.06
311.868	308.06
312.098	313.06
312.328	317.06
312.557	323.06
312.787	317.06
313.017	325.06
313.246	321.06
313.476	332.06
313.706	319.06
313.935	331.06
314.165	322.06
314.394	318.06
314.624	332.06
314.853	329.06
315.083	314.06
315.312	337.06
315.542	327.06
315.771	344.06
316.001	328.06
316.23	315.06
316.46	309.06
316.689	311.06
316.919	318.06
317.148	330.06
317.377	325.06
317.607	335.06
317.836	337.06
318.065	336.06
318.295	335.06
318.524	329.06
318.753	331.06
318.983	323.06
319.212	321.06
319.441	327.06
319.67	318.06
319.9	325.06
320.129	307.06
320.358	322.06
320.587	333.06
320.816	310.06
321.046	341.06
321.275	324.06
321.504	327.06
321.733	337.06
321.962	335.06
322.191	339.06
322.42	358.06
322.649	361.06
322.878	361.06
323.108	357.06
323.337	367.06
323.566	364.06
323.795	377.06
324.024	393.06
324.253	478.06
324.482	598.06
324.71	827.06
324.939	1099.06
325.168	931.06
325.397	558.06
325.626	422.06
325.855	411.06
326.084	377.06
326.313	379.06
326.542	371.06
326.77	384.06
326.999	455.06
327.228	548.06
327.457	756.06
327.686	835.06
327.914	593.06
328.143	469.06
328.372	425.06
328.6	403.06
328.829	401.06
329.058	398.06
329.287	393.06
329.515	369.06
329.744	381.06
329.972	376.06
330.201	394.06
330.43	400.06
330.658	420.06
330.887	429.06
331.115	402.06
331.344	393.06
331.572	391.06
331.801	372.06
332.03	372.06
332.258	362.06
332.486	364.06
332.715	387.06
332.943	369.06
333.172	363.06
333.4	383.06
333.629	365.06
333.857	399.06
334.085	393.06
334.314	401.06
334.542	424.06
334.771	398.06
334.999	400.06
335.227	403.06
335.455	373.06
335.684	372.06
335.912	395.06
336.14	369.06
336.369	384.06
336.597	376.06
336.825	374.06
337.053	373.06
337.281	370.06
337.51	391.06
337.738	372.06
337.966	367.06
338.194	343.06
338.422	356.06
338.65	369.06
338.878	369.06
339.106	351.06
339.334	353.06
339.562	362.06
339.79	359.06
340.018	355.06
340.246	361.06
340.474	332.06
340.702	359.06
340.93	367.06
341.158	383.06
341.386	366.06
341.614	353.06
341.842	361.06
342.07	340.06
342.298	365.06
342.526	341.06
342.754	366.06
342.981	361.06
343.209	357.06
343.437	368.06
343.665	360.06
343.893	364.06
344.12	347.06
344.348	384.06
344.576	389.06
344.804	367.06
345.031	356.06
345.259	340.06
345.487	349.06
345.714	355.06
345.942	353.06
346.17	358.06
346.397	344.06
346.625	339.06
346.853	338.06
347.08	333.06
347.308	349.06
347.535	340.06
347.763	353.06
347.99	350.06
348.218	342.06
348.445	338.06
348.673	331.06
348.9	347.06
349.128	351.06
349.355	324.06
349.583	327.06
349.81	332.06
350.037	320.06
350.265	334.06
350.492	343.06
350.72	334.06
350.947	330.06
351.174	326.06
351.402	337.06
351.629	339.06
351.856	333.06
352.083	334.06
352.311	342.06
352.538	334.06
352.765	343.06
352.992	342.06
353.22	332.06
353.447	317.06
353.674	334.06
353.901	338.06
354.128	329.06
354.355	332.06
354.583	333.06
354.81	313.06
355.037	320.06
355.264	326.06
355.491	334.06
355.718	326.06
355.945	324.06
356.172	327.06
356.399	316.06
356.626	338.06
356.853	326.06
357.08	314.06
357.307	322.06
357.534	331.06
357.761	294.06
357.988	318.06
358.215	327.06
358.441	323.06
358.668	311.06
358.895	309.06
359.122	333.06
359.349	334.06
359.576	318.06
359.802	342.06
360.029	330.06
360.256	359.06
360.483	335.06
360.709	319.06
360.936	338.06
361.163	327.06
361.39	325.06
361.616	333.06
361.843	329.06
362.07	313.06
362.296	324.06
362.523	339.06
362.749	328.06
362.976	337.06
363.203	329.06
363.429	327.06
363.656	340.06
363.882	323.06
364.109	329.06
364.335	311.06
364.562	315.06
364.788	320.06
365.015	311.06
365.241	325.06
365.468	333.06
365.694	319.06
365.92	308.06
366.147	331.06
366.373	319.06
366.599	328.06
366.826	326.06
367.052	313.06
367.278	318.06
367.505	341.06
367.731	337.06
367.957	340.06
368.184	328.06
368.41	310.06
368.636	329.06
368.862	315.06
369.089	327.06
369.315	328.06
369.541	330.06
369.767	313.06
369.993	315.06
370.219	309.06
370.445	330.06
370.672	316.06
370.898	318.06
371.124	324.06
371.35	319.06
371.576	346.06
371.802	326.06
372.028	323.06
372.254	323.06
372.48	313.06
372.706	328.06
372.932	312.06
373.158	346.06
373.384	334.06
373.61	312.06
373.835	339.06
374.061	314.06
374.287	322.06
374.513	332.06
374.739	321.06
374.965	329.06
375.191	337.06
375.416	314.06
375.642	326.06
375.868	333.06
376.094	325.06
376.319	335.06
376.545	317.06
376.771	321.06
376.997	341.06
377.222	323.06
377.448	319.06
377.674	338.06
377.899	317.06
378.125	322.06
378.35	337.06
378.576	333.06
378.802	306.06
379.027	321.06
379.253	330.06
379.478	323.06
379.704	326.06
379.929	323.06
380.155	321.06
380.38	329.06
380.606	320.06
380.831	337.06
381.057	322.06
381.282	311.06
381.507	318.06
381.733	331.06
381.958	323.06
382.184	325.06
382.409	331.06
382.634	349.06
382.86	329.06
383.085	325.06
383.31	332.06
383.535	334.06
383.761	331.06
383.986	347.06
384.211	337.06
384.436	313.06
384.662	319.06
384.887	356.06
385.112	356.06
385.337	361.06
385.562	377.06
385.787	340.06
386.013	378.06
386.238	359.06
386.463	363.06
386.688	328.06
386.913	353.06
387.138	341.06
387.363	358.06
387.588	355.06
387.813	355.06
388.038	363.06
388.263	355.06
388.488	333.06
388.713	349.06
388.938	361.06
389.163	365.06
389.387	364.06
389.612	343.06
389.837	337.06
390.062	362.06
390.287	348.06
390.512	321.06
390.736	362.06
390.961	343.06
391.186	349.06
391.411	362.06
391.636	361.06
391.86	350.06
392.085	358.06
392.31	348.06
392.534	341.06
392.759	346.06
392.984	343.06
393.208	357.06
393.433	349.06
393.658	363.06
393.882	347.06
394.107	356.06
394.331	357.06
394.556	338.06
394.78	351.06
395.005	357.06
395.229	371.06
395.454	363.06
395.678	360.06
395.903	343.06
396.127	379.06
396.352	373.06
396.576	367.06
396.801	376.06
397.025	389.06
397.249	367.06
397.474	357.06
397.698	370.06
397.922	380.06
398.147	389.06
398.371	375.06
398.595	393.06
398.82	382.06
399.044	393.06
399.268	399.06
399.492	436.06
399.717	446.06
399.941	454.06
400.165	459.06
400.389	454.06
400.613	414.06
400.837	396.06
401.062	389.06
401.286	405.06
401.51	391.06
401.734	405.06
401.958	394.06
402.182	385.06
402.406	379.06
402.63	385.06
402.854	385.06
403.078	401.06
403.302	393.06
403.526	394.06
403.75	407.06
403.974	390.06
404.198	388.06
404.422	396.06
404.645	387.06
404.869	401.06
405.093	422.06
405.317	429.06
405.541	455.06
405.765	412.06
405.988	402.06
406.212	403.06
406.436	420.06
406.66	412.06
406.883	420.06
407.107	466.06
407.331	440.06
407.555	472.06
407.778	489.06
408.002	442.06
408.226	429.06
408.449	413.06
408.673	419.06
408.896	425.06
409.12	445.06
409.344	415.06
409.567	405.06
409.791	404.06
410.014	395.06
410.238	379.06
410.461	390.06
410.685	408.06
410.908	414.06
411.132	417.06
411.355	437.06
411.578	414.06
411.802	382.06
412.025	383.06
412.249	402.06
412.472	402.06
412.695	420.06
412.919	408.06
413.142	404.06
413.365	399.06
413.589	385.06
413.812	361.06
414.035	369.06
414.258	361.06
414.482	380.06
414.705	373.06
414.928	362.06
415.151	374.06
415.374	382.06
415.597	371.06
415.821	366.06
416.044	369.06
416.267	382.06
416.49	373.06
416.713	363.06
416.936	375.06
417.159	345.06
417.382	378.06
417.605	376.06
417.828	384.06
418.051	379.06
418.274	364.06
418.497	382.06
418.72	361.06
418.943	373.06
419.166	364.06
419.389	398.06
419.611	377.06
419.834	379.06
420.057	393.06
420.28	388.06
420.503	383.06
420.726	387.06
420.948	394.06
421.171	386.06
421.394	394.06
421.617	380.06
421.839	369.06
422.062	374.06
422.285	377.06
422.507	411.06
422.73	457.06
422.953	455.06
423.175	388.06
423.398	389.06
423.621	373.06
423.843	380.06
424.066	386.06
424.288	394.06
424.511	394.06
424.733	420.06
424.956	477.06
425.178	452.06
425.401	455.06
425.623	462.06
425.846	421.06
426.068	379.06
426.291	375.06
426.513	379.06
426.735	393.06
426.958	422.06
427.18	440.06
427.402	534.06
427.625	563.06
427.847	492.06
428.069	440.06
428.292	389.06
428.514	388.06
428.736	358.06
428.958	370.06
429.181	363.06
429.403	360.06
429.625	369.06
429.847	389.06
430.069	410.06
430.292	415.06
430.514	375.06
430.736	355.06
430.958	364.06
431.18	349.06
431.402	367.06
431.624	355.06
431.846	346.06
432.068	346.06
432.29	347.06
432.512	337.06
432.734	346.06
432.956	357.06
433.178	369.06
433.4	357.06
433.622	356.06
433.844	358.06
434.066	346.06
434.287	357.06
434.509	353.06
434.731	376.06
434.953	369.06
435.175	361.06
435.397	391.06
435.618	372.06
435.84	390.06
436.062	463.06
436.284	471.06
436.505	411.06
436.727	381.06
436.949	370.06
437.17	367.06
437.392	341.06
437.614	375.06
437.835	389.06
438.057	390.06
438.278	478.06
438.5	486.06
438.721	505.06
438.943	519.06
439.165	409.06
439.386	375.06
439.608	370.06
439.829	391.06
440.05	382.06
440.272	411.06
440.493	402.06
440.715	372.06
440.936	368.06
441.158	366.06
441.379	373.06
441.6	349.06
441.822	397.06
442.043	414.06
442.264	433.06
442.486	475.06
442.707	410.06
442.928	415.06
443.149	393.06
443.371	406.06
443.592	416.06
443.813	476.06
444.034	511.06
444.255	436.06
444.476	409.06
444.698	373.06
444.919	381.06
445.14	503.06
445.361	464.06
445.582	415.06
445.803	438.06
446.024	472.06
446.245	493.06
446.466	430.06
446.687	394.06
446.908	382.06
447.129	375.06
447.35	349.06
447.571	367.06
447.792	375.06
448.013	363.06
448.234	375.06
448.455	385.06
448.675	451.06
448.896	490.06
449.117	441.06
449.338	445.06
449.559	489.06
449.779	517.06
450	448.06
450.221	382.06
450.442	356.06
450.662	338.06
450.883	336.06
451.104	331.06
451.324	316.06
451.545	332.06
451.766	323.06
451.986	326.06
452.207	299.06
452.428	322.06
452.648	328.06
452.869	323.06
453.089	316.06
453.31	332.06
453.53	320.06
453.751	318.06
453.971	308.06
454.192	334.06
454.412	336.06
454.633	328.06
454.853	311.06
455.073	326.06
455.294	338.06
455.514	367.06
455.734	369.06
455.955	331.06
456.175	318.06
456.395	320.06
456.616	316.06
456.836	314.06
457.056	320.06
457.276	301.06
457.497	322.06
457.717	315.06
457.937	319.06
458.157	305.06
458.377	321.06
458.598	329.06
458.818	349.06
459.038	389.06
459.258	398.06
459.478	363.06
459.698	361.06
459.918	353.06
460.138	362.06
460.358	358.06
460.578	347.06
460.798	353.06
461.018	367.06
461.238	373.06
461.458	352.06
461.678	349.06
461.898	356.06
462.118	373.06
462.338	352.06
462.558	389.06
462.777	382.06
462.997	394.06
463.217	381.06
463.437	413.06
463.657	394.06
463.876	389.06
464.096	397.06
464.316	405.06
464.536	394.06
464.755	389.06
464.975	383.06
465.195	392.06
465.414	378.06
465.634	378.06
465.854	372.06
466.073	356.06
466.293	344.06
466.512	353.06
466.732	357.06
466.951	337.06
467.171	361.06
467.391	348.06
467.61	334.06
467.829	337.06
468.049	339.06
468.268	345.06
468.488	347.06
468.707	339.06
468.927	327.06
469.146	336.06
469.365	342.06
469.585	358.06
469.804	349.06
470.023	332.06
470.243	359.06
470.462	345.06
470.681	343.06
470.901	339.06
471.12	338.06
471.339	353.06
471.558	346.06
471.777	338.06
471.997	364.06
472.216	350.06
472.435	365.06
472.654	343.06
472.873	354.06
473.092	330.06
473.311	322.06
473.53	346.06
473.749	346.06
473.968	367.06
474.187	392.06
474.406	421.06
474.625	360.06
474.844	343.06
475.063	337.06
475.282	339.06
475.501	339.06
475.72	350.06
475.939	356.06
476.158	359.06
476.377	359.06
476.596	362.06
476.814	334.06
477.033	327.06
477.252	349.06
477.471	378.06
477.69	361.06
477.908	382.06
478.127	382.06
478.346	365.06
478.564	371.06
478.783	387.06
479.002	394.06
479.22	388.06
479.439	423.06
479.658	388.06
479.876	404.06
480.095	419.06
480.313	399.06
480.532	421.06
480.751	420.06
480.969	397.06
481.188	435.06
481.406	431.06
481.624	403.06
481.843	404.06
482.061	403.06
482.28	383.06
482.498	392.06
482.717	398.06
482.935	403.06
483.153	394.06
483.372	412.06
483.59	399.06
483.808	398.06
484.027	397.06
484.245	398.06
484.463	411.06
484.681	416.06
484.9	416.06
485.118	398.06
485.336	409.06
485.554	407.06
485.772	413.06
485.99	402.06
486.209	407.06
486.427	418.06
486.645	417.06
486.863	411.06
487.081	441.06
487.299	406.06
487.517	415.06
487.735	435.06
487.953	423.06
488.171	414.06
488.389	418.06
488.607	413.06
488.825	410.06
489.043	429.06
489.261	411.06
489.479	433.06
489.696	413.06
489.914	425.06
490.132	433.06
490.35	440.06
490.568	424.06
490.786	437.06
491.003	434.06
491.221	455.06
491.439	451.06
491.657	474.06
491.874	464.06
492.092	447.06
492.31	436.06
492.527	453.06
492.745	450.06
492.963	445.06
493.18	460.06
493.398	480.06
493.615	467.06
493.833	443.06
494.05	459.06
494.268	476.06
494.485	461.06
494.703	453.06
494.92	453.06
495.138	457.06
495.355	471.06
495.573	481.06
495.79	493.06
496.008	478.06
496.225	483.06
496.442	472.06
496.66	492.06
496.877	471.06
497.094	494.06
497.312	488.06
497.529	499.06
497.746	488.06
497.963	516.06
498.181	519.06
498.398	514.06
498.615	542.06
498.832	550.06
499.049	558.06
499.267	562.06
499.484	588.06
499.701	619.06
499.918	617.06
500.135	649.06
500.352	681.06
500.569	691.06
500.786	711.06
501.003	700.06
501.22	679.06
501.437	646.06
501.654	607.06
501.871	597.06
502.088	586.06
