Data from 1960PennyLincolnUp.LampE6.200Scan.07172019.P1_HRD10591_13-06-02-002.txt Node
Date: Thu Jul 18 13:06:02 EDT 2019
User: cochatt
Spectrometer: HR+D1059
Trigger mode: 1
Integration Time (sec): 1.000000E-1
Scans to average: 1
Electric dark correction enabled: true
Nonlinearity correction enabled: false
Boxcar width: 0
XAxis mode: Wavelengths
Number of Pixels in Spectrum: 2048
>>>>>Begin Spectral Data<<<<<
223.165	-13.62
223.4	-13.62
223.635	-13.62
223.869	-12.62
224.104	-25.62
224.338	-10.62
224.573	-4.62
224.808	-9.62
225.042	-0.62
225.277	-0.62
225.511	8.38
225.746	-0.62
225.98	-4.62
226.215	12.38
226.449	9.38
226.683	16.38
226.918	10.38
227.152	26.38
227.387	28.38
227.621	36.38
227.856	41.38
228.09	62.38
228.324	40.38
228.559	44.38
228.793	57.38
229.027	91.38
229.262	104.38
229.496	99.38
229.73	109.38
229.964	132.38
230.199	118.38
230.433	113.38
230.667	107.38
230.901	105.38
231.136	111.38
231.37	116.38
231.604	117.38
231.838	115.38
232.072	108.38
232.306	111.38
232.541	115.38
232.775	84.38
233.009	119.38
233.243	107.38
233.477	119.38
233.711	118.38
233.945	107.38
234.179	95.38
234.413	115.38
234.647	114.38
234.881	127.38
235.115	137.38
235.349	121.38
235.583	106.38
235.817	115.38
236.051	116.38
236.285	114.38
236.519	111.38
236.753	114.38
236.987	122.38
237.221	151.38
237.455	176.38
237.689	156.38
237.922	131.38
238.156	135.38
238.39	116.38
238.624	129.38
238.858	107.38
239.091	133.38
239.325	128.38
239.559	126.38
239.793	137.38
240.027	116.38
240.26	133.38
240.494	150.38
240.728	142.38
240.961	148.38
241.195	137.38
241.429	131.38
241.662	145.38
241.896	131.38
242.13	130.38
242.363	132.38
242.597	136.38
242.83	141.38
243.064	140.38
243.298	128.38
243.531	127.38
243.765	135.38
243.998	136.38
244.232	141.38
244.465	135.38
244.699	141.38
244.932	125.38
245.166	146.38
245.399	145.38
245.633	145.38
245.866	139.38
246.099	146.38
246.333	135.38
246.566	150.38
246.8	151.38
247.033	150.38
247.266	146.38
247.5	165.38
247.733	158.38
247.966	142.38
248.2	163.38
248.433	160.38
248.666	171.38
248.899	177.38
249.133	174.38
249.366	184.38
249.599	160.38
249.832	167.38
250.066	163.38
250.299	176.38
250.532	167.38
250.765	182.38
250.998	197.38
251.231	191.38
251.465	187.38
251.698	182.38
251.931	187.38
252.164	175.38
252.397	179.38
252.63	189.38
252.863	197.38
253.096	189.38
253.329	209.38
253.562	208.38
253.795	186.38
254.028	193.38
254.261	195.38
254.494	206.38
254.727	227.38
254.96	242.38
255.193	235.38
255.426	216.38
255.659	190.38
255.892	206.38
256.124	209.38
256.357	205.38
256.59	204.38
256.823	190.38
257.056	213.38
257.289	204.38
257.521	191.38
257.754	212.38
257.987	202.38
258.22	193.38
258.452	196.38
258.685	199.38
258.918	199.38
259.151	193.38
259.383	221.38
259.616	211.38
259.849	202.38
260.081	224.38
260.314	223.38
260.547	210.38
260.779	217.38
261.012	213.38
261.244	209.38
261.477	213.38
261.71	227.38
261.942	208.38
262.175	221.38
262.407	224.38
262.64	208.38
262.872	211.38
263.105	215.38
263.337	211.38
263.57	201.38
263.802	207.38
264.035	214.38
264.267	208.38
264.499	203.38
264.732	197.38
264.964	211.38
265.197	202.38
265.429	215.38
265.661	211.38
265.894	221.38
266.126	221.38
266.358	214.38
266.591	200.38
266.823	220.38
267.055	220.38
267.287	229.38
267.52	247.38
267.752	216.38
267.984	208.38
268.216	224.38
268.448	227.38
268.681	223.38
268.913	244.38
269.145	231.38
269.377	260.38
269.609	261.38
269.841	251.38
270.073	243.38
270.306	280.38
270.538	292.38
270.77	270.38
271.002	267.38
271.234	253.38
271.466	259.38
271.698	282.38
271.93	277.38
272.162	272.38
272.394	292.38
272.626	262.38
272.858	279.38
273.09	270.38
273.322	268.38
273.553	250.38
273.785	251.38
274.017	258.38
274.249	244.38
274.481	265.38
274.713	250.38
274.945	249.38
275.176	246.38
275.408	248.38
275.64	247.38
275.872	234.38
276.104	250.38
276.335	249.38
276.567	266.38
276.799	268.38
277.031	279.38
277.262	296.38
277.494	300.38
277.726	300.38
277.957	267.38
278.189	268.38
278.421	261.38
278.652	263.38
278.884	264.38
279.115	253.38
279.347	268.38
279.579	266.38
279.81	256.38
280.042	268.38
280.273	276.38
280.505	272.38
280.736	270.38
280.968	262.38
281.199	282.38
281.431	288.38
281.662	274.38
281.894	269.38
282.125	263.38
282.356	290.38
282.588	309.38
282.819	307.38
283.051	272.38
283.282	283.38
283.513	288.38
283.745	296.38
283.976	279.38
284.207	298.38
284.439	289.38
284.67	286.38
284.901	293.38
285.132	288.38
285.364	281.38
285.595	292.38
285.826	278.38
286.057	302.38
286.288	297.38
286.52	292.38
286.751	294.38
286.982	292.38
287.213	293.38
287.444	303.38
287.675	301.38
287.906	323.38
288.138	315.38
288.369	314.38
288.6	303.38
288.831	321.38
289.062	306.38
289.293	309.38
289.524	308.38
289.755	303.38
289.986	288.38
290.217	316.38
290.448	302.38
290.679	307.38
290.91	308.38
291.141	304.38
291.371	311.38
291.602	290.38
291.833	311.38
292.064	310.38
292.295	302.38
292.526	309.38
292.757	310.38
292.987	295.38
293.218	311.38
293.449	321.38
293.68	291.38
293.91	313.38
294.141	301.38
294.372	299.38
294.603	308.38
294.833	311.38
295.064	327.38
295.295	300.38
295.525	318.38
295.756	338.38
295.987	316.38
296.217	340.38
296.448	333.38
296.679	315.38
296.909	325.38
297.14	344.38
297.37	319.38
297.601	335.38
297.831	328.38
298.062	321.38
298.292	338.38
298.523	326.38
298.753	315.38
298.984	329.38
299.214	338.38
299.445	337.38
299.675	317.38
299.905	337.38
300.136	333.38
300.366	337.38
300.597	343.38
300.827	336.38
301.057	346.38
301.288	340.38
301.518	345.38
301.748	365.38
301.979	355.38
302.209	353.38
302.439	343.38
302.669	358.38
302.9	360.38
303.13	336.38
303.36	338.38
303.59	345.38
303.82	365.38
304.051	367.38
304.281	344.38
304.511	353.38
304.741	367.38
304.971	343.38
305.201	369.38
305.431	359.38
305.661	345.38
305.891	351.38
306.121	355.38
306.352	340.38
306.582	347.38
306.812	343.38
307.042	339.38
307.272	336.38
307.502	346.38
307.731	330.38
307.961	346.38
308.191	339.38
308.421	348.38
308.651	334.38
308.881	354.38
309.111	361.38
309.341	375.38
309.571	349.38
309.8	351.38
310.03	373.38
310.26	365.38
310.49	352.38
310.72	381.38
310.949	359.38
311.179	378.38
311.409	380.38
311.639	365.38
311.868	381.38
312.098	367.38
312.328	373.38
312.557	377.38
312.787	396.38
313.017	393.38
313.246	384.38
313.476	373.38
313.706	386.38
313.935	405.38
314.165	407.38
314.394	398.38
314.624	415.38
314.853	392.38
315.083	389.38
315.312	397.38
315.542	397.38
315.771	348.38
316.001	379.38
316.23	369.38
316.46	388.38
316.689	396.38
316.919	376.38
317.148	403.38
317.377	396.38
317.607	376.38
317.836	387.38
318.065	358.38
318.295	383.38
318.524	369.38
318.753	368.38
318.983	388.38
319.212	375.38
319.441	389.38
319.67	393.38
319.9	386.38
320.129	389.38
320.358	402.38
320.587	399.38
320.816	395.38
321.046	391.38
321.275	398.38
321.504	399.38
321.733	381.38
321.962	386.38
322.191	424.38
322.42	415.38
322.649	409.38
322.878	405.38
323.108	431.38
323.337	435.38
323.566	449.38
323.795	457.38
324.024	479.38
324.253	555.38
324.482	719.38
324.71	1033.38
324.939	1375.38
325.168	1141.38
325.397	641.38
325.626	481.38
325.855	475.38
326.084	445.38
326.313	427.38
326.542	484.38
326.77	485.38
326.999	549.38
327.228	685.38
327.457	953.38
327.686	1063.38
327.914	755.38
328.143	567.38
328.372	533.38
328.6	483.38
328.829	487.38
329.058	487.38
329.287	500.38
329.515	477.38
329.744	474.38
329.972	471.38
330.201	496.38
330.43	509.38
330.658	526.38
330.887	541.38
331.115	530.38
331.344	484.38
331.572	485.38
331.801	478.38
332.03	482.38
332.258	470.38
332.486	464.38
332.715	469.38
332.943	483.38
333.172	505.38
333.4	528.38
333.629	531.38
333.857	549.38
334.085	536.38
334.314	538.38
334.542	561.38
334.771	555.38
334.999	529.38
335.227	513.38
335.455	510.38
335.684	515.38
335.912	499.38
336.14	489.38
336.369	456.38
336.597	472.38
336.825	483.38
337.053	465.38
337.281	474.38
337.51	459.38
337.738	469.38
337.966	444.38
338.194	455.38
338.422	466.38
338.65	457.38
338.878	432.38
339.106	451.38
339.334	461.38
339.562	446.38
339.79	429.38
340.018	425.38
340.246	440.38
340.474	437.38
340.702	454.38
340.93	444.38
341.158	441.38
341.386	447.38
341.614	436.38
341.842	415.38
342.07	425.38
342.298	438.38
342.526	433.38
342.754	444.38
342.981	422.38
343.209	442.38
343.437	449.38
343.665	456.38
343.893	473.38
344.12	491.38
344.348	501.38
344.576	474.38
344.804	451.38
345.031	452.38
345.259	441.38
345.487	450.38
345.714	439.38
345.942	419.38
346.17	423.38
346.397	449.38
346.625	412.38
346.853	437.38
347.08	425.38
347.308	407.38
347.535	428.38
347.763	412.38
347.99	442.38
348.218	439.38
348.445	441.38
348.673	431.38
348.9	428.38
349.128	426.38
349.355	386.38
349.583	412.38
349.81	412.38
350.037	405.38
350.265	406.38
350.492	401.38
350.72	402.38
350.947	426.38
351.174	413.38
351.402	414.38
351.629	408.38
351.856	391.38
352.083	393.38
352.311	428.38
352.538	438.38
352.765	427.38
352.992	415.38
353.22	417.38
353.447	426.38
353.674	411.38
353.901	400.38
354.128	406.38
354.355	427.38
354.583	411.38
354.81	408.38
355.037	406.38
355.264	403.38
355.491	403.38
355.718	394.38
355.945	405.38
356.172	407.38
356.399	405.38
356.626	409.38
356.853	423.38
357.08	411.38
357.307	408.38
357.534	409.38
357.761	395.38
357.988	420.38
358.215	400.38
358.441	396.38
358.668	395.38
358.895	415.38
359.122	409.38
359.349	402.38
359.576	421.38
359.802	420.38
360.029	454.38
360.256	446.38
360.483	451.38
360.709	419.38
360.936	435.38
361.163	430.38
361.39	426.38
361.616	429.38
361.843	418.38
362.07	410.38
362.296	418.38
362.523	416.38
362.749	425.38
362.976	408.38
363.203	433.38
363.429	405.38
363.656	402.38
363.882	405.38
364.109	401.38
364.335	407.38
364.562	406.38
364.788	404.38
365.015	424.38
365.241	402.38
365.468	408.38
365.694	423.38
365.92	440.38
366.147	413.38
366.373	417.38
366.599	434.38
366.826	399.38
367.052	401.38
367.278	391.38
367.505	399.38
367.731	413.38
367.957	405.38
368.184	425.38
368.41	420.38
368.636	415.38
368.862	437.38
369.089	437.38
369.315	419.38
369.541	395.38
369.767	408.38
369.993	427.38
370.219	422.38
370.445	412.38
370.672	419.38
370.898	423.38
371.124	395.38
371.35	404.38
371.576	429.38
371.802	425.38
372.028	425.38
372.254	427.38
372.48	435.38
372.706	411.38
372.932	434.38
373.158	426.38
373.384	435.38
373.61	432.38
373.835	428.38
374.061	417.38
374.287	436.38
374.513	445.38
374.739	452.38
374.965	461.38
375.191	468.38
375.416	453.38
375.642	435.38
375.868	433.38
376.094	426.38
376.319	427.38
376.545	429.38
376.771	449.38
376.997	419.38
377.222	425.38
377.448	430.38
377.674	415.38
377.899	422.38
378.125	422.38
378.35	434.38
378.576	422.38
378.802	425.38
379.027	428.38
379.253	408.38
379.478	410.38
379.704	439.38
379.929	437.38
380.155	419.38
380.38	413.38
380.606	434.38
380.831	422.38
381.057	434.38
381.282	421.38
381.507	441.38
381.733	442.38
381.958	429.38
382.184	439.38
382.409	434.38
382.634	444.38
382.86	440.38
383.085	440.38
383.31	443.38
383.535	458.38
383.761	474.38
383.986	450.38
384.211	461.38
384.436	458.38
384.662	468.38
384.887	485.38
385.112	475.38
385.337	491.38
385.562	490.38
385.787	495.38
386.013	508.38
386.238	487.38
386.463	497.38
386.688	503.38
386.913	476.38
387.138	482.38
387.363	470.38
387.588	498.38
387.813	487.38
388.038	477.38
388.263	497.38
388.488	489.38
388.713	490.38
388.938	497.38
389.163	456.38
389.387	472.38
389.612	461.38
389.837	475.38
390.062	505.38
390.287	495.38
390.512	473.38
390.736	484.38
390.961	473.38
391.186	488.38
391.411	488.38
391.636	518.38
391.86	520.38
392.085	524.38
392.31	540.38
392.534	524.38
392.759	503.38
392.984	521.38
393.208	501.38
393.433	501.38
393.658	515.38
393.882	477.38
394.107	518.38
394.331	524.38
394.556	506.38
394.78	499.38
395.005	508.38
395.229	516.38
395.454	525.38
395.678	548.38
395.903	512.38
396.127	526.38
396.352	539.38
396.576	497.38
396.801	504.38
397.025	501.38
397.249	536.38
397.474	512.38
397.698	520.38
397.922	537.38
398.147	556.38
398.371	553.38
398.595	545.38
398.82	564.38
399.044	605.38
399.268	657.38
399.492	689.38
399.717	754.38
399.941	805.38
400.165	738.38
400.389	711.38
400.613	621.38
400.837	596.38
401.062	594.38
401.286	603.38
401.51	582.38
401.734	562.38
401.958	564.38
402.182	572.38
402.406	607.38
402.63	611.38
402.854	608.38
403.078	618.38
403.302	602.38
403.526	633.38
403.75	632.38
403.974	639.38
404.198	611.38
404.422	631.38
404.645	628.38
404.869	622.38
405.093	633.38
405.317	671.38
405.541	665.38
405.765	642.38
405.988	637.38
406.212	644.38
406.436	659.38
406.66	667.38
406.883	654.38
407.107	698.38
407.331	717.38
407.555	796.38
407.778	769.38
408.002	692.38
408.226	678.38
408.449	665.38
408.673	647.38
408.896	675.38
409.12	675.38
409.344	662.38
409.567	619.38
409.791	639.38
410.014	623.38
410.238	616.38
410.461	603.38
410.685	602.38
410.908	641.38
411.132	616.38
411.355	638.38
411.578	625.38
411.802	615.38
412.025	577.38
412.249	602.38
412.472	628.38
412.695	635.38
412.919	633.38
413.142	592.38
413.365	577.38
413.589	584.38
413.812	560.38
414.035	561.38
414.258	562.38
414.482	555.38
414.705	574.38
414.928	585.38
415.151	561.38
415.374	557.38
415.597	590.38
415.821	546.38
416.044	545.38
416.267	565.38
416.49	549.38
416.713	555.38
416.936	588.38
417.159	552.38
417.382	572.38
417.605	545.38
417.828	577.38
418.051	591.38
418.274	565.38
418.497	568.38
418.72	568.38
418.943	593.38
419.166	596.38
419.389	630.38
419.611	621.38
419.834	587.38
420.057	631.38
420.28	592.38
420.503	573.38
420.726	593.38
420.948	579.38
421.171	620.38
421.394	621.38
421.617	591.38
421.839	597.38
422.062	587.38
422.285	586.38
422.507	588.38
422.73	649.38
422.953	661.38
423.175	613.38
423.398	624.38
423.621	587.38
423.843	621.38
424.066	626.38
424.288	599.38
424.511	612.38
424.733	657.38
424.956	695.38
425.178	688.38
425.401	639.38
425.623	708.38
425.846	628.38
426.068	594.38
426.291	593.38
426.513	572.38
426.735	588.38
426.958	615.38
427.18	653.38
427.402	724.38
427.625	784.38
427.847	677.38
428.069	623.38
428.292	592.38
428.514	543.38
428.736	531.38
428.958	537.38
429.181	531.38
429.403	519.38
429.625	511.38
429.847	552.38
430.069	593.38
430.292	595.38
430.514	523.38
430.736	513.38
430.958	536.38
431.18	528.38
431.402	512.38
431.624	517.38
431.846	528.38
432.068	548.38
432.29	538.38
432.512	489.38
432.734	527.38
432.956	516.38
433.178	536.38
433.4	527.38
433.622	533.38
433.844	522.38
434.066	542.38
434.287	560.38
434.509	537.38
434.731	554.38
434.953	559.38
435.175	570.38
435.397	552.38
435.618	561.38
435.84	586.38
436.062	653.38
436.284	688.38
436.505	589.38
436.727	555.38
436.949	537.38
437.17	513.38
437.392	515.38
437.614	538.38
437.835	557.38
438.057	589.38
438.278	662.38
438.5	662.38
438.721	701.38
438.943	697.38
439.165	583.38
439.386	573.38
439.608	552.38
439.829	547.38
440.05	577.38
440.272	601.38
440.493	585.38
440.715	533.38
440.936	523.38
441.158	529.38
441.379	558.38
441.6	557.38
441.822	581.38
442.043	626.38
442.264	656.38
442.486	671.38
442.707	600.38
442.928	589.38
443.149	581.38
443.371	624.38
443.592	618.38
443.813	691.38
444.034	719.38
444.255	639.38
444.476	623.38
444.698	651.38
444.919	627.38
445.14	718.38
445.361	655.38
445.582	612.38
445.803	649.38
446.024	691.38
446.245	662.38
446.466	628.38
446.687	554.38
446.908	551.38
447.129	549.38
447.35	513.38
447.571	538.38
447.792	508.38
448.013	510.38
448.234	505.38
448.455	545.38
448.675	611.38
448.896	672.38
449.117	600.38
449.338	540.38
449.559	635.38
449.779	718.38
450	594.38
450.221	512.38
450.442	496.38
450.662	503.38
450.883	502.38
451.104	511.38
451.324	495.38
451.545	464.38
451.766	467.38
451.986	452.38
452.207	471.38
452.428	474.38
452.648	462.38
452.869	463.38
453.089	469.38
453.31	482.38
453.53	474.38
453.751	455.38
453.971	448.38
454.192	475.38
454.412	473.38
454.633	457.38
454.853	466.38
455.073	447.38
455.294	468.38
455.514	505.38
455.734	501.38
455.955	431.38
456.175	424.38
456.395	427.38
456.616	449.38
456.836	436.38
457.056	425.38
457.276	433.38
457.497	442.38
457.717	431.38
457.937	439.38
458.157	454.38
458.377	478.38
458.598	494.38
458.818	523.38
459.038	577.38
459.258	582.38
459.478	505.38
459.698	509.38
459.918	545.38
460.138	526.38
460.358	563.38
460.578	538.38
460.798	547.38
461.018	563.38
461.238	546.38
461.458	537.38
461.678	551.38
461.898	541.38
462.118	547.38
462.338	588.38
462.558	572.38
462.777	621.38
462.997	638.38
463.217	671.38
463.437	672.38
463.657	635.38
463.876	631.38
464.096	603.38
464.316	620.38
464.536	624.38
464.755	588.38
464.975	606.38
465.195	611.38
465.414	643.38
465.634	577.38
465.854	526.38
466.073	529.38
466.293	520.38
466.512	505.38
466.732	511.38
466.951	484.38
467.171	474.38
467.391	464.38
467.61	493.38
467.829	497.38
468.049	491.38
468.268	499.38
468.488	468.38
468.707	467.38
468.927	460.38
469.146	463.38
469.365	473.38
469.585	447.38
469.804	497.38
470.023	497.38
470.243	522.38
470.462	499.38
470.681	514.38
470.901	508.38
471.12	508.38
471.339	488.38
471.558	466.38
471.777	470.38
471.997	464.38
472.216	505.38
472.435	532.38
472.654	492.38
472.873	476.38
473.092	470.38
473.311	455.38
473.53	493.38
473.749	473.38
473.968	505.38
474.187	555.38
474.406	555.38
474.625	467.38
474.844	460.38
475.063	457.38
475.282	471.38
475.501	486.38
475.72	482.38
475.939	483.38
476.158	471.38
476.377	481.38
476.596	499.38
476.814	506.38
477.033	498.38
477.252	515.38
477.471	523.38
477.69	547.38
477.908	548.38
478.127	542.38
478.346	530.38
478.564	568.38
478.783	546.38
479.002	561.38
479.22	572.38
479.439	540.38
479.658	602.38
479.876	585.38
480.095	582.38
480.313	613.38
480.532	623.38
480.751	613.38
480.969	629.38
481.188	651.38
481.406	668.38
481.624	608.38
481.843	560.38
482.061	552.38
482.28	565.38
482.498	536.38
482.717	533.38
482.935	555.38
483.153	543.38
483.372	577.38
483.59	540.38
483.808	559.38
484.027	565.38
484.245	559.38
484.463	563.38
484.681	558.38
484.9	559.38
485.118	556.38
485.336	554.38
485.554	553.38
485.772	576.38
485.99	582.38
486.209	565.38
486.427	575.38
486.645	574.38
486.863	593.38
487.081	589.38
487.299	585.38
487.517	596.38
487.735	581.38
487.953	577.38
488.171	578.38
488.389	599.38
488.607	591.38
488.825	586.38
489.043	582.38
489.261	574.38
489.479	598.38
489.696	601.38
489.914	592.38
490.132	585.38
490.35	595.38
490.568	589.38
490.786	605.38
491.003	603.38
491.221	605.38
491.439	618.38
491.657	661.38
491.874	673.38
492.092	655.38
492.31	671.38
492.527	658.38
492.745	660.38
492.963	659.38
493.18	655.38
493.398	668.38
493.615	683.38
493.833	690.38
494.05	660.38
494.268	687.38
494.485	654.38
494.703	661.38
494.92	653.38
495.138	662.38
495.355	660.38
495.573	663.38
495.79	652.38
496.008	669.38
496.225	672.38
496.442	649.38
496.66	675.38
496.877	678.38
497.094	711.38
497.312	707.38
497.529	720.38
497.746	720.38
497.963	733.38
498.181	705.38
498.398	763.38
498.615	803.38
498.832	800.38
499.049	868.38
499.267	914.38
499.484	941.38
499.701	1011.38
499.918	1072.38
500.135	1198.38
500.352	1274.38
500.569	1326.38
500.786	1313.38
501.003	1289.38
501.22	1148.38
501.437	1079.38
501.654	1025.38
501.871	976.38
