Data from 1960PennyLincolnUp.LampE6.200Scan.07172019.P1_HRD10591_13-05-43-001.txt Node
Date: Thu Jul 18 13:05:43 EDT 2019
User: cochatt
Spectrometer: HR+D1059
Trigger mode: 1
Integration Time (sec): 1.000000E-1
Scans to average: 1
Electric dark correction enabled: true
Nonlinearity correction enabled: false
Boxcar width: 0
XAxis mode: Wavelengths
Number of Pixels in Spectrum: 2048
>>>>>Begin Spectral Data<<<<<
223.165	-15.56
223.4	-15.56
223.635	-15.56
223.869	-18.56
224.104	-8.56
224.338	-12.56
224.573	-9.56
224.808	-9.56
225.042	-14.56
225.277	-1.56
225.511	-1.56
225.746	7.44
225.98	15.44
226.215	14.44
226.449	4.44
226.683	17.44
226.918	6.44
227.152	26.44
227.387	37.44
227.621	40.44
227.856	66.44
228.09	54.44
228.324	41.44
228.559	52.44
228.793	57.44
229.027	89.44
229.262	94.44
229.496	97.44
229.73	97.44
229.964	119.44
230.199	96.44
230.433	101.44
230.667	87.44
230.901	106.44
231.136	92.44
231.37	97.44
231.604	112.44
231.838	110.44
232.072	110.44
232.306	103.44
232.541	112.44
232.775	112.44
233.009	104.44
233.243	111.44
233.477	120.44
233.711	119.44
233.945	115.44
234.179	110.44
234.413	124.44
234.647	119.44
234.881	104.44
235.115	105.44
235.349	112.44
235.583	110.44
235.817	118.44
236.051	113.44
236.285	137.44
236.519	127.44
236.753	108.44
236.987	122.44
237.221	153.44
237.455	185.44
237.689	146.44
237.922	125.44
238.156	134.44
238.39	118.44
238.624	125.44
238.858	119.44
239.091	116.44
239.325	126.44
239.559	118.44
239.793	111.44
240.027	119.44
240.26	139.44
240.494	136.44
240.728	136.44
240.961	139.44
241.195	138.44
241.429	144.44
241.662	127.44
241.896	122.44
242.13	139.44
242.363	117.44
242.597	117.44
242.83	126.44
243.064	124.44
243.298	136.44
243.531	137.44
243.765	122.44
243.998	130.44
244.232	144.44
244.465	152.44
244.699	147.44
244.932	137.44
245.166	134.44
245.399	128.44
245.633	146.44
245.866	137.44
246.099	143.44
246.333	120.44
246.566	148.44
246.8	130.44
247.033	149.44
247.266	164.44
247.5	159.44
247.733	144.44
247.966	142.44
248.2	152.44
248.433	167.44
248.666	158.44
248.899	163.44
249.133	166.44
249.366	169.44
249.599	158.44
249.832	160.44
250.066	157.44
250.299	163.44
250.532	178.44
250.765	178.44
250.998	177.44
251.231	199.44
251.465	179.44
251.698	164.44
251.931	178.44
252.164	177.44
252.397	173.44
252.63	192.44
252.863	201.44
253.096	199.44
253.329	208.44
253.562	201.44
253.795	200.44
254.028	184.44
254.261	182.44
254.494	203.44
254.727	197.44
254.96	229.44
255.193	234.44
255.426	206.44
255.659	209.44
255.892	200.44
256.124	197.44
256.357	213.44
256.59	207.44
256.823	199.44
257.056	189.44
257.289	178.44
257.521	197.44
257.754	186.44
257.987	186.44
258.22	171.44
258.452	180.44
258.685	185.44
258.918	193.44
259.151	175.44
259.383	214.44
259.616	207.44
259.849	207.44
260.081	232.44
260.314	207.44
260.547	222.44
260.779	211.44
261.012	204.44
261.244	184.44
261.477	197.44
261.71	198.44
261.942	207.44
262.175	208.44
262.407	190.44
262.64	199.44
262.872	189.44
263.105	210.44
263.337	213.44
263.57	190.44
263.802	213.44
264.035	197.44
264.267	196.44
264.499	184.44
264.732	176.44
264.964	217.44
265.197	206.44
265.429	190.44
265.661	204.44
265.894	215.44
266.126	197.44
266.358	203.44
266.591	216.44
266.823	211.44
267.055	200.44
267.287	213.44
267.52	215.44
267.752	221.44
267.984	209.44
268.216	218.44
268.448	210.44
268.681	214.44
268.913	200.44
269.145	228.44
269.377	249.44
269.609	242.44
269.841	251.44
270.073	239.44
270.306	241.44
270.538	262.44
270.77	262.44
271.002	272.44
271.234	260.44
271.466	259.44
271.698	280.44
271.93	273.44
272.162	279.44
272.394	257.44
272.626	269.44
272.858	253.44
273.09	240.44
273.322	244.44
273.553	232.44
273.785	231.44
274.017	251.44
274.249	252.44
274.481	236.44
274.713	239.44
274.945	249.44
275.176	247.44
275.408	253.44
275.64	239.44
275.872	249.44
276.104	256.44
276.335	247.44
276.567	243.44
276.799	240.44
277.031	272.44
277.262	273.44
277.494	288.44
277.726	264.44
277.957	260.44
278.189	254.44
278.421	253.44
278.652	259.44
278.884	239.44
279.115	270.44
279.347	249.44
279.579	264.44
279.81	242.44
280.042	270.44
280.273	259.44
280.505	255.44
280.736	264.44
280.968	258.44
281.199	265.44
281.431	256.44
281.662	248.44
281.894	241.44
282.125	274.44
282.356	261.44
282.588	281.44
282.819	276.44
283.051	269.44
283.282	265.44
283.513	279.44
283.745	270.44
283.976	266.44
284.207	277.44
284.439	259.44
284.67	291.44
284.901	273.44
285.132	281.44
285.364	275.44
285.595	281.44
285.826	286.44
286.057	277.44
286.288	285.44
286.52	282.44
286.751	296.44
286.982	287.44
287.213	298.44
287.444	281.44
287.675	292.44
287.906	287.44
288.138	286.44
288.369	286.44
288.6	295.44
288.831	275.44
289.062	289.44
289.293	296.44
289.524	312.44
289.755	305.44
289.986	289.44
290.217	289.44
290.448	314.44
290.679	292.44
290.91	287.44
291.141	289.44
291.371	288.44
291.602	278.44
291.833	316.44
292.064	302.44
292.295	284.44
292.526	297.44
292.757	277.44
292.987	291.44
293.218	289.44
293.449	297.44
293.68	312.44
293.91	294.44
294.141	308.44
294.372	303.44
294.603	306.44
294.833	299.44
295.064	321.44
295.295	309.44
295.525	294.44
295.756	297.44
295.987	292.44
296.217	324.44
296.448	325.44
296.679	307.44
296.909	302.44
297.14	311.44
297.37	303.44
297.601	320.44
297.831	314.44
298.062	326.44
298.292	308.44
298.523	336.44
298.753	325.44
298.984	304.44
299.214	319.44
299.445	312.44
299.675	319.44
299.905	321.44
300.136	318.44
300.366	328.44
300.597	316.44
300.827	336.44
301.057	333.44
301.288	325.44
301.518	341.44
301.748	332.44
301.979	334.44
302.209	346.44
302.439	335.44
302.669	336.44
302.9	337.44
303.13	332.44
303.36	346.44
303.59	326.44
303.82	325.44
304.051	340.44
304.281	329.44
304.511	326.44
304.741	350.44
304.971	341.44
305.201	334.44
305.431	330.44
305.661	344.44
305.891	332.44
306.121	334.44
306.352	323.44
306.582	348.44
306.812	338.44
307.042	348.44
307.272	328.44
307.502	355.44
307.731	352.44
307.961	334.44
308.191	342.44
308.421	320.44
308.651	325.44
308.881	341.44
309.111	345.44
309.341	324.44
309.571	350.44
309.8	360.44
310.03	347.44
310.26	358.44
310.49	353.44
310.72	368.44
310.949	353.44
311.179	353.44
311.409	349.44
311.639	373.44
311.868	385.44
312.098	349.44
312.328	368.44
312.557	370.44
312.787	370.44
313.017	372.44
313.246	368.44
313.476	369.44
313.706	363.44
313.935	371.44
314.165	366.44
314.394	384.44
314.624	362.44
314.853	376.44
315.083	397.44
315.312	380.44
315.542	381.44
315.771	370.44
316.001	377.44
316.23	364.44
316.46	346.44
316.689	370.44
316.919	376.44
317.148	369.44
317.377	370.44
317.607	378.44
317.836	385.44
318.065	362.44
318.295	355.44
318.524	351.44
318.753	378.44
318.983	334.44
319.212	370.44
319.441	391.44
319.67	382.44
319.9	355.44
320.129	362.44
320.358	357.44
320.587	363.44
320.816	369.44
321.046	377.44
321.275	376.44
321.504	378.44
321.733	382.44
321.962	371.44
322.191	379.44
322.42	394.44
322.649	373.44
322.878	421.44
323.108	414.44
323.337	414.44
323.566	418.44
323.795	423.44
324.024	471.44
324.253	506.44
324.482	679.44
324.71	954.44
324.939	1246.44
325.168	1078.44
325.397	610.44
325.626	464.44
325.855	444.44
326.084	438.44
326.313	422.44
326.542	430.44
326.77	446.44
326.999	510.44
327.228	647.44
327.457	869.44
327.686	1024.44
327.914	683.44
328.143	513.44
328.372	503.44
328.6	482.44
328.829	439.44
329.058	458.44
329.287	482.44
329.515	454.44
329.744	445.44
329.972	440.44
330.201	454.44
330.43	485.44
330.658	463.44
330.887	502.44
331.115	472.44
331.344	469.44
331.572	458.44
331.801	444.44
332.03	447.44
332.258	456.44
332.486	464.44
332.715	449.44
332.943	488.44
333.172	494.44
333.4	498.44
333.629	508.44
333.857	518.44
334.085	527.44
334.314	527.44
334.542	524.44
334.771	534.44
334.999	525.44
335.227	487.44
335.455	472.44
335.684	460.44
335.912	482.44
336.14	461.44
336.369	468.44
336.597	469.44
336.825	476.44
337.053	468.44
337.281	453.44
337.51	452.44
337.738	460.44
337.966	441.44
338.194	472.44
338.422	442.44
338.65	435.44
338.878	425.44
339.106	421.44
339.334	432.44
339.562	441.44
339.79	425.44
340.018	442.44
340.246	422.44
340.474	410.44
340.702	411.44
340.93	420.44
341.158	416.44
341.386	407.44
341.614	422.44
341.842	414.44
342.07	416.44
342.298	425.44
342.526	414.44
342.754	418.44
342.981	412.44
343.209	433.44
343.437	437.44
343.665	447.44
343.893	460.44
344.12	476.44
344.348	473.44
344.576	464.44
344.804	435.44
345.031	430.44
345.259	406.44
345.487	427.44
345.714	414.44
345.942	416.44
346.17	402.44
346.397	424.44
346.625	398.44
346.853	391.44
347.08	399.44
347.308	417.44
347.535	421.44
347.763	404.44
347.99	429.44
348.218	428.44
348.445	403.44
348.673	387.44
348.9	415.44
349.128	408.44
349.355	374.44
349.583	381.44
349.81	414.44
350.037	392.44
350.265	408.44
350.492	400.44
350.72	392.44
350.947	394.44
351.174	397.44
351.402	390.44
351.629	393.44
351.856	416.44
352.083	393.44
352.311	395.44
352.538	387.44
352.765	398.44
352.992	407.44
353.22	385.44
353.447	399.44
353.674	387.44
353.901	392.44
354.128	390.44
354.355	386.44
354.583	376.44
354.81	361.44
355.037	389.44
355.264	382.44
355.491	401.44
355.718	397.44
355.945	373.44
356.172	377.44
356.399	387.44
356.626	380.44
356.853	386.44
357.08	370.44
357.307	373.44
357.534	392.44
357.761	394.44
357.988	396.44
358.215	388.44
358.441	392.44
358.668	376.44
358.895	381.44
359.122	407.44
359.349	403.44
359.576	390.44
359.802	420.44
360.029	421.44
360.256	421.44
360.483	413.44
360.709	409.44
360.936	403.44
361.163	419.44
361.39	405.44
361.616	396.44
361.843	415.44
362.07	388.44
362.296	385.44
362.523	384.44
362.749	393.44
362.976	407.44
363.203	404.44
363.429	366.44
363.656	402.44
363.882	394.44
364.109	402.44
364.335	390.44
364.562	381.44
364.788	396.44
365.015	408.44
365.241	401.44
365.468	400.44
365.694	386.44
365.92	397.44
366.147	407.44
366.373	377.44
366.599	406.44
366.826	404.44
367.052	393.44
367.278	389.44
367.505	391.44
367.731	401.44
367.957	407.44
368.184	392.44
368.41	388.44
368.636	383.44
368.862	426.44
369.089	396.44
369.315	400.44
369.541	408.44
369.767	391.44
369.993	388.44
370.219	390.44
370.445	421.44
370.672	399.44
370.898	402.44
371.124	391.44
371.35	420.44
371.576	408.44
371.802	418.44
372.028	416.44
372.254	394.44
372.48	406.44
372.706	410.44
372.932	425.44
373.158	433.44
373.384	422.44
373.61	431.44
373.835	418.44
374.061	404.44
374.287	426.44
374.513	436.44
374.739	456.44
374.965	435.44
375.191	429.44
375.416	430.44
375.642	415.44
375.868	448.44
376.094	418.44
376.319	435.44
376.545	404.44
376.771	415.44
376.997	409.44
377.222	424.44
377.448	428.44
377.674	420.44
377.899	420.44
378.125	386.44
378.35	402.44
378.576	415.44
378.802	395.44
379.027	408.44
379.253	415.44
379.478	412.44
379.704	389.44
379.929	392.44
380.155	420.44
380.38	408.44
380.606	422.44
380.831	428.44
381.057	427.44
381.282	409.44
381.507	423.44
381.733	427.44
381.958	405.44
382.184	404.44
382.409	447.44
382.634	417.44
382.86	434.44
383.085	425.44
383.31	437.44
383.535	436.44
383.761	438.44
383.986	454.44
384.211	440.44
384.436	468.44
384.662	457.44
384.887	456.44
385.112	449.44
385.337	451.44
385.562	478.44
385.787	469.44
386.013	478.44
386.238	480.44
386.463	483.44
386.688	480.44
386.913	455.44
387.138	465.44
387.363	453.44
387.588	469.44
387.813	480.44
388.038	457.44
388.263	465.44
388.488	466.44
388.713	458.44
388.938	473.44
389.163	471.44
389.387	467.44
389.612	457.44
389.837	473.44
390.062	471.44
390.287	451.44
390.512	453.44
390.736	472.44
390.961	482.44
391.186	472.44
391.411	489.44
391.636	488.44
391.86	489.44
392.085	517.44
392.31	510.44
392.534	505.44
392.759	514.44
392.984	485.44
393.208	515.44
393.433	513.44
393.658	490.44
393.882	502.44
394.107	471.44
394.331	490.44
394.556	453.44
394.78	504.44
395.005	505.44
395.229	484.44
395.454	471.44
395.678	519.44
395.903	513.44
396.127	509.44
396.352	505.44
396.576	505.44
396.801	506.44
397.025	498.44
397.249	521.44
397.474	491.44
397.698	510.44
397.922	492.44
398.147	522.44
398.371	533.44
398.595	566.44
398.82	553.44
399.044	555.44
399.268	608.44
399.492	679.44
399.717	766.44
399.941	752.44
400.165	720.44
400.389	671.44
400.613	629.44
400.837	585.44
401.062	574.44
401.286	544.44
401.51	575.44
401.734	552.44
401.958	560.44
402.182	565.44
402.406	576.44
402.63	591.44
402.854	583.44
403.078	583.44
403.302	617.44
403.526	622.44
403.75	614.44
403.974	592.44
404.198	591.44
404.422	593.44
404.645	608.44
404.869	588.44
405.093	614.44
405.317	652.44
405.541	663.44
405.765	628.44
405.988	615.44
406.212	637.44
406.436	606.44
406.66	648.44
406.883	623.44
407.107	672.44
407.331	696.44
407.555	753.44
407.778	736.44
408.002	686.44
408.226	650.44
408.449	655.44
408.673	642.44
408.896	648.44
409.12	652.44
409.344	637.44
409.567	626.44
409.791	600.44
410.014	585.44
410.238	598.44
410.461	599.44
410.685	592.44
410.908	586.44
411.132	629.44
411.355	592.44
411.578	595.44
411.802	578.44
412.025	580.44
412.249	590.44
412.472	597.44
412.695	621.44
412.919	584.44
413.142	571.44
413.365	546.44
413.589	548.44
413.812	550.44
414.035	539.44
414.258	576.44
414.482	544.44
414.705	533.44
414.928	562.44
415.151	551.44
415.374	543.44
415.597	529.44
415.821	531.44
416.044	545.44
416.267	527.44
416.49	530.44
416.713	558.44
416.936	540.44
417.159	529.44
417.382	530.44
417.605	546.44
417.828	571.44
418.051	581.44
418.274	575.44
418.497	555.44
418.72	574.44
418.943	542.44
419.166	575.44
419.389	599.44
419.611	581.44
419.834	589.44
420.057	584.44
420.28	577.44
420.503	557.44
420.726	556.44
420.948	586.44
421.171	578.44
421.394	630.44
421.617	575.44
421.839	583.44
422.062	549.44
422.285	544.44
422.507	602.44
422.73	654.44
422.953	634.44
423.175	585.44
423.398	591.44
423.621	568.44
423.843	616.44
424.066	614.44
424.288	610.44
424.511	586.44
424.733	625.44
424.956	674.44
425.178	646.44
425.401	640.44
425.623	647.44
425.846	577.44
426.068	584.44
426.291	554.44
426.513	553.44
426.735	558.44
426.958	573.44
427.18	618.44
427.402	708.44
427.625	738.44
427.847	658.44
428.069	580.44
428.292	568.44
428.514	532.44
428.736	524.44
428.958	517.44
429.181	518.44
429.403	503.44
429.625	505.44
429.847	532.44
430.069	591.44
430.292	572.44
430.514	530.44
430.736	511.44
430.958	517.44
431.18	492.44
431.402	482.44
431.624	471.44
431.846	502.44
432.068	481.44
432.29	500.44
432.512	534.44
432.734	515.44
432.956	500.44
433.178	514.44
433.4	522.44
433.622	516.44
433.844	492.44
434.066	499.44
434.287	491.44
434.509	507.44
434.731	533.44
434.953	551.44
435.175	531.44
435.397	583.44
435.618	543.44
435.84	559.44
436.062	631.44
436.284	617.44
436.505	571.44
436.727	552.44
436.949	525.44
437.17	507.44
437.392	528.44
437.614	524.44
437.835	535.44
438.057	565.44
438.278	622.44
438.5	649.44
438.721	691.44
438.943	659.44
439.165	552.44
439.386	535.44
439.608	517.44
439.829	545.44
440.05	565.44
440.272	575.44
440.493	542.44
440.715	524.44
440.936	525.44
441.158	531.44
441.379	537.44
441.6	565.44
441.822	577.44
442.043	588.44
442.264	639.44
442.486	641.44
442.707	596.44
442.928	568.44
443.149	569.44
443.371	582.44
443.592	613.44
443.813	650.44
444.034	660.44
444.255	624.44
444.476	597.44
444.698	613.44
444.919	633.44
445.14	741.44
445.361	658.44
445.582	614.44
445.803	620.44
446.024	674.44
446.245	660.44
446.466	617.44
446.687	558.44
446.908	526.44
447.129	501.44
447.35	501.44
447.571	489.44
447.792	500.44
448.013	500.44
448.234	496.44
448.455	520.44
448.675	593.44
448.896	654.44
449.117	567.44
449.338	552.44
449.559	589.44
449.779	662.44
450	576.44
450.221	506.44
450.442	502.44
450.662	498.44
450.883	478.44
451.104	504.44
451.324	481.44
451.545	481.44
451.766	477.44
451.986	445.44
452.207	471.44
452.428	466.44
452.648	445.44
452.869	441.44
453.089	456.44
453.31	485.44
453.53	453.44
453.751	459.44
453.971	445.44
454.192	446.44
454.412	447.44
454.633	434.44
454.853	429.44
455.073	428.44
455.294	463.44
455.514	501.44
455.734	494.44
455.955	447.44
456.175	453.44
456.395	435.44
456.616	409.44
456.836	417.44
457.056	438.44
457.276	429.44
457.497	417.44
457.717	423.44
457.937	432.44
458.157	437.44
458.377	451.44
458.598	476.44
458.818	478.44
459.038	532.44
459.258	538.44
459.478	481.44
459.698	486.44
459.918	505.44
460.138	511.44
460.358	521.44
460.578	529.44
460.798	546.44
461.018	546.44
461.238	535.44
461.458	532.44
461.678	513.44
461.898	519.44
462.118	531.44
462.338	559.44
462.558	575.44
462.777	587.44
462.997	603.44
463.217	638.44
463.437	656.44
463.657	604.44
463.876	589.44
464.096	585.44
464.316	574.44
464.536	602.44
464.755	585.44
464.975	580.44
465.195	581.44
465.414	613.44
465.634	534.44
465.854	516.44
466.073	501.44
466.293	472.44
466.512	466.44
466.732	465.44
466.951	461.44
467.171	462.44
467.391	484.44
467.61	472.44
467.829	497.44
468.049	469.44
468.268	453.44
468.488	464.44
468.707	436.44
468.927	448.44
469.146	469.44
469.365	445.44
469.585	446.44
469.804	458.44
470.023	470.44
470.243	479.44
470.462	472.44
470.681	508.44
470.901	498.44
471.12	485.44
471.339	476.44
471.558	468.44
471.777	476.44
471.997	480.44
472.216	484.44
472.435	513.44
472.654	476.44
472.873	472.44
473.092	451.44
473.311	449.44
473.53	457.44
473.749	451.44
473.968	463.44
474.187	529.44
474.406	548.44
474.625	480.44
474.844	438.44
475.063	454.44
475.282	478.44
475.501	476.44
475.72	449.44
475.939	481.44
476.158	481.44
476.377	469.44
476.596	451.44
476.814	473.44
477.033	482.44
477.252	496.44
477.471	484.44
477.69	492.44
477.908	497.44
478.127	545.44
478.346	526.44
478.564	523.44
478.783	549.44
479.002	550.44
479.22	554.44
479.439	550.44
479.658	556.44
479.876	563.44
480.095	569.44
480.313	597.44
480.532	591.44
480.751	601.44
480.969	575.44
481.188	622.44
481.406	628.44
481.624	558.44
481.843	544.44
482.061	536.44
482.28	521.44
482.498	526.44
482.717	537.44
482.935	537.44
483.153	534.44
483.372	516.44
483.59	537.44
483.808	513.44
484.027	537.44
484.245	534.44
484.463	526.44
484.681	559.44
484.9	544.44
485.118	550.44
485.336	558.44
485.554	560.44
485.772	548.44
485.99	558.44
486.209	548.44
486.427	545.44
486.645	564.44
486.863	586.44
487.081	577.44
487.299	549.44
487.517	558.44
487.735	545.44
487.953	565.44
488.171	572.44
488.389	554.44
488.607	560.44
488.825	561.44
489.043	562.44
489.261	564.44
489.479	569.44
489.696	561.44
489.914	568.44
490.132	548.44
490.35	584.44
490.568	573.44
490.786	583.44
491.003	600.44
491.221	608.44
491.439	608.44
491.657	635.44
491.874	629.44
492.092	633.44
492.31	641.44
492.527	621.44
492.745	612.44
492.963	608.44
493.18	642.44
493.398	641.44
493.615	649.44
493.833	639.44
494.05	629.44
494.268	639.44
494.485	633.44
494.703	626.44
494.92	643.44
495.138	645.44
495.355	645.44
495.573	642.44
495.79	646.44
496.008	663.44
496.225	618.44
496.442	646.44
496.66	654.44
496.877	680.44
497.094	678.44
497.312	676.44
497.529	693.44
497.746	695.44
497.963	710.44
498.181	706.44
498.398	718.44
498.615	760.44
498.832	781.44
499.049	828.44
499.267	868.44
499.484	928.44
499.701	976.44
499.918	1062.44
500.135	1137.44
500.352	1229.44
500.569	1273.44
500.786	1270.44
501.003	1227.44
501.22	1140.44
501.437	1052.44
501.654	989.44
501.871	946.44
502.088	886.44
