Data from 1960PennyLincolnUp.LampE5.5.200Scan.07172019.P1.ChangedAngle_HRD10591_13-14-29-821.txt Node
Date: Thu Jul 18 13:14:29 EDT 2019
User: cochatt
Spectrometer: HR+D1059
Trigger mode: 1
Integration Time (sec): 1.000000E-1
Scans to average: 1
Electric dark correction enabled: true
Nonlinearity correction enabled: false
Boxcar width: 0
XAxis mode: Wavelengths
Number of Pixels in Spectrum: 2048
>>>>>Begin Spectral Data<<<<<
223.165	-0.19
223.4	-0.19
223.635	-0.19
223.869	-11.19
224.104	-28.19
224.338	-8.19
224.573	-6.19
224.808	-28.19
225.042	-9.19
225.277	-14.19
225.511	-0.19
225.746	15.81
225.98	12.81
226.215	-2.19
226.449	5.81
226.683	21.81
226.918	20.81
227.152	30.81
227.387	24.81
227.621	32.81
227.856	51.81
228.09	32.81
228.324	46.81
228.559	57.81
228.793	52.81
229.027	71.81
229.262	97.81
229.496	107.81
229.73	88.81
229.964	112.81
230.199	104.81
230.433	106.81
230.667	96.81
230.901	109.81
231.136	105.81
231.37	105.81
231.604	94.81
231.838	109.81
232.072	119.81
232.306	103.81
232.541	105.81
232.775	104.81
233.009	96.81
233.243	95.81
233.477	101.81
233.711	109.81
233.945	108.81
234.179	117.81
234.413	97.81
234.647	111.81
234.881	105.81
235.115	113.81
235.349	129.81
235.583	106.81
235.817	107.81
236.051	123.81
236.285	115.81
236.519	119.81
236.753	113.81
236.987	124.81
237.221	132.81
237.455	169.81
237.689	137.81
237.922	112.81
238.156	128.81
238.39	111.81
238.624	111.81
238.858	118.81
239.091	127.81
239.325	111.81
239.559	109.81
239.793	108.81
240.027	121.81
240.26	112.81
240.494	126.81
240.728	121.81
240.961	111.81
241.195	117.81
241.429	139.81
241.662	117.81
241.896	123.81
242.13	112.81
242.363	116.81
242.597	123.81
242.83	125.81
243.064	112.81
243.298	129.81
243.531	132.81
243.765	118.81
243.998	132.81
244.232	130.81
244.465	130.81
244.699	129.81
244.932	129.81
245.166	145.81
245.399	142.81
245.633	127.81
245.866	130.81
246.099	130.81
246.333	122.81
246.566	131.81
246.8	138.81
247.033	139.81
247.266	140.81
247.5	117.81
247.733	149.81
247.966	148.81
248.2	151.81
248.433	155.81
248.666	158.81
248.899	155.81
249.133	163.81
249.366	165.81
249.599	153.81
249.832	151.81
250.066	144.81
250.299	150.81
250.532	168.81
250.765	178.81
250.998	189.81
251.231	177.81
251.465	171.81
251.698	184.81
251.931	167.81
252.164	182.81
252.397	170.81
252.63	169.81
252.863	178.81
253.096	171.81
253.329	203.81
253.562	175.81
253.795	181.81
254.028	183.81
254.261	179.81
254.494	189.81
254.727	223.81
254.96	220.81
255.193	215.81
255.426	195.81
255.659	183.81
255.892	202.81
256.124	207.81
256.357	196.81
256.59	194.81
256.823	182.81
257.056	187.81
257.289	192.81
257.521	193.81
257.754	175.81
257.987	180.81
258.22	171.81
258.452	182.81
258.685	182.81
258.918	172.81
259.151	187.81
259.383	202.81
259.616	193.81
259.849	196.81
260.081	205.81
260.314	186.81
260.547	232.81
260.779	206.81
261.012	197.81
261.244	205.81
261.477	218.81
261.71	205.81
261.942	192.81
262.175	211.81
262.407	199.81
262.64	203.81
262.872	191.81
263.105	186.81
263.337	205.81
263.57	190.81
263.802	179.81
264.035	173.81
264.267	192.81
264.499	188.81
264.732	198.81
264.964	188.81
265.197	200.81
265.429	184.81
265.661	203.81
265.894	197.81
266.126	210.81
266.358	198.81
266.591	193.81
266.823	213.81
267.055	203.81
267.287	207.81
267.52	211.81
267.752	200.81
267.984	210.81
268.216	190.81
268.448	214.81
268.681	209.81
268.913	223.81
269.145	223.81
269.377	217.81
269.609	221.81
269.841	213.81
270.073	221.81
270.306	252.81
270.538	246.81
270.77	260.81
271.002	241.81
271.234	262.81
271.466	238.81
271.698	259.81
271.93	264.81
272.162	251.81
272.394	267.81
272.626	247.81
272.858	243.81
273.09	250.81
273.322	225.81
273.553	249.81
273.785	243.81
274.017	238.81
274.249	244.81
274.481	242.81
274.713	230.81
274.945	245.81
275.176	221.81
275.408	237.81
275.64	229.81
275.872	248.81
276.104	248.81
276.335	232.81
276.567	252.81
276.799	237.81
277.031	252.81
277.262	259.81
277.494	282.81
277.726	251.81
277.957	255.81
278.189	250.81
278.421	242.81
278.652	271.81
278.884	232.81
279.115	243.81
279.347	249.81
279.579	237.81
279.81	252.81
280.042	248.81
280.273	272.81
280.505	267.81
280.736	245.81
280.968	247.81
281.199	236.81
281.431	245.81
281.662	248.81
281.894	250.81
282.125	268.81
282.356	240.81
282.588	263.81
282.819	275.81
283.051	248.81
283.282	259.81
283.513	249.81
283.745	241.81
283.976	266.81
284.207	265.81
284.439	253.81
284.67	249.81
284.901	259.81
285.132	259.81
285.364	256.81
285.595	252.81
285.826	260.81
286.057	255.81
286.288	256.81
286.52	244.81
286.751	239.81
286.982	280.81
287.213	264.81
287.444	250.81
287.675	257.81
287.906	266.81
288.138	280.81
288.369	284.81
288.6	277.81
288.831	262.81
289.062	262.81
289.293	285.81
289.524	256.81
289.755	248.81
289.986	257.81
290.217	265.81
290.448	269.81
290.679	278.81
290.91	261.81
291.141	259.81
291.371	272.81
291.602	271.81
291.833	262.81
292.064	251.81
292.295	261.81
292.526	287.81
292.757	276.81
292.987	261.81
293.218	264.81
293.449	269.81
293.68	267.81
293.91	264.81
294.141	286.81
294.372	285.81
294.603	272.81
294.833	283.81
295.064	259.81
295.295	270.81
295.525	266.81
295.756	272.81
295.987	300.81
296.217	287.81
296.448	295.81
296.679	294.81
296.909	275.81
297.14	280.81
297.37	277.81
297.601	278.81
297.831	288.81
298.062	287.81
298.292	285.81
298.523	282.81
298.753	275.81
298.984	288.81
299.214	282.81
299.445	295.81
299.675	283.81
299.905	288.81
300.136	302.81
300.366	284.81
300.597	288.81
300.827	295.81
301.057	295.81
301.288	309.81
301.518	301.81
301.748	288.81
301.979	277.81
302.209	278.81
302.439	296.81
302.669	294.81
302.9	293.81
303.13	288.81
303.36	314.81
303.59	316.81
303.82	304.81
304.051	309.81
304.281	325.81
304.511	304.81
304.741	327.81
304.971	297.81
305.201	310.81
305.431	299.81
305.661	298.81
305.891	309.81
306.121	309.81
306.352	307.81
306.582	304.81
306.812	320.81
307.042	294.81
307.272	323.81
307.502	307.81
307.731	313.81
307.961	303.81
308.191	301.81
308.421	303.81
308.651	279.81
308.881	321.81
309.111	308.81
309.341	305.81
309.571	322.81
309.8	335.81
310.03	331.81
310.26	326.81
310.49	325.81
310.72	333.81
310.949	334.81
311.179	330.81
311.409	334.81
311.639	344.81
311.868	333.81
312.098	329.81
312.328	342.81
312.557	340.81
312.787	348.81
313.017	360.81
313.246	340.81
313.476	343.81
313.706	324.81
313.935	345.81
314.165	366.81
314.394	340.81
314.624	349.81
314.853	331.81
315.083	343.81
315.312	332.81
315.542	340.81
315.771	341.81
316.001	338.81
316.23	352.81
316.46	338.81
316.689	338.81
316.919	336.81
317.148	336.81
317.377	335.81
317.607	341.81
317.836	347.81
318.065	351.81
318.295	328.81
318.524	331.81
318.753	345.81
318.983	342.81
319.212	331.81
319.441	338.81
319.67	360.81
319.9	360.81
320.129	347.81
320.358	347.81
320.587	330.81
320.816	371.81
321.046	350.81
321.275	356.81
321.504	341.81
321.733	357.81
321.962	369.81
322.191	363.81
322.42	347.81
322.649	355.81
322.878	409.81
323.108	379.81
323.337	385.81
323.566	402.81
323.795	407.81
324.024	442.81
324.253	506.81
324.482	659.81
324.71	928.81
324.939	1218.81
325.168	1073.81
325.397	592.81
325.626	463.81
325.855	409.81
326.084	407.81
326.313	400.81
326.542	391.81
326.77	416.81
326.999	469.81
327.228	628.81
327.457	824.81
327.686	918.81
327.914	675.81
328.143	487.81
328.372	448.81
328.6	437.81
328.829	426.81
329.058	445.81
329.287	434.81
329.515	434.81
329.744	390.81
329.972	411.81
330.201	415.81
330.43	437.81
330.658	439.81
330.887	431.81
331.115	431.81
331.344	425.81
331.572	393.81
331.801	390.81
332.03	399.81
332.258	405.81
332.486	398.81
332.715	369.81
332.943	386.81
333.172	399.81
333.4	400.81
333.629	403.81
333.857	413.81
334.085	415.81
334.314	443.81
334.542	441.81
334.771	453.81
334.999	428.81
335.227	404.81
335.455	411.81
335.684	394.81
335.912	397.81
336.14	388.81
336.369	395.81
336.597	405.81
336.825	394.81
337.053	398.81
337.281	376.81
337.51	381.81
337.738	398.81
337.966	383.81
338.194	392.81
338.422	389.81
338.65	399.81
338.878	379.81
339.106	373.81
339.334	384.81
339.562	365.81
339.79	362.81
340.018	371.81
340.246	364.81
340.474	383.81
340.702	383.81
340.93	395.81
341.158	370.81
341.386	375.81
341.614	372.81
341.842	368.81
342.07	367.81
342.298	372.81
342.526	367.81
342.754	363.81
342.981	374.81
343.209	362.81
343.437	372.81
343.665	391.81
343.893	401.81
344.12	378.81
344.348	393.81
344.576	373.81
344.804	359.81
345.031	383.81
345.259	369.81
345.487	383.81
345.714	394.81
345.942	381.81
346.17	356.81
346.397	364.81
346.625	357.81
346.853	368.81
347.08	362.81
347.308	365.81
347.535	369.81
347.763	369.81
347.99	379.81
348.218	348.81
348.445	367.81
348.673	352.81
348.9	352.81
349.128	341.81
349.355	327.81
349.583	339.81
349.81	364.81
350.037	343.81
350.265	349.81
350.492	355.81
350.72	358.81
350.947	337.81
351.174	362.81
351.402	359.81
351.629	341.81
351.856	349.81
352.083	352.81
352.311	363.81
352.538	361.81
352.765	375.81
352.992	339.81
353.22	357.81
353.447	364.81
353.674	338.81
353.901	356.81
354.128	359.81
354.355	329.81
354.583	356.81
354.81	362.81
355.037	345.81
355.264	325.81
355.491	327.81
355.718	341.81
355.945	356.81
356.172	314.81
356.399	338.81
356.626	329.81
356.853	333.81
357.08	318.81
357.307	324.81
357.534	329.81
357.761	341.81
357.988	333.81
358.215	320.81
358.441	334.81
358.668	347.81
358.895	335.81
359.122	324.81
359.349	351.81
359.576	338.81
359.802	358.81
360.029	378.81
360.256	366.81
360.483	361.81
360.709	355.81
360.936	355.81
361.163	348.81
361.39	359.81
361.616	361.81
361.843	341.81
362.07	333.81
362.296	331.81
362.523	341.81
362.749	340.81
362.976	349.81
363.203	344.81
363.429	332.81
363.656	348.81
363.882	315.81
364.109	342.81
364.335	347.81
364.562	345.81
364.788	339.81
365.015	347.81
365.241	330.81
365.468	317.81
365.694	355.81
365.92	321.81
366.147	351.81
366.373	333.81
366.599	336.81
366.826	320.81
367.052	330.81
367.278	330.81
367.505	343.81
367.731	339.81
367.957	323.81
368.184	318.81
368.41	352.81
368.636	357.81
368.862	363.81
369.089	330.81
369.315	343.81
369.541	346.81
369.767	333.81
369.993	344.81
370.219	336.81
370.445	319.81
370.672	357.81
370.898	323.81
371.124	339.81
371.35	349.81
371.576	355.81
371.802	329.81
372.028	339.81
372.254	352.81
372.48	350.81
372.706	348.81
372.932	329.81
373.158	326.81
373.384	336.81
373.61	351.81
373.835	341.81
374.061	325.81
374.287	357.81
374.513	329.81
374.739	343.81
374.965	359.81
375.191	322.81
375.416	333.81
375.642	330.81
375.868	352.81
376.094	345.81
376.319	343.81
376.545	334.81
376.771	330.81
376.997	327.81
377.222	326.81
377.448	317.81
377.674	319.81
377.899	319.81
378.125	330.81
378.35	334.81
378.576	342.81
378.802	329.81
379.027	324.81
379.253	339.81
379.478	321.81
379.704	328.81
379.929	335.81
380.155	342.81
380.38	329.81
380.606	328.81
380.831	339.81
381.057	335.81
381.282	334.81
381.507	332.81
381.733	330.81
381.958	343.81
382.184	331.81
382.409	343.81
382.634	337.81
382.86	329.81
383.085	339.81
383.31	359.81
383.535	349.81
383.761	361.81
383.986	343.81
384.211	341.81
384.436	339.81
384.662	346.81
384.887	347.81
385.112	337.81
385.337	353.81
385.562	345.81
385.787	364.81
386.013	355.81
386.238	350.81
386.463	355.81
386.688	367.81
386.913	364.81
387.138	361.81
387.363	360.81
387.588	340.81
387.813	352.81
388.038	352.81
388.263	360.81
388.488	361.81
388.713	361.81
388.938	360.81
389.163	366.81
389.387	351.81
389.612	360.81
389.837	352.81
390.062	368.81
390.287	370.81
390.512	348.81
390.736	352.81
390.961	343.81
391.186	363.81
391.411	361.81
391.636	371.81
391.86	373.81
392.085	372.81
392.31	387.81
392.534	359.81
392.759	366.81
392.984	374.81
393.208	371.81
393.433	377.81
393.658	385.81
393.882	365.81
394.107	340.81
394.331	375.81
394.556	356.81
394.78	355.81
395.005	369.81
395.229	356.81
395.454	363.81
395.678	371.81
395.903	371.81
396.127	405.81
396.352	375.81
396.576	362.81
396.801	359.81
397.025	372.81
397.249	374.81
397.474	376.81
397.698	385.81
397.922	382.81
398.147	409.81
398.371	396.81
398.595	398.81
398.82	405.81
399.044	403.81
399.268	415.81
399.492	440.81
399.717	477.81
399.941	479.81
400.165	469.81
400.389	486.81
400.613	462.81
400.837	433.81
401.062	410.81
401.286	411.81
401.51	414.81
401.734	386.81
401.958	405.81
402.182	387.81
402.406	385.81
402.63	401.81
402.854	397.81
403.078	405.81
403.302	401.81
403.526	395.81
403.75	404.81
403.974	417.81
404.198	410.81
404.422	419.81
404.645	424.81
404.869	427.81
405.093	440.81
405.317	452.81
405.541	469.81
405.765	438.81
405.988	414.81
406.212	420.81
406.436	445.81
406.66	424.81
406.883	433.81
407.107	457.81
407.331	462.81
407.555	517.81
407.778	511.81
408.002	464.81
408.226	453.81
408.449	453.81
408.673	435.81
408.896	449.81
409.12	462.81
409.344	456.81
409.567	414.81
409.791	419.81
410.014	410.81
410.238	417.81
410.461	413.81
410.685	407.81
410.908	418.81
411.132	443.81
411.355	439.81
411.578	444.81
411.802	419.81
412.025	391.81
412.249	402.81
412.472	405.81
412.695	442.81
412.919	414.81
413.142	406.81
413.365	398.81
413.589	386.81
413.812	377.81
414.035	372.81
414.258	386.81
414.482	379.81
414.705	381.81
414.928	371.81
415.151	387.81
415.374	387.81
415.597	392.81
415.821	373.81
416.044	371.81
416.267	396.81
416.49	357.81
416.713	363.81
416.936	384.81
417.159	373.81
417.382	368.81
417.605	383.81
417.828	388.81
418.051	385.81
418.274	374.81
418.497	382.81
418.72	373.81
418.943	383.81
419.166	377.81
419.389	405.81
419.611	411.81
419.834	391.81
420.057	408.81
420.28	389.81
420.503	395.81
420.726	396.81
420.948	394.81
421.171	431.81
421.394	421.81
421.617	406.81
421.839	399.81
422.062	375.81
422.285	397.81
422.507	421.81
422.73	488.81
422.953	480.81
423.175	408.81
423.398	400.81
423.621	406.81
423.843	404.81
424.066	400.81
424.288	405.81
424.511	420.81
424.733	438.81
424.956	500.81
425.178	482.81
425.401	484.81
425.623	480.81
425.846	425.81
426.068	428.81
426.291	405.81
426.513	410.81
426.735	438.81
426.958	450.81
427.18	488.81
427.402	544.81
427.625	601.81
427.847	531.81
428.069	476.81
428.292	396.81
428.514	397.81
428.736	386.81
428.958	383.81
429.181	378.81
429.403	365.81
429.625	389.81
429.847	397.81
430.069	433.81
430.292	440.81
430.514	403.81
430.736	375.81
430.958	375.81
431.18	360.81
431.402	377.81
431.624	343.81
431.846	345.81
432.068	357.81
432.29	355.81
432.512	356.81
432.734	364.81
432.956	364.81
433.178	357.81
433.4	351.81
433.622	366.81
433.844	363.81
434.066	379.81
434.287	380.81
434.509	375.81
434.731	368.81
434.953	382.81
435.175	365.81
435.397	390.81
435.618	414.81
435.84	415.81
436.062	475.81
436.284	504.81
436.505	463.81
436.727	411.81
436.949	409.81
437.17	369.81
437.392	376.81
437.614	389.81
437.835	381.81
438.057	433.81
438.278	508.81
438.5	540.81
438.721	542.81
438.943	533.81
439.165	437.81
439.386	387.81
439.608	393.81
439.829	405.81
440.05	409.81
440.272	442.81
440.493	417.81
440.715	401.81
440.936	378.81
441.158	374.81
441.379	384.81
441.6	383.81
441.822	392.81
442.043	415.81
442.264	475.81
442.486	477.81
442.707	425.81
442.928	419.81
443.149	399.81
443.371	429.81
443.592	440.81
443.813	484.81
444.034	521.81
444.255	459.81
444.476	417.81
444.698	409.81
444.919	415.81
445.14	522.81
445.361	465.81
445.582	430.81
445.803	456.81
446.024	527.81
446.245	494.81
446.466	459.81
446.687	440.81
446.908	415.81
447.129	388.81
447.35	381.81
447.571	371.81
447.792	362.81
448.013	367.81
448.234	363.81
448.455	425.81
448.675	485.81
448.896	529.81
449.117	469.81
449.338	434.81
449.559	517.81
449.779	550.81
450	451.81
450.221	393.81
450.442	381.81
450.662	365.81
450.883	374.81
451.104	371.81
451.324	351.81
451.545	353.81
451.766	354.81
451.986	342.81
452.207	330.81
452.428	335.81
452.648	337.81
452.869	320.81
453.089	339.81
453.31	332.81
453.53	347.81
453.751	329.81
453.971	332.81
454.192	359.81
454.412	339.81
454.633	319.81
454.853	346.81
455.073	309.81
455.294	358.81
455.514	387.81
455.734	367.81
455.955	329.81
456.175	343.81
456.395	322.81
456.616	321.81
456.836	326.81
457.056	312.81
457.276	322.81
457.497	336.81
457.717	330.81
457.937	318.81
458.157	340.81
458.377	315.81
458.598	342.81
458.818	379.81
459.038	423.81
459.258	410.81
459.478	391.81
459.698	362.81
459.918	369.81
460.138	371.81
460.358	374.81
460.578	374.81
460.798	373.81
461.018	389.81
461.238	388.81
461.458	371.81
461.678	331.81
461.898	369.81
462.118	395.81
462.338	369.81
462.558	385.81
462.777	403.81
462.997	409.81
463.217	392.81
463.437	401.81
463.657	379.81
463.876	388.81
464.096	394.81
464.316	405.81
464.536	405.81
464.755	391.81
464.975	408.81
465.195	419.81
465.414	428.81
465.634	376.81
465.854	392.81
466.073	347.81
466.293	357.81
466.512	369.81
466.732	366.81
466.951	369.81
467.171	357.81
467.391	351.81
467.61	343.81
467.829	367.81
468.049	352.81
468.268	361.81
468.488	349.81
468.707	330.81
468.927	360.81
469.146	348.81
469.365	348.81
469.585	336.81
469.804	347.81
470.023	375.81
470.243	356.81
470.462	348.81
470.681	358.81
470.901	358.81
471.12	355.81
471.339	347.81
471.558	353.81
471.777	343.81
471.997	347.81
472.216	361.81
472.435	376.81
472.654	372.81
472.873	351.81
473.092	363.81
473.311	366.81
473.53	355.81
473.749	361.81
473.968	401.81
474.187	428.81
474.406	427.81
474.625	393.81
474.844	350.81
475.063	343.81
475.282	372.81
475.501	357.81
475.72	377.81
475.939	376.81
476.158	356.81
476.377	359.81
476.596	334.81
476.814	373.81
477.033	377.81
477.252	374.81
477.471	377.81
477.69	386.81
477.908	393.81
478.127	410.81
478.346	380.81
478.564	380.81
478.783	380.81
479.002	404.81
479.22	385.81
479.439	423.81
479.658	405.81
479.876	423.81
480.095	429.81
480.313	439.81
480.532	439.81
480.751	433.81
480.969	419.81
481.188	441.81
481.406	453.81
481.624	442.81
481.843	414.81
482.061	414.81
482.28	411.81
482.498	399.81
482.717	412.81
482.935	414.81
483.153	391.81
483.372	391.81
483.59	391.81
483.808	417.81
484.027	392.81
484.245	414.81
484.463	424.81
484.681	403.81
484.9	415.81
485.118	434.81
485.336	420.81
485.554	417.81
485.772	421.81
485.99	443.81
486.209	428.81
486.427	436.81
486.645	434.81
486.863	423.81
487.081	421.81
487.299	432.81
487.517	422.81
487.735	428.81
487.953	412.81
488.171	441.81
488.389	447.81
488.607	440.81
488.825	433.81
489.043	413.81
489.261	439.81
489.479	446.81
489.696	422.81
489.914	436.81
490.132	438.81
490.35	449.81
490.568	424.81
490.786	452.81
491.003	453.81
491.221	458.81
491.439	478.81
491.657	460.81
491.874	461.81
492.092	487.81
492.31	469.81
492.527	495.81
492.745	478.81
492.963	509.81
493.18	477.81
493.398	504.81
493.615	495.81
493.833	491.81
494.05	476.81
494.268	475.81
494.485	484.81
494.703	500.81
494.92	483.81
495.138	489.81
495.355	484.81
495.573	487.81
495.79	485.81
496.008	485.81
496.225	485.81
496.442	486.81
496.66	501.81
496.877	507.81
497.094	529.81
497.312	499.81
497.529	519.81
497.746	530.81
497.963	550.81
498.181	551.81
498.398	527.81
498.615	559.81
498.832	568.81
499.049	601.81
499.267	585.81
499.484	616.81
499.701	651.81
499.918	672.81
500.135	672.81
500.352	719.81
500.569	721.81
500.786	732.81
501.003	723.81
501.22	696.81
501.437	666.81
501.654	670.81
501.871	641.81
