Data from 1960PennyLincolnUp.LampE6.200Scan.07172019.P1_HRD10591_13-06-16-002.txt Node
Date: Thu Jul 18 13:06:16 EDT 2019
User: cochatt
Spectrometer: HR+D1059
Trigger mode: 1
Integration Time (sec): 1.000000E-1
Scans to average: 1
Electric dark correction enabled: true
Nonlinearity correction enabled: false
Boxcar width: 0
XAxis mode: Wavelengths
Number of Pixels in Spectrum: 2048
>>>>>Begin Spectral Data<<<<<
223.165	-13.06
223.4	-13.06
223.635	-13.06
223.869	-11.06
224.104	-14.06
224.338	-15.06
224.573	-7.06
224.808	-8.06
225.042	-20.06
225.277	-5.06
225.511	2.94
225.746	2.94
225.98	5.94
226.215	2.94
226.449	20.94
226.683	21.94
226.918	19.94
227.152	15.94
227.387	33.94
227.621	47.94
227.856	37.94
228.09	47.94
228.324	51.94
228.559	40.94
228.793	47.94
229.027	83.94
229.262	113.94
229.496	106.94
229.73	105.94
229.964	120.94
230.199	110.94
230.433	116.94
230.667	113.94
230.901	109.94
231.136	105.94
231.37	121.94
231.604	122.94
231.838	112.94
232.072	114.94
232.306	115.94
232.541	99.94
232.775	103.94
233.009	98.94
233.243	114.94
233.477	108.94
233.711	122.94
233.945	114.94
234.179	123.94
234.413	116.94
234.647	104.94
234.881	112.94
235.115	101.94
235.349	112.94
235.583	109.94
235.817	115.94
236.051	131.94
236.285	125.94
236.519	110.94
236.753	132.94
236.987	124.94
237.221	145.94
237.455	177.94
237.689	152.94
237.922	135.94
238.156	117.94
238.39	128.94
238.624	127.94
238.858	106.94
239.091	128.94
239.325	114.94
239.559	124.94
239.793	127.94
240.027	116.94
240.26	148.94
240.494	135.94
240.728	142.94
240.961	141.94
241.195	137.94
241.429	123.94
241.662	126.94
241.896	137.94
242.13	114.94
242.363	121.94
242.597	122.94
242.83	135.94
243.064	129.94
243.298	115.94
243.531	133.94
243.765	137.94
243.998	132.94
244.232	145.94
244.465	141.94
244.699	127.94
244.932	148.94
245.166	129.94
245.399	144.94
245.633	135.94
245.866	151.94
246.099	154.94
246.333	132.94
246.566	133.94
246.8	124.94
247.033	143.94
247.266	152.94
247.5	154.94
247.733	134.94
247.966	159.94
248.2	172.94
248.433	171.94
248.666	164.94
248.899	161.94
249.133	179.94
249.366	184.94
249.599	185.94
249.832	164.94
250.066	168.94
250.299	157.94
250.532	164.94
250.765	186.94
250.998	194.94
251.231	199.94
251.465	184.94
251.698	196.94
251.931	166.94
252.164	178.94
252.397	186.94
252.63	198.94
252.863	191.94
253.096	191.94
253.329	203.94
253.562	189.94
253.795	194.94
254.028	193.94
254.261	197.94
254.494	199.94
254.727	221.94
254.96	234.94
255.193	220.94
255.426	214.94
255.659	193.94
255.892	200.94
256.124	188.94
256.357	210.94
256.59	195.94
256.823	188.94
257.056	200.94
257.289	205.94
257.521	197.94
257.754	190.94
257.987	192.94
258.22	179.94
258.452	190.94
258.685	192.94
258.918	181.94
259.151	197.94
259.383	191.94
259.616	201.94
259.849	221.94
260.081	192.94
260.314	211.94
260.547	223.94
260.779	217.94
261.012	216.94
261.244	211.94
261.477	212.94
261.71	201.94
261.942	201.94
262.175	217.94
262.407	193.94
262.64	223.94
262.872	197.94
263.105	189.94
263.337	206.94
263.57	207.94
263.802	194.94
264.035	200.94
264.267	204.94
264.499	201.94
264.732	209.94
264.964	190.94
265.197	201.94
265.429	224.94
265.661	209.94
265.894	208.94
266.126	212.94
266.358	199.94
266.591	217.94
266.823	226.94
267.055	229.94
267.287	231.94
267.52	218.94
267.752	218.94
267.984	226.94
268.216	230.94
268.448	221.94
268.681	214.94
268.913	242.94
269.145	230.94
269.377	239.94
269.609	211.94
269.841	227.94
270.073	242.94
270.306	266.94
270.538	277.94
270.77	269.94
271.002	274.94
271.234	251.94
271.466	255.94
271.698	274.94
271.93	278.94
272.162	286.94
272.394	295.94
272.626	256.94
272.858	235.94
273.09	257.94
273.322	252.94
273.553	254.94
273.785	257.94
274.017	271.94
274.249	259.94
274.481	243.94
274.713	243.94
274.945	259.94
275.176	251.94
275.408	254.94
275.64	244.94
275.872	257.94
276.104	251.94
276.335	254.94
276.567	259.94
276.799	271.94
277.031	255.94
277.262	290.94
277.494	281.94
277.726	263.94
277.957	267.94
278.189	264.94
278.421	268.94
278.652	273.94
278.884	265.94
279.115	272.94
279.347	263.94
279.579	276.94
279.81	261.94
280.042	254.94
280.273	260.94
280.505	266.94
280.736	256.94
280.968	272.94
281.199	266.94
281.431	266.94
281.662	278.94
281.894	277.94
282.125	277.94
282.356	277.94
282.588	287.94
282.819	297.94
283.051	264.94
283.282	257.94
283.513	279.94
283.745	266.94
283.976	292.94
284.207	295.94
284.439	285.94
284.67	270.94
284.901	271.94
285.132	299.94
285.364	273.94
285.595	282.94
285.826	276.94
286.057	283.94
286.288	276.94
286.52	287.94
286.751	295.94
286.982	305.94
287.213	289.94
287.444	294.94
287.675	294.94
287.906	293.94
288.138	337.94
288.369	315.94
288.6	308.94
288.831	302.94
289.062	301.94
289.293	293.94
289.524	300.94
289.755	307.94
289.986	291.94
290.217	295.94
290.448	303.94
290.679	301.94
290.91	297.94
291.141	292.94
291.371	293.94
291.602	293.94
291.833	315.94
292.064	308.94
292.295	315.94
292.526	308.94
292.757	306.94
292.987	283.94
293.218	279.94
293.449	302.94
293.68	298.94
293.91	297.94
294.141	293.94
294.372	303.94
294.603	296.94
294.833	312.94
295.064	314.94
295.295	294.94
295.525	305.94
295.756	311.94
295.987	318.94
296.217	326.94
296.448	327.94
296.679	306.94
296.909	327.94
297.14	325.94
297.37	305.94
297.601	320.94
297.831	319.94
298.062	326.94
298.292	316.94
298.523	312.94
298.753	336.94
298.984	329.94
299.214	336.94
299.445	321.94
299.675	325.94
299.905	323.94
300.136	315.94
300.366	321.94
300.597	338.94
300.827	334.94
301.057	345.94
301.288	351.94
301.518	333.94
301.748	346.94
301.979	355.94
302.209	346.94
302.439	336.94
302.669	336.94
302.9	333.94
303.13	323.94
303.36	346.94
303.59	339.94
303.82	362.94
304.051	337.94
304.281	342.94
304.511	342.94
304.741	355.94
304.971	361.94
305.201	343.94
305.431	351.94
305.661	347.94
305.891	349.94
306.121	337.94
306.352	366.94
306.582	337.94
306.812	327.94
307.042	345.94
307.272	350.94
307.502	326.94
307.731	320.94
307.961	343.94
308.191	331.94
308.421	359.94
308.651	339.94
308.881	335.94
309.111	358.94
309.341	340.94
309.571	346.94
309.8	363.94
310.03	353.94
310.26	355.94
310.49	373.94
310.72	364.94
310.949	372.94
311.179	386.94
311.409	349.94
311.639	368.94
311.868	359.94
312.098	383.94
312.328	386.94
312.557	368.94
312.787	372.94
313.017	361.94
313.246	369.94
313.476	362.94
313.706	378.94
313.935	378.94
314.165	378.94
314.394	394.94
314.624	395.94
314.853	382.94
315.083	385.94
315.312	385.94
315.542	375.94
315.771	367.94
316.001	370.94
316.23	357.94
316.46	380.94
316.689	389.94
316.919	351.94
317.148	400.94
317.377	376.94
317.607	388.94
317.836	372.94
318.065	380.94
318.295	374.94
318.524	364.94
318.753	360.94
318.983	382.94
319.212	379.94
319.441	383.94
319.67	394.94
319.9	386.94
320.129	380.94
320.358	371.94
320.587	356.94
320.816	364.94
321.046	384.94
321.275	405.94
321.504	376.94
321.733	382.94
321.962	393.94
322.191	403.94
322.42	398.94
322.649	393.94
322.878	407.94
323.108	391.94
323.337	430.94
323.566	432.94
323.795	439.94
324.024	479.94
324.253	537.94
324.482	697.94
324.71	1007.94
324.939	1329.94
325.168	1111.94
325.397	615.94
325.626	496.94
325.855	453.94
326.084	446.94
326.313	425.94
326.542	444.94
326.77	473.94
326.999	536.94
327.228	670.94
327.457	943.94
327.686	1057.94
327.914	710.94
328.143	535.94
328.372	507.94
328.6	491.94
328.829	470.94
329.058	481.94
329.287	486.94
329.515	464.94
329.744	447.94
329.972	448.94
330.201	493.94
330.43	498.94
330.658	502.94
330.887	510.94
331.115	535.94
331.344	480.94
331.572	451.94
331.801	471.94
332.03	479.94
332.258	494.94
332.486	473.94
332.715	489.94
332.943	503.94
333.172	491.94
333.4	487.94
333.629	517.94
333.857	518.94
334.085	485.94
334.314	521.94
334.542	562.94
334.771	546.94
334.999	512.94
335.227	526.94
335.455	470.94
335.684	491.94
335.912	487.94
336.14	482.94
336.369	479.94
336.597	480.94
336.825	465.94
337.053	451.94
337.281	453.94
337.51	467.94
337.738	454.94
337.966	450.94
338.194	460.94
338.422	447.94
338.65	448.94
338.878	449.94
339.106	465.94
339.334	432.94
339.562	423.94
339.79	437.94
340.018	446.94
340.246	423.94
340.474	466.94
340.702	404.94
340.93	422.94
341.158	419.94
341.386	417.94
341.614	451.94
341.842	426.94
342.07	426.94
342.298	440.94
342.526	410.94
342.754	402.94
342.981	410.94
343.209	438.94
343.437	437.94
343.665	456.94
343.893	477.94
344.12	488.94
344.348	491.94
344.576	442.94
344.804	439.94
345.031	438.94
345.259	420.94
345.487	444.94
345.714	425.94
345.942	436.94
346.17	421.94
346.397	414.94
346.625	411.94
346.853	393.94
347.08	427.94
347.308	427.94
347.535	420.94
347.763	409.94
347.99	439.94
348.218	433.94
348.445	423.94
348.673	409.94
348.9	410.94
349.128	404.94
349.355	412.94
349.583	393.94
349.81	417.94
350.037	402.94
350.265	422.94
350.492	393.94
350.72	421.94
350.947	407.94
351.174	394.94
351.402	418.94
351.629	407.94
351.856	415.94
352.083	433.94
352.311	421.94
352.538	424.94
352.765	430.94
352.992	415.94
353.22	394.94
353.447	409.94
353.674	403.94
353.901	409.94
354.128	395.94
354.355	397.94
354.583	394.94
354.81	399.94
355.037	396.94
355.264	390.94
355.491	373.94
355.718	385.94
355.945	389.94
356.172	383.94
356.399	389.94
356.626	388.94
356.853	405.94
357.08	375.94
357.307	399.94
357.534	405.94
357.761	378.94
357.988	423.94
358.215	399.94
358.441	393.94
358.668	398.94
358.895	401.94
359.122	395.94
359.349	419.94
359.576	408.94
359.802	403.94
360.029	441.94
360.256	431.94
360.483	430.94
360.709	429.94
360.936	423.94
361.163	405.94
361.39	425.94
361.616	407.94
361.843	393.94
362.07	402.94
362.296	431.94
362.523	411.94
362.749	400.94
362.976	410.94
363.203	409.94
363.429	403.94
363.656	397.94
363.882	408.94
364.109	399.94
364.335	418.94
364.562	418.94
364.788	407.94
365.015	405.94
365.241	420.94
365.468	401.94
365.694	406.94
365.92	419.94
366.147	405.94
366.373	399.94
366.599	388.94
366.826	409.94
367.052	396.94
367.278	423.94
367.505	404.94
367.731	397.94
367.957	414.94
368.184	396.94
368.41	411.94
368.636	428.94
368.862	415.94
369.089	397.94
369.315	402.94
369.541	396.94
369.767	426.94
369.993	425.94
370.219	414.94
370.445	425.94
370.672	403.94
370.898	416.94
371.124	397.94
371.35	421.94
371.576	414.94
371.802	423.94
372.028	409.94
372.254	431.94
372.48	419.94
372.706	427.94
372.932	443.94
373.158	432.94
373.384	447.94
373.61	423.94
373.835	423.94
374.061	410.94
374.287	433.94
374.513	438.94
374.739	447.94
374.965	442.94
375.191	438.94
375.416	437.94
375.642	442.94
375.868	431.94
376.094	424.94
376.319	426.94
376.545	441.94
376.771	420.94
376.997	422.94
377.222	416.94
377.448	420.94
377.674	405.94
377.899	433.94
378.125	432.94
378.35	427.94
378.576	418.94
378.802	424.94
379.027	426.94
379.253	422.94
379.478	414.94
379.704	421.94
379.929	413.94
380.155	432.94
380.38	407.94
380.606	415.94
380.831	406.94
381.057	416.94
381.282	424.94
381.507	436.94
381.733	410.94
381.958	410.94
382.184	440.94
382.409	415.94
382.634	429.94
382.86	437.94
383.085	442.94
383.31	456.94
383.535	445.94
383.761	454.94
383.986	452.94
384.211	452.94
384.436	467.94
384.662	465.94
384.887	496.94
385.112	470.94
385.337	493.94
385.562	481.94
385.787	470.94
386.013	481.94
386.238	470.94
386.463	493.94
386.688	480.94
386.913	464.94
387.138	475.94
387.363	488.94
387.588	464.94
387.813	482.94
388.038	466.94
388.263	471.94
388.488	471.94
388.713	456.94
388.938	482.94
389.163	456.94
389.387	478.94
389.612	466.94
389.837	471.94
390.062	469.94
390.287	478.94
390.512	466.94
390.736	472.94
390.961	493.94
391.186	499.94
391.411	500.94
391.636	510.94
391.86	525.94
392.085	511.94
392.31	511.94
392.534	508.94
392.759	481.94
392.984	480.94
393.208	504.94
393.433	474.94
393.658	516.94
393.882	486.94
394.107	494.94
394.331	479.94
394.556	485.94
394.78	499.94
395.005	483.94
395.229	511.94
395.454	500.94
395.678	515.94
395.903	530.94
396.127	535.94
396.352	514.94
396.576	506.94
396.801	493.94
397.025	533.94
397.249	514.94
397.474	518.94
397.698	519.94
397.922	545.94
398.147	563.94
398.371	562.94
398.595	522.94
398.82	576.94
399.044	607.94
399.268	629.94
399.492	705.94
399.717	773.94
399.941	767.94
400.165	736.94
400.389	673.94
400.613	623.94
400.837	596.94
401.062	577.94
401.286	577.94
401.51	575.94
401.734	555.94
401.958	572.94
402.182	574.94
402.406	597.94
402.63	608.94
402.854	589.94
403.078	593.94
403.302	612.94
403.526	627.94
403.75	611.94
403.974	624.94
404.198	607.94
404.422	628.94
404.645	618.94
404.869	601.94
405.093	647.94
405.317	652.94
405.541	689.94
405.765	636.94
405.988	625.94
406.212	614.94
406.436	655.94
406.66	649.94
406.883	641.94
407.107	696.94
407.331	730.94
407.555	766.94
407.778	749.94
408.002	694.94
408.226	659.94
408.449	650.94
408.673	651.94
408.896	662.94
409.12	694.94
409.344	650.94
409.567	612.94
409.791	616.94
410.014	600.94
410.238	603.94
410.461	595.94
410.685	583.94
410.908	597.94
411.132	619.94
411.355	623.94
411.578	607.94
411.802	575.94
412.025	600.94
412.249	602.94
412.472	599.94
412.695	622.94
412.919	614.94
413.142	582.94
413.365	597.94
413.589	569.94
413.812	580.94
414.035	535.94
414.258	571.94
414.482	541.94
414.705	557.94
414.928	577.94
415.151	559.94
415.374	548.94
415.597	583.94
415.821	538.94
416.044	540.94
416.267	545.94
416.49	547.94
416.713	548.94
416.936	537.94
417.159	532.94
417.382	570.94
417.605	554.94
417.828	560.94
418.051	563.94
418.274	541.94
418.497	551.94
418.72	573.94
418.943	563.94
419.166	590.94
419.389	617.94
419.611	608.94
419.834	585.94
420.057	587.94
420.28	587.94
420.503	585.94
420.726	575.94
420.948	571.94
421.171	593.94
421.394	617.94
421.617	578.94
421.839	583.94
422.062	560.94
422.285	573.94
422.507	610.94
422.73	652.94
422.953	641.94
423.175	622.94
423.398	592.94
423.621	593.94
423.843	601.94
424.066	609.94
424.288	616.94
424.511	609.94
424.733	647.94
424.956	683.94
425.178	651.94
425.401	618.94
425.623	666.94
425.846	602.94
426.068	579.94
426.291	550.94
426.513	565.94
426.735	551.94
426.958	597.94
427.18	621.94
427.402	704.94
427.625	773.94
427.847	698.94
428.069	621.94
428.292	590.94
428.514	571.94
428.736	517.94
428.958	554.94
429.181	520.94
429.403	508.94
429.625	511.94
429.847	529.94
430.069	583.94
430.292	579.94
430.514	532.94
430.736	533.94
430.958	538.94
431.18	534.94
431.402	518.94
431.624	505.94
431.846	485.94
432.068	508.94
432.29	526.94
432.512	510.94
432.734	519.94
432.956	536.94
433.178	525.94
433.4	512.94
433.622	510.94
433.844	519.94
434.066	524.94
434.287	547.94
434.509	517.94
434.731	525.94
434.953	543.94
435.175	571.94
435.397	559.94
435.618	570.94
435.84	567.94
436.062	627.94
436.284	665.94
436.505	582.94
436.727	551.94
436.949	535.94
437.17	520.94
437.392	538.94
437.614	536.94
437.835	547.94
438.057	581.94
438.278	654.94
438.5	655.94
438.721	701.94
438.943	692.94
439.165	565.94
439.386	550.94
439.608	568.94
439.829	561.94
440.05	580.94
440.272	583.94
440.493	548.94
440.715	513.94
440.936	549.94
441.158	533.94
441.379	536.94
441.6	552.94
441.822	551.94
442.043	573.94
442.264	645.94
442.486	679.94
442.707	613.94
442.928	568.94
443.149	595.94
443.371	598.94
443.592	647.94
443.813	689.94
444.034	717.94
444.255	624.94
444.476	617.94
444.698	616.94
444.919	650.94
445.14	730.94
445.361	682.94
445.582	611.94
445.803	618.94
446.024	683.94
446.245	647.94
446.466	610.94
446.687	585.94
446.908	547.94
447.129	523.94
447.35	517.94
447.571	511.94
447.792	512.94
448.013	500.94
448.234	489.94
448.455	534.94
448.675	633.94
448.896	670.94
449.117	577.94
449.338	568.94
449.559	635.94
449.779	685.94
450	580.94
450.221	514.94
450.442	511.94
450.662	484.94
450.883	469.94
451.104	503.94
451.324	474.94
451.545	481.94
451.766	482.94
451.986	471.94
452.207	479.94
452.428	440.94
452.648	466.94
452.869	458.94
453.089	473.94
453.31	470.94
453.53	455.94
453.751	477.94
453.971	469.94
454.192	471.94
454.412	434.94
454.633	466.94
454.853	458.94
455.073	439.94
455.294	454.94
455.514	498.94
455.734	487.94
455.955	448.94
456.175	427.94
456.395	434.94
456.616	447.94
456.836	430.94
457.056	439.94
457.276	411.94
457.497	429.94
457.717	420.94
457.937	450.94
458.157	453.94
458.377	428.94
458.598	475.94
458.818	483.94
459.038	536.94
459.258	562.94
459.478	530.94
459.698	505.94
459.918	484.94
460.138	511.94
460.358	534.94
460.578	543.94
460.798	553.94
461.018	547.94
461.238	546.94
461.458	518.94
461.678	550.94
461.898	523.94
462.118	546.94
462.338	565.94
462.558	601.94
462.777	582.94
462.997	613.94
463.217	663.94
463.437	677.94
463.657	631.94
463.876	607.94
464.096	593.94
464.316	599.94
464.536	598.94
464.755	600.94
464.975	576.94
465.195	593.94
465.414	605.94
465.634	570.94
465.854	538.94
466.073	527.94
466.293	491.94
466.512	479.94
466.732	494.94
466.951	462.94
467.171	463.94
467.391	470.94
467.61	464.94
467.829	496.94
468.049	487.94
468.268	481.94
468.488	476.94
468.707	420.94
468.927	461.94
469.146	457.94
469.365	456.94
469.585	463.94
469.804	492.94
470.023	506.94
470.243	497.94
470.462	485.94
470.681	512.94
470.901	513.94
471.12	487.94
471.339	497.94
471.558	488.94
471.777	500.94
471.997	481.94
472.216	473.94
472.435	489.94
472.654	479.94
472.873	467.94
473.092	457.94
473.311	473.94
473.53	465.94
473.749	449.94
473.968	492.94
474.187	551.94
474.406	545.94
474.625	483.94
474.844	456.94
475.063	465.94
475.282	486.94
475.501	459.94
475.72	471.94
475.939	461.94
476.158	470.94
476.377	470.94
476.596	461.94
476.814	503.94
477.033	506.94
477.252	498.94
477.471	508.94
477.69	500.94
477.908	515.94
478.127	525.94
478.346	547.94
478.564	543.94
478.783	549.94
479.002	546.94
479.22	582.94
479.439	565.94
479.658	579.94
479.876	577.94
480.095	574.94
480.313	629.94
480.532	585.94
480.751	603.94
480.969	615.94
481.188	626.94
481.406	635.94
481.624	601.94
481.843	567.94
482.061	528.94
482.28	559.94
482.498	534.94
482.717	529.94
482.935	532.94
483.153	521.94
483.372	553.94
483.59	515.94
483.808	535.94
484.027	534.94
484.245	536.94
484.463	540.94
484.681	553.94
484.9	565.94
485.118	562.94
485.336	540.94
485.554	574.94
485.772	563.94
485.99	537.94
486.209	571.94
486.427	576.94
486.645	581.94
486.863	565.94
487.081	572.94
487.299	570.94
487.517	580.94
487.735	584.94
487.953	570.94
488.171	579.94
488.389	581.94
488.607	590.94
488.825	578.94
489.043	575.94
489.261	570.94
489.479	554.94
489.696	584.94
489.914	574.94
490.132	621.94
490.35	585.94
490.568	617.94
490.786	595.94
491.003	616.94
491.221	601.94
491.439	615.94
491.657	639.94
491.874	638.94
492.092	656.94
492.31	665.94
492.527	640.94
492.745	625.94
492.963	653.94
493.18	677.94
493.398	659.94
493.615	667.94
493.833	662.94
494.05	657.94
494.268	672.94
494.485	649.94
494.703	650.94
494.92	669.94
495.138	633.94
495.355	662.94
495.573	654.94
495.79	653.94
496.008	660.94
496.225	648.94
496.442	662.94
496.66	665.94
496.877	650.94
497.094	677.94
497.312	673.94
497.529	693.94
497.746	689.94
497.963	728.94
498.181	744.94
498.398	738.94
498.615	775.94
498.832	807.94
499.049	834.94
499.267	872.94
499.484	935.94
499.701	986.94
499.918	1072.94
500.135	1187.94
500.352	1268.94
500.569	1310.94
500.786	1302.94
501.003	1213.94
501.22	1136.94
501.437	1081.94
501.654	1005.94
501.871	950.94
