Data from 1960PennyLincolnUp.LampE6.200Scan.07172019.P1_HRD10591_13-05-10-001.txt Node
Date: Thu Jul 18 13:05:10 EDT 2019
User: cochatt
Spectrometer: HR+D1059
Trigger mode: 1
Integration Time (sec): 1.000000E-1
Scans to average: 1
Electric dark correction enabled: true
Nonlinearity correction enabled: false
Boxcar width: 0
XAxis mode: Wavelengths
Number of Pixels in Spectrum: 2048
>>>>>Begin Spectral Data<<<<<
223.165	-10.69
223.4	-10.69
223.635	-10.69
223.869	-14.69
224.104	-9.69
224.338	-22.69
224.573	-22.69
224.808	-4.69
225.042	-18.69
225.277	-11.69
225.511	9.31
225.746	13.31
225.98	9.31
226.215	9.31
226.449	4.31
226.683	16.31
226.918	22.31
227.152	31.31
227.387	42.31
227.621	38.31
227.856	37.31
228.09	40.31
228.324	56.31
228.559	47.31
228.793	74.31
229.027	90.31
229.262	81.31
229.496	84.31
229.73	109.31
229.964	110.31
230.199	105.31
230.433	106.31
230.667	110.31
230.901	92.31
231.136	98.31
231.37	114.31
231.604	121.31
231.838	103.31
232.072	122.31
232.306	113.31
232.541	123.31
232.775	80.31
233.009	106.31
233.243	108.31
233.477	114.31
233.711	110.31
233.945	107.31
234.179	107.31
234.413	111.31
234.647	110.31
234.881	123.31
235.115	117.31
235.349	122.31
235.583	111.31
235.817	114.31
236.051	108.31
236.285	112.31
236.519	118.31
236.753	111.31
236.987	130.31
237.221	129.31
237.455	145.31
237.689	127.31
237.922	131.31
238.156	122.31
238.39	126.31
238.624	115.31
238.858	120.31
239.091	133.31
239.325	119.31
239.559	122.31
239.793	118.31
240.027	122.31
240.26	127.31
240.494	137.31
240.728	137.31
240.961	120.31
241.195	144.31
241.429	134.31
241.662	130.31
241.896	135.31
242.13	130.31
242.363	123.31
242.597	121.31
242.83	143.31
243.064	134.31
243.298	126.31
243.531	123.31
243.765	126.31
243.998	135.31
244.232	138.31
244.465	143.31
244.699	124.31
244.932	148.31
245.166	140.31
245.399	154.31
245.633	132.31
245.866	149.31
246.099	148.31
246.333	148.31
246.566	127.31
246.8	139.31
247.033	142.31
247.266	151.31
247.5	162.31
247.733	152.31
247.966	152.31
248.2	143.31
248.433	165.31
248.666	166.31
248.899	172.31
249.133	180.31
249.366	170.31
249.599	155.31
249.832	164.31
250.066	169.31
250.299	154.31
250.532	159.31
250.765	166.31
250.998	183.31
251.231	171.31
251.465	193.31
251.698	163.31
251.931	166.31
252.164	165.31
252.397	188.31
252.63	177.31
252.863	189.31
253.096	170.31
253.329	193.31
253.562	188.31
253.795	193.31
254.028	194.31
254.261	177.31
254.494	180.31
254.727	196.31
254.96	203.31
255.193	199.31
255.426	203.31
255.659	207.31
255.892	193.31
256.124	215.31
256.357	203.31
256.59	196.31
256.823	199.31
257.056	194.31
257.289	190.31
257.521	198.31
257.754	181.31
257.987	183.31
258.22	201.31
258.452	180.31
258.685	186.31
258.918	195.31
259.151	192.31
259.383	187.31
259.616	195.31
259.849	188.31
260.081	198.31
260.314	202.31
260.547	200.31
260.779	199.31
261.012	196.31
261.244	193.31
261.477	209.31
261.71	194.31
261.942	199.31
262.175	207.31
262.407	201.31
262.64	194.31
262.872	189.31
263.105	188.31
263.337	203.31
263.57	203.31
263.802	181.31
264.035	190.31
264.267	198.31
264.499	206.31
264.732	216.31
264.964	200.31
265.197	208.31
265.429	194.31
265.661	211.31
265.894	224.31
266.126	218.31
266.358	193.31
266.591	198.31
266.823	211.31
267.055	222.31
267.287	207.31
267.52	224.31
267.752	229.31
267.984	221.31
268.216	214.31
268.448	215.31
268.681	206.31
268.913	218.31
269.145	222.31
269.377	228.31
269.609	243.31
269.841	245.31
270.073	227.31
270.306	248.31
270.538	249.31
270.77	243.31
271.002	251.31
271.234	247.31
271.466	258.31
271.698	245.31
271.93	246.31
272.162	255.31
272.394	253.31
272.626	235.31
272.858	264.31
273.09	238.31
273.322	233.31
273.553	222.31
273.785	247.31
274.017	247.31
274.249	247.31
274.481	236.31
274.713	238.31
274.945	251.31
275.176	240.31
275.408	251.31
275.64	230.31
275.872	248.31
276.104	244.31
276.335	256.31
276.567	242.31
276.799	250.31
277.031	280.31
277.262	280.31
277.494	275.31
277.726	274.31
277.957	251.31
278.189	266.31
278.421	250.31
278.652	278.31
278.884	241.31
279.115	259.31
279.347	278.31
279.579	256.31
279.81	250.31
280.042	264.31
280.273	258.31
280.505	278.31
280.736	257.31
280.968	243.31
281.199	260.31
281.431	263.31
281.662	270.31
281.894	264.31
282.125	256.31
282.356	269.31
282.588	274.31
282.819	293.31
283.051	259.31
283.282	274.31
283.513	280.31
283.745	279.31
283.976	268.31
284.207	284.31
284.439	286.31
284.67	282.31
284.901	278.31
285.132	274.31
285.364	275.31
285.595	283.31
285.826	275.31
286.057	281.31
286.288	291.31
286.52	273.31
286.751	297.31
286.982	292.31
287.213	276.31
287.444	283.31
287.675	281.31
287.906	309.31
288.138	292.31
288.369	304.31
288.6	302.31
288.831	306.31
289.062	301.31
289.293	263.31
289.524	274.31
289.755	295.31
289.986	294.31
290.217	301.31
290.448	275.31
290.679	275.31
290.91	300.31
291.141	291.31
291.371	292.31
291.602	294.31
291.833	289.31
292.064	299.31
292.295	275.31
292.526	304.31
292.757	305.31
292.987	299.31
293.218	311.31
293.449	301.31
293.68	288.31
293.91	306.31
294.141	307.31
294.372	307.31
294.603	291.31
294.833	292.31
295.064	307.31
295.295	293.31
295.525	301.31
295.756	288.31
295.987	307.31
296.217	322.31
296.448	312.31
296.679	320.31
296.909	306.31
297.14	312.31
297.37	307.31
297.601	318.31
297.831	315.31
298.062	310.31
298.292	320.31
298.523	332.31
298.753	334.31
298.984	324.31
299.214	306.31
299.445	331.31
299.675	318.31
299.905	319.31
300.136	310.31
300.366	321.31
300.597	317.31
300.827	321.31
301.057	339.31
301.288	334.31
301.518	317.31
301.748	321.31
301.979	323.31
302.209	331.31
302.439	337.31
302.669	335.31
302.9	340.31
303.13	337.31
303.36	323.31
303.59	354.31
303.82	356.31
304.051	318.31
304.281	339.31
304.511	353.31
304.741	340.31
304.971	345.31
305.201	328.31
305.431	325.31
305.661	328.31
305.891	335.31
306.121	327.31
306.352	338.31
306.582	332.31
306.812	326.31
307.042	328.31
307.272	331.31
307.502	337.31
307.731	333.31
307.961	340.31
308.191	355.31
308.421	333.31
308.651	332.31
308.881	327.31
309.111	335.31
309.341	338.31
309.571	344.31
309.8	363.31
310.03	345.31
310.26	338.31
310.49	327.31
310.72	358.31
310.949	353.31
311.179	345.31
311.409	360.31
311.639	352.31
311.868	346.31
312.098	353.31
312.328	374.31
312.557	371.31
312.787	362.31
313.017	358.31
313.246	354.31
313.476	354.31
313.706	362.31
313.935	361.31
314.165	360.31
314.394	375.31
314.624	372.31
314.853	353.31
315.083	387.31
315.312	367.31
315.542	360.31
315.771	358.31
316.001	357.31
316.23	359.31
316.46	353.31
316.689	376.31
316.919	370.31
317.148	386.31
317.377	382.31
317.607	351.31
317.836	380.31
318.065	390.31
318.295	386.31
318.524	362.31
318.753	366.31
318.983	360.31
319.212	366.31
319.441	382.31
319.67	364.31
319.9	373.31
320.129	364.31
320.358	372.31
320.587	372.31
320.816	382.31
321.046	365.31
321.275	387.31
321.504	371.31
321.733	376.31
321.962	376.31
322.191	392.31
322.42	381.31
322.649	393.31
322.878	392.31
323.108	391.31
323.337	396.31
323.566	407.31
323.795	411.31
324.024	432.31
324.253	469.31
324.482	624.31
324.71	823.31
324.939	1078.31
325.168	946.31
325.397	571.31
325.626	465.31
325.855	441.31
326.084	439.31
326.313	424.31
326.542	426.31
326.77	431.31
326.999	478.31
327.228	587.31
327.457	772.31
327.686	879.31
327.914	633.31
328.143	492.31
328.372	456.31
328.6	434.31
328.829	426.31
329.058	450.31
329.287	460.31
329.515	445.31
329.744	425.31
329.972	438.31
330.201	438.31
330.43	448.31
330.658	453.31
330.887	475.31
331.115	482.31
331.344	446.31
331.572	438.31
331.801	444.31
332.03	442.31
332.258	442.31
332.486	449.31
332.715	458.31
332.943	478.31
333.172	486.31
333.4	494.31
333.629	498.31
333.857	491.31
334.085	518.31
334.314	512.31
334.542	529.31
334.771	522.31
334.999	506.31
335.227	490.31
335.455	478.31
335.684	488.31
335.912	482.31
336.14	487.31
336.369	492.31
336.597	483.31
336.825	452.31
337.053	477.31
337.281	450.31
337.51	450.31
337.738	429.31
337.966	453.31
338.194	450.31
338.422	439.31
338.65	442.31
338.878	435.31
339.106	437.31
339.334	423.31
339.562	443.31
339.79	409.31
340.018	410.31
340.246	430.31
340.474	420.31
340.702	420.31
340.93	427.31
341.158	427.31
341.386	441.31
341.614	421.31
341.842	406.31
342.07	419.31
342.298	412.31
342.526	433.31
342.754	411.31
342.981	414.31
343.209	444.31
343.437	444.31
343.665	444.31
343.893	455.31
344.12	484.31
344.348	476.31
344.576	455.31
344.804	441.31
345.031	432.31
345.259	450.31
345.487	422.31
345.714	416.31
345.942	399.31
346.17	406.31
346.397	422.31
346.625	418.31
346.853	398.31
347.08	398.31
347.308	406.31
347.535	400.31
347.763	429.31
347.99	403.31
348.218	387.31
348.445	407.31
348.673	403.31
348.9	404.31
349.128	402.31
349.355	384.31
349.583	419.31
349.81	410.31
350.037	397.31
350.265	405.31
350.492	385.31
350.72	404.31
350.947	406.31
351.174	379.31
351.402	394.31
351.629	406.31
351.856	401.31
352.083	407.31
352.311	396.31
352.538	393.31
352.765	401.31
352.992	392.31
353.22	398.31
353.447	368.31
353.674	404.31
353.901	392.31
354.128	410.31
354.355	393.31
354.583	385.31
354.81	407.31
355.037	399.31
355.264	396.31
355.491	395.31
355.718	377.31
355.945	383.31
356.172	406.31
356.399	390.31
356.626	400.31
356.853	429.31
357.08	391.31
357.307	383.31
357.534	389.31
357.761	383.31
357.988	401.31
358.215	394.31
358.441	387.31
358.668	391.31
358.895	407.31
359.122	390.31
359.349	387.31
359.576	401.31
359.802	408.31
360.029	409.31
360.256	410.31
360.483	412.31
360.709	393.31
360.936	397.31
361.163	395.31
361.39	396.31
361.616	400.31
361.843	400.31
362.07	389.31
362.296	397.31
362.523	388.31
362.749	387.31
362.976	414.31
363.203	401.31
363.429	394.31
363.656	402.31
363.882	381.31
364.109	386.31
364.335	384.31
364.562	386.31
364.788	367.31
365.015	393.31
365.241	394.31
365.468	384.31
365.694	407.31
365.92	411.31
366.147	392.31
366.373	408.31
366.599	390.31
366.826	393.31
367.052	408.31
367.278	392.31
367.505	411.31
367.731	396.31
367.957	392.31
368.184	401.31
368.41	386.31
368.636	410.31
368.862	399.31
369.089	395.31
369.315	420.31
369.541	419.31
369.767	389.31
369.993	423.31
370.219	414.31
370.445	390.31
370.672	399.31
370.898	414.31
371.124	401.31
371.35	405.31
371.576	422.31
371.802	416.31
372.028	414.31
372.254	407.31
372.48	402.31
372.706	426.31
372.932	443.31
373.158	426.31
373.384	432.31
373.61	427.31
373.835	428.31
374.061	409.31
374.287	422.31
374.513	425.31
374.739	438.31
374.965	435.31
375.191	436.31
375.416	452.31
375.642	419.31
375.868	427.31
376.094	387.31
376.319	420.31
376.545	408.31
376.771	418.31
376.997	414.31
377.222	414.31
377.448	427.31
377.674	448.31
377.899	440.31
378.125	421.31
378.35	395.31
378.576	416.31
378.802	409.31
379.027	395.31
379.253	410.31
379.478	416.31
379.704	406.31
379.929	395.31
380.155	406.31
380.38	414.31
380.606	429.31
380.831	401.31
381.057	401.31
381.282	411.31
381.507	430.31
381.733	406.31
381.958	426.31
382.184	441.31
382.409	425.31
382.634	443.31
382.86	443.31
383.085	440.31
383.31	443.31
383.535	448.31
383.761	447.31
383.986	460.31
384.211	471.31
384.436	445.31
384.662	446.31
384.887	492.31
385.112	482.31
385.337	488.31
385.562	488.31
385.787	482.31
386.013	480.31
386.238	466.31
386.463	478.31
386.688	508.31
386.913	474.31
387.138	479.31
387.363	487.31
387.588	481.31
387.813	482.31
388.038	469.31
388.263	481.31
388.488	491.31
388.713	470.31
388.938	475.31
389.163	474.31
389.387	482.31
389.612	456.31
389.837	468.31
390.062	491.31
390.287	468.31
390.512	467.31
390.736	460.31
390.961	467.31
391.186	481.31
391.411	500.31
391.636	501.31
391.86	502.31
392.085	493.31
392.31	506.31
392.534	490.31
392.759	498.31
392.984	505.31
393.208	516.31
393.433	508.31
393.658	513.31
393.882	478.31
394.107	489.31
394.331	480.31
394.556	484.31
394.78	511.31
395.005	494.31
395.229	505.31
395.454	482.31
395.678	527.31
395.903	514.31
396.127	515.31
396.352	523.31
396.576	526.31
396.801	512.31
397.025	521.31
397.249	512.31
397.474	508.31
397.698	535.31
397.922	516.31
398.147	538.31
398.371	527.31
398.595	532.31
398.82	575.31
399.044	586.31
399.268	633.31
399.492	660.31
399.717	741.31
399.941	750.31
400.165	719.31
400.389	692.31
400.613	620.31
400.837	611.31
401.062	566.31
401.286	552.31
401.51	550.31
401.734	563.31
401.958	573.31
402.182	553.31
402.406	568.31
402.63	591.31
402.854	582.31
403.078	592.31
403.302	592.31
403.526	610.31
403.75	616.31
403.974	609.31
404.198	629.31
404.422	595.31
404.645	611.31
404.869	606.31
405.093	642.31
405.317	647.31
405.541	672.31
405.765	624.31
405.988	599.31
406.212	601.31
406.436	622.31
406.66	652.31
406.883	631.31
407.107	634.31
407.331	705.31
407.555	730.31
407.778	731.31
408.002	679.31
408.226	680.31
408.449	664.31
408.673	642.31
408.896	645.31
409.12	638.31
409.344	624.31
409.567	621.31
409.791	625.31
410.014	626.31
410.238	600.31
410.461	592.31
410.685	572.31
410.908	619.31
411.132	575.31
411.355	600.31
411.578	600.31
411.802	585.31
412.025	575.31
412.249	608.31
412.472	610.31
412.695	622.31
412.919	611.31
413.142	579.31
413.365	561.31
413.589	559.31
413.812	575.31
414.035	557.31
414.258	563.31
414.482	564.31
414.705	567.31
414.928	558.31
415.151	546.31
415.374	559.31
415.597	536.31
415.821	537.31
416.044	570.31
416.267	545.31
416.49	552.31
416.713	531.31
416.936	587.31
417.159	569.31
417.382	556.31
417.605	558.31
417.828	567.31
418.051	558.31
418.274	558.31
418.497	543.31
418.72	554.31
418.943	539.31
419.166	581.31
419.389	624.31
419.611	598.31
419.834	604.31
420.057	588.31
420.28	569.31
420.503	561.31
420.726	562.31
420.948	569.31
421.171	579.31
421.394	606.31
421.617	552.31
421.839	562.31
422.062	580.31
422.285	571.31
422.507	591.31
422.73	657.31
422.953	645.31
423.175	579.31
423.398	583.31
423.621	579.31
423.843	591.31
424.066	607.31
424.288	603.31
424.511	611.31
424.733	618.31
424.956	642.31
425.178	642.31
425.401	635.31
425.623	654.31
425.846	547.31
426.068	564.31
426.291	559.31
426.513	539.31
426.735	556.31
426.958	554.31
427.18	595.31
427.402	686.31
427.625	705.31
427.847	628.31
428.069	572.31
428.292	532.31
428.514	523.31
428.736	522.31
428.958	524.31
429.181	509.31
429.403	488.31
429.625	508.31
429.847	522.31
430.069	528.31
430.292	558.31
430.514	515.31
430.736	492.31
430.958	518.31
431.18	523.31
431.402	486.31
431.624	506.31
431.846	504.31
432.068	485.31
432.29	506.31
432.512	478.31
432.734	511.31
432.956	501.31
433.178	512.31
433.4	528.31
433.622	503.31
433.844	501.31
434.066	514.31
434.287	499.31
434.509	518.31
434.731	524.31
434.953	548.31
435.175	540.31
435.397	583.31
435.618	555.31
435.84	545.31
436.062	583.31
436.284	632.31
436.505	572.31
436.727	536.31
436.949	514.31
437.17	508.31
437.392	516.31
437.614	508.31
437.835	540.31
438.057	569.31
438.278	636.31
438.5	600.31
438.721	643.31
438.943	645.31
439.165	555.31
439.386	538.31
439.608	506.31
439.829	540.31
440.05	539.31
440.272	573.31
440.493	550.31
440.715	519.31
440.936	518.31
441.158	516.31
441.379	522.31
441.6	534.31
441.822	574.31
442.043	560.31
442.264	603.31
442.486	634.31
442.707	568.31
442.928	554.31
443.149	583.31
443.371	582.31
443.592	577.31
443.813	616.31
444.034	697.31
444.255	626.31
444.476	599.31
444.698	610.31
444.919	635.31
445.14	686.31
445.361	650.31
445.582	582.31
445.803	622.31
446.024	621.31
446.245	624.31
446.466	599.31
446.687	539.31
446.908	505.31
447.129	516.31
447.35	467.31
447.571	504.31
447.792	475.31
448.013	473.31
448.234	498.31
448.455	507.31
448.675	566.31
448.896	637.31
449.117	546.31
449.338	547.31
449.559	608.31
449.779	629.31
450	540.31
450.221	476.31
450.442	490.31
450.662	470.31
450.883	475.31
451.104	473.31
451.324	463.31
451.545	464.31
451.766	471.31
451.986	443.31
452.207	450.31
452.428	460.31
452.648	439.31
452.869	435.31
453.089	434.31
453.31	459.31
453.53	465.31
453.751	443.31
453.971	450.31
454.192	445.31
454.412	436.31
454.633	428.31
454.853	434.31
455.073	430.31
455.294	442.31
455.514	464.31
455.734	466.31
455.955	422.31
456.175	426.31
456.395	435.31
456.616	424.31
456.836	418.31
457.056	410.31
457.276	425.31
457.497	440.31
457.717	442.31
457.937	425.31
458.157	434.31
458.377	448.31
458.598	438.31
458.818	494.31
459.038	530.31
459.258	546.31
459.478	517.31
459.698	500.31
459.918	499.31
460.138	523.31
460.358	533.31
460.578	519.31
460.798	554.31
461.018	546.31
461.238	547.31
461.458	522.31
461.678	534.31
461.898	538.31
462.118	532.31
462.338	577.31
462.558	594.31
462.777	588.31
462.997	628.31
463.217	648.31
463.437	654.31
463.657	598.31
463.876	618.31
464.096	595.31
464.316	588.31
464.536	632.31
464.755	603.31
464.975	587.31
465.195	576.31
465.414	593.31
465.634	552.31
465.854	534.31
466.073	499.31
466.293	474.31
466.512	466.31
466.732	483.31
466.951	486.31
467.171	490.31
467.391	490.31
467.61	475.31
467.829	462.31
468.049	482.31
468.268	475.31
468.488	460.31
468.707	475.31
468.927	460.31
469.146	453.31
469.365	482.31
469.585	463.31
469.804	465.31
470.023	476.31
470.243	490.31
470.462	515.31
470.681	500.31
470.901	510.31
471.12	490.31
471.339	489.31
471.558	483.31
471.777	462.31
471.997	455.31
472.216	480.31
472.435	469.31
472.654	480.31
472.873	462.31
473.092	480.31
473.311	458.31
473.53	454.31
473.749	441.31
473.968	464.31
474.187	515.31
474.406	537.31
474.625	495.31
474.844	471.31
475.063	464.31
475.282	464.31
475.501	459.31
475.72	458.31
475.939	468.31
476.158	478.31
476.377	480.31
476.596	480.31
476.814	483.31
477.033	503.31
477.252	482.31
477.471	490.31
477.69	507.31
477.908	516.31
478.127	533.31
478.346	552.31
478.564	539.31
478.783	546.31
479.002	540.31
479.22	554.31
479.439	542.31
479.658	563.31
479.876	561.31
480.095	558.31
480.313	586.31
480.532	617.31
480.751	602.31
480.969	576.31
481.188	592.31
481.406	608.31
481.624	566.31
481.843	565.31
482.061	553.31
482.28	526.31
482.498	534.31
482.717	533.31
482.935	534.31
483.153	550.31
483.372	565.31
483.59	521.31
483.808	522.31
484.027	540.31
484.245	536.31
484.463	562.31
484.681	533.31
484.9	536.31
485.118	562.31
485.336	554.31
485.554	563.31
485.772	561.31
485.99	554.31
486.209	565.31
486.427	564.31
486.645	554.31
486.863	568.31
487.081	580.31
487.299	571.31
487.517	558.31
487.735	555.31
487.953	582.31
488.171	558.31
488.389	591.31
488.607	568.31
488.825	543.31
489.043	554.31
489.261	587.31
489.479	577.31
489.696	571.31
489.914	562.31
490.132	561.31
490.35	586.31
490.568	582.31
490.786	592.31
491.003	593.31
491.221	603.31
491.439	615.31
491.657	610.31
491.874	630.31
492.092	619.31
492.31	643.31
492.527	613.31
492.745	628.31
492.963	626.31
493.18	640.31
493.398	648.31
493.615	656.31
493.833	619.31
494.05	630.31
494.268	634.31
494.485	629.31
494.703	641.31
494.92	617.31
495.138	648.31
495.355	649.31
495.573	642.31
495.79	635.31
496.008	652.31
496.225	636.31
496.442	651.31
496.66	663.31
496.877	633.31
497.094	674.31
497.312	663.31
497.529	688.31
497.746	704.31
497.963	699.31
498.181	712.31
498.398	749.31
498.615	744.31
498.832	823.31
499.049	855.31
499.267	873.31
499.484	929.31
499.701	988.31
499.918	1053.31
500.135	1146.31
500.352	1286.31
500.569	1314.31
500.786	1301.31
501.003	1280.31
501.22	1159.31
501.437	1064.31
501.654	998.31
501.871	954.31
502.088	864.31
