Data from 1960PennyLincolnUp.LampE6.200Scan.07172019.P1_HRD10591_13-06-36-002.txt Node
Date: Thu Jul 18 13:06:36 EDT 2019
User: cochatt
Spectrometer: HR+D1059
Trigger mode: 1
Integration Time (sec): 1.000000E-1
Scans to average: 1
Electric dark correction enabled: true
Nonlinearity correction enabled: false
Boxcar width: 0
XAxis mode: Wavelengths
Number of Pixels in Spectrum: 2048
>>>>>Begin Spectral Data<<<<<
223.165	-18.88
223.4	-18.88
223.635	-18.88
223.869	-30.88
224.104	-19.88
224.338	-23.88
224.573	-3.88
224.808	-8.88
225.042	-7.88
225.277	-13.88
225.511	-1.88
225.746	13.12
225.98	12.12
226.215	14.12
226.449	15.12
226.683	21.12
226.918	23.12
227.152	31.12
227.387	15.12
227.621	48.12
227.856	45.12
228.09	46.12
228.324	48.12
228.559	36.12
228.793	49.12
229.027	77.12
229.262	97.12
229.496	96.12
229.73	105.12
229.964	125.12
230.199	98.12
230.433	104.12
230.667	100.12
230.901	82.12
231.136	103.12
231.37	103.12
231.604	101.12
231.838	111.12
232.072	110.12
232.306	119.12
232.541	102.12
232.775	100.12
233.009	104.12
233.243	106.12
233.477	105.12
233.711	105.12
233.945	100.12
234.179	112.12
234.413	103.12
234.647	102.12
234.881	97.12
235.115	110.12
235.349	92.12
235.583	112.12
235.817	99.12
236.051	116.12
236.285	116.12
236.519	120.12
236.753	108.12
236.987	119.12
237.221	137.12
237.455	181.12
237.689	141.12
237.922	137.12
238.156	115.12
238.39	130.12
238.624	111.12
238.858	120.12
239.091	116.12
239.325	111.12
239.559	106.12
239.793	122.12
240.027	119.12
240.26	136.12
240.494	145.12
240.728	127.12
240.961	136.12
241.195	131.12
241.429	125.12
241.662	135.12
241.896	114.12
242.13	121.12
242.363	116.12
242.597	126.12
242.83	124.12
243.064	130.12
243.298	126.12
243.531	126.12
243.765	134.12
243.998	137.12
244.232	124.12
244.465	139.12
244.699	141.12
244.932	142.12
245.166	151.12
245.399	150.12
245.633	150.12
245.866	138.12
246.099	150.12
246.333	139.12
246.566	144.12
246.8	135.12
247.033	162.12
247.266	143.12
247.5	142.12
247.733	135.12
247.966	147.12
248.2	165.12
248.433	159.12
248.666	158.12
248.899	162.12
249.133	174.12
249.366	193.12
249.599	176.12
249.832	165.12
250.066	167.12
250.299	147.12
250.532	179.12
250.765	181.12
250.998	188.12
251.231	193.12
251.465	194.12
251.698	172.12
251.931	183.12
252.164	184.12
252.397	188.12
252.63	171.12
252.863	188.12
253.096	190.12
253.329	179.12
253.562	190.12
253.795	178.12
254.028	200.12
254.261	170.12
254.494	196.12
254.727	219.12
254.96	220.12
255.193	214.12
255.426	211.12
255.659	195.12
255.892	190.12
256.124	200.12
256.357	211.12
256.59	206.12
256.823	181.12
257.056	172.12
257.289	208.12
257.521	206.12
257.754	197.12
257.987	190.12
258.22	195.12
258.452	198.12
258.685	191.12
258.918	190.12
259.151	195.12
259.383	197.12
259.616	195.12
259.849	220.12
260.081	216.12
260.314	206.12
260.547	223.12
260.779	234.12
261.012	208.12
261.244	206.12
261.477	199.12
261.71	190.12
261.942	206.12
262.175	206.12
262.407	204.12
262.64	191.12
262.872	179.12
263.105	198.12
263.337	188.12
263.57	196.12
263.802	188.12
264.035	222.12
264.267	208.12
264.499	207.12
264.732	210.12
264.964	196.12
265.197	190.12
265.429	196.12
265.661	214.12
265.894	206.12
266.126	208.12
266.358	212.12
266.591	212.12
266.823	228.12
267.055	210.12
267.287	214.12
267.52	197.12
267.752	218.12
267.984	212.12
268.216	214.12
268.448	219.12
268.681	224.12
268.913	249.12
269.145	243.12
269.377	253.12
269.609	224.12
269.841	261.12
270.073	255.12
270.306	266.12
270.538	280.12
270.77	287.12
271.002	254.12
271.234	253.12
271.466	258.12
271.698	270.12
271.93	270.12
272.162	287.12
272.394	273.12
272.626	274.12
272.858	270.12
273.09	251.12
273.322	240.12
273.553	240.12
273.785	247.12
274.017	252.12
274.249	254.12
274.481	240.12
274.713	255.12
274.945	266.12
275.176	262.12
275.408	254.12
275.64	253.12
275.872	251.12
276.104	256.12
276.335	266.12
276.567	260.12
276.799	258.12
277.031	284.12
277.262	300.12
277.494	299.12
277.726	291.12
277.957	266.12
278.189	276.12
278.421	259.12
278.652	277.12
278.884	263.12
279.115	239.12
279.347	254.12
279.579	261.12
279.81	278.12
280.042	260.12
280.273	241.12
280.505	278.12
280.736	256.12
280.968	279.12
281.199	270.12
281.431	261.12
281.662	262.12
281.894	266.12
282.125	282.12
282.356	289.12
282.588	277.12
282.819	302.12
283.051	285.12
283.282	275.12
283.513	277.12
283.745	270.12
283.976	293.12
284.207	282.12
284.439	281.12
284.67	278.12
284.901	284.12
285.132	269.12
285.364	268.12
285.595	296.12
285.826	287.12
286.057	301.12
286.288	275.12
286.52	278.12
286.751	284.12
286.982	284.12
287.213	288.12
287.444	296.12
287.675	296.12
287.906	290.12
288.138	304.12
288.369	314.12
288.6	315.12
288.831	295.12
289.062	303.12
289.293	304.12
289.524	289.12
289.755	290.12
289.986	289.12
290.217	293.12
290.448	313.12
290.679	301.12
290.91	307.12
291.141	292.12
291.371	297.12
291.602	296.12
291.833	306.12
292.064	287.12
292.295	324.12
292.526	270.12
292.757	304.12
292.987	298.12
293.218	301.12
293.449	325.12
293.68	314.12
293.91	291.12
294.141	302.12
294.372	286.12
294.603	312.12
294.833	296.12
295.064	300.12
295.295	290.12
295.525	325.12
295.756	301.12
295.987	292.12
296.217	319.12
296.448	327.12
296.679	294.12
296.909	320.12
297.14	326.12
297.37	323.12
297.601	312.12
297.831	306.12
298.062	311.12
298.292	311.12
298.523	326.12
298.753	334.12
298.984	324.12
299.214	330.12
299.445	331.12
299.675	319.12
299.905	326.12
300.136	322.12
300.366	332.12
300.597	321.12
300.827	322.12
301.057	329.12
301.288	337.12
301.518	327.12
301.748	336.12
301.979	341.12
302.209	348.12
302.439	343.12
302.669	346.12
302.9	341.12
303.13	344.12
303.36	355.12
303.59	360.12
303.82	346.12
304.051	353.12
304.281	343.12
304.511	352.12
304.741	334.12
304.971	362.12
305.201	341.12
305.431	338.12
305.661	351.12
305.891	333.12
306.121	344.12
306.352	353.12
306.582	356.12
306.812	332.12
307.042	349.12
307.272	339.12
307.502	343.12
307.731	339.12
307.961	350.12
308.191	320.12
308.421	355.12
308.651	328.12
308.881	356.12
309.111	354.12
309.341	336.12
309.571	353.12
309.8	360.12
310.03	350.12
310.26	366.12
310.49	361.12
310.72	380.12
310.949	365.12
311.179	389.12
311.409	352.12
311.639	367.12
311.868	372.12
312.098	364.12
312.328	378.12
312.557	385.12
312.787	380.12
313.017	386.12
313.246	375.12
313.476	367.12
313.706	363.12
313.935	372.12
314.165	387.12
314.394	387.12
314.624	400.12
314.853	381.12
315.083	384.12
315.312	391.12
315.542	380.12
315.771	372.12
316.001	366.12
316.23	367.12
316.46	361.12
316.689	388.12
316.919	379.12
317.148	396.12
317.377	399.12
317.607	388.12
317.836	384.12
318.065	374.12
318.295	382.12
318.524	352.12
318.753	370.12
318.983	364.12
319.212	372.12
319.441	385.12
319.67	387.12
319.9	389.12
320.129	388.12
320.358	384.12
320.587	366.12
320.816	391.12
321.046	394.12
321.275	399.12
321.504	391.12
321.733	390.12
321.962	387.12
322.191	391.12
322.42	398.12
322.649	397.12
322.878	416.12
323.108	434.12
323.337	418.12
323.566	438.12
323.795	459.12
324.024	488.12
324.253	538.12
324.482	710.12
324.71	1042.12
324.939	1439.12
325.168	1188.12
325.397	650.12
325.626	511.12
325.855	462.12
326.084	468.12
326.313	464.12
326.542	455.12
326.77	488.12
326.999	551.12
327.228	703.12
327.457	974.12
327.686	1118.12
327.914	751.12
328.143	550.12
328.372	544.12
328.6	507.12
328.829	480.12
329.058	497.12
329.287	502.12
329.515	449.12
329.744	451.12
329.972	455.12
330.201	484.12
330.43	503.12
330.658	512.12
330.887	512.12
331.115	520.12
331.344	471.12
331.572	468.12
331.801	463.12
332.03	468.12
332.258	466.12
332.486	490.12
332.715	489.12
332.943	482.12
333.172	487.12
333.4	493.12
333.629	503.12
333.857	516.12
334.085	524.12
334.314	546.12
334.542	566.12
334.771	581.12
334.999	543.12
335.227	483.12
335.455	488.12
335.684	488.12
335.912	468.12
336.14	465.12
336.369	478.12
336.597	496.12
336.825	472.12
337.053	490.12
337.281	460.12
337.51	455.12
337.738	467.12
337.966	452.12
338.194	475.12
338.422	478.12
338.65	440.12
338.878	451.12
339.106	454.12
339.334	443.12
339.562	438.12
339.79	432.12
340.018	416.12
340.246	435.12
340.474	449.12
340.702	428.12
340.93	418.12
341.158	420.12
341.386	437.12
341.614	421.12
341.842	438.12
342.07	422.12
342.298	418.12
342.526	401.12
342.754	406.12
342.981	435.12
343.209	426.12
343.437	436.12
343.665	472.12
343.893	487.12
344.12	488.12
344.348	482.12
344.576	451.12
344.804	461.12
345.031	463.12
345.259	448.12
345.487	440.12
345.714	435.12
345.942	443.12
346.17	410.12
346.397	401.12
346.625	417.12
346.853	395.12
347.08	427.12
347.308	455.12
347.535	429.12
347.763	411.12
347.99	423.12
348.218	412.12
348.445	424.12
348.673	419.12
348.9	435.12
349.128	401.12
349.355	380.12
349.583	392.12
349.81	391.12
350.037	415.12
350.265	413.12
350.492	406.12
350.72	401.12
350.947	398.12
351.174	434.12
351.402	422.12
351.629	434.12
351.856	427.12
352.083	420.12
352.311	429.12
352.538	431.12
352.765	407.12
352.992	401.12
353.22	417.12
353.447	416.12
353.674	393.12
353.901	395.12
354.128	398.12
354.355	378.12
354.583	424.12
354.81	401.12
355.037	389.12
355.264	410.12
355.491	379.12
355.718	390.12
355.945	387.12
356.172	402.12
356.399	392.12
356.626	386.12
356.853	400.12
357.08	394.12
357.307	389.12
357.534	401.12
357.761	407.12
357.988	437.12
358.215	412.12
358.441	403.12
358.668	408.12
358.895	424.12
359.122	418.12
359.349	406.12
359.576	412.12
359.802	414.12
360.029	433.12
360.256	437.12
360.483	454.12
360.709	430.12
360.936	399.12
361.163	399.12
361.39	397.12
361.616	431.12
361.843	398.12
362.07	395.12
362.296	405.12
362.523	408.12
362.749	409.12
362.976	414.12
363.203	415.12
363.429	396.12
363.656	402.12
363.882	412.12
364.109	410.12
364.335	410.12
364.562	407.12
364.788	402.12
365.015	399.12
365.241	404.12
365.468	407.12
365.694	398.12
365.92	413.12
366.147	398.12
366.373	394.12
366.599	366.12
366.826	393.12
367.052	400.12
367.278	403.12
367.505	394.12
367.731	388.12
367.957	420.12
368.184	416.12
368.41	396.12
368.636	416.12
368.862	418.12
369.089	406.12
369.315	413.12
369.541	414.12
369.767	418.12
369.993	391.12
370.219	430.12
370.445	423.12
370.672	422.12
370.898	401.12
371.124	421.12
371.35	422.12
371.576	423.12
371.802	437.12
372.028	424.12
372.254	432.12
372.48	443.12
372.706	430.12
372.932	433.12
373.158	426.12
373.384	418.12
373.61	414.12
373.835	456.12
374.061	432.12
374.287	427.12
374.513	436.12
374.739	446.12
374.965	448.12
375.191	435.12
375.416	455.12
375.642	420.12
375.868	425.12
376.094	426.12
376.319	428.12
376.545	436.12
376.771	414.12
376.997	405.12
377.222	412.12
377.448	407.12
377.674	410.12
377.899	392.12
378.125	422.12
378.35	397.12
378.576	423.12
378.802	426.12
379.027	410.12
379.253	414.12
379.478	404.12
379.704	403.12
379.929	429.12
380.155	442.12
380.38	426.12
380.606	417.12
380.831	412.12
381.057	437.12
381.282	417.12
381.507	406.12
381.733	434.12
381.958	410.12
382.184	423.12
382.409	431.12
382.634	429.12
382.86	438.12
383.085	438.12
383.31	435.12
383.535	453.12
383.761	440.12
383.986	436.12
384.211	442.12
384.436	434.12
384.662	470.12
384.887	469.12
385.112	480.12
385.337	479.12
385.562	484.12
385.787	479.12
386.013	488.12
386.238	471.12
386.463	485.12
386.688	488.12
386.913	476.12
387.138	471.12
387.363	473.12
387.588	464.12
387.813	468.12
388.038	476.12
388.263	480.12
388.488	473.12
388.713	494.12
388.938	475.12
389.163	480.12
389.387	452.12
389.612	465.12
389.837	466.12
390.062	460.12
390.287	466.12
390.512	460.12
390.736	458.12
390.961	463.12
391.186	498.12
391.411	512.12
391.636	503.12
391.86	519.12
392.085	504.12
392.31	519.12
392.534	513.12
392.759	495.12
392.984	504.12
393.208	494.12
393.433	517.12
393.658	498.12
393.882	478.12
394.107	497.12
394.331	499.12
394.556	502.12
394.78	497.12
395.005	506.12
395.229	506.12
395.454	501.12
395.678	528.12
395.903	529.12
396.127	538.12
396.352	513.12
396.576	516.12
396.801	476.12
397.025	496.12
397.249	512.12
397.474	510.12
397.698	531.12
397.922	548.12
398.147	545.12
398.371	550.12
398.595	558.12
398.82	563.12
399.044	621.12
399.268	628.12
399.492	693.12
399.717	749.12
399.941	770.12
400.165	724.12
400.389	678.12
400.613	629.12
400.837	582.12
401.062	599.12
401.286	568.12
401.51	570.12
401.734	576.12
401.958	579.12
402.182	602.12
402.406	592.12
402.63	606.12
402.854	613.12
403.078	589.12
403.302	612.12
403.526	626.12
403.75	618.12
403.974	615.12
404.198	620.12
404.422	626.12
404.645	634.12
404.869	623.12
405.093	674.12
405.317	666.12
405.541	683.12
405.765	660.12
405.988	629.12
406.212	629.12
406.436	643.12
406.66	664.12
406.883	642.12
407.107	660.12
407.331	717.12
407.555	777.12
407.778	766.12
408.002	706.12
408.226	677.12
408.449	672.12
408.673	654.12
408.896	674.12
409.12	681.12
409.344	642.12
409.567	618.12
409.791	612.12
410.014	581.12
410.238	586.12
410.461	587.12
410.685	598.12
410.908	627.12
411.132	624.12
411.355	630.12
411.578	624.12
411.802	574.12
412.025	577.12
412.249	589.12
412.472	581.12
412.695	614.12
412.919	622.12
413.142	598.12
413.365	565.12
413.589	577.12
413.812	555.12
414.035	563.12
414.258	555.12
414.482	547.12
414.705	552.12
414.928	583.12
415.151	548.12
415.374	569.12
415.597	537.12
415.821	548.12
416.044	558.12
416.267	543.12
416.49	565.12
416.713	551.12
416.936	535.12
417.159	538.12
417.382	560.12
417.605	557.12
417.828	554.12
418.051	578.12
418.274	574.12
418.497	575.12
418.72	580.12
418.943	560.12
419.166	604.12
419.389	626.12
419.611	620.12
419.834	583.12
420.057	599.12
420.28	569.12
420.503	585.12
420.726	555.12
420.948	568.12
421.171	625.12
421.394	615.12
421.617	596.12
421.839	553.12
422.062	577.12
422.285	576.12
422.507	620.12
422.73	662.12
422.953	616.12
423.175	599.12
423.398	577.12
423.621	599.12
423.843	604.12
424.066	608.12
424.288	622.12
424.511	607.12
424.733	656.12
424.956	687.12
425.178	687.12
425.401	654.12
425.623	648.12
425.846	608.12
426.068	576.12
426.291	558.12
426.513	573.12
426.735	581.12
426.958	603.12
427.18	670.12
427.402	750.12
427.625	782.12
427.847	685.12
428.069	622.12
428.292	587.12
428.514	544.12
428.736	538.12
428.958	529.12
429.181	516.12
429.403	515.12
429.625	528.12
429.847	559.12
430.069	596.12
430.292	597.12
430.514	526.12
430.736	526.12
430.958	530.12
431.18	506.12
431.402	514.12
431.624	505.12
431.846	499.12
432.068	499.12
432.29	524.12
432.512	538.12
432.734	525.12
432.956	524.12
433.178	516.12
433.4	519.12
433.622	528.12
433.844	497.12
434.066	527.12
434.287	514.12
434.509	534.12
434.731	540.12
434.953	580.12
435.175	575.12
435.397	585.12
435.618	569.12
435.84	608.12
436.062	629.12
436.284	688.12
436.505	594.12
436.727	566.12
436.949	531.12
437.17	531.12
437.392	526.12
437.614	508.12
437.835	541.12
438.057	611.12
438.278	657.12
438.5	674.12
438.721	722.12
438.943	691.12
439.165	580.12
439.386	558.12
439.608	558.12
439.829	550.12
440.05	585.12
440.272	598.12
440.493	551.12
440.715	552.12
440.936	560.12
441.158	551.12
441.379	546.12
441.6	571.12
441.822	556.12
442.043	595.12
442.264	669.12
442.486	684.12
442.707	579.12
442.928	596.12
443.149	584.12
443.371	622.12
443.592	615.12
443.813	710.12
444.034	730.12
444.255	645.12
444.476	623.12
444.698	615.12
444.919	634.12
445.14	730.12
445.361	656.12
445.582	617.12
445.803	642.12
446.024	695.12
446.245	663.12
446.466	641.12
446.687	573.12
446.908	567.12
447.129	536.12
447.35	518.12
447.571	524.12
447.792	523.12
448.013	515.12
448.234	503.12
448.455	550.12
448.675	614.12
448.896	670.12
449.117	587.12
449.338	582.12
449.559	671.12
449.779	710.12
450	600.12
450.221	535.12
450.442	497.12
450.662	497.12
450.883	498.12
451.104	511.12
451.324	496.12
451.545	497.12
451.766	471.12
451.986	470.12
452.207	469.12
452.428	449.12
452.648	466.12
452.869	454.12
453.089	478.12
453.31	481.12
453.53	471.12
453.751	452.12
453.971	430.12
454.192	439.12
454.412	455.12
454.633	445.12
454.853	445.12
455.073	445.12
455.294	481.12
455.514	516.12
455.734	507.12
455.955	448.12
456.175	446.12
456.395	442.12
456.616	437.12
456.836	430.12
457.056	425.12
457.276	426.12
457.497	433.12
457.717	434.12
457.937	450.12
458.157	451.12
458.377	452.12
458.598	464.12
458.818	504.12
459.038	548.12
459.258	590.12
459.478	514.12
459.698	506.12
459.918	500.12
460.138	514.12
460.358	535.12
460.578	532.12
460.798	540.12
461.018	569.12
461.238	522.12
461.458	549.12
461.678	541.12
461.898	560.12
462.118	546.12
462.338	573.12
462.558	574.12
462.777	624.12
462.997	645.12
463.217	669.12
463.437	650.12
463.657	609.12
463.876	594.12
464.096	598.12
464.316	591.12
464.536	620.12
464.755	601.12
464.975	587.12
465.195	599.12
465.414	625.12
465.634	534.12
465.854	528.12
466.073	503.12
466.293	515.12
466.512	484.12
466.732	491.12
466.951	480.12
467.171	462.12
467.391	488.12
467.61	496.12
467.829	495.12
468.049	494.12
468.268	494.12
468.488	469.12
468.707	470.12
468.927	475.12
469.146	439.12
469.365	470.12
469.585	468.12
469.804	474.12
470.023	488.12
470.243	490.12
470.462	512.12
470.681	517.12
470.901	509.12
471.12	508.12
471.339	496.12
471.558	494.12
471.777	472.12
471.997	486.12
472.216	455.12
472.435	496.12
472.654	502.12
472.873	462.12
473.092	446.12
473.311	469.12
473.53	458.12
473.749	462.12
473.968	496.12
474.187	563.12
474.406	562.12
474.625	489.12
474.844	480.12
475.063	483.12
475.282	486.12
475.501	451.12
475.72	478.12
475.939	482.12
476.158	481.12
476.377	478.12
476.596	474.12
476.814	487.12
477.033	499.12
477.252	501.12
477.471	515.12
477.69	508.12
477.908	509.12
478.127	542.12
478.346	549.12
478.564	546.12
478.783	544.12
479.002	570.12
479.22	569.12
479.439	573.12
479.658	587.12
479.876	598.12
480.095	569.12
480.313	629.12
480.532	603.12
480.751	614.12
480.969	591.12
481.188	634.12
481.406	649.12
481.624	568.12
481.843	544.12
482.061	535.12
482.28	550.12
482.498	538.12
482.717	540.12
482.935	529.12
483.153	524.12
483.372	544.12
483.59	524.12
483.808	559.12
484.027	541.12
484.245	551.12
484.463	563.12
484.681	566.12
484.9	542.12
485.118	539.12
485.336	572.12
485.554	570.12
485.772	574.12
485.99	558.12
486.209	580.12
486.427	545.12
486.645	568.12
486.863	588.12
487.081	589.12
487.299	577.12
487.517	567.12
487.735	598.12
487.953	581.12
488.171	566.12
488.389	579.12
488.607	565.12
488.825	570.12
489.043	584.12
489.261	592.12
489.479	602.12
489.696	584.12
489.914	561.12
490.132	599.12
490.35	610.12
490.568	580.12
490.786	610.12
491.003	607.12
491.221	611.12
491.439	638.12
491.657	649.12
491.874	641.12
492.092	648.12
492.31	658.12
492.527	672.12
492.745	632.12
492.963	658.12
493.18	676.12
493.398	678.12
493.615	680.12
493.833	681.12
494.05	667.12
494.268	654.12
494.485	690.12
494.703	652.12
494.92	658.12
495.138	642.12
495.355	674.12
495.573	654.12
495.79	669.12
496.008	659.12
496.225	657.12
496.442	630.12
496.66	678.12
496.877	674.12
497.094	660.12
497.312	670.12
497.529	674.12
497.746	700.12
497.963	701.12
498.181	735.12
498.398	774.12
498.615	756.12
498.832	824.12
499.049	847.12
499.267	854.12
499.484	967.12
499.701	1013.12
499.918	1054.12
500.135	1138.12
500.352	1271.12
500.569	1316.12
500.786	1318.12
501.003	1271.12
501.22	1189.12
501.437	1081.12
501.654	1016.12
501.871	963.12
