Data from 1960PennyLincolnUp.LampE5.5.200Scan.07172019.P1.ChangedAngle_HRD10591_13-14-22-821.txt Node
Date: Thu Jul 18 13:14:22 EDT 2019
User: cochatt
Spectrometer: HR+D1059
Trigger mode: 1
Integration Time (sec): 1.000000E-1
Scans to average: 1
Electric dark correction enabled: true
Nonlinearity correction enabled: false
Boxcar width: 0
XAxis mode: Wavelengths
Number of Pixels in Spectrum: 2048
>>>>>Begin Spectral Data<<<<<
223.165	-13.06
223.4	-13.06
223.635	-13.06
223.869	-12.06
224.104	-22.06
224.338	-10.06
224.573	-18.06
224.808	-4.06
225.042	-6.06
225.277	-14.06
225.511	3.94
225.746	-6.06
225.98	-1.06
226.215	12.94
226.449	19.94
226.683	9.94
226.918	24.94
227.152	34.94
227.387	30.94
227.621	40.94
227.856	36.94
228.09	29.94
228.324	55.94
228.559	58.94
228.793	63.94
229.027	66.94
229.262	82.94
229.496	93.94
229.73	89.94
229.964	119.94
230.199	107.94
230.433	94.94
230.667	94.94
230.901	85.94
231.136	98.94
231.37	93.94
231.604	109.94
231.838	87.94
232.072	108.94
232.306	113.94
232.541	117.94
232.775	96.94
233.009	104.94
233.243	113.94
233.477	103.94
233.711	99.94
233.945	90.94
234.179	101.94
234.413	90.94
234.647	85.94
234.881	113.94
235.115	104.94
235.349	106.94
235.583	105.94
235.817	102.94
236.051	101.94
236.285	110.94
236.519	113.94
236.753	99.94
236.987	102.94
237.221	130.94
237.455	153.94
237.689	141.94
237.922	126.94
238.156	117.94
238.39	110.94
238.624	107.94
238.858	99.94
239.091	110.94
239.325	105.94
239.559	98.94
239.793	114.94
240.027	101.94
240.26	119.94
240.494	122.94
240.728	114.94
240.961	118.94
241.195	124.94
241.429	127.94
241.662	126.94
241.896	130.94
242.13	128.94
242.363	110.94
242.597	121.94
242.83	119.94
243.064	131.94
243.298	130.94
243.531	133.94
243.765	129.94
243.998	131.94
244.232	117.94
244.465	126.94
244.699	125.94
244.932	125.94
245.166	134.94
245.399	122.94
245.633	154.94
245.866	132.94
246.099	131.94
246.333	121.94
246.566	137.94
246.8	136.94
247.033	142.94
247.266	124.94
247.5	145.94
247.733	156.94
247.966	156.94
248.2	149.94
248.433	163.94
248.666	139.94
248.899	145.94
249.133	161.94
249.366	164.94
249.599	159.94
249.832	153.94
250.066	151.94
250.299	172.94
250.532	159.94
250.765	163.94
250.998	177.94
251.231	165.94
251.465	177.94
251.698	188.94
251.931	169.94
252.164	156.94
252.397	175.94
252.63	171.94
252.863	165.94
253.096	175.94
253.329	174.94
253.562	162.94
253.795	172.94
254.028	171.94
254.261	169.94
254.494	180.94
254.727	212.94
254.96	218.94
255.193	217.94
255.426	190.94
255.659	197.94
255.892	199.94
256.124	187.94
256.357	194.94
256.59	209.94
256.823	194.94
257.056	195.94
257.289	166.94
257.521	178.94
257.754	173.94
257.987	197.94
258.22	185.94
258.452	195.94
258.685	186.94
258.918	177.94
259.151	180.94
259.383	191.94
259.616	192.94
259.849	188.94
260.081	189.94
260.314	205.94
260.547	194.94
260.779	204.94
261.012	190.94
261.244	193.94
261.477	204.94
261.71	178.94
261.942	183.94
262.175	185.94
262.407	187.94
262.64	214.94
262.872	179.94
263.105	190.94
263.337	172.94
263.57	190.94
263.802	199.94
264.035	195.94
264.267	195.94
264.499	193.94
264.732	195.94
264.964	179.94
265.197	183.94
265.429	206.94
265.661	199.94
265.894	195.94
266.126	194.94
266.358	197.94
266.591	205.94
266.823	226.94
267.055	210.94
267.287	189.94
267.52	194.94
267.752	209.94
267.984	215.94
268.216	208.94
268.448	210.94
268.681	206.94
268.913	203.94
269.145	214.94
269.377	229.94
269.609	232.94
269.841	213.94
270.073	234.94
270.306	249.94
270.538	254.94
270.77	263.94
271.002	250.94
271.234	253.94
271.466	234.94
271.698	252.94
271.93	250.94
272.162	276.94
272.394	250.94
272.626	258.94
272.858	244.94
273.09	233.94
273.322	227.94
273.553	211.94
273.785	241.94
274.017	225.94
274.249	246.94
274.481	226.94
274.713	219.94
274.945	234.94
275.176	247.94
275.408	231.94
275.64	233.94
275.872	231.94
276.104	249.94
276.335	251.94
276.567	262.94
276.799	250.94
277.031	243.94
277.262	275.94
277.494	264.94
277.726	267.94
277.957	259.94
278.189	235.94
278.421	250.94
278.652	231.94
278.884	237.94
279.115	234.94
279.347	258.94
279.579	259.94
279.81	244.94
280.042	229.94
280.273	250.94
280.505	247.94
280.736	258.94
280.968	253.94
281.199	263.94
281.431	256.94
281.662	252.94
281.894	250.94
282.125	253.94
282.356	262.94
282.588	256.94
282.819	261.94
283.051	254.94
283.282	244.94
283.513	249.94
283.745	267.94
283.976	261.94
284.207	239.94
284.439	259.94
284.67	249.94
284.901	267.94
285.132	251.94
285.364	265.94
285.595	261.94
285.826	253.94
286.057	262.94
286.288	261.94
286.52	242.94
286.751	256.94
286.982	280.94
287.213	258.94
287.444	254.94
287.675	243.94
287.906	273.94
288.138	279.94
288.369	274.94
288.6	277.94
288.831	261.94
289.062	261.94
289.293	264.94
289.524	273.94
289.755	291.94
289.986	268.94
290.217	261.94
290.448	276.94
290.679	298.94
290.91	261.94
291.141	260.94
291.371	271.94
291.602	280.94
291.833	263.94
292.064	284.94
292.295	259.94
292.526	268.94
292.757	277.94
292.987	284.94
293.218	277.94
293.449	267.94
293.68	268.94
293.91	260.94
294.141	271.94
294.372	272.94
294.603	275.94
294.833	273.94
295.064	282.94
295.295	275.94
295.525	274.94
295.756	284.94
295.987	279.94
296.217	289.94
296.448	289.94
296.679	285.94
296.909	277.94
297.14	270.94
297.37	277.94
297.601	277.94
297.831	262.94
298.062	277.94
298.292	269.94
298.523	309.94
298.753	290.94
298.984	279.94
299.214	280.94
299.445	292.94
299.675	277.94
299.905	292.94
300.136	292.94
300.366	300.94
300.597	311.94
300.827	303.94
301.057	303.94
301.288	309.94
301.518	305.94
301.748	299.94
301.979	317.94
302.209	313.94
302.439	293.94
302.669	307.94
302.9	292.94
303.13	316.94
303.36	308.94
303.59	313.94
303.82	299.94
304.051	321.94
304.281	309.94
304.511	306.94
304.741	310.94
304.971	314.94
305.201	297.94
305.431	314.94
305.661	308.94
305.891	317.94
306.121	314.94
306.352	327.94
306.582	289.94
306.812	314.94
307.042	313.94
307.272	315.94
307.502	323.94
307.731	304.94
307.961	312.94
308.191	298.94
308.421	318.94
308.651	317.94
308.881	323.94
309.111	316.94
309.341	330.94
309.571	318.94
309.8	319.94
310.03	325.94
310.26	320.94
310.49	338.94
310.72	322.94
310.949	335.94
311.179	344.94
311.409	341.94
311.639	332.94
311.868	325.94
312.098	343.94
312.328	327.94
312.557	343.94
312.787	337.94
313.017	356.94
313.246	329.94
313.476	331.94
313.706	350.94
313.935	343.94
314.165	335.94
314.394	333.94
314.624	334.94
314.853	329.94
315.083	337.94
315.312	329.94
315.542	322.94
315.771	353.94
316.001	341.94
316.23	332.94
316.46	337.94
316.689	347.94
316.919	319.94
317.148	326.94
317.377	329.94
317.607	353.94
317.836	311.94
318.065	332.94
318.295	317.94
318.524	338.94
318.753	343.94
318.983	338.94
319.212	324.94
319.441	339.94
319.67	327.94
319.9	345.94
320.129	355.94
320.358	344.94
320.587	359.94
320.816	354.94
321.046	346.94
321.275	353.94
321.504	364.94
321.733	342.94
321.962	372.94
322.191	362.94
322.42	373.94
322.649	361.94
322.878	350.94
323.108	375.94
323.337	377.94
323.566	395.94
323.795	381.94
324.024	443.94
324.253	519.94
324.482	673.94
324.71	908.94
324.939	1197.94
325.168	1031.94
325.397	601.94
325.626	467.94
325.855	427.94
326.084	388.94
326.313	400.94
326.542	389.94
326.77	426.94
326.999	477.94
327.228	601.94
327.457	809.94
327.686	886.94
327.914	661.94
328.143	493.94
328.372	431.94
328.6	431.94
328.829	421.94
329.058	422.94
329.287	405.94
329.515	423.94
329.744	389.94
329.972	422.94
330.201	423.94
330.43	437.94
330.658	436.94
330.887	437.94
331.115	429.94
331.344	416.94
331.572	408.94
331.801	397.94
332.03	375.94
332.258	393.94
332.486	407.94
332.715	405.94
332.943	393.94
333.172	408.94
333.4	395.94
333.629	406.94
333.857	431.94
334.085	415.94
334.314	421.94
334.542	429.94
334.771	443.94
334.999	429.94
335.227	391.94
335.455	395.94
335.684	383.94
335.912	404.94
336.14	390.94
336.369	404.94
336.597	395.94
336.825	404.94
337.053	391.94
337.281	398.94
337.51	399.94
337.738	375.94
337.966	373.94
338.194	395.94
338.422	383.94
338.65	395.94
338.878	386.94
339.106	389.94
339.334	386.94
339.562	391.94
339.79	408.94
340.018	388.94
340.246	392.94
340.474	375.94
340.702	361.94
340.93	379.94
341.158	397.94
341.386	379.94
341.614	397.94
341.842	373.94
342.07	374.94
342.298	368.94
342.526	369.94
342.754	374.94
342.981	377.94
343.209	375.94
343.437	382.94
343.665	383.94
343.893	391.94
344.12	398.94
344.348	397.94
344.576	397.94
344.804	386.94
345.031	389.94
345.259	389.94
345.487	383.94
345.714	361.94
345.942	349.94
346.17	361.94
346.397	377.94
346.625	377.94
346.853	367.94
347.08	365.94
347.308	373.94
347.535	374.94
347.763	367.94
347.99	362.94
348.218	354.94
348.445	359.94
348.673	350.94
348.9	363.94
349.128	350.94
349.355	349.94
349.583	353.94
349.81	363.94
350.037	347.94
350.265	359.94
350.492	367.94
350.72	347.94
350.947	336.94
351.174	342.94
351.402	351.94
351.629	358.94
351.856	337.94
352.083	364.94
352.311	377.94
352.538	361.94
352.765	350.94
352.992	347.94
353.22	346.94
353.447	356.94
353.674	347.94
353.901	331.94
354.128	350.94
354.355	339.94
354.583	335.94
354.81	340.94
355.037	342.94
355.264	349.94
355.491	319.94
355.718	350.94
355.945	332.94
356.172	332.94
356.399	355.94
356.626	330.94
356.853	342.94
357.08	329.94
357.307	339.94
357.534	350.94
357.761	365.94
357.988	352.94
358.215	337.94
358.441	353.94
358.668	328.94
358.895	348.94
359.122	332.94
359.349	340.94
359.576	350.94
359.802	340.94
360.029	364.94
360.256	349.94
360.483	351.94
360.709	325.94
360.936	365.94
361.163	359.94
361.39	354.94
361.616	348.94
361.843	365.94
362.07	358.94
362.296	347.94
362.523	351.94
362.749	333.94
362.976	346.94
363.203	343.94
363.429	328.94
363.656	346.94
363.882	332.94
364.109	329.94
364.335	338.94
364.562	330.94
364.788	346.94
365.015	342.94
365.241	334.94
365.468	345.94
365.694	325.94
365.92	352.94
366.147	356.94
366.373	339.94
366.599	325.94
366.826	325.94
367.052	339.94
367.278	339.94
367.505	324.94
367.731	339.94
367.957	335.94
368.184	349.94
368.41	355.94
368.636	358.94
368.862	341.94
369.089	344.94
369.315	332.94
369.541	333.94
369.767	341.94
369.993	324.94
370.219	334.94
370.445	334.94
370.672	322.94
370.898	335.94
371.124	338.94
371.35	337.94
371.576	341.94
371.802	345.94
372.028	346.94
372.254	349.94
372.48	344.94
372.706	330.94
372.932	338.94
373.158	359.94
373.384	351.94
373.61	348.94
373.835	337.94
374.061	312.94
374.287	341.94
374.513	348.94
374.739	331.94
374.965	345.94
375.191	341.94
375.416	340.94
375.642	333.94
375.868	340.94
376.094	339.94
376.319	349.94
376.545	347.94
376.771	358.94
376.997	345.94
377.222	353.94
377.448	332.94
377.674	319.94
377.899	336.94
378.125	322.94
378.35	330.94
378.576	325.94
378.802	335.94
379.027	318.94
379.253	344.94
379.478	326.94
379.704	343.94
379.929	317.94
380.155	350.94
380.38	329.94
380.606	332.94
380.831	330.94
381.057	360.94
381.282	335.94
381.507	363.94
381.733	334.94
381.958	333.94
382.184	341.94
382.409	340.94
382.634	350.94
382.86	328.94
383.085	330.94
383.31	360.94
383.535	342.94
383.761	349.94
383.986	333.94
384.211	359.94
384.436	361.94
384.662	328.94
384.887	361.94
385.112	362.94
385.337	349.94
385.562	350.94
385.787	366.94
386.013	360.94
386.238	379.94
386.463	367.94
386.688	363.94
386.913	382.94
387.138	361.94
387.363	349.94
387.588	353.94
387.813	361.94
388.038	376.94
388.263	378.94
388.488	363.94
388.713	342.94
388.938	357.94
389.163	363.94
389.387	356.94
389.612	355.94
389.837	350.94
390.062	353.94
390.287	361.94
390.512	359.94
390.736	349.94
390.961	387.94
391.186	359.94
391.411	359.94
391.636	353.94
391.86	359.94
392.085	396.94
392.31	387.94
392.534	379.94
392.759	359.94
392.984	379.94
393.208	354.94
393.433	373.94
393.658	372.94
393.882	363.94
394.107	363.94
394.331	345.94
394.556	373.94
394.78	361.94
395.005	372.94
395.229	351.94
395.454	383.94
395.678	383.94
395.903	369.94
396.127	398.94
396.352	400.94
396.576	383.94
396.801	373.94
397.025	367.94
397.249	379.94
397.474	371.94
397.698	383.94
397.922	381.94
398.147	411.94
398.371	418.94
398.595	383.94
398.82	382.94
399.044	409.94
399.268	436.94
399.492	449.94
399.717	457.94
399.941	478.94
400.165	499.94
400.389	484.94
400.613	457.94
400.837	413.94
401.062	415.94
401.286	406.94
401.51	417.94
401.734	398.94
401.958	405.94
402.182	406.94
402.406	395.94
402.63	398.94
402.854	411.94
403.078	414.94
403.302	413.94
403.526	419.94
403.75	403.94
403.974	425.94
404.198	401.94
404.422	405.94
404.645	410.94
404.869	427.94
405.093	442.94
405.317	460.94
405.541	478.94
405.765	431.94
405.988	408.94
406.212	431.94
406.436	445.94
406.66	453.94
406.883	427.94
407.107	459.94
407.331	475.94
407.555	523.94
407.778	503.94
408.002	478.94
408.226	469.94
408.449	430.94
408.673	428.94
408.896	461.94
409.12	471.94
409.344	471.94
409.567	427.94
409.791	428.94
410.014	422.94
410.238	391.94
410.461	403.94
410.685	426.94
410.908	410.94
411.132	441.94
411.355	439.94
411.578	428.94
411.802	407.94
412.025	409.94
412.249	414.94
412.472	423.94
412.695	437.94
412.919	427.94
413.142	414.94
413.365	415.94
413.589	398.94
413.812	378.94
414.035	399.94
414.258	387.94
414.482	397.94
414.705	384.94
414.928	398.94
415.151	367.94
415.374	396.94
415.597	370.94
415.821	369.94
416.044	380.94
416.267	380.94
416.49	374.94
416.713	343.94
416.936	357.94
417.159	387.94
417.382	368.94
417.605	376.94
417.828	392.94
418.051	408.94
418.274	377.94
418.497	382.94
418.72	385.94
418.943	387.94
419.166	380.94
419.389	393.94
419.611	389.94
419.834	391.94
420.057	399.94
420.28	401.94
420.503	382.94
420.726	404.94
420.948	384.94
421.171	422.94
421.394	460.94
421.617	406.94
421.839	404.94
422.062	379.94
422.285	393.94
422.507	457.94
422.73	462.94
422.953	448.94
423.175	423.94
423.398	397.94
423.621	387.94
423.843	428.94
424.066	428.94
424.288	411.94
424.511	414.94
424.733	442.94
424.956	509.94
425.178	471.94
425.401	469.94
425.623	495.94
425.846	423.94
426.068	419.94
426.291	403.94
426.513	411.94
426.735	407.94
426.958	434.94
427.18	476.94
427.402	564.94
427.625	613.94
427.847	529.94
428.069	452.94
428.292	429.94
428.514	403.94
428.736	388.94
428.958	393.94
429.181	380.94
429.403	380.94
429.625	404.94
429.847	394.94
430.069	455.94
430.292	433.94
430.514	389.94
430.736	393.94
430.958	360.94
431.18	374.94
431.402	373.94
431.624	362.94
431.846	358.94
432.068	357.94
432.29	369.94
432.512	356.94
432.734	366.94
432.956	369.94
433.178	369.94
433.4	370.94
433.622	390.94
433.844	380.94
434.066	387.94
434.287	361.94
434.509	369.94
434.731	377.94
434.953	385.94
435.175	397.94
435.397	418.94
435.618	382.94
435.84	443.94
436.062	477.94
436.284	522.94
436.505	457.94
436.727	403.94
436.949	373.94
437.17	380.94
437.392	361.94
437.614	389.94
437.835	393.94
438.057	443.94
438.278	484.94
438.5	503.94
438.721	556.94
438.943	537.94
439.165	447.94
439.386	413.94
439.608	409.94
439.829	383.94
440.05	394.94
440.272	436.94
440.493	420.94
440.715	400.94
440.936	369.94
441.158	397.94
441.379	394.94
441.6	389.94
441.822	382.94
442.043	427.94
442.264	443.94
442.486	496.94
442.707	444.94
442.928	406.94
443.149	397.94
443.371	421.94
443.592	452.94
443.813	486.94
444.034	551.94
444.255	441.94
444.476	413.94
444.698	410.94
444.919	396.94
445.14	507.94
445.361	474.94
445.582	412.94
445.803	445.94
446.024	500.94
446.245	491.94
446.466	457.94
446.687	415.94
446.908	408.94
447.129	383.94
447.35	357.94
447.571	385.94
447.792	372.94
448.013	379.94
448.234	386.94
448.455	398.94
448.675	487.94
448.896	536.94
449.117	465.94
449.338	465.94
449.559	494.94
449.779	549.94
450	474.94
450.221	381.94
450.442	391.94
450.662	374.94
450.883	362.94
451.104	338.94
451.324	367.94
451.545	357.94
451.766	328.94
451.986	345.94
452.207	359.94
452.428	341.94
452.648	313.94
452.869	341.94
453.089	325.94
453.31	355.94
453.53	334.94
453.751	345.94
453.971	353.94
454.192	335.94
454.412	338.94
454.633	343.94
454.853	314.94
455.073	322.94
455.294	339.94
455.514	382.94
455.734	373.94
455.955	334.94
456.175	320.94
456.395	329.94
456.616	302.94
456.836	323.94
457.056	331.94
457.276	323.94
457.497	330.94
457.717	321.94
457.937	323.94
458.157	333.94
458.377	318.94
458.598	343.94
458.818	358.94
459.038	397.94
459.258	425.94
459.478	396.94
459.698	360.94
459.918	359.94
460.138	369.94
460.358	361.94
460.578	386.94
460.798	372.94
461.018	386.94
461.238	365.94
461.458	371.94
461.678	372.94
461.898	375.94
462.118	370.94
462.338	385.94
462.558	380.94
462.777	397.94
462.997	405.94
463.217	411.94
463.437	420.94
463.657	383.94
463.876	397.94
464.096	402.94
464.316	412.94
464.536	393.94
464.755	408.94
464.975	389.94
465.195	407.94
465.414	421.94
465.634	380.94
465.854	385.94
466.073	385.94
466.293	359.94
466.512	365.94
466.732	349.94
466.951	367.94
467.171	346.94
467.391	355.94
467.61	348.94
467.829	338.94
468.049	355.94
468.268	341.94
468.488	340.94
468.707	353.94
468.927	334.94
469.146	350.94
469.365	336.94
469.585	345.94
469.804	343.94
470.023	355.94
470.243	363.94
470.462	371.94
470.681	358.94
470.901	360.94
471.12	370.94
471.339	343.94
471.558	360.94
471.777	353.94
471.997	351.94
472.216	347.94
472.435	364.94
472.654	357.94
472.873	359.94
473.092	362.94
473.311	355.94
473.53	362.94
473.749	350.94
473.968	383.94
474.187	438.94
474.406	435.94
474.625	384.94
474.844	349.94
475.063	341.94
475.282	347.94
475.501	364.94
475.72	334.94
475.939	367.94
476.158	362.94
476.377	371.94
476.596	373.94
476.814	370.94
477.033	373.94
477.252	378.94
477.471	383.94
477.69	389.94
477.908	381.94
478.127	393.94
478.346	380.94
478.564	397.94
478.783	397.94
479.002	413.94
479.22	405.94
479.439	407.94
479.658	416.94
479.876	405.94
480.095	410.94
480.313	424.94
480.532	427.94
480.751	438.94
480.969	429.94
481.188	442.94
481.406	466.94
481.624	425.94
481.843	412.94
482.061	428.94
482.28	414.94
482.498	395.94
482.717	401.94
482.935	413.94
483.153	404.94
483.372	410.94
483.59	418.94
483.808	398.94
484.027	389.94
484.245	405.94
484.463	397.94
484.681	421.94
484.9	427.94
485.118	410.94
485.336	412.94
485.554	425.94
485.772	447.94
485.99	429.94
486.209	412.94
486.427	435.94
486.645	442.94
486.863	437.94
487.081	446.94
487.299	428.94
487.517	443.94
487.735	430.94
487.953	439.94
488.171	445.94
488.389	434.94
488.607	449.94
488.825	438.94
489.043	441.94
489.261	455.94
489.479	444.94
489.696	444.94
489.914	434.94
490.132	451.94
490.35	439.94
490.568	441.94
490.786	456.94
491.003	469.94
491.221	468.94
491.439	452.94
491.657	470.94
491.874	469.94
492.092	478.94
492.31	476.94
492.527	472.94
492.745	495.94
492.963	474.94
493.18	476.94
493.398	467.94
493.615	478.94
493.833	476.94
494.05	465.94
494.268	451.94
494.485	479.94
494.703	480.94
494.92	495.94
495.138	486.94
495.355	494.94
495.573	516.94
495.79	485.94
496.008	499.94
496.225	497.94
496.442	503.94
496.66	495.94
496.877	507.94
497.094	523.94
497.312	523.94
497.529	519.94
497.746	554.94
497.963	529.94
498.181	540.94
498.398	559.94
498.615	567.94
498.832	558.94
499.049	585.94
499.267	597.94
499.484	602.94
499.701	646.94
499.918	679.94
500.135	701.94
500.352	720.94
500.569	745.94
500.786	725.94
501.003	728.94
501.22	710.94
501.437	685.94
501.654	675.94
501.871	640.94
502.088	622.94
