Data from 1960PennyLincolnUp.LampE6.200Scan.07172019.P1_HRD10591_13-05-35-001.txt Node
Date: Thu Jul 18 13:05:35 EDT 2019
User: cochatt
Spectrometer: HR+D1059
Trigger mode: 1
Integration Time (sec): 1.000000E-1
Scans to average: 1
Electric dark correction enabled: true
Nonlinearity correction enabled: false
Boxcar width: 0
XAxis mode: Wavelengths
Number of Pixels in Spectrum: 2048
>>>>>Begin Spectral Data<<<<<
223.165	-7.75
223.4	-7.75
223.635	-7.75
223.869	-5.75
224.104	-21.75
224.338	-12.75
224.573	-11.75
224.808	-22.75
225.042	-14.75
225.277	-4.75
225.511	-0.75
225.746	1.25
225.98	4.25
226.215	14.25
226.449	13.25
226.683	16.25
226.918	20.25
227.152	33.25
227.387	36.25
227.621	33.25
227.856	39.25
228.09	38.25
228.324	48.25
228.559	54.25
228.793	53.25
229.027	79.25
229.262	85.25
229.496	88.25
229.73	111.25
229.964	118.25
230.199	107.25
230.433	101.25
230.667	113.25
230.901	110.25
231.136	104.25
231.37	104.25
231.604	108.25
231.838	115.25
232.072	102.25
232.306	93.25
232.541	107.25
232.775	108.25
233.009	100.25
233.243	104.25
233.477	104.25
233.711	113.25
233.945	100.25
234.179	116.25
234.413	124.25
234.647	118.25
234.881	110.25
235.115	106.25
235.349	109.25
235.583	114.25
235.817	112.25
236.051	134.25
236.285	96.25
236.519	114.25
236.753	112.25
236.987	130.25
237.221	150.25
237.455	153.25
237.689	136.25
237.922	132.25
238.156	113.25
238.39	113.25
238.624	101.25
238.858	97.25
239.091	123.25
239.325	105.25
239.559	118.25
239.793	115.25
240.027	113.25
240.26	129.25
240.494	135.25
240.728	134.25
240.961	122.25
241.195	124.25
241.429	128.25
241.662	128.25
241.896	132.25
242.13	120.25
242.363	102.25
242.597	113.25
242.83	135.25
243.064	113.25
243.298	126.25
243.531	145.25
243.765	144.25
243.998	148.25
244.232	132.25
244.465	127.25
244.699	137.25
244.932	135.25
245.166	130.25
245.399	132.25
245.633	132.25
245.866	143.25
246.099	138.25
246.333	132.25
246.566	140.25
246.8	148.25
247.033	124.25
247.266	141.25
247.5	139.25
247.733	173.25
247.966	151.25
248.2	138.25
248.433	158.25
248.666	163.25
248.899	144.25
249.133	165.25
249.366	174.25
249.599	157.25
249.832	144.25
250.066	151.25
250.299	164.25
250.532	186.25
250.765	179.25
250.998	178.25
251.231	172.25
251.465	176.25
251.698	175.25
251.931	170.25
252.164	179.25
252.397	181.25
252.63	170.25
252.863	176.25
253.096	197.25
253.329	188.25
253.562	201.25
253.795	192.25
254.028	185.25
254.261	180.25
254.494	190.25
254.727	210.25
254.96	218.25
255.193	197.25
255.426	198.25
255.659	178.25
255.892	185.25
256.124	191.25
256.357	201.25
256.59	195.25
256.823	192.25
257.056	184.25
257.289	184.25
257.521	175.25
257.754	190.25
257.987	175.25
258.22	181.25
258.452	195.25
258.685	198.25
258.918	180.25
259.151	203.25
259.383	181.25
259.616	185.25
259.849	208.25
260.081	200.25
260.314	213.25
260.547	211.25
260.779	196.25
261.012	215.25
261.244	206.25
261.477	212.25
261.71	199.25
261.942	208.25
262.175	203.25
262.407	193.25
262.64	181.25
262.872	200.25
263.105	195.25
263.337	193.25
263.57	208.25
263.802	190.25
264.035	200.25
264.267	209.25
264.499	189.25
264.732	191.25
264.964	195.25
265.197	184.25
265.429	189.25
265.661	192.25
265.894	202.25
266.126	213.25
266.358	209.25
266.591	199.25
266.823	201.25
267.055	196.25
267.287	205.25
267.52	202.25
267.752	212.25
267.984	217.25
268.216	226.25
268.448	208.25
268.681	205.25
268.913	231.25
269.145	232.25
269.377	225.25
269.609	228.25
269.841	222.25
270.073	239.25
270.306	252.25
270.538	272.25
270.77	261.25
271.002	241.25
271.234	227.25
271.466	249.25
271.698	250.25
271.93	258.25
272.162	265.25
272.394	272.25
272.626	272.25
272.858	259.25
273.09	257.25
273.322	259.25
273.553	241.25
273.785	238.25
274.017	228.25
274.249	251.25
274.481	246.25
274.713	244.25
274.945	240.25
275.176	248.25
275.408	242.25
275.64	257.25
275.872	244.25
276.104	255.25
276.335	225.25
276.567	256.25
276.799	243.25
277.031	277.25
277.262	281.25
277.494	252.25
277.726	280.25
277.957	265.25
278.189	263.25
278.421	253.25
278.652	240.25
278.884	244.25
279.115	237.25
279.347	257.25
279.579	274.25
279.81	254.25
280.042	264.25
280.273	264.25
280.505	244.25
280.736	270.25
280.968	258.25
281.199	265.25
281.431	253.25
281.662	263.25
281.894	263.25
282.125	270.25
282.356	292.25
282.588	277.25
282.819	287.25
283.051	272.25
283.282	269.25
283.513	270.25
283.745	271.25
283.976	292.25
284.207	276.25
284.439	282.25
284.67	294.25
284.901	261.25
285.132	284.25
285.364	264.25
285.595	279.25
285.826	266.25
286.057	278.25
286.288	273.25
286.52	273.25
286.751	281.25
286.982	288.25
287.213	287.25
287.444	284.25
287.675	304.25
287.906	289.25
288.138	292.25
288.369	291.25
288.6	297.25
288.831	271.25
289.062	283.25
289.293	294.25
289.524	264.25
289.755	292.25
289.986	293.25
290.217	262.25
290.448	295.25
290.679	277.25
290.91	300.25
291.141	295.25
291.371	293.25
291.602	278.25
291.833	286.25
292.064	275.25
292.295	294.25
292.526	265.25
292.757	278.25
292.987	277.25
293.218	295.25
293.449	276.25
293.68	292.25
293.91	309.25
294.141	296.25
294.372	282.25
294.603	294.25
294.833	306.25
295.064	292.25
295.295	290.25
295.525	298.25
295.756	297.25
295.987	316.25
296.217	292.25
296.448	301.25
296.679	297.25
296.909	296.25
297.14	308.25
297.37	323.25
297.601	300.25
297.831	324.25
298.062	296.25
298.292	322.25
298.523	316.25
298.753	319.25
298.984	320.25
299.214	311.25
299.445	306.25
299.675	311.25
299.905	317.25
300.136	310.25
300.366	310.25
300.597	333.25
300.827	314.25
301.057	325.25
301.288	334.25
301.518	335.25
301.748	341.25
301.979	323.25
302.209	328.25
302.439	334.25
302.669	326.25
302.9	353.25
303.13	325.25
303.36	330.25
303.59	350.25
303.82	352.25
304.051	342.25
304.281	344.25
304.511	340.25
304.741	321.25
304.971	336.25
305.201	346.25
305.431	345.25
305.661	340.25
305.891	333.25
306.121	312.25
306.352	335.25
306.582	340.25
306.812	327.25
307.042	328.25
307.272	352.25
307.502	324.25
307.731	332.25
307.961	327.25
308.191	337.25
308.421	329.25
308.651	336.25
308.881	353.25
309.111	343.25
309.341	322.25
309.571	335.25
309.8	350.25
310.03	349.25
310.26	346.25
310.49	377.25
310.72	345.25
310.949	356.25
311.179	352.25
311.409	362.25
311.639	362.25
311.868	367.25
312.098	359.25
312.328	360.25
312.557	372.25
312.787	365.25
313.017	376.25
313.246	370.25
313.476	358.25
313.706	366.25
313.935	356.25
314.165	364.25
314.394	388.25
314.624	371.25
314.853	352.25
315.083	367.25
315.312	372.25
315.542	362.25
315.771	367.25
316.001	368.25
316.23	363.25
316.46	366.25
316.689	394.25
316.919	352.25
317.148	369.25
317.377	378.25
317.607	376.25
317.836	365.25
318.065	364.25
318.295	368.25
318.524	358.25
318.753	365.25
318.983	357.25
319.212	351.25
319.441	359.25
319.67	374.25
319.9	363.25
320.129	382.25
320.358	341.25
320.587	375.25
320.816	364.25
321.046	377.25
321.275	373.25
321.504	367.25
321.733	374.25
321.962	387.25
322.191	376.25
322.42	387.25
322.649	400.25
322.878	392.25
323.108	386.25
323.337	413.25
323.566	436.25
323.795	437.25
324.024	442.25
324.253	487.25
324.482	648.25
324.71	898.25
324.939	1181.25
325.168	1022.25
325.397	568.25
325.626	466.25
325.855	441.25
326.084	434.25
326.313	417.25
326.542	425.25
326.77	453.25
326.999	470.25
327.228	624.25
327.457	834.25
327.686	974.25
327.914	636.25
328.143	513.25
328.372	462.25
328.6	470.25
328.829	455.25
329.058	464.25
329.287	451.25
329.515	452.25
329.744	448.25
329.972	469.25
330.201	440.25
330.43	497.25
330.658	483.25
330.887	504.25
331.115	472.25
331.344	457.25
331.572	423.25
331.801	450.25
332.03	463.25
332.258	458.25
332.486	467.25
332.715	460.25
332.943	467.25
333.172	479.25
333.4	482.25
333.629	494.25
333.857	494.25
334.085	514.25
334.314	522.25
334.542	530.25
334.771	529.25
334.999	504.25
335.227	484.25
335.455	478.25
335.684	469.25
335.912	466.25
336.14	437.25
336.369	469.25
336.597	465.25
336.825	434.25
337.053	452.25
337.281	459.25
337.51	462.25
337.738	448.25
337.966	448.25
338.194	454.25
338.422	455.25
338.65	436.25
338.878	431.25
339.106	443.25
339.334	429.25
339.562	439.25
339.79	421.25
340.018	452.25
340.246	424.25
340.474	425.25
340.702	422.25
340.93	452.25
341.158	414.25
341.386	431.25
341.614	436.25
341.842	431.25
342.07	418.25
342.298	440.25
342.526	417.25
342.754	413.25
342.981	439.25
343.209	430.25
343.437	414.25
343.665	454.25
343.893	477.25
344.12	470.25
344.348	484.25
344.576	464.25
344.804	439.25
345.031	447.25
345.259	428.25
345.487	419.25
345.714	412.25
345.942	393.25
346.17	402.25
346.397	422.25
346.625	383.25
346.853	391.25
347.08	389.25
347.308	396.25
347.535	406.25
347.763	407.25
347.99	428.25
348.218	415.25
348.445	414.25
348.673	413.25
348.9	413.25
349.128	398.25
349.355	408.25
349.583	406.25
349.81	390.25
350.037	372.25
350.265	391.25
350.492	405.25
350.72	400.25
350.947	377.25
351.174	408.25
351.402	393.25
351.629	408.25
351.856	389.25
352.083	410.25
352.311	397.25
352.538	396.25
352.765	394.25
352.992	408.25
353.22	394.25
353.447	390.25
353.674	404.25
353.901	390.25
354.128	406.25
354.355	398.25
354.583	392.25
354.81	395.25
355.037	379.25
355.264	373.25
355.491	390.25
355.718	392.25
355.945	397.25
356.172	394.25
356.399	396.25
356.626	386.25
356.853	390.25
357.08	376.25
357.307	389.25
357.534	376.25
357.761	398.25
357.988	398.25
358.215	402.25
358.441	372.25
358.668	384.25
358.895	389.25
359.122	383.25
359.349	398.25
359.576	398.25
359.802	409.25
360.029	414.25
360.256	428.25
360.483	408.25
360.709	394.25
360.936	395.25
361.163	414.25
361.39	402.25
361.616	391.25
361.843	413.25
362.07	405.25
362.296	404.25
362.523	376.25
362.749	402.25
362.976	391.25
363.203	401.25
363.429	402.25
363.656	400.25
363.882	398.25
364.109	394.25
364.335	389.25
364.562	391.25
364.788	391.25
365.015	400.25
365.241	388.25
365.468	409.25
365.694	390.25
365.92	387.25
366.147	399.25
366.373	392.25
366.599	389.25
366.826	401.25
367.052	403.25
367.278	394.25
367.505	396.25
367.731	407.25
367.957	400.25
368.184	382.25
368.41	387.25
368.636	397.25
368.862	411.25
369.089	402.25
369.315	408.25
369.541	401.25
369.767	381.25
369.993	396.25
370.219	414.25
370.445	405.25
370.672	406.25
370.898	418.25
371.124	431.25
371.35	428.25
371.576	427.25
371.802	404.25
372.028	410.25
372.254	403.25
372.48	417.25
372.706	426.25
372.932	415.25
373.158	436.25
373.384	432.25
373.61	402.25
373.835	412.25
374.061	409.25
374.287	418.25
374.513	434.25
374.739	430.25
374.965	428.25
375.191	438.25
375.416	441.25
375.642	433.25
375.868	433.25
376.094	425.25
376.319	432.25
376.545	429.25
376.771	416.25
376.997	414.25
377.222	402.25
377.448	402.25
377.674	406.25
377.899	389.25
378.125	402.25
378.35	429.25
378.576	402.25
378.802	413.25
379.027	402.25
379.253	422.25
379.478	421.25
379.704	402.25
379.929	432.25
380.155	404.25
380.38	418.25
380.606	419.25
380.831	388.25
381.057	413.25
381.282	416.25
381.507	414.25
381.733	416.25
381.958	419.25
382.184	416.25
382.409	431.25
382.634	435.25
382.86	437.25
383.085	433.25
383.31	449.25
383.535	434.25
383.761	437.25
383.986	448.25
384.211	446.25
384.436	448.25
384.662	467.25
384.887	459.25
385.112	456.25
385.337	464.25
385.562	470.25
385.787	468.25
386.013	470.25
386.238	464.25
386.463	476.25
386.688	486.25
386.913	454.25
387.138	484.25
387.363	462.25
387.588	496.25
387.813	469.25
388.038	462.25
388.263	468.25
388.488	470.25
388.713	463.25
388.938	470.25
389.163	455.25
389.387	454.25
389.612	454.25
389.837	453.25
390.062	456.25
390.287	462.25
390.512	487.25
390.736	476.25
390.961	457.25
391.186	483.25
391.411	480.25
391.636	491.25
391.86	473.25
392.085	513.25
392.31	528.25
392.534	501.25
392.759	505.25
392.984	491.25
393.208	473.25
393.433	526.25
393.658	486.25
393.882	478.25
394.107	476.25
394.331	503.25
394.556	480.25
394.78	481.25
395.005	503.25
395.229	496.25
395.454	491.25
395.678	520.25
395.903	504.25
396.127	539.25
396.352	544.25
396.576	492.25
396.801	486.25
397.025	506.25
397.249	500.25
397.474	500.25
397.698	524.25
397.922	533.25
398.147	512.25
398.371	520.25
398.595	550.25
398.82	547.25
399.044	580.25
399.268	650.25
399.492	679.25
399.717	722.25
399.941	744.25
400.165	727.25
400.389	679.25
400.613	620.25
400.837	575.25
401.062	581.25
401.286	568.25
401.51	567.25
401.734	567.25
401.958	573.25
402.182	582.25
402.406	557.25
402.63	581.25
402.854	573.25
403.078	591.25
403.302	577.25
403.526	606.25
403.75	600.25
403.974	595.25
404.198	600.25
404.422	599.25
404.645	609.25
404.869	608.25
405.093	636.25
405.317	671.25
405.541	670.25
405.765	608.25
405.988	597.25
406.212	616.25
406.436	597.25
406.66	632.25
406.883	601.25
407.107	692.25
407.331	691.25
407.555	742.25
407.778	741.25
408.002	696.25
408.226	670.25
408.449	663.25
408.673	626.25
408.896	666.25
409.12	639.25
409.344	648.25
409.567	619.25
409.791	601.25
410.014	601.25
410.238	563.25
410.461	583.25
410.685	577.25
410.908	600.25
411.132	601.25
411.355	608.25
411.578	598.25
411.802	575.25
412.025	574.25
412.249	581.25
412.472	614.25
412.695	629.25
412.919	609.25
413.142	580.25
413.365	561.25
413.589	565.25
413.812	546.25
414.035	556.25
414.258	552.25
414.482	562.25
414.705	580.25
414.928	586.25
415.151	550.25
415.374	565.25
415.597	555.25
415.821	551.25
416.044	538.25
416.267	541.25
416.49	531.25
416.713	518.25
416.936	548.25
417.159	542.25
417.382	582.25
417.605	542.25
417.828	571.25
418.051	569.25
418.274	554.25
418.497	556.25
418.72	576.25
418.943	580.25
419.166	571.25
419.389	582.25
419.611	589.25
419.834	580.25
420.057	591.25
420.28	586.25
420.503	567.25
420.726	546.25
420.948	572.25
421.171	608.25
421.394	608.25
421.617	579.25
421.839	556.25
422.062	567.25
422.285	574.25
422.507	616.25
422.73	658.25
422.953	624.25
423.175	597.25
423.398	577.25
423.621	596.25
423.843	600.25
424.066	610.25
424.288	612.25
424.511	609.25
424.733	636.25
424.956	665.25
425.178	646.25
425.401	665.25
425.623	635.25
425.846	580.25
426.068	550.25
426.291	536.25
426.513	566.25
426.735	569.25
426.958	582.25
427.18	623.25
427.402	704.25
427.625	732.25
427.847	637.25
428.069	596.25
428.292	553.25
428.514	540.25
428.736	506.25
428.958	502.25
429.181	518.25
429.403	497.25
429.625	511.25
429.847	535.25
430.069	563.25
430.292	556.25
430.514	519.25
430.736	517.25
430.958	482.25
431.18	484.25
431.402	503.25
431.624	480.25
431.846	493.25
432.068	496.25
432.29	502.25
432.512	525.25
432.734	514.25
432.956	495.25
433.178	508.25
433.4	504.25
433.622	515.25
433.844	519.25
434.066	485.25
434.287	516.25
434.509	523.25
434.731	536.25
434.953	559.25
435.175	557.25
435.397	566.25
435.618	568.25
435.84	565.25
436.062	609.25
436.284	643.25
436.505	572.25
436.727	550.25
436.949	525.25
437.17	510.25
437.392	513.25
437.614	525.25
437.835	516.25
438.057	552.25
438.278	629.25
438.5	634.25
438.721	664.25
438.943	625.25
439.165	536.25
439.386	542.25
439.608	537.25
439.829	548.25
440.05	558.25
440.272	572.25
440.493	556.25
440.715	540.25
440.936	524.25
441.158	526.25
441.379	534.25
441.6	544.25
441.822	557.25
442.043	587.25
442.264	599.25
442.486	643.25
442.707	593.25
442.928	558.25
443.149	556.25
443.371	593.25
443.592	599.25
443.813	668.25
444.034	688.25
444.255	639.25
444.476	604.25
444.698	620.25
444.919	621.25
445.14	721.25
445.361	622.25
445.582	607.25
445.803	607.25
446.024	672.25
446.245	644.25
446.466	604.25
446.687	548.25
446.908	560.25
447.129	518.25
447.35	490.25
447.571	515.25
447.792	493.25
448.013	504.25
448.234	494.25
448.455	552.25
448.675	594.25
448.896	636.25
449.117	585.25
449.338	556.25
449.559	585.25
449.779	647.25
450	542.25
450.221	513.25
450.442	480.25
450.662	479.25
450.883	469.25
451.104	502.25
451.324	460.25
451.545	470.25
451.766	476.25
451.986	457.25
452.207	446.25
452.428	468.25
452.648	468.25
452.869	454.25
453.089	441.25
453.31	448.25
453.53	463.25
453.751	432.25
453.971	434.25
454.192	452.25
454.412	455.25
454.633	438.25
454.853	444.25
455.073	434.25
455.294	448.25
455.514	496.25
455.734	468.25
455.955	410.25
456.175	439.25
456.395	424.25
456.616	428.25
456.836	416.25
457.056	400.25
457.276	414.25
457.497	420.25
457.717	423.25
457.937	449.25
458.157	445.25
458.377	421.25
458.598	431.25
458.818	480.25
459.038	546.25
459.258	543.25
459.478	513.25
459.698	505.25
459.918	483.25
460.138	522.25
460.358	520.25
460.578	517.25
460.798	541.25
461.018	522.25
461.238	547.25
461.458	562.25
461.678	511.25
461.898	528.25
462.118	534.25
462.338	579.25
462.558	561.25
462.777	557.25
462.997	626.25
463.217	684.25
463.437	662.25
463.657	619.25
463.876	601.25
464.096	615.25
464.316	582.25
464.536	599.25
464.755	585.25
464.975	585.25
465.195	583.25
465.414	565.25
465.634	542.25
465.854	502.25
466.073	492.25
466.293	498.25
466.512	496.25
466.732	482.25
466.951	480.25
467.171	476.25
467.391	485.25
467.61	478.25
467.829	478.25
468.049	476.25
468.268	487.25
468.488	442.25
468.707	463.25
468.927	456.25
469.146	443.25
469.365	477.25
469.585	466.25
469.804	462.25
470.023	474.25
470.243	484.25
470.462	490.25
470.681	509.25
470.901	480.25
471.12	504.25
471.339	468.25
471.558	495.25
471.777	466.25
471.997	461.25
472.216	469.25
472.435	491.25
472.654	469.25
472.873	449.25
473.092	448.25
473.311	451.25
473.53	442.25
473.749	464.25
473.968	474.25
474.187	502.25
474.406	516.25
474.625	468.25
474.844	442.25
475.063	477.25
475.282	466.25
475.501	449.25
475.72	447.25
475.939	480.25
476.158	471.25
476.377	484.25
476.596	476.25
476.814	498.25
477.033	483.25
477.252	494.25
477.471	492.25
477.69	482.25
477.908	490.25
478.127	510.25
478.346	514.25
478.564	531.25
478.783	533.25
479.002	547.25
479.22	541.25
479.439	543.25
479.658	558.25
479.876	569.25
480.095	546.25
480.313	593.25
480.532	608.25
480.751	567.25
480.969	578.25
481.188	613.25
481.406	585.25
481.624	570.25
481.843	563.25
482.061	521.25
482.28	540.25
482.498	528.25
482.717	530.25
482.935	526.25
483.153	498.25
483.372	546.25
483.59	547.25
483.808	530.25
484.027	531.25
484.245	524.25
484.463	521.25
484.681	543.25
484.9	537.25
485.118	527.25
485.336	554.25
485.554	553.25
485.772	555.25
485.99	564.25
486.209	556.25
486.427	548.25
486.645	536.25
486.863	553.25
487.081	578.25
487.299	554.25
487.517	559.25
487.735	569.25
487.953	555.25
488.171	569.25
488.389	537.25
488.607	551.25
488.825	565.25
489.043	570.25
489.261	564.25
489.479	565.25
489.696	558.25
489.914	571.25
490.132	562.25
490.35	585.25
490.568	584.25
490.786	599.25
491.003	588.25
491.221	616.25
491.439	616.25
491.657	651.25
491.874	639.25
492.092	628.25
492.31	634.25
492.527	639.25
492.745	634.25
492.963	610.25
493.18	639.25
493.398	634.25
493.615	657.25
493.833	658.25
494.05	680.25
494.268	644.25
494.485	633.25
494.703	633.25
494.92	649.25
495.138	656.25
495.355	634.25
495.573	645.25
495.79	634.25
496.008	647.25
496.225	642.25
496.442	649.25
496.66	669.25
496.877	651.25
497.094	654.25
497.312	661.25
497.529	679.25
497.746	695.25
497.963	700.25
498.181	698.25
498.398	732.25
498.615	770.25
498.832	801.25
499.049	832.25
499.267	882.25
499.484	913.25
499.701	984.25
499.918	1054.25
500.135	1143.25
500.352	1237.25
500.569	1283.25
500.786	1286.25
501.003	1221.25
501.22	1146.25
501.437	1058.25
501.654	1008.25
501.871	943.25
502.088	857.25
