Data from 1960PennyLincolnUp.LampE5.5.200Scan.07172019.P1.ChangedAngle_HRD10591_13-14-45-821.txt Node
Date: Thu Jul 18 13:14:45 EDT 2019
User: cochatt
Spectrometer: HR+D1059
Trigger mode: 1
Integration Time (sec): 1.000000E-1
Scans to average: 1
Electric dark correction enabled: true
Nonlinearity correction enabled: false
Boxcar width: 0
XAxis mode: Wavelengths
Number of Pixels in Spectrum: 2048
>>>>>Begin Spectral Data<<<<<
223.165	-5.25
223.4	-5.25
223.635	-5.25
223.869	-13.25
224.104	-23.25
224.338	-29.25
224.573	-16.25
224.808	-7.25
225.042	-8.25
225.277	-3.25
225.511	-6.25
225.746	-2.25
225.98	7.75
226.215	11.75
226.449	16.75
226.683	22.75
226.918	26.75
227.152	28.75
227.387	36.75
227.621	32.75
227.856	40.75
228.09	56.75
228.324	54.75
228.559	59.75
228.793	48.75
229.027	88.75
229.262	92.75
229.496	95.75
229.73	104.75
229.964	120.75
230.199	105.75
230.433	99.75
230.667	98.75
230.901	95.75
231.136	107.75
231.37	107.75
231.604	102.75
231.838	100.75
232.072	111.75
232.306	109.75
232.541	103.75
232.775	111.75
233.009	118.75
233.243	118.75
233.477	93.75
233.711	109.75
233.945	110.75
234.179	98.75
234.413	120.75
234.647	106.75
234.881	114.75
235.115	110.75
235.349	110.75
235.583	121.75
235.817	118.75
236.051	107.75
236.285	113.75
236.519	125.75
236.753	101.75
236.987	127.75
237.221	160.75
237.455	177.75
237.689	137.75
237.922	116.75
238.156	120.75
238.39	120.75
238.624	120.75
238.858	110.75
239.091	117.75
239.325	124.75
239.559	121.75
239.793	125.75
240.027	121.75
240.26	138.75
240.494	147.75
240.728	134.75
240.961	139.75
241.195	127.75
241.429	128.75
241.662	123.75
241.896	116.75
242.13	126.75
242.363	135.75
242.597	114.75
242.83	124.75
243.064	128.75
243.298	127.75
243.531	120.75
243.765	146.75
243.998	120.75
244.232	139.75
244.465	140.75
244.699	127.75
244.932	124.75
245.166	126.75
245.399	132.75
245.633	146.75
245.866	144.75
246.099	146.75
246.333	144.75
246.566	139.75
246.8	143.75
247.033	141.75
247.266	136.75
247.5	160.75
247.733	145.75
247.966	158.75
248.2	141.75
248.433	155.75
248.666	165.75
248.899	158.75
249.133	178.75
249.366	183.75
249.599	168.75
249.832	160.75
250.066	175.75
250.299	161.75
250.532	183.75
250.765	174.75
250.998	209.75
251.231	200.75
251.465	204.75
251.698	189.75
251.931	183.75
252.164	192.75
252.397	178.75
252.63	189.75
252.863	202.75
253.096	193.75
253.329	216.75
253.562	190.75
253.795	192.75
254.028	194.75
254.261	201.75
254.494	204.75
254.727	221.75
254.96	252.75
255.193	209.75
255.426	211.75
255.659	199.75
255.892	205.75
256.124	202.75
256.357	207.75
256.59	182.75
256.823	193.75
257.056	194.75
257.289	192.75
257.521	210.75
257.754	194.75
257.987	201.75
258.22	182.75
258.452	183.75
258.685	197.75
258.918	206.75
259.151	201.75
259.383	200.75
259.616	209.75
259.849	204.75
260.081	216.75
260.314	214.75
260.547	212.75
260.779	209.75
261.012	225.75
261.244	219.75
261.477	206.75
261.71	200.75
261.942	201.75
262.175	216.75
262.407	219.75
262.64	199.75
262.872	206.75
263.105	187.75
263.337	190.75
263.57	192.75
263.802	214.75
264.035	202.75
264.267	197.75
264.499	210.75
264.732	197.75
264.964	216.75
265.197	209.75
265.429	218.75
265.661	202.75
265.894	211.75
266.126	226.75
266.358	204.75
266.591	211.75
266.823	210.75
267.055	218.75
267.287	222.75
267.52	211.75
267.752	218.75
267.984	237.75
268.216	231.75
268.448	225.75
268.681	231.75
268.913	225.75
269.145	247.75
269.377	255.75
269.609	251.75
269.841	238.75
270.073	234.75
270.306	252.75
270.538	281.75
270.77	273.75
271.002	279.75
271.234	272.75
271.466	253.75
271.698	280.75
271.93	280.75
272.162	273.75
272.394	271.75
272.626	278.75
272.858	274.75
273.09	264.75
273.322	261.75
273.553	251.75
273.785	250.75
274.017	263.75
274.249	240.75
274.481	272.75
274.713	237.75
274.945	248.75
275.176	260.75
275.408	256.75
275.64	250.75
275.872	263.75
276.104	256.75
276.335	266.75
276.567	265.75
276.799	254.75
277.031	262.75
277.262	277.75
277.494	296.75
277.726	276.75
277.957	269.75
278.189	260.75
278.421	254.75
278.652	251.75
278.884	266.75
279.115	272.75
279.347	264.75
279.579	266.75
279.81	247.75
280.042	260.75
280.273	254.75
280.505	273.75
280.736	259.75
280.968	263.75
281.199	262.75
281.431	261.75
281.662	257.75
281.894	263.75
282.125	270.75
282.356	263.75
282.588	297.75
282.819	272.75
283.051	281.75
283.282	290.75
283.513	271.75
283.745	269.75
283.976	273.75
284.207	266.75
284.439	290.75
284.67	264.75
284.901	268.75
285.132	272.75
285.364	264.75
285.595	265.75
285.826	276.75
286.057	282.75
286.288	281.75
286.52	269.75
286.751	278.75
286.982	280.75
287.213	296.75
287.444	292.75
287.675	290.75
287.906	286.75
288.138	284.75
288.369	295.75
288.6	287.75
288.831	284.75
289.062	297.75
289.293	288.75
289.524	313.75
289.755	297.75
289.986	292.75
290.217	280.75
290.448	294.75
290.679	298.75
290.91	285.75
291.141	295.75
291.371	291.75
291.602	273.75
291.833	301.75
292.064	277.75
292.295	275.75
292.526	292.75
292.757	287.75
292.987	285.75
293.218	281.75
293.449	300.75
293.68	283.75
293.91	300.75
294.141	283.75
294.372	282.75
294.603	288.75
294.833	292.75
295.064	289.75
295.295	284.75
295.525	284.75
295.756	294.75
295.987	333.75
296.217	304.75
296.448	309.75
296.679	302.75
296.909	297.75
297.14	292.75
297.37	291.75
297.601	303.75
297.831	292.75
298.062	296.75
298.292	270.75
298.523	302.75
298.753	305.75
298.984	309.75
299.214	316.75
299.445	319.75
299.675	304.75
299.905	313.75
300.136	314.75
300.366	314.75
300.597	323.75
300.827	324.75
301.057	322.75
301.288	337.75
301.518	324.75
301.748	330.75
301.979	336.75
302.209	325.75
302.439	324.75
302.669	332.75
302.9	321.75
303.13	325.75
303.36	328.75
303.59	348.75
303.82	327.75
304.051	318.75
304.281	329.75
304.511	323.75
304.741	295.75
304.971	332.75
305.201	316.75
305.431	336.75
305.661	342.75
305.891	338.75
306.121	313.75
306.352	320.75
306.582	325.75
306.812	324.75
307.042	322.75
307.272	333.75
307.502	327.75
307.731	342.75
307.961	327.75
308.191	312.75
308.421	341.75
308.651	330.75
308.881	347.75
309.111	351.75
309.341	331.75
309.571	343.75
309.8	344.75
310.03	356.75
310.26	346.75
310.49	358.75
310.72	345.75
310.949	362.75
311.179	380.75
311.409	340.75
311.639	348.75
311.868	353.75
312.098	358.75
312.328	365.75
312.557	348.75
312.787	370.75
313.017	366.75
313.246	376.75
313.476	361.75
313.706	375.75
313.935	376.75
314.165	370.75
314.394	369.75
314.624	376.75
314.853	373.75
315.083	378.75
315.312	356.75
315.542	376.75
315.771	364.75
316.001	366.75
316.23	366.75
316.46	367.75
316.689	372.75
316.919	347.75
317.148	356.75
317.377	371.75
317.607	390.75
317.836	383.75
318.065	378.75
318.295	369.75
318.524	384.75
318.753	385.75
318.983	343.75
319.212	352.75
319.441	365.75
319.67	360.75
319.9	379.75
320.129	369.75
320.358	361.75
320.587	372.75
320.816	368.75
321.046	370.75
321.275	368.75
321.504	361.75
321.733	395.75
321.962	383.75
322.191	387.75
322.42	396.75
322.649	386.75
322.878	401.75
323.108	400.75
323.337	417.75
323.566	453.75
323.795	460.75
324.024	462.75
324.253	567.75
324.482	731.75
324.71	1026.75
324.939	1423.75
325.168	1197.75
325.397	678.75
325.626	519.75
325.855	453.75
326.084	442.75
326.313	444.75
326.542	459.75
326.77	467.75
326.999	526.75
327.228	688.75
327.457	940.75
327.686	1070.75
327.914	758.75
328.143	544.75
328.372	495.75
328.6	504.75
328.829	456.75
329.058	482.75
329.287	498.75
329.515	465.75
329.744	437.75
329.972	457.75
330.201	473.75
330.43	489.75
330.658	470.75
330.887	509.75
331.115	477.75
331.344	450.75
331.572	414.75
331.801	437.75
332.03	436.75
332.258	417.75
332.486	427.75
332.715	438.75
332.943	440.75
333.172	449.75
333.4	430.75
333.629	455.75
333.857	449.75
334.085	457.75
334.314	476.75
334.542	477.75
334.771	486.75
334.999	460.75
335.227	425.75
335.455	449.75
335.684	454.75
335.912	432.75
336.14	432.75
336.369	441.75
336.597	442.75
336.825	431.75
337.053	406.75
337.281	411.75
337.51	419.75
337.738	412.75
337.966	426.75
338.194	432.75
338.422	437.75
338.65	436.75
338.878	412.75
339.106	430.75
339.334	420.75
339.562	399.75
339.79	415.75
340.018	404.75
340.246	377.75
340.474	422.75
340.702	412.75
340.93	397.75
341.158	406.75
341.386	418.75
341.614	403.75
341.842	396.75
342.07	385.75
342.298	386.75
342.526	405.75
342.754	387.75
342.981	386.75
343.209	408.75
343.437	407.75
343.665	431.75
343.893	420.75
344.12	433.75
344.348	426.75
344.576	434.75
344.804	420.75
345.031	410.75
345.259	420.75
345.487	392.75
345.714	403.75
345.942	412.75
346.17	400.75
346.397	391.75
346.625	375.75
346.853	387.75
347.08	401.75
347.308	369.75
347.535	401.75
347.763	398.75
347.99	392.75
348.218	366.75
348.445	376.75
348.673	389.75
348.9	392.75
349.128	392.75
349.355	374.75
349.583	376.75
349.81	374.75
350.037	368.75
350.265	374.75
350.492	370.75
350.72	391.75
350.947	377.75
351.174	374.75
351.402	400.75
351.629	377.75
351.856	363.75
352.083	393.75
352.311	388.75
352.538	382.75
352.765	386.75
352.992	383.75
353.22	383.75
353.447	373.75
353.674	382.75
353.901	350.75
354.128	380.75
354.355	377.75
354.583	368.75
354.81	364.75
355.037	349.75
355.264	363.75
355.491	350.75
355.718	356.75
355.945	360.75
356.172	347.75
356.399	340.75
356.626	370.75
356.853	367.75
357.08	369.75
357.307	349.75
357.534	353.75
357.761	367.75
357.988	364.75
358.215	365.75
358.441	363.75
358.668	353.75
358.895	364.75
359.122	370.75
359.349	385.75
359.576	376.75
359.802	368.75
360.029	392.75
360.256	414.75
360.483	387.75
360.709	364.75
360.936	384.75
361.163	368.75
361.39	369.75
361.616	377.75
361.843	374.75
362.07	371.75
362.296	376.75
362.523	374.75
362.749	368.75
362.976	376.75
363.203	368.75
363.429	367.75
363.656	385.75
363.882	356.75
364.109	363.75
364.335	351.75
364.562	368.75
364.788	362.75
365.015	360.75
365.241	379.75
365.468	363.75
365.694	365.75
365.92	366.75
366.147	367.75
366.373	365.75
366.599	352.75
366.826	342.75
367.052	365.75
367.278	374.75
367.505	372.75
367.731	381.75
367.957	363.75
368.184	356.75
368.41	385.75
368.636	366.75
368.862	365.75
369.089	382.75
369.315	352.75
369.541	340.75
369.767	363.75
369.993	356.75
370.219	350.75
370.445	372.75
370.672	372.75
370.898	340.75
371.124	362.75
371.35	380.75
371.576	374.75
371.802	371.75
372.028	378.75
372.254	369.75
372.48	383.75
372.706	363.75
372.932	360.75
373.158	370.75
373.384	350.75
373.61	380.75
373.835	354.75
374.061	368.75
374.287	374.75
374.513	349.75
374.739	352.75
374.965	367.75
375.191	356.75
375.416	400.75
375.642	356.75
375.868	365.75
376.094	354.75
376.319	366.75
376.545	355.75
376.771	361.75
376.997	342.75
377.222	368.75
377.448	358.75
377.674	374.75
377.899	349.75
378.125	338.75
378.35	366.75
378.576	364.75
378.802	351.75
379.027	360.75
379.253	356.75
379.478	332.75
379.704	358.75
379.929	382.75
380.155	362.75
380.38	366.75
380.606	366.75
380.831	339.75
381.057	365.75
381.282	358.75
381.507	364.75
381.733	354.75
381.958	355.75
382.184	344.75
382.409	372.75
382.634	372.75
382.86	369.75
383.085	366.75
383.31	366.75
383.535	343.75
383.761	377.75
383.986	336.75
384.211	378.75
384.436	364.75
384.662	366.75
384.887	361.75
385.112	373.75
385.337	367.75
385.562	380.75
385.787	389.75
386.013	400.75
386.238	383.75
386.463	402.75
386.688	386.75
386.913	403.75
387.138	388.75
387.363	397.75
387.588	387.75
387.813	382.75
388.038	372.75
388.263	391.75
388.488	374.75
388.713	391.75
388.938	383.75
389.163	373.75
389.387	371.75
389.612	386.75
389.837	370.75
390.062	366.75
390.287	369.75
390.512	363.75
390.736	391.75
390.961	381.75
391.186	380.75
391.411	372.75
391.636	387.75
391.86	396.75
392.085	398.75
392.31	389.75
392.534	387.75
392.759	404.75
392.984	390.75
393.208	387.75
393.433	395.75
393.658	398.75
393.882	399.75
394.107	382.75
394.331	372.75
394.556	377.75
394.78	390.75
395.005	374.75
395.229	378.75
395.454	374.75
395.678	397.75
395.903	401.75
396.127	439.75
396.352	415.75
396.576	416.75
396.801	418.75
397.025	413.75
397.249	395.75
397.474	408.75
397.698	408.75
397.922	408.75
398.147	410.75
398.371	436.75
398.595	431.75
398.82	427.75
399.044	454.75
399.268	456.75
399.492	485.75
399.717	484.75
399.941	531.75
400.165	527.75
400.389	514.75
400.613	464.75
400.837	468.75
401.062	454.75
401.286	446.75
401.51	453.75
401.734	453.75
401.958	444.75
402.182	472.75
402.406	439.75
402.63	427.75
402.854	429.75
403.078	434.75
403.302	438.75
403.526	459.75
403.75	448.75
403.974	434.75
404.198	454.75
404.422	448.75
404.645	449.75
404.869	451.75
405.093	476.75
405.317	480.75
405.541	510.75
405.765	462.75
405.988	466.75
406.212	450.75
406.436	471.75
406.66	479.75
406.883	460.75
407.107	482.75
407.331	513.75
407.555	558.75
407.778	521.75
408.002	516.75
408.226	489.75
408.449	470.75
408.673	470.75
408.896	488.75
409.12	514.75
409.344	470.75
409.567	468.75
409.791	460.75
410.014	445.75
410.238	428.75
410.461	439.75
410.685	438.75
410.908	449.75
411.132	475.75
411.355	464.75
411.578	468.75
411.802	461.75
412.025	432.75
412.249	457.75
412.472	467.75
412.695	482.75
412.919	473.75
413.142	439.75
413.365	434.75
413.589	430.75
413.812	424.75
414.035	408.75
414.258	414.75
414.482	407.75
414.705	430.75
414.928	410.75
415.151	422.75
415.374	409.75
415.597	416.75
415.821	423.75
416.044	407.75
416.267	415.75
416.49	403.75
416.713	406.75
416.936	429.75
417.159	390.75
417.382	381.75
417.605	402.75
417.828	405.75
418.051	415.75
418.274	409.75
418.497	392.75
418.72	423.75
418.943	427.75
419.166	441.75
419.389	456.75
419.611	440.75
419.834	446.75
420.057	436.75
420.28	438.75
420.503	429.75
420.726	432.75
420.948	422.75
421.171	448.75
421.394	479.75
421.617	450.75
421.839	421.75
422.062	415.75
422.285	409.75
422.507	454.75
422.73	492.75
422.953	494.75
423.175	445.75
423.398	429.75
423.621	448.75
423.843	443.75
424.066	461.75
424.288	430.75
424.511	445.75
424.733	477.75
424.956	549.75
425.178	530.75
425.401	523.75
425.623	535.75
425.846	477.75
426.068	439.75
426.291	452.75
426.513	413.75
426.735	460.75
426.958	470.75
427.18	504.75
427.402	605.75
427.625	649.75
427.847	565.75
428.069	508.75
428.292	446.75
428.514	430.75
428.736	421.75
428.958	426.75
429.181	421.75
429.403	412.75
429.625	424.75
429.847	450.75
430.069	470.75
430.292	466.75
430.514	438.75
430.736	423.75
430.958	414.75
431.18	398.75
431.402	402.75
431.624	359.75
431.846	399.75
432.068	404.75
432.29	393.75
432.512	379.75
432.734	382.75
432.956	394.75
433.178	384.75
433.4	405.75
433.622	387.75
433.844	403.75
434.066	390.75
434.287	378.75
434.509	385.75
434.731	415.75
434.953	428.75
435.175	438.75
435.397	444.75
435.618	422.75
435.84	470.75
436.062	532.75
436.284	546.75
436.505	481.75
436.727	445.75
436.949	422.75
437.17	403.75
437.392	417.75
437.614	415.75
437.835	421.75
438.057	486.75
438.278	549.75
438.5	549.75
438.721	599.75
438.943	569.75
439.165	472.75
439.386	450.75
439.608	416.75
439.829	423.75
440.05	460.75
440.272	458.75
440.493	443.75
440.715	413.75
440.936	417.75
441.158	414.75
441.379	405.75
441.6	413.75
441.822	424.75
442.043	448.75
442.264	507.75
442.486	565.75
442.707	463.75
442.928	428.75
443.149	438.75
443.371	428.75
443.592	492.75
443.813	531.75
444.034	566.75
444.255	488.75
444.476	470.75
444.698	441.75
444.919	449.75
445.14	533.75
445.361	478.75
445.582	464.75
445.803	518.75
446.024	565.75
446.245	550.75
446.466	520.75
446.687	429.75
446.908	432.75
447.129	404.75
447.35	392.75
447.571	417.75
447.792	400.75
448.013	415.75
448.234	392.75
448.455	453.75
448.675	509.75
448.896	588.75
449.117	504.75
449.338	489.75
449.559	557.75
449.779	605.75
450	505.75
450.221	436.75
450.442	417.75
450.662	376.75
450.883	386.75
451.104	387.75
451.324	391.75
451.545	381.75
451.766	367.75
451.986	369.75
452.207	366.75
452.428	368.75
452.648	369.75
452.869	356.75
453.089	379.75
453.31	376.75
453.53	365.75
453.751	359.75
453.971	382.75
454.192	375.75
454.412	380.75
454.633	372.75
454.853	344.75
455.073	371.75
455.294	400.75
455.514	418.75
455.734	400.75
455.955	351.75
456.175	336.75
456.395	356.75
456.616	357.75
456.836	361.75
457.056	360.75
457.276	332.75
457.497	344.75
457.717	349.75
457.937	360.75
458.157	368.75
458.377	359.75
458.598	362.75
458.818	410.75
459.038	452.75
459.258	465.75
459.478	412.75
459.698	402.75
459.918	396.75
460.138	409.75
460.358	392.75
460.578	396.75
460.798	406.75
461.018	401.75
461.238	414.75
461.458	394.75
461.678	405.75
461.898	405.75
462.118	410.75
462.338	405.75
462.558	421.75
462.777	429.75
462.997	435.75
463.217	429.75
463.437	441.75
463.657	420.75
463.876	444.75
464.096	433.75
464.316	432.75
464.536	412.75
464.755	434.75
464.975	414.75
465.195	424.75
465.414	458.75
465.634	438.75
465.854	388.75
466.073	380.75
466.293	364.75
466.512	372.75
466.732	369.75
466.951	368.75
467.171	369.75
467.391	398.75
467.61	365.75
467.829	379.75
468.049	370.75
468.268	401.75
468.488	379.75
468.707	374.75
468.927	369.75
469.146	377.75
469.365	394.75
469.585	366.75
469.804	386.75
470.023	368.75
470.243	391.75
470.462	379.75
470.681	394.75
470.901	399.75
471.12	372.75
471.339	388.75
471.558	381.75
471.777	372.75
471.997	376.75
472.216	384.75
472.435	400.75
472.654	377.75
472.873	368.75
473.092	374.75
473.311	382.75
473.53	363.75
473.749	385.75
473.968	403.75
474.187	481.75
474.406	468.75
474.625	402.75
474.844	393.75
475.063	395.75
475.282	386.75
475.501	382.75
475.72	378.75
475.939	370.75
476.158	390.75
476.377	380.75
476.596	381.75
476.814	392.75
477.033	390.75
477.252	410.75
477.471	408.75
477.69	407.75
477.908	400.75
478.127	397.75
478.346	401.75
478.564	426.75
478.783	411.75
479.002	423.75
479.22	430.75
479.439	441.75
479.658	457.75
479.876	465.75
480.095	441.75
480.313	463.75
480.532	465.75
480.751	455.75
480.969	480.75
481.188	508.75
481.406	512.75
481.624	440.75
481.843	430.75
482.061	467.75
482.28	425.75
482.498	444.75
482.717	438.75
482.935	464.75
483.153	438.75
483.372	430.75
483.59	428.75
483.808	436.75
484.027	417.75
484.245	439.75
484.463	423.75
484.681	461.75
484.9	458.75
485.118	447.75
485.336	473.75
485.554	460.75
485.772	434.75
485.99	449.75
486.209	465.75
486.427	436.75
486.645	450.75
486.863	487.75
487.081	462.75
487.299	454.75
487.517	449.75
487.735	468.75
487.953	483.75
488.171	484.75
488.389	468.75
488.607	465.75
488.825	472.75
489.043	448.75
489.261	477.75
489.479	493.75
489.696	480.75
489.914	501.75
490.132	471.75
490.35	486.75
490.568	472.75
490.786	487.75
491.003	486.75
491.221	492.75
491.439	514.75
491.657	494.75
491.874	511.75
492.092	532.75
492.31	526.75
492.527	493.75
492.745	511.75
492.963	517.75
493.18	556.75
493.398	534.75
493.615	528.75
493.833	516.75
494.05	524.75
494.268	546.75
494.485	513.75
494.703	508.75
494.92	529.75
495.138	516.75
495.355	538.75
495.573	548.75
495.79	567.75
496.008	570.75
496.225	529.75
496.442	532.75
496.66	563.75
496.877	535.75
497.094	564.75
497.312	554.75
497.529	550.75
497.746	573.75
497.963	580.75
498.181	602.75
498.398	613.75
498.615	618.75
498.832	621.75
499.049	625.75
499.267	669.75
499.484	643.75
499.701	685.75
499.918	721.75
500.135	741.75
500.352	759.75
500.569	793.75
500.786	796.75
501.003	767.75
501.22	761.75
501.437	720.75
501.654	722.75
501.871	698.75
