Data from 1960PennyLincolnUp.LampE6.200Scan.07172019.P1_HRD10591_13-06-27-001.txt Node
Date: Thu Jul 18 13:06:27 EDT 2019
User: cochatt
Spectrometer: HR+D1059
Trigger mode: 1
Integration Time (sec): 1.000000E-1
Scans to average: 1
Electric dark correction enabled: true
Nonlinearity correction enabled: false
Boxcar width: 0
XAxis mode: Wavelengths
Number of Pixels in Spectrum: 2048
>>>>>Begin Spectral Data<<<<<
223.165	-10.38
223.4	-10.38
223.635	-10.38
223.869	-12.38
224.104	-19.38
224.338	-7.38
224.573	-15.38
224.808	-4.38
225.042	-3.38
225.277	-11.38
225.511	-8.38
225.746	4.62
225.98	-4.38
226.215	15.62
226.449	12.62
226.683	6.62
226.918	22.62
227.152	34.62
227.387	35.62
227.621	37.62
227.856	48.62
228.09	30.62
228.324	37.62
228.559	43.62
228.793	57.62
229.027	77.62
229.262	80.62
229.496	100.62
229.73	106.62
229.964	117.62
230.199	117.62
230.433	93.62
230.667	110.62
230.901	117.62
231.136	97.62
231.37	105.62
231.604	102.62
231.838	99.62
232.072	105.62
232.306	113.62
232.541	116.62
232.775	102.62
233.009	107.62
233.243	96.62
233.477	113.62
233.711	117.62
233.945	108.62
234.179	111.62
234.413	108.62
234.647	99.62
234.881	100.62
235.115	106.62
235.349	110.62
235.583	112.62
235.817	108.62
236.051	114.62
236.285	125.62
236.519	109.62
236.753	106.62
236.987	116.62
237.221	145.62
237.455	166.62
237.689	146.62
237.922	132.62
238.156	114.62
238.39	118.62
238.624	108.62
238.858	124.62
239.091	112.62
239.325	102.62
239.559	126.62
239.793	117.62
240.027	122.62
240.26	113.62
240.494	131.62
240.728	129.62
240.961	144.62
241.195	133.62
241.429	135.62
241.662	124.62
241.896	137.62
242.13	137.62
242.363	142.62
242.597	128.62
242.83	131.62
243.064	125.62
243.298	131.62
243.531	125.62
243.765	125.62
243.998	136.62
244.232	124.62
244.465	138.62
244.699	134.62
244.932	123.62
245.166	144.62
245.399	138.62
245.633	131.62
245.866	135.62
246.099	132.62
246.333	139.62
246.566	154.62
246.8	146.62
247.033	162.62
247.266	153.62
247.5	146.62
247.733	150.62
247.966	145.62
248.2	145.62
248.433	170.62
248.666	144.62
248.899	176.62
249.133	186.62
249.366	181.62
249.599	160.62
249.832	167.62
250.066	162.62
250.299	167.62
250.532	167.62
250.765	174.62
250.998	182.62
251.231	187.62
251.465	200.62
251.698	173.62
251.931	164.62
252.164	177.62
252.397	172.62
252.63	183.62
252.863	174.62
253.096	207.62
253.329	204.62
253.562	197.62
253.795	201.62
254.028	176.62
254.261	189.62
254.494	193.62
254.727	205.62
254.96	218.62
255.193	238.62
255.426	215.62
255.659	197.62
255.892	191.62
256.124	202.62
256.357	195.62
256.59	186.62
256.823	184.62
257.056	204.62
257.289	171.62
257.521	197.62
257.754	187.62
257.987	179.62
258.22	190.62
258.452	196.62
258.685	189.62
258.918	196.62
259.151	182.62
259.383	201.62
259.616	206.62
259.849	193.62
260.081	216.62
260.314	216.62
260.547	236.62
260.779	212.62
261.012	213.62
261.244	198.62
261.477	191.62
261.71	209.62
261.942	211.62
262.175	216.62
262.407	198.62
262.64	205.62
262.872	204.62
263.105	205.62
263.337	195.62
263.57	194.62
263.802	198.62
264.035	202.62
264.267	196.62
264.499	189.62
264.732	207.62
264.964	187.62
265.197	212.62
265.429	201.62
265.661	205.62
265.894	191.62
266.126	211.62
266.358	222.62
266.591	194.62
266.823	220.62
267.055	220.62
267.287	219.62
267.52	200.62
267.752	200.62
267.984	207.62
268.216	206.62
268.448	222.62
268.681	234.62
268.913	236.62
269.145	246.62
269.377	257.62
269.609	248.62
269.841	238.62
270.073	246.62
270.306	245.62
270.538	257.62
270.77	270.62
271.002	268.62
271.234	264.62
271.466	276.62
271.698	267.62
271.93	278.62
272.162	252.62
272.394	262.62
272.626	270.62
272.858	230.62
273.09	255.62
273.322	250.62
273.553	249.62
273.785	235.62
274.017	240.62
274.249	254.62
274.481	244.62
274.713	248.62
274.945	267.62
275.176	242.62
275.408	267.62
275.64	256.62
275.872	264.62
276.104	245.62
276.335	234.62
276.567	241.62
276.799	276.62
277.031	282.62
277.262	305.62
277.494	288.62
277.726	269.62
277.957	244.62
278.189	256.62
278.421	260.62
278.652	267.62
278.884	268.62
279.115	251.62
279.347	246.62
279.579	268.62
279.81	260.62
280.042	253.62
280.273	257.62
280.505	258.62
280.736	253.62
280.968	246.62
281.199	248.62
281.431	280.62
281.662	278.62
281.894	268.62
282.125	277.62
282.356	285.62
282.588	279.62
282.819	278.62
283.051	301.62
283.282	261.62
283.513	272.62
283.745	282.62
283.976	277.62
284.207	284.62
284.439	266.62
284.67	266.62
284.901	282.62
285.132	284.62
285.364	268.62
285.595	274.62
285.826	273.62
286.057	269.62
286.288	274.62
286.52	268.62
286.751	283.62
286.982	292.62
287.213	282.62
287.444	268.62
287.675	276.62
287.906	305.62
288.138	307.62
288.369	302.62
288.6	299.62
288.831	293.62
289.062	290.62
289.293	305.62
289.524	294.62
289.755	290.62
289.986	300.62
290.217	308.62
290.448	278.62
290.679	297.62
290.91	303.62
291.141	307.62
291.371	290.62
291.602	303.62
291.833	295.62
292.064	293.62
292.295	315.62
292.526	294.62
292.757	293.62
292.987	302.62
293.218	277.62
293.449	293.62
293.68	291.62
293.91	305.62
294.141	283.62
294.372	287.62
294.603	308.62
294.833	298.62
295.064	295.62
295.295	313.62
295.525	302.62
295.756	292.62
295.987	284.62
296.217	302.62
296.448	302.62
296.679	307.62
296.909	313.62
297.14	315.62
297.37	304.62
297.601	316.62
297.831	312.62
298.062	302.62
298.292	313.62
298.523	307.62
298.753	325.62
298.984	314.62
299.214	332.62
299.445	304.62
299.675	323.62
299.905	321.62
300.136	304.62
300.366	318.62
300.597	333.62
300.827	326.62
301.057	338.62
301.288	324.62
301.518	329.62
301.748	328.62
301.979	330.62
302.209	337.62
302.439	350.62
302.669	329.62
302.9	348.62
303.13	328.62
303.36	328.62
303.59	330.62
303.82	344.62
304.051	322.62
304.281	333.62
304.511	350.62
304.741	333.62
304.971	335.62
305.201	346.62
305.431	330.62
305.661	340.62
305.891	340.62
306.121	332.62
306.352	357.62
306.582	335.62
306.812	321.62
307.042	316.62
307.272	328.62
307.502	344.62
307.731	334.62
307.961	342.62
308.191	340.62
308.421	342.62
308.651	333.62
308.881	341.62
309.111	344.62
309.341	339.62
309.571	352.62
309.8	339.62
310.03	344.62
310.26	348.62
310.49	360.62
310.72	337.62
310.949	370.62
311.179	373.62
311.409	353.62
311.639	354.62
311.868	374.62
312.098	356.62
312.328	357.62
312.557	366.62
312.787	370.62
313.017	370.62
313.246	375.62
313.476	359.62
313.706	361.62
313.935	364.62
314.165	374.62
314.394	370.62
314.624	381.62
314.853	363.62
315.083	365.62
315.312	369.62
315.542	365.62
315.771	366.62
316.001	373.62
316.23	354.62
316.46	371.62
316.689	358.62
316.919	374.62
317.148	394.62
317.377	369.62
317.607	373.62
317.836	377.62
318.065	360.62
318.295	347.62
318.524	364.62
318.753	364.62
318.983	374.62
319.212	375.62
319.441	372.62
319.67	368.62
319.9	369.62
320.129	368.62
320.358	389.62
320.587	371.62
320.816	365.62
321.046	359.62
321.275	364.62
321.504	366.62
321.733	372.62
321.962	367.62
322.191	374.62
322.42	387.62
322.649	390.62
322.878	397.62
323.108	388.62
323.337	402.62
323.566	419.62
323.795	435.62
324.024	450.62
324.253	532.62
324.482	669.62
324.71	927.62
324.939	1278.62
325.168	1057.62
325.397	609.62
325.626	482.62
325.855	424.62
326.084	444.62
326.313	451.62
326.542	434.62
326.77	470.62
326.999	525.62
327.228	644.62
327.457	883.62
327.686	988.62
327.914	704.62
328.143	517.62
328.372	468.62
328.6	455.62
328.829	473.62
329.058	478.62
329.287	479.62
329.515	444.62
329.744	450.62
329.972	457.62
330.201	446.62
330.43	511.62
330.658	496.62
330.887	521.62
331.115	490.62
331.344	458.62
331.572	453.62
331.801	475.62
332.03	450.62
332.258	465.62
332.486	449.62
332.715	451.62
332.943	498.62
333.172	498.62
333.4	495.62
333.629	493.62
333.857	523.62
334.085	513.62
334.314	521.62
334.542	540.62
334.771	546.62
334.999	527.62
335.227	480.62
335.455	479.62
335.684	481.62
335.912	464.62
336.14	452.62
336.369	450.62
336.597	440.62
336.825	454.62
337.053	485.62
337.281	436.62
337.51	453.62
337.738	437.62
337.966	454.62
338.194	457.62
338.422	426.62
338.65	456.62
338.878	440.62
339.106	427.62
339.334	435.62
339.562	443.62
339.79	425.62
340.018	420.62
340.246	398.62
340.474	413.62
340.702	436.62
340.93	420.62
341.158	433.62
341.386	430.62
341.614	434.62
341.842	406.62
342.07	416.62
342.298	422.62
342.526	427.62
342.754	426.62
342.981	430.62
343.209	415.62
343.437	438.62
343.665	450.62
343.893	476.62
344.12	480.62
344.348	467.62
344.576	452.62
344.804	460.62
345.031	426.62
345.259	439.62
345.487	434.62
345.714	403.62
345.942	416.62
346.17	420.62
346.397	404.62
346.625	398.62
346.853	393.62
347.08	414.62
347.308	402.62
347.535	413.62
347.763	409.62
347.99	416.62
348.218	408.62
348.445	425.62
348.673	431.62
348.9	412.62
349.128	397.62
349.355	407.62
349.583	388.62
349.81	393.62
350.037	413.62
350.265	380.62
350.492	395.62
350.72	391.62
350.947	394.62
351.174	405.62
351.402	405.62
351.629	405.62
351.856	424.62
352.083	409.62
352.311	410.62
352.538	398.62
352.765	425.62
352.992	396.62
353.22	402.62
353.447	400.62
353.674	389.62
353.901	384.62
354.128	392.62
354.355	387.62
354.583	403.62
354.81	387.62
355.037	397.62
355.264	401.62
355.491	398.62
355.718	398.62
355.945	381.62
356.172	390.62
356.399	379.62
356.626	380.62
356.853	400.62
357.08	374.62
357.307	389.62
357.534	368.62
357.761	390.62
357.988	382.62
358.215	398.62
358.441	393.62
358.668	367.62
358.895	388.62
359.122	397.62
359.349	394.62
359.576	395.62
359.802	422.62
360.029	447.62
360.256	452.62
360.483	431.62
360.709	416.62
360.936	405.62
361.163	388.62
361.39	386.62
361.616	413.62
361.843	410.62
362.07	409.62
362.296	402.62
362.523	398.62
362.749	394.62
362.976	404.62
363.203	401.62
363.429	400.62
363.656	410.62
363.882	424.62
364.109	398.62
364.335	420.62
364.562	388.62
364.788	390.62
365.015	383.62
365.241	392.62
365.468	403.62
365.694	413.62
365.92	394.62
366.147	394.62
366.373	411.62
366.599	397.62
366.826	394.62
367.052	413.62
367.278	395.62
367.505	400.62
367.731	401.62
367.957	397.62
368.184	386.62
368.41	396.62
368.636	416.62
368.862	395.62
369.089	408.62
369.315	401.62
369.541	400.62
369.767	404.62
369.993	409.62
370.219	398.62
370.445	387.62
370.672	396.62
370.898	387.62
371.124	419.62
371.35	422.62
371.576	429.62
371.802	400.62
372.028	428.62
372.254	410.62
372.48	415.62
372.706	422.62
372.932	434.62
373.158	428.62
373.384	410.62
373.61	434.62
373.835	433.62
374.061	427.62
374.287	457.62
374.513	428.62
374.739	430.62
374.965	428.62
375.191	447.62
375.416	413.62
375.642	446.62
375.868	432.62
376.094	420.62
376.319	424.62
376.545	411.62
376.771	421.62
376.997	404.62
377.222	411.62
377.448	404.62
377.674	421.62
377.899	416.62
378.125	428.62
378.35	405.62
378.576	390.62
378.802	424.62
379.027	396.62
379.253	397.62
379.478	411.62
379.704	400.62
379.929	403.62
380.155	402.62
380.38	394.62
380.606	412.62
380.831	416.62
381.057	416.62
381.282	401.62
381.507	411.62
381.733	429.62
381.958	402.62
382.184	419.62
382.409	440.62
382.634	435.62
382.86	403.62
383.085	449.62
383.31	448.62
383.535	442.62
383.761	428.62
383.986	424.62
384.211	486.62
384.436	481.62
384.662	465.62
384.887	472.62
385.112	450.62
385.337	461.62
385.562	462.62
385.787	458.62
386.013	504.62
386.238	480.62
386.463	485.62
386.688	497.62
386.913	473.62
387.138	460.62
387.363	475.62
387.588	462.62
387.813	472.62
388.038	464.62
388.263	485.62
388.488	473.62
388.713	481.62
388.938	453.62
389.163	470.62
389.387	486.62
389.612	468.62
389.837	477.62
390.062	479.62
390.287	481.62
390.512	477.62
390.736	486.62
390.961	488.62
391.186	485.62
391.411	485.62
391.636	482.62
391.86	491.62
392.085	488.62
392.31	530.62
392.534	507.62
392.759	488.62
392.984	486.62
393.208	476.62
393.433	488.62
393.658	481.62
393.882	501.62
394.107	481.62
394.331	492.62
394.556	492.62
394.78	492.62
395.005	484.62
395.229	473.62
395.454	494.62
395.678	530.62
395.903	517.62
396.127	516.62
396.352	517.62
396.576	529.62
396.801	517.62
397.025	486.62
397.249	513.62
397.474	517.62
397.698	539.62
397.922	511.62
398.147	522.62
398.371	517.62
398.595	552.62
398.82	547.62
399.044	578.62
399.268	614.62
399.492	711.62
399.717	734.62
399.941	761.62
400.165	732.62
400.389	695.62
400.613	643.62
400.837	617.62
401.062	597.62
401.286	572.62
401.51	561.62
401.734	561.62
401.958	552.62
402.182	576.62
402.406	568.62
402.63	577.62
402.854	581.62
403.078	579.62
403.302	594.62
403.526	610.62
403.75	592.62
403.974	608.62
404.198	601.62
404.422	614.62
404.645	627.62
404.869	612.62
405.093	633.62
405.317	661.62
405.541	692.62
405.765	634.62
405.988	589.62
406.212	618.62
406.436	642.62
406.66	636.62
406.883	628.62
407.107	635.62
407.331	700.62
407.555	763.62
407.778	742.62
408.002	708.62
408.226	652.62
408.449	648.62
408.673	650.62
408.896	626.62
409.12	656.62
409.344	641.62
409.567	592.62
409.791	604.62
410.014	619.62
410.238	598.62
410.461	604.62
410.685	581.62
410.908	610.62
411.132	618.62
411.355	632.62
411.578	603.62
411.802	589.62
412.025	582.62
412.249	590.62
412.472	611.62
412.695	632.62
412.919	618.62
413.142	577.62
413.365	556.62
413.589	554.62
413.812	563.62
414.035	545.62
414.258	538.62
414.482	528.62
414.705	548.62
414.928	552.62
415.151	536.62
415.374	554.62
415.597	567.62
415.821	570.62
416.044	543.62
416.267	555.62
416.49	539.62
416.713	539.62
416.936	560.62
417.159	562.62
417.382	556.62
417.605	546.62
417.828	538.62
418.051	588.62
418.274	555.62
418.497	561.62
418.72	555.62
418.943	556.62
419.166	574.62
419.389	621.62
419.611	606.62
419.834	587.62
420.057	598.62
420.28	586.62
420.503	572.62
420.726	553.62
420.948	565.62
421.171	598.62
421.394	630.62
421.617	557.62
421.839	563.62
422.062	558.62
422.285	566.62
422.507	615.62
422.73	670.62
422.953	632.62
423.175	600.62
423.398	598.62
423.621	593.62
423.843	609.62
424.066	604.62
424.288	593.62
424.511	583.62
424.733	617.62
424.956	657.62
425.178	651.62
425.401	662.62
425.623	676.62
425.846	597.62
426.068	578.62
426.291	552.62
426.513	538.62
426.735	566.62
426.958	588.62
427.18	615.62
427.402	699.62
427.625	758.62
427.847	677.62
428.069	603.62
428.292	564.62
428.514	546.62
428.736	528.62
428.958	536.62
429.181	530.62
429.403	522.62
429.625	546.62
429.847	531.62
430.069	586.62
430.292	578.62
430.514	517.62
430.736	505.62
430.958	511.62
431.18	485.62
431.402	512.62
431.624	499.62
431.846	488.62
432.068	493.62
432.29	505.62
432.512	512.62
432.734	529.62
432.956	513.62
433.178	515.62
433.4	495.62
433.622	508.62
433.844	518.62
434.066	516.62
434.287	508.62
434.509	513.62
434.731	530.62
434.953	564.62
435.175	557.62
435.397	566.62
435.618	562.62
435.84	583.62
436.062	625.62
436.284	659.62
436.505	559.62
436.727	526.62
436.949	530.62
437.17	491.62
437.392	511.62
437.614	504.62
437.835	515.62
438.057	591.62
438.278	653.62
438.5	666.62
438.721	696.62
438.943	676.62
439.165	563.62
439.386	534.62
439.608	550.62
439.829	556.62
440.05	561.62
440.272	595.62
440.493	561.62
440.715	532.62
440.936	509.62
441.158	547.62
441.379	526.62
441.6	576.62
441.822	564.62
442.043	580.62
442.264	640.62
442.486	677.62
442.707	583.62
442.928	554.62
443.149	585.62
443.371	583.62
443.592	604.62
443.813	682.62
444.034	702.62
444.255	624.62
444.476	594.62
444.698	610.62
444.919	607.62
445.14	692.62
445.361	637.62
445.582	601.62
445.803	595.62
446.024	687.62
446.245	681.62
446.466	639.62
446.687	585.62
446.908	543.62
447.129	492.62
447.35	502.62
447.571	515.62
447.792	496.62
448.013	492.62
448.234	491.62
448.455	533.62
448.675	595.62
448.896	662.62
449.117	595.62
449.338	557.62
449.559	623.62
449.779	689.62
450	585.62
450.221	497.62
450.442	478.62
450.662	502.62
450.883	497.62
451.104	491.62
451.324	491.62
451.545	484.62
451.766	464.62
451.986	449.62
452.207	448.62
452.428	439.62
452.648	443.62
452.869	447.62
453.089	445.62
453.31	468.62
453.53	458.62
453.751	441.62
453.971	445.62
454.192	468.62
454.412	434.62
454.633	448.62
454.853	424.62
455.073	446.62
455.294	470.62
455.514	472.62
455.734	488.62
455.955	439.62
456.175	417.62
456.395	436.62
456.616	429.62
456.836	438.62
457.056	419.62
457.276	405.62
457.497	451.62
457.717	421.62
457.937	415.62
458.157	403.62
458.377	432.62
458.598	454.62
458.818	488.62
459.038	526.62
459.258	560.62
459.478	508.62
459.698	514.62
459.918	522.62
460.138	501.62
460.358	537.62
460.578	549.62
460.798	528.62
461.018	554.62
461.238	521.62
461.458	557.62
461.678	533.62
461.898	515.62
462.118	545.62
462.338	555.62
462.558	574.62
462.777	575.62
462.997	610.62
463.217	636.62
463.437	664.62
463.657	642.62
463.876	576.62
464.096	587.62
464.316	582.62
464.536	581.62
464.755	590.62
464.975	567.62
465.195	572.62
465.414	603.62
465.634	540.62
465.854	509.62
466.073	496.62
466.293	487.62
466.512	474.62
466.732	467.62
466.951	467.62
467.171	475.62
467.391	467.62
467.61	468.62
467.829	482.62
468.049	467.62
468.268	487.62
468.488	460.62
468.707	446.62
468.927	469.62
469.146	452.62
469.365	446.62
469.585	456.62
469.804	469.62
470.023	500.62
470.243	489.62
470.462	496.62
470.681	499.62
470.901	512.62
471.12	505.62
471.339	457.62
471.558	477.62
471.777	456.62
471.997	462.62
472.216	464.62
472.435	478.62
472.654	463.62
472.873	476.62
473.092	432.62
473.311	453.62
473.53	472.62
473.749	459.62
473.968	484.62
474.187	546.62
474.406	545.62
474.625	497.62
474.844	465.62
475.063	448.62
475.282	448.62
475.501	462.62
475.72	487.62
475.939	467.62
476.158	457.62
476.377	484.62
476.596	460.62
476.814	493.62
477.033	488.62
477.252	484.62
477.471	490.62
477.69	495.62
477.908	516.62
478.127	530.62
478.346	530.62
478.564	536.62
478.783	538.62
479.002	563.62
479.22	556.62
479.439	565.62
479.658	551.62
479.876	560.62
480.095	559.62
480.313	588.62
480.532	621.62
480.751	602.62
480.969	580.62
481.188	604.62
481.406	629.62
481.624	558.62
481.843	550.62
482.061	534.62
482.28	532.62
482.498	531.62
482.717	525.62
482.935	547.62
483.153	531.62
483.372	518.62
483.59	539.62
483.808	545.62
484.027	508.62
484.245	524.62
484.463	538.62
484.681	546.62
484.9	572.62
485.118	560.62
485.336	527.62
485.554	552.62
485.772	542.62
485.99	575.62
486.209	546.62
486.427	529.62
486.645	556.62
486.863	569.62
487.081	576.62
487.299	576.62
487.517	559.62
487.735	576.62
487.953	565.62
488.171	571.62
488.389	552.62
488.607	565.62
488.825	547.62
489.043	553.62
489.261	584.62
489.479	570.62
489.696	578.62
489.914	585.62
490.132	585.62
490.35	593.62
490.568	592.62
490.786	588.62
491.003	612.62
491.221	594.62
491.439	638.62
491.657	618.62
491.874	615.62
492.092	647.62
492.31	627.62
492.527	648.62
492.745	639.62
492.963	632.62
493.18	668.62
493.398	654.62
493.615	664.62
493.833	652.62
494.05	655.62
494.268	636.62
494.485	640.62
494.703	652.62
494.92	647.62
495.138	634.62
495.355	650.62
495.573	654.62
495.79	665.62
496.008	633.62
496.225	657.62
496.442	642.62
496.66	653.62
496.877	653.62
497.094	664.62
497.312	666.62
497.529	670.62
497.746	694.62
497.963	709.62
498.181	714.62
498.398	743.62
498.615	758.62
498.832	779.62
499.049	845.62
499.267	881.62
499.484	940.62
499.701	988.62
499.918	1055.62
500.135	1164.62
500.352	1258.62
500.569	1288.62
500.786	1279.62
501.003	1216.62
501.22	1161.62
501.437	1045.62
501.654	980.62
501.871	939.62
502.088	886.62
