Data from 1960PennyLincolnUp.LampE6.200Scan.07172019.P1_HRD10591_13-05-05-001.txt Node
Date: Thu Jul 18 13:05:05 EDT 2019
User: cochatt
Spectrometer: HR+D1059
Trigger mode: 1
Integration Time (sec): 1.000000E-1
Scans to average: 1
Electric dark correction enabled: true
Nonlinearity correction enabled: false
Boxcar width: 0
XAxis mode: Wavelengths
Number of Pixels in Spectrum: 2048
>>>>>Begin Spectral Data<<<<<
223.165	-1.38
223.4	-1.38
223.635	-1.38
223.869	-26.38
224.104	-9.38
224.338	-10.38
224.573	-9.38
224.808	-8.38
225.042	-14.38
225.277	-10.38
225.511	-3.38
225.746	-5.38
225.98	12.62
226.215	9.62
226.449	7.62
226.683	14.62
226.918	19.62
227.152	34.62
227.387	49.62
227.621	33.62
227.856	46.62
228.09	40.62
228.324	47.62
228.559	52.62
228.793	61.62
229.027	70.62
229.262	99.62
229.496	94.62
229.73	100.62
229.964	111.62
230.199	120.62
230.433	113.62
230.667	104.62
230.901	109.62
231.136	109.62
231.37	109.62
231.604	101.62
231.838	105.62
232.072	106.62
232.306	107.62
232.541	103.62
232.775	108.62
233.009	120.62
233.243	113.62
233.477	109.62
233.711	103.62
233.945	98.62
234.179	100.62
234.413	109.62
234.647	108.62
234.881	101.62
235.115	119.62
235.349	101.62
235.583	123.62
235.817	119.62
236.051	122.62
236.285	108.62
236.519	107.62
236.753	123.62
236.987	120.62
237.221	123.62
237.455	155.62
237.689	125.62
237.922	107.62
238.156	122.62
238.39	124.62
238.624	107.62
238.858	121.62
239.091	118.62
239.325	111.62
239.559	119.62
239.793	112.62
240.027	121.62
240.26	126.62
240.494	130.62
240.728	126.62
240.961	134.62
241.195	124.62
241.429	131.62
241.662	151.62
241.896	121.62
242.13	121.62
242.363	123.62
242.597	112.62
242.83	125.62
243.064	123.62
243.298	130.62
243.531	119.62
243.765	143.62
243.998	122.62
244.232	128.62
244.465	133.62
244.699	127.62
244.932	146.62
245.166	146.62
245.399	130.62
245.633	126.62
245.866	129.62
246.099	132.62
246.333	134.62
246.566	145.62
246.8	129.62
247.033	136.62
247.266	128.62
247.5	138.62
247.733	149.62
247.966	155.62
248.2	150.62
248.433	160.62
248.666	168.62
248.899	146.62
249.133	161.62
249.366	164.62
249.599	168.62
249.832	153.62
250.066	161.62
250.299	161.62
250.532	160.62
250.765	160.62
250.998	178.62
251.231	174.62
251.465	184.62
251.698	174.62
251.931	170.62
252.164	153.62
252.397	170.62
252.63	184.62
252.863	184.62
253.096	169.62
253.329	178.62
253.562	171.62
253.795	181.62
254.028	176.62
254.261	187.62
254.494	189.62
254.727	197.62
254.96	204.62
255.193	193.62
255.426	176.62
255.659	192.62
255.892	190.62
256.124	179.62
256.357	185.62
256.59	186.62
256.823	185.62
257.056	185.62
257.289	179.62
257.521	153.62
257.754	174.62
257.987	182.62
258.22	190.62
258.452	198.62
258.685	175.62
258.918	184.62
259.151	177.62
259.383	198.62
259.616	176.62
259.849	183.62
260.081	202.62
260.314	193.62
260.547	203.62
260.779	193.62
261.012	208.62
261.244	183.62
261.477	183.62
261.71	177.62
261.942	188.62
262.175	200.62
262.407	201.62
262.64	191.62
262.872	181.62
263.105	189.62
263.337	208.62
263.57	191.62
263.802	209.62
264.035	202.62
264.267	192.62
264.499	191.62
264.732	196.62
264.964	197.62
265.197	184.62
265.429	194.62
265.661	192.62
265.894	194.62
266.126	205.62
266.358	204.62
266.591	202.62
266.823	204.62
267.055	183.62
267.287	216.62
267.52	190.62
267.752	209.62
267.984	214.62
268.216	205.62
268.448	210.62
268.681	225.62
268.913	211.62
269.145	222.62
269.377	245.62
269.609	216.62
269.841	219.62
270.073	230.62
270.306	216.62
270.538	245.62
270.77	247.62
271.002	251.62
271.234	250.62
271.466	246.62
271.698	250.62
271.93	247.62
272.162	267.62
272.394	263.62
272.626	242.62
272.858	249.62
273.09	241.62
273.322	227.62
273.553	230.62
273.785	237.62
274.017	240.62
274.249	229.62
274.481	228.62
274.713	243.62
274.945	242.62
275.176	255.62
275.408	243.62
275.64	229.62
275.872	248.62
276.104	248.62
276.335	249.62
276.567	246.62
276.799	267.62
277.031	262.62
277.262	270.62
277.494	252.62
277.726	229.62
277.957	227.62
278.189	251.62
278.421	239.62
278.652	249.62
278.884	249.62
279.115	249.62
279.347	267.62
279.579	265.62
279.81	261.62
280.042	246.62
280.273	251.62
280.505	267.62
280.736	257.62
280.968	255.62
281.199	261.62
281.431	238.62
281.662	271.62
281.894	259.62
282.125	274.62
282.356	273.62
282.588	266.62
282.819	274.62
283.051	272.62
283.282	269.62
283.513	269.62
283.745	265.62
283.976	251.62
284.207	280.62
284.439	256.62
284.67	250.62
284.901	269.62
285.132	281.62
285.364	252.62
285.595	277.62
285.826	276.62
286.057	266.62
286.288	271.62
286.52	270.62
286.751	261.62
286.982	285.62
287.213	281.62
287.444	289.62
287.675	265.62
287.906	288.62
288.138	285.62
288.369	286.62
288.6	293.62
288.831	281.62
289.062	289.62
289.293	278.62
289.524	273.62
289.755	277.62
289.986	276.62
290.217	287.62
290.448	282.62
290.679	282.62
290.91	290.62
291.141	269.62
291.371	285.62
291.602	265.62
291.833	280.62
292.064	280.62
292.295	274.62
292.526	278.62
292.757	291.62
292.987	296.62
293.218	293.62
293.449	296.62
293.68	286.62
293.91	296.62
294.141	299.62
294.372	305.62
294.603	307.62
294.833	296.62
295.064	308.62
295.295	292.62
295.525	299.62
295.756	314.62
295.987	315.62
296.217	300.62
296.448	319.62
296.679	315.62
296.909	302.62
297.14	302.62
297.37	316.62
297.601	310.62
297.831	313.62
298.062	314.62
298.292	299.62
298.523	303.62
298.753	320.62
298.984	312.62
299.214	316.62
299.445	306.62
299.675	314.62
299.905	328.62
300.136	313.62
300.366	319.62
300.597	327.62
300.827	322.62
301.057	341.62
301.288	330.62
301.518	330.62
301.748	333.62
301.979	328.62
302.209	344.62
302.439	335.62
302.669	335.62
302.9	337.62
303.13	330.62
303.36	323.62
303.59	327.62
303.82	340.62
304.051	325.62
304.281	331.62
304.511	339.62
304.741	332.62
304.971	330.62
305.201	323.62
305.431	315.62
305.661	329.62
305.891	329.62
306.121	334.62
306.352	340.62
306.582	337.62
306.812	331.62
307.042	338.62
307.272	328.62
307.502	325.62
307.731	325.62
307.961	323.62
308.191	324.62
308.421	341.62
308.651	330.62
308.881	333.62
309.111	339.62
309.341	326.62
309.571	343.62
309.8	326.62
310.03	322.62
310.26	344.62
310.49	357.62
310.72	345.62
310.949	349.62
311.179	325.62
311.409	340.62
311.639	353.62
311.868	371.62
312.098	347.62
312.328	352.62
312.557	356.62
312.787	350.62
313.017	360.62
313.246	355.62
313.476	356.62
313.706	349.62
313.935	349.62
314.165	368.62
314.394	360.62
314.624	390.62
314.853	377.62
315.083	358.62
315.312	342.62
315.542	347.62
315.771	344.62
316.001	334.62
316.23	364.62
316.46	344.62
316.689	361.62
316.919	369.62
317.148	369.62
317.377	369.62
317.607	360.62
317.836	367.62
318.065	354.62
318.295	369.62
318.524	353.62
318.753	354.62
318.983	354.62
319.212	350.62
319.441	360.62
319.67	357.62
319.9	350.62
320.129	361.62
320.358	358.62
320.587	372.62
320.816	374.62
321.046	370.62
321.275	379.62
321.504	372.62
321.733	374.62
321.962	376.62
322.191	377.62
322.42	385.62
322.649	371.62
322.878	394.62
323.108	388.62
323.337	393.62
323.566	395.62
323.795	418.62
324.024	438.62
324.253	504.62
324.482	605.62
324.71	839.62
324.939	1110.62
325.168	915.62
325.397	564.62
325.626	437.62
325.855	438.62
326.084	419.62
326.313	421.62
326.542	434.62
326.77	437.62
326.999	489.62
327.228	596.62
327.457	789.62
327.686	889.62
327.914	603.62
328.143	474.62
328.372	457.62
328.6	439.62
328.829	429.62
329.058	425.62
329.287	446.62
329.515	436.62
329.744	419.62
329.972	427.62
330.201	457.62
330.43	462.62
330.658	459.62
330.887	458.62
331.115	441.62
331.344	423.62
331.572	421.62
331.801	450.62
332.03	457.62
332.258	454.62
332.486	435.62
332.715	444.62
332.943	450.62
333.172	467.62
333.4	483.62
333.629	468.62
333.857	509.62
334.085	513.62
334.314	517.62
334.542	514.62
334.771	529.62
334.999	500.62
335.227	484.62
335.455	457.62
335.684	467.62
335.912	464.62
336.14	464.62
336.369	461.62
336.597	449.62
336.825	423.62
337.053	442.62
337.281	431.62
337.51	445.62
337.738	437.62
337.966	418.62
338.194	438.62
338.422	420.62
338.65	428.62
338.878	426.62
339.106	390.62
339.334	444.62
339.562	400.62
339.79	424.62
340.018	415.62
340.246	411.62
340.474	413.62
340.702	396.62
340.93	407.62
341.158	411.62
341.386	398.62
341.614	405.62
341.842	404.62
342.07	394.62
342.298	438.62
342.526	390.62
342.754	402.62
342.981	389.62
343.209	410.62
343.437	431.62
343.665	439.62
343.893	474.62
344.12	479.62
344.348	468.62
344.576	441.62
344.804	425.62
345.031	436.62
345.259	416.62
345.487	418.62
345.714	420.62
345.942	409.62
346.17	396.62
346.397	386.62
346.625	393.62
346.853	385.62
347.08	386.62
347.308	399.62
347.535	395.62
347.763	420.62
347.99	398.62
348.218	401.62
348.445	403.62
348.673	394.62
348.9	413.62
349.128	407.62
349.355	386.62
349.583	404.62
349.81	387.62
350.037	379.62
350.265	383.62
350.492	378.62
350.72	394.62
350.947	398.62
351.174	358.62
351.402	408.62
351.629	413.62
351.856	411.62
352.083	404.62
352.311	397.62
352.538	402.62
352.765	404.62
352.992	378.62
353.22	398.62
353.447	392.62
353.674	391.62
353.901	389.62
354.128	389.62
354.355	376.62
354.583	371.62
354.81	370.62
355.037	377.62
355.264	377.62
355.491	392.62
355.718	380.62
355.945	381.62
356.172	389.62
356.399	377.62
356.626	377.62
356.853	395.62
357.08	394.62
357.307	383.62
357.534	387.62
357.761	374.62
357.988	374.62
358.215	382.62
358.441	395.62
358.668	388.62
358.895	385.62
359.122	383.62
359.349	401.62
359.576	417.62
359.802	389.62
360.029	417.62
360.256	409.62
360.483	401.62
360.709	385.62
360.936	394.62
361.163	380.62
361.39	379.62
361.616	387.62
361.843	398.62
362.07	387.62
362.296	409.62
362.523	411.62
362.749	414.62
362.976	379.62
363.203	381.62
363.429	405.62
363.656	410.62
363.882	379.62
364.109	389.62
364.335	382.62
364.562	388.62
364.788	375.62
365.015	388.62
365.241	381.62
365.468	382.62
365.694	397.62
365.92	388.62
366.147	378.62
366.373	393.62
366.599	390.62
366.826	385.62
367.052	383.62
367.278	377.62
367.505	397.62
367.731	399.62
367.957	416.62
368.184	391.62
368.41	395.62
368.636	399.62
368.862	397.62
369.089	389.62
369.315	400.62
369.541	411.62
369.767	417.62
369.993	388.62
370.219	403.62
370.445	398.62
370.672	381.62
370.898	397.62
371.124	402.62
371.35	414.62
371.576	411.62
371.802	411.62
372.028	403.62
372.254	401.62
372.48	413.62
372.706	418.62
372.932	426.62
373.158	424.62
373.384	410.62
373.61	415.62
373.835	398.62
374.061	418.62
374.287	409.62
374.513	416.62
374.739	414.62
374.965	442.62
375.191	430.62
375.416	430.62
375.642	435.62
375.868	433.62
376.094	424.62
376.319	395.62
376.545	414.62
376.771	421.62
376.997	405.62
377.222	409.62
377.448	401.62
377.674	389.62
377.899	406.62
378.125	394.62
378.35	383.62
378.576	385.62
378.802	413.62
379.027	409.62
379.253	410.62
379.478	402.62
379.704	414.62
379.929	403.62
380.155	405.62
380.38	408.62
380.606	405.62
380.831	393.62
381.057	423.62
381.282	401.62
381.507	419.62
381.733	421.62
381.958	413.62
382.184	416.62
382.409	409.62
382.634	431.62
382.86	444.62
383.085	437.62
383.31	435.62
383.535	441.62
383.761	454.62
383.986	434.62
384.211	429.62
384.436	443.62
384.662	453.62
384.887	477.62
385.112	465.62
385.337	485.62
385.562	460.62
385.787	489.62
386.013	493.62
386.238	469.62
386.463	489.62
386.688	457.62
386.913	456.62
387.138	485.62
387.363	489.62
387.588	453.62
387.813	471.62
388.038	486.62
388.263	493.62
388.488	482.62
388.713	466.62
388.938	458.62
389.163	470.62
389.387	473.62
389.612	458.62
389.837	447.62
390.062	455.62
390.287	453.62
390.512	447.62
390.736	479.62
390.961	462.62
391.186	469.62
391.411	496.62
391.636	494.62
391.86	498.62
392.085	505.62
392.31	497.62
392.534	513.62
392.759	494.62
392.984	483.62
393.208	489.62
393.433	507.62
393.658	514.62
393.882	503.62
394.107	478.62
394.331	491.62
394.556	494.62
394.78	491.62
395.005	487.62
395.229	496.62
395.454	518.62
395.678	490.62
395.903	506.62
396.127	518.62
396.352	511.62
396.576	510.62
396.801	503.62
397.025	534.62
397.249	521.62
397.474	498.62
397.698	493.62
397.922	506.62
398.147	532.62
398.371	515.62
398.595	545.62
398.82	553.62
399.044	584.62
399.268	619.62
399.492	675.62
399.717	727.62
399.941	742.62
400.165	706.62
400.389	676.62
400.613	633.62
400.837	575.62
401.062	571.62
401.286	549.62
401.51	558.62
401.734	563.62
401.958	566.62
402.182	568.62
402.406	579.62
402.63	567.62
402.854	575.62
403.078	590.62
403.302	600.62
403.526	577.62
403.75	582.62
403.974	596.62
404.198	593.62
404.422	598.62
404.645	601.62
404.869	597.62
405.093	622.62
405.317	640.62
405.541	644.62
405.765	606.62
405.988	592.62
406.212	607.62
406.436	617.62
406.66	609.62
406.883	591.62
407.107	630.62
407.331	686.62
407.555	726.62
407.778	713.62
408.002	653.62
408.226	630.62
408.449	654.62
408.673	631.62
408.896	602.62
409.12	615.62
409.344	619.62
409.567	623.62
409.791	592.62
410.014	591.62
410.238	575.62
410.461	577.62
410.685	587.62
410.908	579.62
411.132	591.62
411.355	581.62
411.578	582.62
411.802	582.62
412.025	582.62
412.249	596.62
412.472	573.62
412.695	595.62
412.919	591.62
413.142	580.62
413.365	557.62
413.589	582.62
413.812	533.62
414.035	527.62
414.258	550.62
414.482	531.62
414.705	546.62
414.928	547.62
415.151	551.62
415.374	550.62
415.597	546.62
415.821	523.62
416.044	548.62
416.267	525.62
416.49	557.62
416.713	526.62
416.936	543.62
417.159	510.62
417.382	537.62
417.605	561.62
417.828	541.62
418.051	549.62
418.274	515.62
418.497	567.62
418.72	545.62
418.943	562.62
419.166	574.62
419.389	612.62
419.611	612.62
419.834	553.62
420.057	581.62
420.28	556.62
420.503	570.62
420.726	554.62
420.948	553.62
421.171	558.62
421.394	597.62
421.617	539.62
421.839	538.62
422.062	545.62
422.285	543.62
422.507	570.62
422.73	614.62
422.953	615.62
423.175	581.62
423.398	571.62
423.621	565.62
423.843	577.62
424.066	595.62
424.288	601.62
424.511	602.62
424.733	606.62
424.956	636.62
425.178	601.62
425.401	617.62
425.623	627.62
425.846	595.62
426.068	537.62
426.291	547.62
426.513	551.62
426.735	537.62
426.958	587.62
427.18	577.62
427.402	628.62
427.625	687.62
427.847	621.62
428.069	571.62
428.292	555.62
428.514	545.62
428.736	501.62
428.958	505.62
429.181	497.62
429.403	492.62
429.625	499.62
429.847	510.62
430.069	564.62
430.292	545.62
430.514	506.62
430.736	481.62
430.958	510.62
431.18	516.62
431.402	482.62
431.624	492.62
431.846	494.62
432.068	507.62
432.29	502.62
432.512	493.62
432.734	505.62
432.956	503.62
433.178	485.62
433.4	492.62
433.622	491.62
433.844	504.62
434.066	509.62
434.287	497.62
434.509	502.62
434.731	553.62
434.953	531.62
435.175	527.62
435.397	550.62
435.618	545.62
435.84	536.62
436.062	581.62
436.284	619.62
436.505	559.62
436.727	524.62
436.949	496.62
437.17	523.62
437.392	492.62
437.614	489.62
437.835	515.62
438.057	550.62
438.278	581.62
438.5	577.62
438.721	617.62
438.943	612.62
439.165	552.62
439.386	509.62
439.608	517.62
439.829	513.62
440.05	520.62
440.272	534.62
440.493	540.62
440.715	528.62
440.936	510.62
441.158	529.62
441.379	535.62
441.6	545.62
441.822	531.62
442.043	592.62
442.264	598.62
442.486	617.62
442.707	589.62
442.928	538.62
443.149	554.62
443.371	551.62
443.592	611.62
443.813	624.62
444.034	646.62
444.255	620.62
444.476	585.62
444.698	604.62
444.919	603.62
445.14	691.62
445.361	623.62
445.582	584.62
445.803	590.62
446.024	614.62
446.245	584.62
446.466	565.62
446.687	533.62
446.908	504.62
447.129	491.62
447.35	486.62
447.571	479.62
447.792	486.62
448.013	477.62
448.234	489.62
448.455	517.62
448.675	527.62
448.896	600.62
449.117	528.62
449.338	527.62
449.559	575.62
449.779	627.62
450	527.62
450.221	477.62
450.442	458.62
450.662	477.62
450.883	460.62
451.104	470.62
451.324	473.62
451.545	470.62
451.766	458.62
451.986	447.62
452.207	423.62
452.428	456.62
452.648	439.62
452.869	455.62
453.089	437.62
453.31	438.62
453.53	447.62
453.751	429.62
453.971	452.62
454.192	445.62
454.412	452.62
454.633	422.62
454.853	419.62
455.073	425.62
455.294	462.62
455.514	472.62
455.734	472.62
455.955	438.62
456.175	414.62
456.395	435.62
456.616	404.62
456.836	411.62
457.056	402.62
457.276	439.62
457.497	414.62
457.717	409.62
457.937	431.62
458.157	419.62
458.377	440.62
458.598	437.62
458.818	466.62
459.038	510.62
459.258	514.62
459.478	490.62
459.698	471.62
459.918	522.62
460.138	505.62
460.358	538.62
460.578	549.62
460.798	531.62
461.018	533.62
461.238	532.62
461.458	546.62
461.678	535.62
461.898	515.62
462.118	538.62
462.338	578.62
462.558	573.62
462.777	578.62
462.997	625.62
463.217	675.62
463.437	658.62
463.657	625.62
463.876	593.62
464.096	594.62
464.316	575.62
464.536	581.62
464.755	584.62
464.975	581.62
465.195	552.62
465.414	576.62
465.634	525.62
465.854	497.62
466.073	482.62
466.293	472.62
466.512	475.62
466.732	474.62
466.951	471.62
467.171	463.62
467.391	475.62
467.61	472.62
467.829	473.62
468.049	467.62
468.268	480.62
468.488	452.62
468.707	439.62
468.927	432.62
469.146	459.62
469.365	467.62
469.585	464.62
469.804	466.62
470.023	496.62
470.243	478.62
470.462	497.62
470.681	486.62
470.901	497.62
471.12	485.62
471.339	475.62
471.558	454.62
471.777	454.62
471.997	461.62
472.216	454.62
472.435	459.62
472.654	440.62
472.873	442.62
473.092	450.62
473.311	444.62
473.53	473.62
473.749	451.62
473.968	473.62
474.187	516.62
474.406	516.62
474.625	459.62
474.844	470.62
475.063	467.62
475.282	467.62
475.501	442.62
475.72	461.62
475.939	467.62
476.158	469.62
476.377	467.62
476.596	478.62
476.814	469.62
477.033	474.62
477.252	468.62
477.471	480.62
477.69	504.62
477.908	527.62
478.127	523.62
478.346	523.62
478.564	542.62
478.783	547.62
479.002	545.62
479.22	566.62
479.439	541.62
479.658	571.62
479.876	585.62
480.095	573.62
480.313	599.62
480.532	577.62
480.751	611.62
480.969	583.62
481.188	569.62
481.406	590.62
481.624	543.62
481.843	552.62
482.061	542.62
482.28	525.62
482.498	535.62
482.717	526.62
482.935	527.62
483.153	534.62
483.372	533.62
483.59	537.62
483.808	517.62
484.027	532.62
484.245	541.62
484.463	521.62
484.681	559.62
484.9	561.62
485.118	574.62
485.336	538.62
485.554	565.62
485.772	547.62
485.99	554.62
486.209	570.62
486.427	572.62
486.645	557.62
486.863	555.62
487.081	576.62
487.299	562.62
487.517	538.62
487.735	557.62
487.953	571.62
488.171	536.62
488.389	562.62
488.607	566.62
488.825	538.62
489.043	563.62
489.261	548.62
489.479	562.62
489.696	559.62
489.914	544.62
490.132	577.62
490.35	581.62
490.568	550.62
490.786	573.62
491.003	575.62
491.221	584.62
491.439	605.62
491.657	586.62
491.874	605.62
492.092	583.62
492.31	594.62
492.527	619.62
492.745	623.62
492.963	621.62
493.18	596.62
493.398	603.62
493.615	622.62
493.833	613.62
494.05	619.62
494.268	610.62
494.485	644.62
494.703	629.62
494.92	619.62
495.138	621.62
495.355	607.62
495.573	609.62
495.79	616.62
496.008	636.62
496.225	627.62
496.442	649.62
496.66	642.62
496.877	651.62
497.094	663.62
497.312	664.62
497.529	660.62
497.746	670.62
497.963	648.62
498.181	696.62
498.398	730.62
498.615	781.62
498.832	789.62
499.049	835.62
499.267	870.62
499.484	919.62
499.701	994.62
499.918	1045.62
500.135	1155.62
500.352	1254.62
500.569	1326.62
500.786	1281.62
501.003	1212.62
501.22	1149.62
501.437	1054.62
501.654	996.62
501.871	941.62
502.088	877.62
