Data from 1960PennyLincolnUp.LampE6.200Scan.07172019.P1_HRD10591_13-04-59-050.txt Node
Date: Thu Jul 18 13:04:59 EDT 2019
User: cochatt
Spectrometer: HR+D1059
Trigger mode: 1
Integration Time (sec): 1.000000E-1
Scans to average: 1
Electric dark correction enabled: true
Nonlinearity correction enabled: false
Boxcar width: 0
XAxis mode: Wavelengths
Number of Pixels in Spectrum: 2048
>>>>>Begin Spectral Data<<<<<
223.165	-17.06
223.4	-17.06
223.635	-17.06
223.869	-14.06
224.104	-21.06
224.338	-17.06
224.573	-25.06
224.808	-13.06
225.042	-7.06
225.277	-17.06
225.511	8.94
225.746	8.94
225.98	0.94
226.215	3.94
226.449	12.94
226.683	25.94
226.918	27.94
227.152	41.94
227.387	28.94
227.621	31.94
227.856	46.94
228.09	48.94
228.324	46.94
228.559	52.94
228.793	69.94
229.027	99.94
229.262	93.94
229.496	120.94
229.73	128.94
229.964	148.94
230.199	137.94
230.433	112.94
230.667	109.94
230.901	110.94
231.136	120.94
231.37	121.94
231.604	117.94
231.838	126.94
232.072	116.94
232.306	112.94
232.541	110.94
232.775	110.94
233.009	126.94
233.243	121.94
233.477	114.94
233.711	119.94
233.945	118.94
234.179	110.94
234.413	114.94
234.647	140.94
234.881	128.94
235.115	114.94
235.349	116.94
235.583	121.94
235.817	114.94
236.051	118.94
236.285	98.94
236.519	122.94
236.753	130.94
236.987	129.94
237.221	178.94
237.455	222.94
237.689	178.94
237.922	138.94
238.156	128.94
238.39	114.94
238.624	141.94
238.858	142.94
239.091	115.94
239.325	112.94
239.559	138.94
239.793	120.94
240.027	127.94
240.26	137.94
240.494	145.94
240.728	154.94
240.961	144.94
241.195	148.94
241.429	137.94
241.662	132.94
241.896	137.94
242.13	130.94
242.363	136.94
242.597	122.94
242.83	133.94
243.064	128.94
243.298	140.94
243.531	126.94
243.765	137.94
243.998	145.94
244.232	143.94
244.465	153.94
244.699	147.94
244.932	155.94
245.166	141.94
245.399	138.94
245.633	156.94
245.866	140.94
246.099	126.94
246.333	151.94
246.566	144.94
246.8	157.94
247.033	144.94
247.266	164.94
247.5	169.94
247.733	173.94
247.966	170.94
248.2	188.94
248.433	182.94
248.666	169.94
248.899	172.94
249.133	182.94
249.366	201.94
249.599	187.94
249.832	176.94
250.066	168.94
250.299	183.94
250.532	182.94
250.765	189.94
250.998	218.94
251.231	218.94
251.465	207.94
251.698	206.94
251.931	217.94
252.164	196.94
252.397	192.94
252.63	184.94
252.863	205.94
253.096	209.94
253.329	219.94
253.562	218.94
253.795	193.94
254.028	207.94
254.261	206.94
254.494	210.94
254.727	253.94
254.96	280.94
255.193	261.94
255.426	220.94
255.659	211.94
255.892	223.94
256.124	195.94
256.357	221.94
256.59	197.94
256.823	199.94
257.056	196.94
257.289	195.94
257.521	210.94
257.754	189.94
257.987	198.94
258.22	199.94
258.452	187.94
258.685	208.94
258.918	197.94
259.151	184.94
259.383	227.94
259.616	214.94
259.849	224.94
260.081	232.94
260.314	237.94
260.547	249.94
260.779	240.94
261.012	245.94
261.244	209.94
261.477	223.94
261.71	233.94
261.942	217.94
262.175	248.94
262.407	252.94
262.64	234.94
262.872	200.94
263.105	217.94
263.337	223.94
263.57	229.94
263.802	214.94
264.035	204.94
264.267	209.94
264.499	217.94
264.732	207.94
264.964	223.94
265.197	211.94
265.429	244.94
265.661	241.94
265.894	227.94
266.126	219.94
266.358	229.94
266.591	239.94
266.823	240.94
267.055	243.94
267.287	241.94
267.52	224.94
267.752	226.94
267.984	225.94
268.216	221.94
268.448	231.94
268.681	258.94
268.913	255.94
269.145	272.94
269.377	270.94
269.609	279.94
269.841	256.94
270.073	260.94
270.306	268.94
270.538	318.94
270.77	304.94
271.002	280.94
271.234	297.94
271.466	291.94
271.698	308.94
271.93	311.94
272.162	321.94
272.394	322.94
272.626	285.94
272.858	277.94
273.09	293.94
273.322	280.94
273.553	282.94
273.785	270.94
274.017	284.94
274.249	284.94
274.481	267.94
274.713	286.94
274.945	283.94
275.176	301.94
275.408	272.94
275.64	289.94
275.872	284.94
276.104	287.94
276.335	289.94
276.567	307.94
276.799	306.94
277.031	351.94
277.262	337.94
277.494	310.94
277.726	314.94
277.957	297.94
278.189	309.94
278.421	290.94
278.652	309.94
278.884	298.94
279.115	304.94
279.347	345.94
279.579	406.94
279.81	426.94
280.042	436.94
280.273	370.94
280.505	379.94
280.736	352.94
280.968	317.94
281.199	293.94
281.431	284.94
281.662	285.94
281.894	310.94
282.125	299.94
282.356	346.94
282.588	354.94
282.819	337.94
283.051	297.94
283.282	305.94
283.513	296.94
283.745	297.94
283.976	321.94
284.207	307.94
284.439	313.94
284.67	309.94
284.901	301.94
285.132	328.94
285.364	344.94
285.595	349.94
285.826	306.94
286.057	306.94
286.288	301.94
286.52	296.94
286.751	292.94
286.982	309.94
287.213	321.94
287.444	321.94
287.675	300.94
287.906	322.94
288.138	342.94
288.369	365.94
288.6	369.94
288.831	337.94
289.062	327.94
289.293	318.94
289.524	312.94
289.755	302.94
289.986	321.94
290.217	307.94
290.448	305.94
290.679	312.94
290.91	300.94
291.141	314.94
291.371	332.94
291.602	312.94
291.833	318.94
292.064	319.94
292.295	319.94
292.526	309.94
292.757	309.94
292.987	315.94
293.218	316.94
293.449	320.94
293.68	329.94
293.91	345.94
294.141	343.94
294.372	318.94
294.603	334.94
294.833	337.94
295.064	326.94
295.295	338.94
295.525	318.94
295.756	318.94
295.987	347.94
296.217	370.94
296.448	389.94
296.679	353.94
296.909	300.94
297.14	324.94
297.37	328.94
297.601	339.94
297.831	309.94
298.062	337.94
298.292	348.94
298.523	330.94
298.753	351.94
298.984	354.94
299.214	344.94
299.445	363.94
299.675	352.94
299.905	367.94
300.136	346.94
300.366	361.94
300.597	364.94
300.827	372.94
301.057	365.94
301.288	397.94
301.518	376.94
301.748	365.94
301.979	374.94
302.209	389.94
302.439	377.94
302.669	376.94
302.9	383.94
303.13	357.94
303.36	361.94
303.59	378.94
303.82	388.94
304.051	401.94
304.281	380.94
304.511	368.94
304.741	356.94
304.971	368.94
305.201	384.94
305.431	354.94
305.661	356.94
305.891	377.94
306.121	370.94
306.352	374.94
306.582	373.94
306.812	377.94
307.042	360.94
307.272	366.94
307.502	353.94
307.731	353.94
307.961	375.94
308.191	377.94
308.421	377.94
308.651	378.94
308.881	389.94
309.111	409.94
309.341	400.94
309.571	412.94
309.8	416.94
310.03	404.94
310.26	432.94
310.49	428.94
310.72	426.94
310.949	452.94
311.179	464.94
311.409	450.94
311.639	400.94
311.868	415.94
312.098	424.94
312.328	428.94
312.557	443.94
312.787	476.94
313.017	459.94
313.246	427.94
313.476	405.94
313.706	428.94
313.935	428.94
314.165	440.94
314.394	456.94
314.624	474.94
314.853	434.94
315.083	443.94
315.312	423.94
315.542	415.94
315.771	444.94
316.001	437.94
316.23	419.94
316.46	432.94
316.689	450.94
316.919	432.94
317.148	445.94
317.377	452.94
317.607	427.94
317.836	469.94
318.065	492.94
318.295	498.94
318.524	472.94
318.753	434.94
318.983	427.94
319.212	433.94
319.441	435.94
319.67	445.94
319.9	444.94
320.129	429.94
320.358	421.94
320.587	425.94
320.816	440.94
321.046	453.94
321.275	457.94
321.504	442.94
321.733	460.94
321.962	473.94
322.191	490.94
322.42	483.94
322.649	512.94
322.878	525.94
323.108	544.94
323.337	581.94
323.566	581.94
323.795	668.94
324.024	723.94
324.253	913.94
324.482	1446.94
324.71	2216.94
324.939	3202.94
325.168	2491.94
325.397	1200.94
325.626	787.94
325.855	625.94
326.084	600.94
326.313	596.94
326.542	606.94
326.77	693.94
326.999	865.94
327.228	1290.94
327.457	1987.94
327.686	2332.94
327.914	1467.94
328.143	910.94
328.372	845.94
328.6	746.94
328.829	669.94
329.058	693.94
329.287	689.94
329.515	638.94
329.744	594.94
329.972	581.94
330.201	615.94
330.43	682.94
330.658	726.94
330.887	785.94
331.115	746.94
331.344	621.94
331.572	575.94
331.801	585.94
332.03	596.94
332.258	567.94
332.486	521.94
332.715	549.94
332.943	533.94
333.172	551.94
333.4	560.94
333.629	579.94
333.857	600.94
334.085	626.94
334.314	620.94
334.542	685.94
334.771	733.94
334.999	634.94
335.227	591.94
335.455	560.94
335.684	521.94
335.912	547.94
336.14	529.94
336.369	548.94
336.597	529.94
336.825	522.94
337.053	521.94
337.281	500.94
337.51	486.94
337.738	516.94
337.966	506.94
338.194	543.94
338.422	581.94
338.65	529.94
338.878	512.94
339.106	492.94
339.334	506.94
339.562	487.94
339.79	502.94
340.018	480.94
340.246	488.94
340.474	494.94
340.702	498.94
340.93	479.94
341.158	477.94
341.386	499.94
341.614	520.94
341.842	509.94
342.07	464.94
342.298	456.94
342.526	487.94
342.754	466.94
342.981	452.94
343.209	453.94
343.437	464.94
343.665	470.94
343.893	537.94
344.12	542.94
344.348	530.94
344.576	531.94
344.804	532.94
345.031	527.94
345.259	523.94
345.487	525.94
345.714	489.94
345.942	491.94
346.17	485.94
346.397	478.94
346.625	482.94
346.853	496.94
347.08	487.94
347.308	486.94
347.535	490.94
347.763	517.94
347.99	492.94
348.218	489.94
348.445	494.94
348.673	489.94
348.9	473.94
349.128	447.94
349.355	458.94
349.583	486.94
349.81	454.94
350.037	462.94
350.265	436.94
350.492	444.94
350.72	442.94
350.947	470.94
351.174	494.94
351.402	492.94
351.629	492.94
351.856	489.94
352.083	498.94
352.311	524.94
352.538	524.94
352.765	531.94
352.992	515.94
353.22	492.94
353.447	489.94
353.674	454.94
353.901	424.94
354.128	450.94
354.355	451.94
354.583	436.94
354.81	436.94
355.037	429.94
355.264	434.94
355.491	421.94
355.718	435.94
355.945	434.94
356.172	434.94
356.399	443.94
356.626	442.94
356.853	442.94
357.08	448.94
357.307	432.94
357.534	444.94
357.761	419.94
357.988	448.94
358.215	465.94
358.441	439.94
358.668	447.94
358.895	441.94
359.122	444.94
359.349	464.94
359.576	494.94
359.802	518.94
360.029	559.94
360.256	592.94
360.483	523.94
360.709	509.94
360.936	486.94
361.163	488.94
361.39	478.94
361.616	477.94
361.843	473.94
362.07	496.94
362.296	503.94
362.523	476.94
362.749	462.94
362.976	460.94
363.203	433.94
363.429	437.94
363.656	448.94
363.882	438.94
364.109	464.94
364.335	445.94
364.562	453.94
364.788	439.94
365.015	459.94
365.241	435.94
365.468	452.94
365.694	471.94
365.92	480.94
366.147	452.94
366.373	456.94
366.599	455.94
366.826	431.94
367.052	430.94
367.278	453.94
367.505	438.94
367.731	451.94
367.957	448.94
368.184	448.94
368.41	484.94
368.636	450.94
368.862	475.94
369.089	472.94
369.315	459.94
369.541	459.94
369.767	451.94
369.993	451.94
370.219	458.94
370.445	441.94
370.672	456.94
370.898	464.94
371.124	484.94
371.35	470.94
371.576	447.94
371.802	470.94
372.028	438.94
372.254	485.94
372.48	462.94
372.706	484.94
372.932	455.94
373.158	465.94
373.384	461.94
373.61	483.94
373.835	508.94
374.061	502.94
374.287	468.94
374.513	475.94
374.739	483.94
374.965	486.94
375.191	487.94
375.416	470.94
375.642	464.94
375.868	472.94
376.094	482.94
376.319	446.94
376.545	435.94
376.771	461.94
376.997	457.94
377.222	436.94
377.448	449.94
377.674	438.94
377.899	457.94
378.125	435.94
378.35	432.94
378.576	435.94
378.802	431.94
379.027	454.94
379.253	451.94
379.478	451.94
379.704	449.94
379.929	441.94
380.155	452.94
380.38	456.94
380.606	435.94
380.831	464.94
381.057	441.94
381.282	446.94
381.507	467.94
381.733	478.94
381.958	472.94
382.184	464.94
382.409	480.94
382.634	496.94
382.86	486.94
383.085	482.94
383.31	496.94
383.535	498.94
383.761	511.94
383.986	512.94
384.211	501.94
384.436	526.94
384.662	517.94
384.887	524.94
385.112	533.94
385.337	520.94
385.562	520.94
385.787	572.94
386.013	585.94
386.238	575.94
386.463	563.94
386.688	523.94
386.913	538.94
387.138	532.94
387.363	531.94
387.588	526.94
387.813	511.94
388.038	532.94
388.263	548.94
388.488	530.94
388.713	524.94
388.938	495.94
389.163	512.94
389.387	510.94
389.612	512.94
389.837	498.94
390.062	533.94
390.287	513.94
390.512	499.94
390.736	500.94
390.961	522.94
391.186	529.94
391.411	540.94
391.636	526.94
391.86	544.94
392.085	566.94
392.31	561.94
392.534	562.94
392.759	592.94
392.984	666.94
393.208	889.94
393.433	1373.94
393.658	1491.94
393.882	785.94
394.107	604.94
394.331	580.94
394.556	569.94
394.78	595.94
395.005	545.94
395.229	530.94
395.454	535.94
395.678	556.94
395.903	581.94
396.127	636.94
396.352	692.94
396.576	701.94
396.801	881.94
397.025	1157.94
397.249	873.94
397.474	618.94
397.698	563.94
397.922	594.94
398.147	605.94
398.371	588.94
398.595	595.94
398.82	621.94
399.044	644.94
399.268	696.94
399.492	767.94
399.717	786.94
399.941	798.94
400.165	804.94
400.389	777.94
400.613	686.94
400.837	637.94
401.062	603.94
401.286	609.94
401.51	624.94
401.734	616.94
401.958	614.94
402.182	623.94
402.406	636.94
402.63	666.94
402.854	643.94
403.078	626.94
403.302	652.94
403.526	674.94
403.75	667.94
403.974	677.94
404.198	650.94
404.422	666.94
404.645	668.94
404.869	675.94
405.093	719.94
405.317	722.94
405.541	752.94
405.765	660.94
405.988	686.94
406.212	677.94
406.436	738.94
406.66	744.94
406.883	720.94
407.107	748.94
407.331	808.94
407.555	847.94
407.778	851.94
408.002	782.94
408.226	726.94
408.449	720.94
408.673	696.94
408.896	720.94
409.12	748.94
409.344	709.94
409.567	672.94
409.791	671.94
410.014	635.94
410.238	654.94
410.461	644.94
410.685	666.94
410.908	673.94
411.132	701.94
411.355	702.94
411.578	651.94
411.802	624.94
412.025	644.94
412.249	642.94
412.472	672.94
412.695	692.94
412.919	678.94
413.142	645.94
413.365	616.94
413.589	614.94
413.812	598.94
414.035	601.94
414.258	596.94
414.482	600.94
414.705	606.94
414.928	576.94
415.151	596.94
415.374	587.94
415.597	580.94
415.821	593.94
416.044	595.94
416.267	598.94
416.49	587.94
416.713	569.94
416.936	596.94
417.159	582.94
417.382	611.94
417.605	591.94
417.828	608.94
418.051	618.94
418.274	618.94
418.497	636.94
418.72	646.94
418.943	617.94
419.166	622.94
419.389	640.94
419.611	635.94
419.834	635.94
420.057	643.94
420.28	637.94
420.503	594.94
420.726	583.94
420.948	614.94
421.171	667.94
421.394	674.94
421.617	629.94
421.839	636.94
422.062	614.94
422.285	648.94
422.507	711.94
422.73	928.94
422.953	946.94
423.175	709.94
423.398	666.94
423.621	636.94
423.843	672.94
424.066	658.94
424.288	671.94
424.511	660.94
424.733	694.94
424.956	797.94
425.178	768.94
425.401	775.94
425.623	739.94
425.846	661.94
426.068	650.94
426.291	622.94
426.513	638.94
426.735	634.94
426.958	688.94
427.18	744.94
427.402	889.94
427.625	989.94
427.847	890.94
428.069	784.94
428.292	693.94
428.514	614.94
428.736	611.94
428.958	590.94
429.181	591.94
429.403	573.94
429.625	596.94
429.847	593.94
430.069	680.94
430.292	682.94
430.514	618.94
430.736	574.94
430.958	551.94
431.18	553.94
431.402	538.94
431.624	558.94
431.846	560.94
432.068	563.94
432.29	573.94
432.512	544.94
432.734	566.94
432.956	586.94
433.178	579.94
433.4	574.94
433.622	551.94
433.844	552.94
434.066	551.94
434.287	546.94
434.509	581.94
434.731	573.94
434.953	602.94
435.175	616.94
435.397	634.94
435.618	620.94
435.84	672.94
436.062	755.94
436.284	805.94
436.505	688.94
436.727	621.94
436.949	603.94
437.17	600.94
437.392	564.94
437.614	601.94
437.835	630.94
438.057	719.94
438.278	813.94
438.5	781.94
438.721	841.94
438.943	843.94
439.165	677.94
439.386	652.94
439.608	616.94
439.829	646.94
440.05	700.94
440.272	733.94
440.493	675.94
440.715	632.94
440.936	612.94
441.158	587.94
441.379	612.94
441.6	638.94
441.822	652.94
442.043	692.94
442.264	766.94
442.486	784.94
442.707	692.94
442.928	654.94
443.149	697.94
443.371	722.94
443.592	732.94
443.813	809.94
444.034	861.94
444.255	725.94
444.476	678.94
444.698	698.94
444.919	692.94
445.14	789.94
445.361	740.94
445.582	742.94
445.803	822.94
446.024	884.94
446.245	856.94
446.466	802.94
446.687	654.94
446.908	642.94
447.129	587.94
447.35	565.94
447.571	562.94
447.792	554.94
448.013	561.94
448.234	613.94
448.455	651.94
448.675	712.94
448.896	821.94
449.117	718.94
449.338	661.94
449.559	754.94
449.779	854.94
450	714.94
450.221	605.94
450.442	576.94
450.662	554.94
450.883	607.94
451.104	612.94
451.324	600.94
451.545	569.94
451.766	555.94
451.986	537.94
452.207	532.94
452.428	506.94
452.648	529.94
452.869	521.94
453.089	541.94
453.31	553.94
453.53	560.94
453.751	548.94
453.971	524.94
454.192	570.94
454.412	546.94
454.633	489.94
454.853	500.94
455.073	517.94
455.294	557.94
455.514	605.94
455.734	614.94
455.955	501.94
456.175	481.94
456.395	492.94
456.616	464.94
456.836	486.94
457.056	466.94
457.276	446.94
457.497	497.94
457.717	468.94
457.937	497.94
458.157	495.94
458.377	510.94
458.598	538.94
458.818	643.94
459.038	744.94
459.258	725.94
459.478	627.94
459.698	582.94
459.918	584.94
460.138	555.94
460.358	573.94
460.578	573.94
460.798	599.94
461.018	603.94
461.238	597.94
461.458	586.94
461.678	555.94
461.898	581.94
462.118	602.94
462.338	626.94
462.558	616.94
462.777	638.94
462.997	664.94
463.217	697.94
463.437	711.94
463.657	648.94
463.876	653.94
464.096	657.94
464.316	658.94
464.536	683.94
464.755	674.94
464.975	678.94
465.195	740.94
465.414	835.94
465.634	685.94
465.854	624.94
466.073	574.94
466.293	560.94
466.512	538.94
466.732	552.94
466.951	529.94
467.171	504.94
467.391	533.94
467.61	564.94
467.829	570.94
468.049	569.94
468.268	546.94
468.488	532.94
468.707	505.94
468.927	490.94
469.146	525.94
469.365	530.94
469.585	529.94
469.804	537.94
470.023	569.94
470.243	566.94
470.462	563.94
470.681	599.94
470.901	605.94
471.12	549.94
471.339	541.94
471.558	551.94
471.777	525.94
471.997	524.94
472.216	543.94
472.435	618.94
472.654	582.94
472.873	512.94
473.092	525.94
473.311	513.94
473.53	510.94
473.749	500.94
473.968	575.94
474.187	652.94
474.406	657.94
474.625	562.94
474.844	502.94
475.063	528.94
475.282	520.94
475.501	514.94
475.72	525.94
475.939	537.94
476.158	528.94
476.377	533.94
476.596	552.94
476.814	531.94
477.033	554.94
477.252	559.94
477.471	549.94
477.69	568.94
477.908	568.94
478.127	576.94
478.346	583.94
478.564	603.94
478.783	586.94
479.002	614.94
479.22	643.94
479.439	639.94
479.658	644.94
479.876	657.94
480.095	668.94
480.313	685.94
480.532	712.94
480.751	670.94
480.969	685.94
481.188	815.94
481.406	885.94
481.624	688.94
481.843	638.94
482.061	620.94
482.28	608.94
482.498	620.94
482.717	604.94
482.935	617.94
483.153	608.94
483.372	632.94
483.59	623.94
483.808	583.94
484.027	597.94
484.245	607.94
484.463	636.94
484.681	656.94
484.9	642.94
485.118	637.94
485.336	637.94
485.554	623.94
485.772	655.94
485.99	633.94
486.209	657.94
486.427	661.94
486.645	662.94
486.863	688.94
487.081	694.94
487.299	678.94
487.517	653.94
487.735	646.94
487.953	655.94
488.171	662.94
488.389	633.94
488.607	641.94
488.825	621.94
489.043	653.94
489.261	646.94
489.479	646.94
489.696	648.94
489.914	649.94
490.132	660.94
490.35	672.94
490.568	660.94
490.786	664.94
491.003	696.94
491.221	710.94
491.439	702.94
491.657	715.94
491.874	725.94
492.092	726.94
492.31	725.94
492.527	716.94
492.745	717.94
492.963	736.94
493.18	742.94
493.398	754.94
493.615	764.94
493.833	762.94
494.05	724.94
494.268	733.94
494.485	736.94
494.703	726.94
494.92	730.94
495.138	722.94
495.355	732.94
495.573	712.94
495.79	744.94
496.008	748.94
496.225	754.94
496.442	751.94
496.66	734.94
496.877	737.94
497.094	716.94
497.312	738.94
497.529	768.94
497.746	772.94
497.963	778.94
498.181	812.94
498.398	852.94
498.615	871.94
498.832	897.94
499.049	916.94
499.267	972.94
499.484	1032.94
499.701	1088.94
499.918	1139.94
500.135	1276.94
500.352	1357.94
500.569	1390.94
500.786	1380.94
501.003	1324.94
501.22	1244.94
501.437	1186.94
501.654	1111.94
501.871	1062.94
