Data from 1960PennyLincolnUp.LampE5.5.200Scan.07172019.P1.ChangedAngle_HRD10591_13-15-30-821.txt Node
Date: Thu Jul 18 13:15:30 EDT 2019
User: cochatt
Spectrometer: HR+D1059
Trigger mode: 1
Integration Time (sec): 1.000000E-1
Scans to average: 1
Electric dark correction enabled: true
Nonlinearity correction enabled: false
Boxcar width: 0
XAxis mode: Wavelengths
Number of Pixels in Spectrum: 2048
>>>>>Begin Spectral Data<<<<<
223.165	-10.25
223.4	-10.25
223.635	-10.25
223.869	-11.25
224.104	-13.25
224.338	-5.25
224.573	-18.25
224.808	-10.25
225.042	-6.25
225.277	-11.25
225.511	6.75
225.746	1.75
225.98	8.75
226.215	7.75
226.449	3.75
226.683	18.75
226.918	12.75
227.152	25.75
227.387	37.75
227.621	46.75
227.856	44.75
228.09	47.75
228.324	42.75
228.559	53.75
228.793	59.75
229.027	92.75
229.262	101.75
229.496	88.75
229.73	117.75
229.964	129.75
230.199	99.75
230.433	99.75
230.667	103.75
230.901	100.75
231.136	107.75
231.37	101.75
231.604	107.75
231.838	98.75
232.072	116.75
232.306	102.75
232.541	102.75
232.775	113.75
233.009	114.75
233.243	90.75
233.477	103.75
233.711	108.75
233.945	109.75
234.179	114.75
234.413	115.75
234.647	101.75
234.881	118.75
235.115	116.75
235.349	121.75
235.583	98.75
235.817	106.75
236.051	108.75
236.285	108.75
236.519	126.75
236.753	119.75
236.987	122.75
237.221	160.75
237.455	183.75
237.689	141.75
237.922	131.75
238.156	115.75
238.39	117.75
238.624	121.75
238.858	126.75
239.091	111.75
239.325	116.75
239.559	119.75
239.793	115.75
240.027	116.75
240.26	116.75
240.494	126.75
240.728	136.75
240.961	121.75
241.195	124.75
241.429	119.75
241.662	124.75
241.896	127.75
242.13	126.75
242.363	112.75
242.597	119.75
242.83	116.75
243.064	125.75
243.298	131.75
243.531	132.75
243.765	141.75
243.998	122.75
244.232	129.75
244.465	141.75
244.699	137.75
244.932	134.75
245.166	116.75
245.399	133.75
245.633	152.75
245.866	139.75
246.099	152.75
246.333	137.75
246.566	150.75
246.8	148.75
247.033	148.75
247.266	147.75
247.5	138.75
247.733	153.75
247.966	159.75
248.2	166.75
248.433	172.75
248.666	155.75
248.899	181.75
249.133	168.75
249.366	184.75
249.599	165.75
249.832	174.75
250.066	170.75
250.299	167.75
250.532	172.75
250.765	180.75
250.998	183.75
251.231	203.75
251.465	191.75
251.698	175.75
251.931	177.75
252.164	183.75
252.397	174.75
252.63	182.75
252.863	179.75
253.096	196.75
253.329	191.75
253.562	207.75
253.795	203.75
254.028	190.75
254.261	191.75
254.494	227.75
254.727	229.75
254.96	244.75
255.193	242.75
255.426	218.75
255.659	227.75
255.892	225.75
256.124	211.75
256.357	227.75
256.59	224.75
256.823	214.75
257.056	211.75
257.289	208.75
257.521	210.75
257.754	198.75
257.987	189.75
258.22	203.75
258.452	198.75
258.685	195.75
258.918	201.75
259.151	203.75
259.383	213.75
259.616	208.75
259.849	211.75
260.081	213.75
260.314	226.75
260.547	227.75
260.779	220.75
261.012	231.75
261.244	224.75
261.477	212.75
261.71	205.75
261.942	212.75
262.175	212.75
262.407	224.75
262.64	203.75
262.872	213.75
263.105	202.75
263.337	200.75
263.57	214.75
263.802	222.75
264.035	221.75
264.267	202.75
264.499	209.75
264.732	215.75
264.964	216.75
265.197	218.75
265.429	214.75
265.661	206.75
265.894	206.75
266.126	205.75
266.358	217.75
266.591	210.75
266.823	210.75
267.055	222.75
267.287	221.75
267.52	225.75
267.752	218.75
267.984	190.75
268.216	241.75
268.448	221.75
268.681	229.75
268.913	244.75
269.145	251.75
269.377	266.75
269.609	264.75
269.841	263.75
270.073	253.75
270.306	267.75
270.538	301.75
270.77	284.75
271.002	274.75
271.234	290.75
271.466	285.75
271.698	286.75
271.93	285.75
272.162	284.75
272.394	306.75
272.626	287.75
272.858	281.75
273.09	255.75
273.322	274.75
273.553	263.75
273.785	247.75
274.017	262.75
274.249	253.75
274.481	252.75
274.713	254.75
274.945	240.75
275.176	285.75
275.408	273.75
275.64	248.75
275.872	247.75
276.104	239.75
276.335	245.75
276.567	269.75
276.799	255.75
277.031	278.75
277.262	304.75
277.494	305.75
277.726	305.75
277.957	292.75
278.189	287.75
278.421	263.75
278.652	263.75
278.884	261.75
279.115	268.75
279.347	279.75
279.579	266.75
279.81	294.75
280.042	255.75
280.273	266.75
280.505	252.75
280.736	271.75
280.968	255.75
281.199	281.75
281.431	281.75
281.662	281.75
281.894	282.75
282.125	276.75
282.356	290.75
282.588	288.75
282.819	292.75
283.051	266.75
283.282	277.75
283.513	268.75
283.745	269.75
283.976	270.75
284.207	261.75
284.439	276.75
284.67	286.75
284.901	298.75
285.132	291.75
285.364	286.75
285.595	259.75
285.826	264.75
286.057	276.75
286.288	287.75
286.52	282.75
286.751	284.75
286.982	290.75
287.213	278.75
287.444	277.75
287.675	296.75
287.906	295.75
288.138	302.75
288.369	306.75
288.6	293.75
288.831	295.75
289.062	295.75
289.293	301.75
289.524	298.75
289.755	285.75
289.986	297.75
290.217	308.75
290.448	287.75
290.679	280.75
290.91	297.75
291.141	305.75
291.371	305.75
291.602	301.75
291.833	306.75
292.064	307.75
292.295	280.75
292.526	281.75
292.757	310.75
292.987	283.75
293.218	303.75
293.449	323.75
293.68	279.75
293.91	268.75
294.141	287.75
294.372	276.75
294.603	313.75
294.833	307.75
295.064	293.75
295.295	280.75
295.525	313.75
295.756	319.75
295.987	318.75
296.217	305.75
296.448	310.75
296.679	310.75
296.909	304.75
297.14	300.75
297.37	304.75
297.601	283.75
297.831	308.75
298.062	312.75
298.292	305.75
298.523	322.75
298.753	329.75
298.984	319.75
299.214	325.75
299.445	313.75
299.675	311.75
299.905	314.75
300.136	315.75
300.366	317.75
300.597	318.75
300.827	314.75
301.057	330.75
301.288	339.75
301.518	320.75
301.748	311.75
301.979	334.75
302.209	338.75
302.439	314.75
302.669	337.75
302.9	320.75
303.13	343.75
303.36	335.75
303.59	333.75
303.82	311.75
304.051	328.75
304.281	329.75
304.511	331.75
304.741	339.75
304.971	345.75
305.201	337.75
305.431	329.75
305.661	320.75
305.891	330.75
306.121	317.75
306.352	324.75
306.582	328.75
306.812	351.75
307.042	340.75
307.272	330.75
307.502	329.75
307.731	345.75
307.961	343.75
308.191	319.75
308.421	358.75
308.651	333.75
308.881	351.75
309.111	338.75
309.341	346.75
309.571	357.75
309.8	356.75
310.03	370.75
310.26	361.75
310.49	348.75
310.72	384.75
310.949	375.75
311.179	359.75
311.409	356.75
311.639	367.75
311.868	369.75
312.098	361.75
312.328	378.75
312.557	370.75
312.787	381.75
313.017	369.75
313.246	371.75
313.476	361.75
313.706	356.75
313.935	377.75
314.165	363.75
314.394	356.75
314.624	385.75
314.853	375.75
315.083	375.75
315.312	355.75
315.542	393.75
315.771	375.75
316.001	362.75
316.23	392.75
316.46	390.75
316.689	367.75
316.919	370.75
317.148	383.75
317.377	390.75
317.607	373.75
317.836	390.75
318.065	372.75
318.295	388.75
318.524	357.75
318.753	375.75
318.983	369.75
319.212	340.75
319.441	387.75
319.67	385.75
319.9	404.75
320.129	383.75
320.358	377.75
320.587	379.75
320.816	389.75
321.046	391.75
321.275	395.75
321.504	382.75
321.733	388.75
321.962	397.75
322.191	409.75
322.42	420.75
322.649	417.75
322.878	417.75
323.108	435.75
323.337	450.75
323.566	434.75
323.795	482.75
324.024	511.75
324.253	599.75
324.482	834.75
324.71	1190.75
324.939	1603.75
325.168	1336.75
325.397	780.75
325.626	557.75
325.855	484.75
326.084	452.75
326.313	462.75
326.542	452.75
326.77	492.75
326.999	557.75
327.228	767.75
327.457	1020.75
327.686	1167.75
327.914	839.75
328.143	598.75
328.372	536.75
328.6	509.75
328.829	506.75
329.058	497.75
329.287	489.75
329.515	489.75
329.744	475.75
329.972	467.75
330.201	478.75
330.43	520.75
330.658	516.75
330.887	523.75
331.115	516.75
331.344	500.75
331.572	460.75
331.801	454.75
332.03	465.75
332.258	444.75
332.486	450.75
332.715	437.75
332.943	441.75
333.172	434.75
333.4	455.75
333.629	458.75
333.857	476.75
334.085	481.75
334.314	485.75
334.542	493.75
334.771	495.75
334.999	467.75
335.227	475.75
335.455	466.75
335.684	471.75
335.912	449.75
336.14	427.75
336.369	462.75
336.597	429.75
336.825	439.75
337.053	419.75
337.281	431.75
337.51	415.75
337.738	434.75
337.966	436.75
338.194	434.75
338.422	437.75
338.65	415.75
338.878	420.75
339.106	410.75
339.334	416.75
339.562	421.75
339.79	434.75
340.018	406.75
340.246	421.75
340.474	437.75
340.702	433.75
340.93	400.75
341.158	403.75
341.386	408.75
341.614	407.75
341.842	427.75
342.07	409.75
342.298	404.75
342.526	409.75
342.754	400.75
342.981	408.75
343.209	399.75
343.437	415.75
343.665	414.75
343.893	430.75
344.12	438.75
344.348	431.75
344.576	429.75
344.804	425.75
345.031	425.75
345.259	440.75
345.487	398.75
345.714	402.75
345.942	421.75
346.17	413.75
346.397	419.75
346.625	412.75
346.853	389.75
347.08	414.75
347.308	387.75
347.535	392.75
347.763	409.75
347.99	391.75
348.218	421.75
348.445	409.75
348.673	409.75
348.9	384.75
349.128	376.75
349.355	382.75
349.583	374.75
349.81	375.75
350.037	391.75
350.265	397.75
350.492	396.75
350.72	383.75
350.947	401.75
351.174	395.75
351.402	399.75
351.629	412.75
351.856	395.75
352.083	414.75
352.311	396.75
352.538	400.75
352.765	414.75
352.992	406.75
353.22	383.75
353.447	389.75
353.674	371.75
353.901	393.75
354.128	374.75
354.355	367.75
354.583	370.75
354.81	382.75
355.037	378.75
355.264	382.75
355.491	367.75
355.718	352.75
355.945	366.75
356.172	362.75
356.399	377.75
356.626	351.75
356.853	357.75
357.08	363.75
357.307	393.75
357.534	362.75
357.761	383.75
357.988	379.75
358.215	371.75
358.441	374.75
358.668	365.75
358.895	375.75
359.122	388.75
359.349	373.75
359.576	375.75
359.802	401.75
360.029	418.75
360.256	414.75
360.483	402.75
360.709	381.75
360.936	400.75
361.163	366.75
361.39	387.75
361.616	381.75
361.843	365.75
362.07	388.75
362.296	383.75
362.523	383.75
362.749	383.75
362.976	378.75
363.203	375.75
363.429	371.75
363.656	382.75
363.882	382.75
364.109	383.75
364.335	370.75
364.562	371.75
364.788	359.75
365.015	371.75
365.241	362.75
365.468	376.75
365.694	364.75
365.92	383.75
366.147	372.75
366.373	358.75
366.599	362.75
366.826	345.75
367.052	368.75
367.278	365.75
367.505	381.75
367.731	377.75
367.957	375.75
368.184	356.75
368.41	369.75
368.636	382.75
368.862	374.75
369.089	390.75
369.315	370.75
369.541	351.75
369.767	353.75
369.993	374.75
370.219	357.75
370.445	371.75
370.672	363.75
370.898	354.75
371.124	367.75
371.35	353.75
371.576	367.75
371.802	378.75
372.028	364.75
372.254	379.75
372.48	349.75
372.706	382.75
372.932	369.75
373.158	373.75
373.384	372.75
373.61	374.75
373.835	367.75
374.061	379.75
374.287	357.75
374.513	374.75
374.739	388.75
374.965	380.75
375.191	382.75
375.416	395.75
375.642	370.75
375.868	362.75
376.094	371.75
376.319	366.75
376.545	356.75
376.771	348.75
376.997	348.75
377.222	357.75
377.448	361.75
377.674	371.75
377.899	355.75
378.125	361.75
378.35	367.75
378.576	369.75
378.802	331.75
379.027	363.75
379.253	369.75
379.478	347.75
379.704	353.75
379.929	350.75
380.155	362.75
380.38	359.75
380.606	365.75
380.831	351.75
381.057	366.75
381.282	369.75
381.507	353.75
381.733	380.75
381.958	371.75
382.184	347.75
382.409	359.75
382.634	362.75
382.86	362.75
383.085	363.75
383.31	378.75
383.535	376.75
383.761	379.75
383.986	391.75
384.211	378.75
384.436	393.75
384.662	376.75
384.887	409.75
385.112	384.75
385.337	383.75
385.562	375.75
385.787	405.75
386.013	383.75
386.238	394.75
386.463	395.75
386.688	373.75
386.913	374.75
387.138	366.75
387.363	403.75
387.588	381.75
387.813	385.75
388.038	389.75
388.263	395.75
388.488	388.75
388.713	392.75
388.938	398.75
389.163	384.75
389.387	390.75
389.612	368.75
389.837	382.75
390.062	386.75
390.287	380.75
390.512	381.75
390.736	382.75
390.961	411.75
391.186	401.75
391.411	394.75
391.636	387.75
391.86	406.75
392.085	393.75
392.31	413.75
392.534	389.75
392.759	401.75
392.984	386.75
393.208	397.75
393.433	387.75
393.658	394.75
393.882	372.75
394.107	377.75
394.331	396.75
394.556	388.75
394.78	394.75
395.005	404.75
395.229	395.75
395.454	400.75
395.678	413.75
395.903	421.75
396.127	422.75
396.352	403.75
396.576	409.75
396.801	395.75
397.025	384.75
397.249	391.75
397.474	411.75
397.698	402.75
397.922	420.75
398.147	435.75
398.371	432.75
398.595	427.75
398.82	436.75
399.044	437.75
399.268	460.75
399.492	457.75
399.717	514.75
399.941	505.75
400.165	528.75
400.389	530.75
400.613	485.75
400.837	452.75
401.062	446.75
401.286	451.75
401.51	460.75
401.734	443.75
401.958	443.75
402.182	463.75
402.406	438.75
402.63	427.75
402.854	426.75
403.078	448.75
403.302	436.75
403.526	471.75
403.75	471.75
403.974	426.75
404.198	446.75
404.422	452.75
404.645	443.75
404.869	450.75
405.093	474.75
405.317	515.75
405.541	531.75
405.765	475.75
405.988	475.75
406.212	462.75
406.436	495.75
406.66	484.75
406.883	462.75
407.107	502.75
407.331	523.75
407.555	559.75
407.778	556.75
408.002	527.75
408.226	478.75
408.449	468.75
408.673	480.75
408.896	503.75
409.12	521.75
409.344	486.75
409.567	488.75
409.791	454.75
410.014	470.75
410.238	459.75
410.461	468.75
410.685	460.75
410.908	467.75
411.132	495.75
411.355	531.75
411.578	479.75
411.802	435.75
412.025	449.75
412.249	475.75
412.472	463.75
412.695	482.75
412.919	486.75
413.142	450.75
413.365	427.75
413.589	446.75
413.812	435.75
414.035	441.75
414.258	423.75
414.482	419.75
414.705	445.75
414.928	437.75
415.151	413.75
415.374	418.75
415.597	408.75
415.821	405.75
416.044	390.75
416.267	413.75
416.49	402.75
416.713	419.75
416.936	422.75
417.159	420.75
417.382	424.75
417.605	436.75
417.828	414.75
418.051	426.75
418.274	411.75
418.497	426.75
418.72	414.75
418.943	435.75
419.166	434.75
419.389	444.75
419.611	433.75
419.834	446.75
420.057	430.75
420.28	427.75
420.503	426.75
420.726	427.75
420.948	437.75
421.171	470.75
421.394	489.75
421.617	457.75
421.839	428.75
422.062	437.75
422.285	450.75
422.507	478.75
422.73	521.75
422.953	505.75
423.175	430.75
423.398	442.75
423.621	456.75
423.843	463.75
424.066	452.75
424.288	464.75
424.511	475.75
424.733	509.75
424.956	551.75
425.178	554.75
425.401	531.75
425.623	555.75
425.846	477.75
426.068	456.75
426.291	426.75
426.513	457.75
426.735	459.75
426.958	482.75
427.18	563.75
427.402	629.75
427.625	705.75
427.847	594.75
428.069	540.75
428.292	486.75
428.514	459.75
428.736	435.75
428.958	442.75
429.181	420.75
429.403	414.75
429.625	428.75
429.847	433.75
430.069	490.75
430.292	478.75
430.514	432.75
430.736	433.75
430.958	410.75
431.18	406.75
431.402	408.75
431.624	413.75
431.846	402.75
432.068	401.75
432.29	399.75
432.512	406.75
432.734	426.75
432.956	403.75
433.178	418.75
433.4	409.75
433.622	402.75
433.844	408.75
434.066	398.75
434.287	404.75
434.509	414.75
434.731	419.75
434.953	407.75
435.175	436.75
435.397	441.75
435.618	445.75
435.84	477.75
436.062	566.75
436.284	574.75
436.505	509.75
436.727	463.75
436.949	424.75
437.17	415.75
437.392	402.75
437.614	417.75
437.835	476.75
438.057	527.75
438.278	574.75
438.5	585.75
438.721	617.75
438.943	603.75
439.165	489.75
439.386	457.75
439.608	461.75
439.829	450.75
440.05	453.75
440.272	477.75
440.493	460.75
440.715	426.75
440.936	431.75
441.158	426.75
441.379	413.75
441.6	428.75
441.822	441.75
442.043	474.75
442.264	521.75
442.486	569.75
442.707	458.75
442.928	437.75
443.149	457.75
443.371	482.75
443.592	489.75
443.813	579.75
444.034	591.75
444.255	521.75
444.476	463.75
444.698	451.75
444.919	450.75
445.14	525.75
445.361	485.75
445.582	485.75
445.803	512.75
446.024	596.75
446.245	588.75
446.466	509.75
446.687	443.75
446.908	449.75
447.129	442.75
447.35	417.75
447.571	407.75
447.792	400.75
448.013	426.75
448.234	439.75
448.455	467.75
448.675	528.75
448.896	605.75
449.117	533.75
449.338	521.75
449.559	587.75
449.779	642.75
450	525.75
450.221	437.75
450.442	419.75
450.662	412.75
450.883	427.75
451.104	401.75
451.324	403.75
451.545	411.75
451.766	384.75
451.986	371.75
452.207	362.75
452.428	366.75
452.648	360.75
452.869	362.75
453.089	363.75
453.31	394.75
453.53	357.75
453.751	386.75
453.971	375.75
454.192	356.75
454.412	387.75
454.633	371.75
454.853	371.75
455.073	364.75
455.294	381.75
455.514	417.75
455.734	412.75
455.955	376.75
456.175	365.75
456.395	347.75
456.616	338.75
456.836	342.75
457.056	357.75
457.276	341.75
457.497	353.75
457.717	349.75
457.937	360.75
458.157	351.75
458.377	371.75
458.598	375.75
458.818	426.75
459.038	474.75
459.258	464.75
459.478	421.75
459.698	387.75
459.918	383.75
460.138	397.75
460.358	411.75
460.578	390.75
460.798	403.75
461.018	408.75
461.238	407.75
461.458	414.75
461.678	395.75
461.898	394.75
462.118	398.75
462.338	424.75
462.558	415.75
462.777	436.75
462.997	440.75
463.217	443.75
463.437	429.75
463.657	433.75
463.876	427.75
464.096	439.75
464.316	431.75
464.536	429.75
464.755	450.75
464.975	447.75
465.195	470.75
465.414	485.75
465.634	428.75
465.854	402.75
466.073	399.75
466.293	385.75
466.512	402.75
466.732	382.75
466.951	372.75
467.171	400.75
467.391	399.75
467.61	377.75
467.829	388.75
468.049	389.75
468.268	403.75
468.488	389.75
468.707	392.75
468.927	389.75
469.146	375.75
469.365	377.75
469.585	383.75
469.804	375.75
470.023	392.75
470.243	382.75
470.462	396.75
470.681	411.75
470.901	396.75
471.12	381.75
471.339	379.75
471.558	395.75
471.777	383.75
471.997	383.75
472.216	410.75
472.435	399.75
472.654	403.75
472.873	394.75
473.092	373.75
473.311	375.75
473.53	402.75
473.749	373.75
473.968	417.75
474.187	501.75
474.406	506.75
474.625	434.75
474.844	374.75
475.063	378.75
475.282	379.75
475.501	381.75
475.72	390.75
475.939	402.75
476.158	381.75
476.377	396.75
476.596	402.75
476.814	421.75
477.033	395.75
477.252	419.75
477.471	409.75
477.69	430.75
477.908	409.75
478.127	417.75
478.346	436.75
478.564	439.75
478.783	447.75
479.002	438.75
479.22	452.75
479.439	433.75
479.658	444.75
479.876	472.75
480.095	439.75
480.313	485.75
480.532	467.75
480.751	463.75
480.969	478.75
481.188	507.75
481.406	497.75
481.624	492.75
481.843	459.75
482.061	452.75
482.28	440.75
482.498	438.75
482.717	430.75
482.935	459.75
483.153	434.75
483.372	453.75
483.59	452.75
483.808	439.75
484.027	445.75
484.245	447.75
484.463	464.75
484.681	455.75
484.9	449.75
485.118	457.75
485.336	452.75
485.554	462.75
485.772	463.75
485.99	444.75
486.209	486.75
486.427	487.75
486.645	464.75
486.863	461.75
487.081	468.75
487.299	484.75
487.517	466.75
487.735	475.75
487.953	478.75
488.171	482.75
488.389	463.75
488.607	469.75
488.825	502.75
489.043	473.75
489.261	497.75
489.479	473.75
489.696	461.75
489.914	492.75
490.132	463.75
490.35	477.75
490.568	498.75
490.786	481.75
491.003	487.75
491.221	511.75
491.439	508.75
491.657	525.75
491.874	520.75
492.092	499.75
492.31	540.75
492.527	533.75
492.745	527.75
492.963	550.75
493.18	524.75
493.398	517.75
493.615	528.75
493.833	531.75
494.05	556.75
494.268	553.75
494.485	548.75
494.703	532.75
494.92	547.75
495.138	533.75
495.355	525.75
495.573	552.75
495.79	518.75
496.008	549.75
496.225	554.75
496.442	542.75
496.66	575.75
496.877	562.75
497.094	565.75
497.312	555.75
497.529	587.75
497.746	590.75
497.963	579.75
498.181	612.75
498.398	612.75
498.615	645.75
498.832	637.75
499.049	642.75
499.267	654.75
499.484	678.75
499.701	676.75
499.918	728.75
500.135	751.75
500.352	779.75
500.569	805.75
500.786	789.75
501.003	791.75
501.22	768.75
501.437	735.75
501.654	721.75
501.871	702.75
