Data from 1960PennyLincolnUp.LampE6.200Scan.07172019.P1_HRD10591_13-05-26-002.txt Node
Date: Thu Jul 18 13:05:26 EDT 2019
User: cochatt
Spectrometer: HR+D1059
Trigger mode: 1
Integration Time (sec): 1.000000E-1
Scans to average: 1
Electric dark correction enabled: true
Nonlinearity correction enabled: false
Boxcar width: 0
XAxis mode: Wavelengths
Number of Pixels in Spectrum: 2048
>>>>>Begin Spectral Data<<<<<
223.165	-15.94
223.4	-15.94
223.635	-15.94
223.869	-17.94
224.104	-7.94
224.338	-9.94
224.573	-7.94
224.808	-6.94
225.042	-11.94
225.277	-6.94
225.511	-18.94
225.746	4.06
225.98	14.06
226.215	5.06
226.449	13.06
226.683	20.06
226.918	19.06
227.152	29.06
227.387	27.06
227.621	37.06
227.856	34.06
228.09	45.06
228.324	53.06
228.559	53.06
228.793	43.06
229.027	83.06
229.262	78.06
229.496	102.06
229.73	110.06
229.964	110.06
230.199	122.06
230.433	112.06
230.667	110.06
230.901	104.06
231.136	96.06
231.37	106.06
231.604	91.06
231.838	102.06
232.072	105.06
232.306	98.06
232.541	118.06
232.775	119.06
233.009	110.06
233.243	99.06
233.477	103.06
233.711	96.06
233.945	105.06
234.179	111.06
234.413	104.06
234.647	100.06
234.881	112.06
235.115	110.06
235.349	119.06
235.583	114.06
235.817	119.06
236.051	123.06
236.285	119.06
236.519	120.06
236.753	121.06
236.987	130.06
237.221	134.06
237.455	162.06
237.689	153.06
237.922	123.06
238.156	116.06
238.39	111.06
238.624	111.06
238.858	114.06
239.091	105.06
239.325	124.06
239.559	123.06
239.793	105.06
240.027	120.06
240.26	139.06
240.494	116.06
240.728	137.06
240.961	119.06
241.195	123.06
241.429	115.06
241.662	144.06
241.896	129.06
242.13	116.06
242.363	131.06
242.597	109.06
242.83	141.06
243.064	129.06
243.298	137.06
243.531	127.06
243.765	146.06
243.998	158.06
244.232	144.06
244.465	138.06
244.699	130.06
244.932	135.06
245.166	137.06
245.399	131.06
245.633	138.06
245.866	144.06
246.099	149.06
246.333	139.06
246.566	155.06
246.8	137.06
247.033	142.06
247.266	145.06
247.5	148.06
247.733	134.06
247.966	163.06
248.2	155.06
248.433	138.06
248.666	144.06
248.899	173.06
249.133	159.06
249.366	161.06
249.599	162.06
249.832	168.06
250.066	166.06
250.299	151.06
250.532	169.06
250.765	159.06
250.998	188.06
251.231	192.06
251.465	191.06
251.698	166.06
251.931	166.06
252.164	171.06
252.397	183.06
252.63	169.06
252.863	165.06
253.096	180.06
253.329	197.06
253.562	189.06
253.795	191.06
254.028	191.06
254.261	180.06
254.494	208.06
254.727	197.06
254.96	217.06
255.193	230.06
255.426	199.06
255.659	188.06
255.892	188.06
256.124	192.06
256.357	203.06
256.59	214.06
256.823	186.06
257.056	198.06
257.289	186.06
257.521	177.06
257.754	182.06
257.987	187.06
258.22	193.06
258.452	182.06
258.685	186.06
258.918	181.06
259.151	170.06
259.383	193.06
259.616	177.06
259.849	212.06
260.081	204.06
260.314	210.06
260.547	204.06
260.779	201.06
261.012	186.06
261.244	183.06
261.477	214.06
261.71	202.06
261.942	186.06
262.175	195.06
262.407	210.06
262.64	197.06
262.872	196.06
263.105	193.06
263.337	200.06
263.57	188.06
263.802	215.06
264.035	194.06
264.267	187.06
264.499	194.06
264.732	210.06
264.964	218.06
265.197	194.06
265.429	203.06
265.661	190.06
265.894	178.06
266.126	212.06
266.358	220.06
266.591	186.06
266.823	232.06
267.055	213.06
267.287	201.06
267.52	210.06
267.752	212.06
267.984	203.06
268.216	201.06
268.448	207.06
268.681	219.06
268.913	222.06
269.145	242.06
269.377	242.06
269.609	238.06
269.841	244.06
270.073	234.06
270.306	258.06
270.538	255.06
270.77	257.06
271.002	244.06
271.234	255.06
271.466	269.06
271.698	263.06
271.93	266.06
272.162	272.06
272.394	257.06
272.626	264.06
272.858	256.06
273.09	242.06
273.322	257.06
273.553	238.06
273.785	244.06
274.017	244.06
274.249	252.06
274.481	239.06
274.713	248.06
274.945	240.06
275.176	234.06
275.408	249.06
275.64	259.06
275.872	231.06
276.104	273.06
276.335	256.06
276.567	255.06
276.799	257.06
277.031	263.06
277.262	283.06
277.494	297.06
277.726	265.06
277.957	261.06
278.189	253.06
278.421	255.06
278.652	259.06
278.884	254.06
279.115	266.06
279.347	244.06
279.579	278.06
279.81	267.06
280.042	251.06
280.273	252.06
280.505	249.06
280.736	265.06
280.968	265.06
281.199	254.06
281.431	264.06
281.662	258.06
281.894	251.06
282.125	265.06
282.356	274.06
282.588	274.06
282.819	266.06
283.051	274.06
283.282	284.06
283.513	268.06
283.745	262.06
283.976	275.06
284.207	291.06
284.439	293.06
284.67	281.06
284.901	283.06
285.132	260.06
285.364	300.06
285.595	299.06
285.826	253.06
286.057	275.06
286.288	276.06
286.52	306.06
286.751	285.06
286.982	284.06
287.213	283.06
287.444	281.06
287.675	281.06
287.906	288.06
288.138	286.06
288.369	301.06
288.6	285.06
288.831	299.06
289.062	291.06
289.293	286.06
289.524	284.06
289.755	285.06
289.986	304.06
290.217	296.06
290.448	295.06
290.679	308.06
290.91	302.06
291.141	293.06
291.371	292.06
291.602	276.06
291.833	298.06
292.064	306.06
292.295	292.06
292.526	298.06
292.757	284.06
292.987	282.06
293.218	307.06
293.449	307.06
293.68	271.06
293.91	305.06
294.141	297.06
294.372	302.06
294.603	300.06
294.833	293.06
295.064	300.06
295.295	305.06
295.525	314.06
295.756	307.06
295.987	314.06
296.217	317.06
296.448	313.06
296.679	303.06
296.909	308.06
297.14	315.06
297.37	302.06
297.601	306.06
297.831	303.06
298.062	318.06
298.292	338.06
298.523	322.06
298.753	310.06
298.984	325.06
299.214	327.06
299.445	317.06
299.675	321.06
299.905	319.06
300.136	326.06
300.366	331.06
300.597	325.06
300.827	329.06
301.057	321.06
301.288	339.06
301.518	318.06
301.748	338.06
301.979	343.06
302.209	358.06
302.439	337.06
302.669	343.06
302.9	330.06
303.13	331.06
303.36	339.06
303.59	325.06
303.82	345.06
304.051	357.06
304.281	347.06
304.511	342.06
304.741	334.06
304.971	337.06
305.201	331.06
305.431	314.06
305.661	325.06
305.891	323.06
306.121	336.06
306.352	352.06
306.582	347.06
306.812	317.06
307.042	347.06
307.272	357.06
307.502	340.06
307.731	336.06
307.961	321.06
308.191	331.06
308.421	326.06
308.651	342.06
308.881	338.06
309.111	330.06
309.341	332.06
309.571	345.06
309.8	361.06
310.03	356.06
310.26	349.06
310.49	345.06
310.72	354.06
310.949	357.06
311.179	367.06
311.409	341.06
311.639	346.06
311.868	359.06
312.098	338.06
312.328	349.06
312.557	376.06
312.787	363.06
313.017	363.06
313.246	382.06
313.476	356.06
313.706	352.06
313.935	346.06
314.165	384.06
314.394	390.06
314.624	385.06
314.853	380.06
315.083	364.06
315.312	339.06
315.542	353.06
315.771	359.06
316.001	355.06
316.23	378.06
316.46	361.06
316.689	374.06
316.919	363.06
317.148	373.06
317.377	363.06
317.607	354.06
317.836	361.06
318.065	368.06
318.295	370.06
318.524	385.06
318.753	370.06
318.983	361.06
319.212	378.06
319.441	353.06
319.67	365.06
319.9	365.06
320.129	363.06
320.358	366.06
320.587	383.06
320.816	377.06
321.046	377.06
321.275	383.06
321.504	381.06
321.733	378.06
321.962	367.06
322.191	381.06
322.42	377.06
322.649	399.06
322.878	401.06
323.108	394.06
323.337	409.06
323.566	417.06
323.795	432.06
324.024	463.06
324.253	501.06
324.482	625.06
324.71	896.06
324.939	1214.06
325.168	1010.06
325.397	573.06
325.626	473.06
325.855	443.06
326.084	421.06
326.313	429.06
326.542	424.06
326.77	453.06
326.999	496.06
327.228	621.06
327.457	857.06
327.686	943.06
327.914	654.06
328.143	515.06
328.372	474.06
328.6	471.06
328.829	448.06
329.058	466.06
329.287	464.06
329.515	438.06
329.744	427.06
329.972	451.06
330.201	474.06
330.43	481.06
330.658	476.06
330.887	482.06
331.115	467.06
331.344	441.06
331.572	437.06
331.801	445.06
332.03	437.06
332.258	450.06
332.486	458.06
332.715	470.06
332.943	467.06
333.172	500.06
333.4	511.06
333.629	528.06
333.857	532.06
334.085	525.06
334.314	531.06
334.542	532.06
334.771	519.06
334.999	509.06
335.227	489.06
335.455	467.06
335.684	468.06
335.912	482.06
336.14	468.06
336.369	444.06
336.597	474.06
336.825	460.06
337.053	437.06
337.281	454.06
337.51	444.06
337.738	445.06
337.966	458.06
338.194	432.06
338.422	462.06
338.65	444.06
338.878	410.06
339.106	434.06
339.334	447.06
339.562	427.06
339.79	417.06
340.018	418.06
340.246	426.06
340.474	423.06
340.702	418.06
340.93	429.06
341.158	435.06
341.386	430.06
341.614	428.06
341.842	419.06
342.07	436.06
342.298	423.06
342.526	402.06
342.754	425.06
342.981	430.06
343.209	420.06
343.437	452.06
343.665	463.06
343.893	452.06
344.12	488.06
344.348	479.06
344.576	467.06
344.804	458.06
345.031	405.06
345.259	440.06
345.487	427.06
345.714	413.06
345.942	412.06
346.17	419.06
346.397	421.06
346.625	411.06
346.853	381.06
347.08	404.06
347.308	405.06
347.535	403.06
347.763	423.06
347.99	414.06
348.218	420.06
348.445	416.06
348.673	401.06
348.9	414.06
349.128	406.06
349.355	404.06
349.583	402.06
349.81	399.06
350.037	409.06
350.265	413.06
350.492	388.06
350.72	409.06
350.947	403.06
351.174	409.06
351.402	411.06
351.629	398.06
351.856	390.06
352.083	406.06
352.311	398.06
352.538	415.06
352.765	418.06
352.992	402.06
353.22	383.06
353.447	403.06
353.674	421.06
353.901	390.06
354.128	365.06
354.355	374.06
354.583	392.06
354.81	403.06
355.037	378.06
355.264	384.06
355.491	385.06
355.718	381.06
355.945	410.06
356.172	393.06
356.399	398.06
356.626	394.06
356.853	395.06
357.08	394.06
357.307	397.06
357.534	379.06
357.761	394.06
357.988	388.06
358.215	375.06
358.441	395.06
358.668	396.06
358.895	399.06
359.122	383.06
359.349	397.06
359.576	396.06
359.802	411.06
360.029	414.06
360.256	427.06
360.483	411.06
360.709	411.06
360.936	406.06
361.163	390.06
361.39	404.06
361.616	393.06
361.843	411.06
362.07	391.06
362.296	399.06
362.523	378.06
362.749	402.06
362.976	404.06
363.203	398.06
363.429	401.06
363.656	383.06
363.882	389.06
364.109	417.06
364.335	395.06
364.562	386.06
364.788	391.06
365.015	389.06
365.241	384.06
365.468	383.06
365.694	395.06
365.92	389.06
366.147	398.06
366.373	396.06
366.599	409.06
366.826	391.06
367.052	386.06
367.278	399.06
367.505	409.06
367.731	393.06
367.957	381.06
368.184	387.06
368.41	419.06
368.636	394.06
368.862	417.06
369.089	421.06
369.315	404.06
369.541	389.06
369.767	396.06
369.993	405.06
370.219	405.06
370.445	397.06
370.672	391.06
370.898	400.06
371.124	424.06
371.35	440.06
371.576	420.06
371.802	410.06
372.028	429.06
372.254	442.06
372.48	406.06
372.706	429.06
372.932	445.06
373.158	432.06
373.384	425.06
373.61	415.06
373.835	426.06
374.061	422.06
374.287	421.06
374.513	430.06
374.739	433.06
374.965	443.06
375.191	458.06
375.416	437.06
375.642	433.06
375.868	438.06
376.094	415.06
376.319	403.06
376.545	425.06
376.771	411.06
376.997	402.06
377.222	431.06
377.448	437.06
377.674	418.06
377.899	410.06
378.125	399.06
378.35	411.06
378.576	402.06
378.802	411.06
379.027	417.06
379.253	413.06
379.478	409.06
379.704	414.06
379.929	406.06
380.155	415.06
380.38	417.06
380.606	413.06
380.831	414.06
381.057	418.06
381.282	411.06
381.507	427.06
381.733	425.06
381.958	409.06
382.184	401.06
382.409	425.06
382.634	435.06
382.86	435.06
383.085	431.06
383.31	442.06
383.535	450.06
383.761	434.06
383.986	437.06
384.211	450.06
384.436	468.06
384.662	468.06
384.887	459.06
385.112	452.06
385.337	477.06
385.562	476.06
385.787	466.06
386.013	493.06
386.238	489.06
386.463	489.06
386.688	484.06
386.913	478.06
387.138	467.06
387.363	491.06
387.588	463.06
387.813	476.06
388.038	488.06
388.263	481.06
388.488	478.06
388.713	460.06
388.938	458.06
389.163	473.06
389.387	455.06
389.612	468.06
389.837	475.06
390.062	466.06
390.287	468.06
390.512	459.06
390.736	476.06
390.961	465.06
391.186	465.06
391.411	502.06
391.636	502.06
391.86	512.06
392.085	507.06
392.31	510.06
392.534	503.06
392.759	488.06
392.984	510.06
393.208	504.06
393.433	515.06
393.658	489.06
393.882	479.06
394.107	486.06
394.331	510.06
394.556	479.06
394.78	488.06
395.005	486.06
395.229	500.06
395.454	504.06
395.678	519.06
395.903	534.06
396.127	513.06
396.352	521.06
396.576	506.06
396.801	499.06
397.025	502.06
397.249	510.06
397.474	530.06
397.698	507.06
397.922	531.06
398.147	517.06
398.371	539.06
398.595	550.06
398.82	559.06
399.044	625.06
399.268	623.06
399.492	678.06
399.717	761.06
399.941	743.06
400.165	701.06
400.389	662.06
400.613	637.06
400.837	588.06
401.062	562.06
401.286	570.06
401.51	546.06
401.734	531.06
401.958	561.06
402.182	565.06
402.406	586.06
402.63	580.06
402.854	583.06
403.078	605.06
403.302	605.06
403.526	615.06
403.75	630.06
403.974	625.06
404.198	619.06
404.422	612.06
404.645	609.06
404.869	621.06
405.093	638.06
405.317	687.06
405.541	692.06
405.765	620.06
405.988	631.06
406.212	625.06
406.436	656.06
406.66	635.06
406.883	614.06
407.107	665.06
407.331	681.06
407.555	744.06
407.778	726.06
408.002	691.06
408.226	687.06
408.449	630.06
408.673	634.06
408.896	664.06
409.12	647.06
409.344	644.06
409.567	609.06
409.791	591.06
410.014	580.06
410.238	585.06
410.461	608.06
410.685	596.06
410.908	583.06
411.132	610.06
411.355	606.06
411.578	582.06
411.802	579.06
412.025	578.06
412.249	561.06
412.472	586.06
412.695	593.06
412.919	603.06
413.142	563.06
413.365	578.06
413.589	553.06
413.812	561.06
414.035	564.06
414.258	544.06
414.482	532.06
414.705	561.06
414.928	541.06
415.151	565.06
415.374	580.06
415.597	558.06
415.821	558.06
416.044	529.06
416.267	574.06
416.49	542.06
416.713	531.06
416.936	526.06
417.159	531.06
417.382	562.06
417.605	545.06
417.828	555.06
418.051	571.06
418.274	545.06
418.497	565.06
418.72	572.06
418.943	567.06
419.166	586.06
419.389	597.06
419.611	591.06
419.834	574.06
420.057	589.06
420.28	587.06
420.503	578.06
420.726	547.06
420.948	580.06
421.171	586.06
421.394	601.06
421.617	583.06
421.839	555.06
422.062	570.06
422.285	552.06
422.507	609.06
422.73	635.06
422.953	625.06
423.175	591.06
423.398	594.06
423.621	593.06
423.843	595.06
424.066	604.06
424.288	613.06
424.511	617.06
424.733	646.06
424.956	663.06
425.178	653.06
425.401	658.06
425.623	650.06
425.846	570.06
426.068	561.06
426.291	554.06
426.513	569.06
426.735	563.06
426.958	576.06
427.18	610.06
427.402	695.06
427.625	751.06
427.847	669.06
428.069	617.06
428.292	545.06
428.514	539.06
428.736	533.06
428.958	507.06
429.181	510.06
429.403	531.06
429.625	509.06
429.847	541.06
430.069	547.06
430.292	525.06
430.514	537.06
430.736	514.06
430.958	509.06
431.18	512.06
431.402	510.06
431.624	526.06
431.846	494.06
432.068	530.06
432.29	509.06
432.512	498.06
432.734	518.06
432.956	531.06
433.178	509.06
433.4	507.06
433.622	538.06
433.844	514.06
434.066	498.06
434.287	521.06
434.509	539.06
434.731	548.06
434.953	537.06
435.175	545.06
435.397	569.06
435.618	545.06
435.84	571.06
436.062	605.06
436.284	625.06
436.505	556.06
436.727	549.06
436.949	521.06
437.17	517.06
437.392	507.06
437.614	519.06
437.835	523.06
438.057	561.06
438.278	620.06
438.5	632.06
438.721	666.06
438.943	671.06
439.165	547.06
439.386	533.06
439.608	523.06
439.829	534.06
440.05	560.06
440.272	576.06
440.493	561.06
440.715	523.06
440.936	524.06
441.158	512.06
441.379	527.06
441.6	565.06
441.822	527.06
442.043	598.06
442.264	614.06
442.486	627.06
442.707	582.06
442.928	557.06
443.149	572.06
443.371	584.06
443.592	605.06
443.813	669.06
444.034	692.06
444.255	640.06
444.476	585.06
444.698	607.06
444.919	638.06
445.14	704.06
445.361	635.06
445.582	623.06
445.803	620.06
446.024	659.06
446.245	673.06
446.466	625.06
446.687	560.06
446.908	523.06
447.129	517.06
447.35	494.06
447.571	492.06
447.792	484.06
448.013	498.06
448.234	500.06
448.455	513.06
448.675	603.06
448.896	656.06
449.117	573.06
449.338	569.06
449.559	630.06
449.779	671.06
450	555.06
450.221	516.06
450.442	475.06
450.662	481.06
450.883	491.06
451.104	495.06
451.324	480.06
451.545	476.06
451.766	481.06
451.986	469.06
452.207	455.06
452.428	461.06
452.648	453.06
452.869	453.06
453.089	462.06
453.31	485.06
453.53	451.06
453.751	436.06
453.971	454.06
454.192	466.06
454.412	442.06
454.633	436.06
454.853	460.06
455.073	444.06
455.294	458.06
455.514	482.06
455.734	475.06
455.955	421.06
456.175	433.06
456.395	436.06
456.616	430.06
456.836	416.06
457.056	429.06
457.276	414.06
457.497	431.06
457.717	429.06
457.937	444.06
458.157	428.06
458.377	407.06
458.598	456.06
458.818	498.06
459.038	522.06
459.258	548.06
459.478	522.06
459.698	493.06
459.918	521.06
460.138	503.06
460.358	525.06
460.578	558.06
460.798	566.06
461.018	555.06
461.238	551.06
461.458	544.06
461.678	513.06
461.898	544.06
462.118	530.06
462.338	571.06
462.558	585.06
462.777	576.06
462.997	605.06
463.217	659.06
463.437	661.06
463.657	638.06
463.876	598.06
464.096	609.06
464.316	611.06
464.536	602.06
464.755	604.06
464.975	604.06
465.195	573.06
465.414	585.06
465.634	554.06
465.854	509.06
466.073	508.06
466.293	492.06
466.512	475.06
466.732	473.06
466.951	477.06
467.171	457.06
467.391	479.06
467.61	493.06
467.829	504.06
468.049	489.06
468.268	462.06
468.488	460.06
468.707	463.06
468.927	458.06
469.146	438.06
469.365	479.06
469.585	458.06
469.804	474.06
470.023	481.06
470.243	484.06
470.462	494.06
470.681	513.06
470.901	489.06
471.12	502.06
471.339	479.06
471.558	468.06
471.777	473.06
471.997	453.06
472.216	459.06
472.435	494.06
472.654	482.06
472.873	464.06
473.092	438.06
473.311	440.06
473.53	442.06
473.749	466.06
473.968	471.06
474.187	517.06
474.406	537.06
474.625	480.06
474.844	471.06
475.063	455.06
475.282	474.06
475.501	461.06
475.72	486.06
475.939	461.06
476.158	477.06
476.377	485.06
476.596	470.06
476.814	487.06
477.033	490.06
477.252	476.06
477.471	497.06
477.69	517.06
477.908	502.06
478.127	501.06
478.346	519.06
478.564	547.06
478.783	531.06
479.002	558.06
479.22	562.06
479.439	550.06
479.658	565.06
479.876	553.06
480.095	557.06
480.313	607.06
480.532	611.06
480.751	599.06
480.969	583.06
481.188	616.06
481.406	633.06
481.624	561.06
481.843	558.06
482.061	554.06
482.28	546.06
482.498	531.06
482.717	525.06
482.935	541.06
483.153	526.06
483.372	530.06
483.59	548.06
483.808	511.06
484.027	537.06
484.245	521.06
484.463	525.06
484.681	548.06
484.9	567.06
485.118	532.06
485.336	532.06
485.554	552.06
485.772	564.06
485.99	559.06
486.209	566.06
486.427	541.06
486.645	562.06
486.863	567.06
487.081	576.06
487.299	559.06
487.517	560.06
487.735	572.06
487.953	573.06
488.171	583.06
488.389	552.06
488.607	578.06
488.825	555.06
489.043	561.06
489.261	562.06
489.479	575.06
489.696	574.06
489.914	568.06
490.132	592.06
490.35	567.06
490.568	572.06
490.786	599.06
491.003	599.06
491.221	608.06
491.439	610.06
491.657	627.06
491.874	624.06
492.092	640.06
492.31	636.06
492.527	618.06
492.745	617.06
492.963	627.06
493.18	648.06
493.398	653.06
493.615	668.06
493.833	641.06
494.05	654.06
494.268	642.06
494.485	663.06
494.703	649.06
494.92	647.06
495.138	631.06
495.355	653.06
495.573	627.06
495.79	636.06
496.008	638.06
496.225	651.06
496.442	644.06
496.66	646.06
496.877	639.06
497.094	646.06
497.312	655.06
497.529	691.06
497.746	692.06
497.963	695.06
498.181	712.06
498.398	749.06
498.615	779.06
498.832	788.06
499.049	810.06
499.267	854.06
499.484	941.06
499.701	995.06
499.918	1073.06
500.135	1158.06
500.352	1274.06
500.569	1283.06
500.786	1293.06
501.003	1217.06
501.22	1147.06
501.437	1094.06
501.654	964.06
501.871	941.06
502.088	898.06
