Data from 1960PennyLincolnUp.LampE6.200Scan.07172019.P1_HRD10591_13-06-30-002.txt Node
Date: Thu Jul 18 13:06:30 EDT 2019
User: cochatt
Spectrometer: HR+D1059
Trigger mode: 1
Integration Time (sec): 1.000000E-1
Scans to average: 1
Electric dark correction enabled: true
Nonlinearity correction enabled: false
Boxcar width: 0
XAxis mode: Wavelengths
Number of Pixels in Spectrum: 2048
>>>>>Begin Spectral Data<<<<<
223.165	-8.25
223.4	-8.25
223.635	-8.25
223.869	-18.25
224.104	-19.25
224.338	-16.25
224.573	-26.25
224.808	-17.25
225.042	-2.25
225.277	4.75
225.511	-6.25
225.746	4.75
225.98	17.75
226.215	3.75
226.449	10.75
226.683	15.75
226.918	21.75
227.152	34.75
227.387	30.75
227.621	36.75
227.856	34.75
228.09	50.75
228.324	42.75
228.559	57.75
228.793	65.75
229.027	86.75
229.262	101.75
229.496	102.75
229.73	101.75
229.964	115.75
230.199	118.75
230.433	102.75
230.667	100.75
230.901	112.75
231.136	104.75
231.37	104.75
231.604	100.75
231.838	117.75
232.072	106.75
232.306	117.75
232.541	112.75
232.775	111.75
233.009	109.75
233.243	100.75
233.477	87.75
233.711	129.75
233.945	120.75
234.179	114.75
234.413	105.75
234.647	116.75
234.881	115.75
235.115	127.75
235.349	118.75
235.583	117.75
235.817	118.75
236.051	122.75
236.285	122.75
236.519	110.75
236.753	122.75
236.987	133.75
237.221	141.75
237.455	161.75
237.689	135.75
237.922	117.75
238.156	108.75
238.39	131.75
238.624	120.75
238.858	110.75
239.091	115.75
239.325	108.75
239.559	135.75
239.793	114.75
240.027	136.75
240.26	125.75
240.494	125.75
240.728	132.75
240.961	127.75
241.195	136.75
241.429	131.75
241.662	121.75
241.896	122.75
242.13	122.75
242.363	136.75
242.597	126.75
242.83	139.75
243.064	132.75
243.298	123.75
243.531	140.75
243.765	129.75
243.998	140.75
244.232	143.75
244.465	133.75
244.699	147.75
244.932	130.75
245.166	133.75
245.399	146.75
245.633	158.75
245.866	144.75
246.099	153.75
246.333	142.75
246.566	145.75
246.8	148.75
247.033	146.75
247.266	148.75
247.5	150.75
247.733	147.75
247.966	137.75
248.2	157.75
248.433	146.75
248.666	159.75
248.899	168.75
249.133	160.75
249.366	183.75
249.599	178.75
249.832	154.75
250.066	169.75
250.299	169.75
250.532	175.75
250.765	166.75
250.998	208.75
251.231	187.75
251.465	186.75
251.698	179.75
251.931	179.75
252.164	174.75
252.397	182.75
252.63	192.75
252.863	185.75
253.096	189.75
253.329	198.75
253.562	193.75
253.795	178.75
254.028	194.75
254.261	189.75
254.494	191.75
254.727	210.75
254.96	213.75
255.193	222.75
255.426	193.75
255.659	185.75
255.892	189.75
256.124	205.75
256.357	208.75
256.59	203.75
256.823	184.75
257.056	191.75
257.289	186.75
257.521	175.75
257.754	188.75
257.987	213.75
258.22	196.75
258.452	196.75
258.685	192.75
258.918	175.75
259.151	174.75
259.383	199.75
259.616	194.75
259.849	204.75
260.081	196.75
260.314	230.75
260.547	234.75
260.779	226.75
261.012	210.75
261.244	233.75
261.477	203.75
261.71	210.75
261.942	202.75
262.175	208.75
262.407	209.75
262.64	209.75
262.872	194.75
263.105	218.75
263.337	205.75
263.57	206.75
263.802	202.75
264.035	195.75
264.267	200.75
264.499	208.75
264.732	210.75
264.964	208.75
265.197	206.75
265.429	196.75
265.661	198.75
265.894	209.75
266.126	209.75
266.358	199.75
266.591	202.75
266.823	206.75
267.055	229.75
267.287	226.75
267.52	200.75
267.752	211.75
267.984	220.75
268.216	215.75
268.448	220.75
268.681	219.75
268.913	230.75
269.145	236.75
269.377	262.75
269.609	240.75
269.841	240.75
270.073	241.75
270.306	256.75
270.538	279.75
270.77	272.75
271.002	265.75
271.234	249.75
271.466	259.75
271.698	272.75
271.93	260.75
272.162	261.75
272.394	261.75
272.626	257.75
272.858	242.75
273.09	249.75
273.322	232.75
273.553	229.75
273.785	248.75
274.017	246.75
274.249	249.75
274.481	252.75
274.713	257.75
274.945	232.75
275.176	251.75
275.408	261.75
275.64	244.75
275.872	256.75
276.104	260.75
276.335	248.75
276.567	265.75
276.799	255.75
277.031	277.75
277.262	303.75
277.494	282.75
277.726	265.75
277.957	267.75
278.189	255.75
278.421	256.75
278.652	255.75
278.884	256.75
279.115	250.75
279.347	262.75
279.579	279.75
279.81	268.75
280.042	251.75
280.273	245.75
280.505	256.75
280.736	256.75
280.968	256.75
281.199	247.75
281.431	245.75
281.662	244.75
281.894	265.75
282.125	273.75
282.356	276.75
282.588	288.75
282.819	286.75
283.051	258.75
283.282	265.75
283.513	285.75
283.745	286.75
283.976	273.75
284.207	292.75
284.439	270.75
284.67	266.75
284.901	270.75
285.132	269.75
285.364	281.75
285.595	274.75
285.826	283.75
286.057	278.75
286.288	270.75
286.52	269.75
286.751	288.75
286.982	281.75
287.213	286.75
287.444	288.75
287.675	278.75
287.906	292.75
288.138	309.75
288.369	294.75
288.6	287.75
288.831	304.75
289.062	299.75
289.293	296.75
289.524	286.75
289.755	295.75
289.986	277.75
290.217	288.75
290.448	283.75
290.679	305.75
290.91	301.75
291.141	300.75
291.371	306.75
291.602	289.75
291.833	292.75
292.064	286.75
292.295	285.75
292.526	298.75
292.757	300.75
292.987	301.75
293.218	286.75
293.449	289.75
293.68	300.75
293.91	284.75
294.141	278.75
294.372	303.75
294.603	301.75
294.833	306.75
295.064	304.75
295.295	305.75
295.525	303.75
295.756	301.75
295.987	322.75
296.217	331.75
296.448	319.75
296.679	326.75
296.909	311.75
297.14	304.75
297.37	304.75
297.601	309.75
297.831	303.75
298.062	318.75
298.292	316.75
298.523	318.75
298.753	320.75
298.984	315.75
299.214	333.75
299.445	320.75
299.675	312.75
299.905	348.75
300.136	319.75
300.366	322.75
300.597	329.75
300.827	340.75
301.057	321.75
301.288	342.75
301.518	324.75
301.748	314.75
301.979	323.75
302.209	329.75
302.439	328.75
302.669	351.75
302.9	341.75
303.13	330.75
303.36	341.75
303.59	344.75
303.82	349.75
304.051	344.75
304.281	343.75
304.511	342.75
304.741	350.75
304.971	355.75
305.201	342.75
305.431	352.75
305.661	325.75
305.891	342.75
306.121	337.75
306.352	359.75
306.582	340.75
306.812	325.75
307.042	330.75
307.272	332.75
307.502	324.75
307.731	348.75
307.961	343.75
308.191	323.75
308.421	323.75
308.651	352.75
308.881	344.75
309.111	334.75
309.341	343.75
309.571	341.75
309.8	351.75
310.03	360.75
310.26	339.75
310.49	354.75
310.72	372.75
310.949	360.75
311.179	379.75
311.409	374.75
311.639	345.75
311.868	360.75
312.098	368.75
312.328	374.75
312.557	374.75
312.787	372.75
313.017	372.75
313.246	379.75
313.476	368.75
313.706	388.75
313.935	376.75
314.165	376.75
314.394	381.75
314.624	388.75
314.853	373.75
315.083	384.75
315.312	374.75
315.542	379.75
315.771	362.75
316.001	364.75
316.23	360.75
316.46	369.75
316.689	377.75
316.919	383.75
317.148	359.75
317.377	378.75
317.607	391.75
317.836	371.75
318.065	368.75
318.295	363.75
318.524	375.75
318.753	390.75
318.983	374.75
319.212	368.75
319.441	358.75
319.67	375.75
319.9	368.75
320.129	373.75
320.358	356.75
320.587	369.75
320.816	363.75
321.046	391.75
321.275	406.75
321.504	381.75
321.733	386.75
321.962	367.75
322.191	365.75
322.42	396.75
322.649	380.75
322.878	409.75
323.108	398.75
323.337	414.75
323.566	415.75
323.795	442.75
324.024	458.75
324.253	520.75
324.482	688.75
324.71	966.75
324.939	1308.75
325.168	1060.75
325.397	619.75
325.626	508.75
325.855	458.75
326.084	423.75
326.313	424.75
326.542	434.75
326.77	478.75
326.999	524.75
327.228	652.75
327.457	875.75
327.686	1013.75
327.914	724.75
328.143	526.75
328.372	482.75
328.6	468.75
328.829	457.75
329.058	470.75
329.287	464.75
329.515	454.75
329.744	447.75
329.972	464.75
330.201	458.75
330.43	473.75
330.658	489.75
330.887	517.75
331.115	499.75
331.344	462.75
331.572	439.75
331.801	468.75
332.03	449.75
332.258	479.75
332.486	455.75
332.715	469.75
332.943	469.75
333.172	484.75
333.4	495.75
333.629	501.75
333.857	533.75
334.085	534.75
334.314	525.75
334.542	543.75
334.771	530.75
334.999	512.75
335.227	481.75
335.455	492.75
335.684	480.75
335.912	477.75
336.14	461.75
336.369	467.75
336.597	462.75
336.825	473.75
337.053	437.75
337.281	469.75
337.51	440.75
337.738	443.75
337.966	452.75
338.194	440.75
338.422	454.75
338.65	443.75
338.878	436.75
339.106	421.75
339.334	436.75
339.562	428.75
339.79	427.75
340.018	391.75
340.246	448.75
340.474	433.75
340.702	426.75
340.93	433.75
341.158	413.75
341.386	422.75
341.614	428.75
341.842	446.75
342.07	411.75
342.298	403.75
342.526	427.75
342.754	405.75
342.981	420.75
343.209	430.75
343.437	429.75
343.665	452.75
343.893	481.75
344.12	480.75
344.348	478.75
344.576	465.75
344.804	451.75
345.031	428.75
345.259	430.75
345.487	433.75
345.714	430.75
345.942	415.75
346.17	416.75
346.397	415.75
346.625	410.75
346.853	399.75
347.08	399.75
347.308	395.75
347.535	415.75
347.763	406.75
347.99	406.75
348.218	412.75
348.445	420.75
348.673	408.75
348.9	397.75
349.128	391.75
349.355	396.75
349.583	390.75
349.81	399.75
350.037	419.75
350.265	391.75
350.492	404.75
350.72	391.75
350.947	403.75
351.174	390.75
351.402	381.75
351.629	408.75
351.856	398.75
352.083	413.75
352.311	389.75
352.538	417.75
352.765	420.75
352.992	404.75
353.22	410.75
353.447	396.75
353.674	393.75
353.901	396.75
354.128	405.75
354.355	387.75
354.583	387.75
354.81	394.75
355.037	384.75
355.264	400.75
355.491	394.75
355.718	396.75
355.945	388.75
356.172	403.75
356.399	415.75
356.626	412.75
356.853	397.75
357.08	374.75
357.307	392.75
357.534	403.75
357.761	374.75
357.988	399.75
358.215	396.75
358.441	394.75
358.668	397.75
358.895	376.75
359.122	396.75
359.349	413.75
359.576	406.75
359.802	418.75
360.029	424.75
360.256	424.75
360.483	431.75
360.709	417.75
360.936	409.75
361.163	386.75
361.39	379.75
361.616	417.75
361.843	396.75
362.07	402.75
362.296	403.75
362.523	408.75
362.749	418.75
362.976	384.75
363.203	381.75
363.429	413.75
363.656	405.75
363.882	409.75
364.109	399.75
364.335	396.75
364.562	402.75
364.788	384.75
365.015	410.75
365.241	393.75
365.468	390.75
365.694	410.75
365.92	393.75
366.147	396.75
366.373	412.75
366.599	418.75
366.826	392.75
367.052	387.75
367.278	387.75
367.505	402.75
367.731	408.75
367.957	388.75
368.184	392.75
368.41	395.75
368.636	418.75
368.862	416.75
369.089	427.75
369.315	409.75
369.541	404.75
369.767	402.75
369.993	405.75
370.219	432.75
370.445	414.75
370.672	424.75
370.898	396.75
371.124	417.75
371.35	400.75
371.576	424.75
371.802	401.75
372.028	420.75
372.254	420.75
372.48	416.75
372.706	431.75
372.932	430.75
373.158	413.75
373.384	402.75
373.61	415.75
373.835	421.75
374.061	428.75
374.287	421.75
374.513	426.75
374.739	439.75
374.965	445.75
375.191	440.75
375.416	450.75
375.642	437.75
375.868	422.75
376.094	447.75
376.319	428.75
376.545	402.75
376.771	422.75
376.997	415.75
377.222	416.75
377.448	411.75
377.674	415.75
377.899	417.75
378.125	421.75
378.35	414.75
378.576	416.75
378.802	420.75
379.027	434.75
379.253	418.75
379.478	390.75
379.704	405.75
379.929	417.75
380.155	422.75
380.38	424.75
380.606	426.75
380.831	391.75
381.057	390.75
381.282	425.75
381.507	417.75
381.733	406.75
381.958	425.75
382.184	431.75
382.409	400.75
382.634	430.75
382.86	416.75
383.085	428.75
383.31	432.75
383.535	465.75
383.761	457.75
383.986	446.75
384.211	451.75
384.436	460.75
384.662	468.75
384.887	480.75
385.112	462.75
385.337	476.75
385.562	473.75
385.787	468.75
386.013	473.75
386.238	483.75
386.463	488.75
386.688	476.75
386.913	488.75
387.138	479.75
387.363	493.75
387.588	497.75
387.813	467.75
388.038	457.75
388.263	465.75
388.488	455.75
388.713	477.75
388.938	449.75
389.163	481.75
389.387	465.75
389.612	464.75
389.837	479.75
390.062	455.75
390.287	455.75
390.512	450.75
390.736	465.75
390.961	466.75
391.186	494.75
391.411	487.75
391.636	505.75
391.86	500.75
392.085	505.75
392.31	492.75
392.534	490.75
392.759	480.75
392.984	494.75
393.208	517.75
393.433	487.75
393.658	477.75
393.882	500.75
394.107	468.75
394.331	485.75
394.556	480.75
394.78	505.75
395.005	498.75
395.229	489.75
395.454	514.75
395.678	513.75
395.903	520.75
396.127	512.75
396.352	526.75
396.576	499.75
396.801	482.75
397.025	499.75
397.249	508.75
397.474	519.75
397.698	529.75
397.922	548.75
398.147	534.75
398.371	523.75
398.595	541.75
398.82	553.75
399.044	576.75
399.268	630.75
399.492	702.75
399.717	745.75
399.941	743.75
400.165	737.75
400.389	705.75
400.613	629.75
400.837	616.75
401.062	581.75
401.286	585.75
401.51	551.75
401.734	566.75
401.958	574.75
402.182	553.75
402.406	582.75
402.63	562.75
402.854	590.75
403.078	579.75
403.302	595.75
403.526	631.75
403.75	615.75
403.974	623.75
404.198	625.75
404.422	635.75
404.645	616.75
404.869	591.75
405.093	629.75
405.317	631.75
405.541	681.75
405.765	632.75
405.988	616.75
406.212	624.75
406.436	633.75
406.66	643.75
406.883	624.75
407.107	666.75
407.331	710.75
407.555	746.75
407.778	726.75
408.002	706.75
408.226	653.75
408.449	634.75
408.673	664.75
408.896	644.75
409.12	668.75
409.344	649.75
409.567	628.75
409.791	599.75
410.014	598.75
410.238	609.75
410.461	591.75
410.685	584.75
410.908	589.75
411.132	606.75
411.355	628.75
411.578	614.75
411.802	570.75
412.025	599.75
412.249	592.75
412.472	610.75
412.695	624.75
412.919	617.75
413.142	593.75
413.365	584.75
413.589	590.75
413.812	569.75
414.035	533.75
414.258	550.75
414.482	585.75
414.705	552.75
414.928	551.75
415.151	570.75
415.374	573.75
415.597	551.75
415.821	544.75
416.044	565.75
416.267	546.75
416.49	538.75
416.713	547.75
416.936	546.75
417.159	551.75
417.382	541.75
417.605	558.75
417.828	557.75
418.051	548.75
418.274	568.75
418.497	572.75
418.72	570.75
418.943	570.75
419.166	587.75
419.389	623.75
419.611	583.75
419.834	595.75
420.057	565.75
420.28	574.75
420.503	559.75
420.726	548.75
420.948	564.75
421.171	579.75
421.394	613.75
421.617	572.75
421.839	569.75
422.062	547.75
422.285	576.75
422.507	594.75
422.73	652.75
422.953	635.75
423.175	600.75
423.398	576.75
423.621	594.75
423.843	619.75
424.066	613.75
424.288	600.75
424.511	609.75
424.733	629.75
424.956	662.75
425.178	625.75
425.401	610.75
425.623	656.75
425.846	580.75
426.068	582.75
426.291	564.75
426.513	550.75
426.735	554.75
426.958	556.75
427.18	621.75
427.402	702.75
427.625	760.75
427.847	659.75
428.069	636.75
428.292	563.75
428.514	520.75
428.736	494.75
428.958	514.75
429.181	515.75
429.403	519.75
429.625	523.75
429.847	550.75
430.069	583.75
430.292	564.75
430.514	522.75
430.736	533.75
430.958	507.75
431.18	505.75
431.402	495.75
431.624	485.75
431.846	510.75
432.068	503.75
432.29	514.75
432.512	519.75
432.734	515.75
432.956	496.75
433.178	506.75
433.4	501.75
433.622	508.75
433.844	523.75
434.066	496.75
434.287	509.75
434.509	510.75
434.731	534.75
434.953	538.75
435.175	553.75
435.397	546.75
435.618	562.75
435.84	568.75
436.062	613.75
436.284	666.75
436.505	568.75
436.727	564.75
436.949	530.75
437.17	519.75
437.392	480.75
437.614	521.75
437.835	531.75
438.057	589.75
438.278	627.75
438.5	648.75
438.721	662.75
438.943	659.75
439.165	559.75
439.386	526.75
439.608	525.75
439.829	524.75
440.05	579.75
440.272	585.75
440.493	545.75
440.715	553.75
440.936	525.75
441.158	538.75
441.379	556.75
441.6	584.75
441.822	584.75
442.043	602.75
442.264	615.75
442.486	678.75
442.707	581.75
442.928	565.75
443.149	574.75
443.371	588.75
443.592	621.75
443.813	677.75
444.034	721.75
444.255	642.75
444.476	598.75
444.698	616.75
444.919	628.75
445.14	710.75
445.361	626.75
445.582	604.75
445.803	608.75
446.024	683.75
446.245	672.75
446.466	623.75
446.687	549.75
446.908	541.75
447.129	511.75
447.35	495.75
447.571	496.75
447.792	492.75
448.013	484.75
448.234	485.75
448.455	532.75
448.675	596.75
448.896	658.75
449.117	577.75
449.338	547.75
449.559	638.75
449.779	681.75
450	582.75
450.221	529.75
450.442	501.75
450.662	485.75
450.883	463.75
451.104	483.75
451.324	489.75
451.545	460.75
451.766	461.75
451.986	446.75
452.207	466.75
452.428	470.75
452.648	454.75
452.869	460.75
453.089	447.75
453.31	473.75
453.53	473.75
453.751	477.75
453.971	458.75
454.192	467.75
454.412	450.75
454.633	432.75
454.853	456.75
455.073	448.75
455.294	476.75
455.514	478.75
455.734	472.75
455.955	434.75
456.175	420.75
456.395	414.75
456.616	426.75
456.836	452.75
457.056	452.75
457.276	425.75
457.497	416.75
457.717	430.75
457.937	431.75
458.157	433.75
458.377	442.75
458.598	458.75
458.818	512.75
459.038	530.75
459.258	548.75
459.478	512.75
459.698	517.75
459.918	506.75
460.138	504.75
460.358	535.75
460.578	534.75
460.798	549.75
461.018	532.75
461.238	540.75
461.458	547.75
461.678	515.75
461.898	561.75
462.118	562.75
462.338	568.75
462.558	572.75
462.777	586.75
462.997	593.75
463.217	656.75
463.437	672.75
463.657	624.75
463.876	599.75
464.096	607.75
464.316	576.75
464.536	604.75
464.755	579.75
464.975	563.75
465.195	572.75
465.414	614.75
465.634	514.75
465.854	533.75
466.073	497.75
466.293	463.75
466.512	490.75
466.732	477.75
466.951	477.75
467.171	477.75
467.391	490.75
467.61	482.75
467.829	473.75
468.049	479.75
468.268	473.75
468.488	452.75
468.707	470.75
468.927	442.75
469.146	480.75
469.365	460.75
469.585	476.75
469.804	481.75
470.023	506.75
470.243	505.75
470.462	508.75
470.681	500.75
470.901	505.75
471.12	483.75
471.339	467.75
471.558	471.75
471.777	485.75
471.997	464.75
472.216	483.75
472.435	497.75
472.654	465.75
472.873	482.75
473.092	456.75
473.311	444.75
473.53	455.75
473.749	454.75
473.968	469.75
474.187	541.75
474.406	529.75
474.625	489.75
474.844	483.75
475.063	451.75
475.282	455.75
475.501	451.75
475.72	481.75
475.939	478.75
476.158	481.75
476.377	463.75
476.596	470.75
476.814	474.75
477.033	503.75
477.252	493.75
477.471	487.75
477.69	495.75
477.908	525.75
478.127	507.75
478.346	525.75
478.564	551.75
478.783	550.75
479.002	565.75
479.22	567.75
479.439	568.75
479.658	563.75
479.876	560.75
480.095	565.75
480.313	584.75
480.532	575.75
480.751	598.75
480.969	591.75
481.188	628.75
481.406	638.75
481.624	578.75
481.843	557.75
482.061	554.75
482.28	532.75
482.498	520.75
482.717	521.75
482.935	529.75
483.153	517.75
483.372	543.75
483.59	551.75
483.808	529.75
484.027	518.75
484.245	546.75
484.463	533.75
484.681	546.75
484.9	558.75
485.118	536.75
485.336	530.75
485.554	554.75
485.772	549.75
485.99	556.75
486.209	553.75
486.427	548.75
486.645	570.75
486.863	575.75
487.081	554.75
487.299	579.75
487.517	563.75
487.735	570.75
487.953	570.75
488.171	570.75
488.389	572.75
488.607	570.75
488.825	565.75
489.043	555.75
489.261	565.75
489.479	558.75
489.696	575.75
489.914	580.75
490.132	598.75
490.35	584.75
490.568	581.75
490.786	576.75
491.003	599.75
491.221	640.75
491.439	630.75
491.657	611.75
491.874	622.75
492.092	622.75
492.31	652.75
492.527	624.75
492.745	633.75
492.963	628.75
493.18	633.75
493.398	659.75
493.615	656.75
493.833	653.75
494.05	641.75
494.268	641.75
494.485	656.75
494.703	641.75
494.92	646.75
495.138	653.75
495.355	660.75
495.573	686.75
495.79	650.75
496.008	637.75
496.225	668.75
496.442	654.75
496.66	643.75
496.877	642.75
497.094	664.75
497.312	670.75
497.529	708.75
497.746	690.75
497.963	689.75
498.181	742.75
498.398	754.75
498.615	768.75
498.832	847.75
499.049	824.75
499.267	884.75
499.484	932.75
499.701	980.75
499.918	1056.75
500.135	1170.75
500.352	1262.75
500.569	1270.75
500.786	1258.75
501.003	1228.75
501.22	1148.75
501.437	1060.75
501.654	981.75
501.871	955.75
