Data from 1960PennyLincolnUp.LampE6.200Scan.07172019.P1_HRD10591_13-05-27-002.txt Node
Date: Thu Jul 18 13:05:27 EDT 2019
User: cochatt
Spectrometer: HR+D1059
Trigger mode: 1
Integration Time (sec): 1.000000E-1
Scans to average: 1
Electric dark correction enabled: true
Nonlinearity correction enabled: false
Boxcar width: 0
XAxis mode: Wavelengths
Number of Pixels in Spectrum: 2048
>>>>>Begin Spectral Data<<<<<
223.165	-9.5
223.4	-9.5
223.635	-9.5
223.869	-11.5
224.104	-12.5
224.338	-4.5
224.573	-7.5
224.808	-24.5
225.042	-9.5
225.277	-5.5
225.511	-9.5
225.746	2.5
225.98	8.5
226.215	5.5
226.449	9.5
226.683	11.5
226.918	18.5
227.152	38.5
227.387	16.5
227.621	31.5
227.856	37.5
228.09	40.5
228.324	49.5
228.559	56.5
228.793	62.5
229.027	76.5
229.262	91.5
229.496	104.5
229.73	99.5
229.964	132.5
230.199	115.5
230.433	109.5
230.667	104.5
230.901	104.5
231.136	116.5
231.37	101.5
231.604	96.5
231.838	106.5
232.072	116.5
232.306	102.5
232.541	117.5
232.775	98.5
233.009	110.5
233.243	104.5
233.477	100.5
233.711	104.5
233.945	108.5
234.179	133.5
234.413	107.5
234.647	107.5
234.881	121.5
235.115	103.5
235.349	117.5
235.583	111.5
235.817	117.5
236.051	101.5
236.285	120.5
236.519	126.5
236.753	118.5
236.987	115.5
237.221	137.5
237.455	161.5
237.689	143.5
237.922	125.5
238.156	132.5
238.39	127.5
238.624	125.5
238.858	119.5
239.091	115.5
239.325	118.5
239.559	111.5
239.793	111.5
240.027	126.5
240.26	132.5
240.494	140.5
240.728	133.5
240.961	152.5
241.195	126.5
241.429	129.5
241.662	121.5
241.896	125.5
242.13	130.5
242.363	125.5
242.597	131.5
242.83	118.5
243.064	121.5
243.298	117.5
243.531	127.5
243.765	125.5
243.998	127.5
244.232	151.5
244.465	134.5
244.699	139.5
244.932	127.5
245.166	129.5
245.399	141.5
245.633	142.5
245.866	133.5
246.099	131.5
246.333	138.5
246.566	145.5
246.8	157.5
247.033	152.5
247.266	161.5
247.5	137.5
247.733	140.5
247.966	149.5
248.2	161.5
248.433	164.5
248.666	160.5
248.899	145.5
249.133	157.5
249.366	166.5
249.599	161.5
249.832	157.5
250.066	172.5
250.299	170.5
250.532	160.5
250.765	174.5
250.998	177.5
251.231	178.5
251.465	181.5
251.698	164.5
251.931	171.5
252.164	162.5
252.397	180.5
252.63	163.5
252.863	177.5
253.096	178.5
253.329	190.5
253.562	183.5
253.795	176.5
254.028	201.5
254.261	177.5
254.494	182.5
254.727	197.5
254.96	217.5
255.193	215.5
255.426	204.5
255.659	199.5
255.892	184.5
256.124	216.5
256.357	203.5
256.59	189.5
256.823	176.5
257.056	185.5
257.289	178.5
257.521	198.5
257.754	179.5
257.987	176.5
258.22	192.5
258.452	182.5
258.685	192.5
258.918	171.5
259.151	195.5
259.383	197.5
259.616	188.5
259.849	204.5
260.081	197.5
260.314	193.5
260.547	200.5
260.779	195.5
261.012	198.5
261.244	190.5
261.477	202.5
261.71	200.5
261.942	202.5
262.175	204.5
262.407	191.5
262.64	204.5
262.872	194.5
263.105	206.5
263.337	194.5
263.57	189.5
263.802	203.5
264.035	209.5
264.267	212.5
264.499	193.5
264.732	204.5
264.964	187.5
265.197	202.5
265.429	187.5
265.661	211.5
265.894	194.5
266.126	206.5
266.358	212.5
266.591	216.5
266.823	205.5
267.055	211.5
267.287	192.5
267.52	203.5
267.752	209.5
267.984	206.5
268.216	196.5
268.448	206.5
268.681	219.5
268.913	222.5
269.145	222.5
269.377	224.5
269.609	228.5
269.841	240.5
270.073	216.5
270.306	259.5
270.538	263.5
270.77	242.5
271.002	250.5
271.234	258.5
271.466	237.5
271.698	275.5
271.93	249.5
272.162	261.5
272.394	265.5
272.626	247.5
272.858	249.5
273.09	240.5
273.322	242.5
273.553	244.5
273.785	238.5
274.017	239.5
274.249	225.5
274.481	235.5
274.713	235.5
274.945	247.5
275.176	232.5
275.408	249.5
275.64	256.5
275.872	252.5
276.104	240.5
276.335	246.5
276.567	258.5
276.799	256.5
277.031	266.5
277.262	277.5
277.494	284.5
277.726	276.5
277.957	266.5
278.189	238.5
278.421	254.5
278.652	244.5
278.884	248.5
279.115	250.5
279.347	254.5
279.579	246.5
279.81	254.5
280.042	255.5
280.273	261.5
280.505	247.5
280.736	267.5
280.968	251.5
281.199	267.5
281.431	254.5
281.662	258.5
281.894	269.5
282.125	281.5
282.356	265.5
282.588	277.5
282.819	272.5
283.051	256.5
283.282	254.5
283.513	270.5
283.745	278.5
283.976	263.5
284.207	273.5
284.439	280.5
284.67	276.5
284.901	263.5
285.132	278.5
285.364	272.5
285.595	256.5
285.826	279.5
286.057	255.5
286.288	288.5
286.52	286.5
286.751	280.5
286.982	290.5
287.213	294.5
287.444	279.5
287.675	291.5
287.906	292.5
288.138	310.5
288.369	300.5
288.6	317.5
288.831	309.5
289.062	299.5
289.293	281.5
289.524	281.5
289.755	303.5
289.986	289.5
290.217	286.5
290.448	299.5
290.679	309.5
290.91	290.5
291.141	285.5
291.371	278.5
291.602	307.5
291.833	295.5
292.064	281.5
292.295	272.5
292.526	286.5
292.757	287.5
292.987	300.5
293.218	274.5
293.449	302.5
293.68	271.5
293.91	299.5
294.141	312.5
294.372	293.5
294.603	305.5
294.833	298.5
295.064	293.5
295.295	310.5
295.525	299.5
295.756	304.5
295.987	307.5
296.217	307.5
296.448	305.5
296.679	279.5
296.909	287.5
297.14	301.5
297.37	300.5
297.601	307.5
297.831	299.5
298.062	288.5
298.292	312.5
298.523	327.5
298.753	320.5
298.984	309.5
299.214	304.5
299.445	312.5
299.675	301.5
299.905	319.5
300.136	313.5
300.366	304.5
300.597	331.5
300.827	329.5
301.057	331.5
301.288	349.5
301.518	327.5
301.748	321.5
301.979	324.5
302.209	342.5
302.439	338.5
302.669	321.5
302.9	314.5
303.13	349.5
303.36	323.5
303.59	320.5
303.82	340.5
304.051	338.5
304.281	334.5
304.511	344.5
304.741	307.5
304.971	315.5
305.201	326.5
305.431	324.5
305.661	324.5
305.891	325.5
306.121	340.5
306.352	338.5
306.582	313.5
306.812	331.5
307.042	333.5
307.272	327.5
307.502	321.5
307.731	324.5
307.961	320.5
308.191	324.5
308.421	329.5
308.651	320.5
308.881	313.5
309.111	333.5
309.341	320.5
309.571	326.5
309.8	324.5
310.03	319.5
310.26	339.5
310.49	353.5
310.72	341.5
310.949	347.5
311.179	351.5
311.409	357.5
311.639	341.5
311.868	353.5
312.098	343.5
312.328	335.5
312.557	345.5
312.787	346.5
313.017	353.5
313.246	360.5
313.476	358.5
313.706	349.5
313.935	361.5
314.165	361.5
314.394	370.5
314.624	375.5
314.853	372.5
315.083	366.5
315.312	367.5
315.542	356.5
315.771	367.5
316.001	342.5
316.23	326.5
316.46	353.5
316.689	358.5
316.919	405.5
317.148	356.5
317.377	362.5
317.607	355.5
317.836	362.5
318.065	350.5
318.295	359.5
318.524	377.5
318.753	368.5
318.983	369.5
319.212	362.5
319.441	357.5
319.67	372.5
319.9	376.5
320.129	385.5
320.358	355.5
320.587	365.5
320.816	372.5
321.046	376.5
321.275	380.5
321.504	381.5
321.733	356.5
321.962	374.5
322.191	372.5
322.42	391.5
322.649	389.5
322.878	377.5
323.108	382.5
323.337	405.5
323.566	409.5
323.795	428.5
324.024	437.5
324.253	499.5
324.482	600.5
324.71	848.5
324.939	1142.5
325.168	985.5
325.397	573.5
325.626	454.5
325.855	445.5
326.084	417.5
326.313	414.5
326.542	429.5
326.77	436.5
326.999	482.5
327.228	604.5
327.457	816.5
327.686	915.5
327.914	642.5
328.143	480.5
328.372	464.5
328.6	431.5
328.829	424.5
329.058	444.5
329.287	443.5
329.515	427.5
329.744	409.5
329.972	423.5
330.201	439.5
330.43	486.5
330.658	493.5
330.887	468.5
331.115	480.5
331.344	465.5
331.572	422.5
331.801	461.5
332.03	450.5
332.258	442.5
332.486	449.5
332.715	456.5
332.943	467.5
333.172	469.5
333.4	468.5
333.629	488.5
333.857	501.5
334.085	485.5
334.314	502.5
334.542	515.5
334.771	523.5
334.999	497.5
335.227	485.5
335.455	466.5
335.684	466.5
335.912	472.5
336.14	463.5
336.369	457.5
336.597	447.5
336.825	465.5
337.053	452.5
337.281	423.5
337.51	444.5
337.738	437.5
337.966	446.5
338.194	443.5
338.422	446.5
338.65	424.5
338.878	425.5
339.106	424.5
339.334	429.5
339.562	426.5
339.79	413.5
340.018	407.5
340.246	418.5
340.474	429.5
340.702	419.5
340.93	432.5
341.158	404.5
341.386	399.5
341.614	403.5
341.842	396.5
342.07	398.5
342.298	431.5
342.526	413.5
342.754	417.5
342.981	424.5
343.209	415.5
343.437	443.5
343.665	439.5
343.893	448.5
344.12	472.5
344.348	453.5
344.576	438.5
344.804	440.5
345.031	442.5
345.259	441.5
345.487	414.5
345.714	403.5
345.942	411.5
346.17	404.5
346.397	392.5
346.625	401.5
346.853	395.5
347.08	398.5
347.308	405.5
347.535	405.5
347.763	398.5
347.99	401.5
348.218	398.5
348.445	389.5
348.673	401.5
348.9	362.5
349.128	413.5
349.355	401.5
349.583	411.5
349.81	398.5
350.037	387.5
350.265	386.5
350.492	400.5
350.72	383.5
350.947	393.5
351.174	399.5
351.402	391.5
351.629	406.5
351.856	405.5
352.083	399.5
352.311	390.5
352.538	421.5
352.765	408.5
352.992	383.5
353.22	391.5
353.447	381.5
353.674	403.5
353.901	371.5
354.128	381.5
354.355	383.5
354.583	373.5
354.81	389.5
355.037	389.5
355.264	388.5
355.491	361.5
355.718	381.5
355.945	373.5
356.172	380.5
356.399	366.5
356.626	387.5
356.853	401.5
357.08	386.5
357.307	374.5
357.534	368.5
357.761	372.5
357.988	378.5
358.215	392.5
358.441	387.5
358.668	390.5
358.895	385.5
359.122	398.5
359.349	382.5
359.576	388.5
359.802	401.5
360.029	412.5
360.256	421.5
360.483	424.5
360.709	412.5
360.936	399.5
361.163	386.5
361.39	382.5
361.616	404.5
361.843	399.5
362.07	372.5
362.296	388.5
362.523	390.5
362.749	399.5
362.976	396.5
363.203	380.5
363.429	400.5
363.656	399.5
363.882	373.5
364.109	388.5
364.335	386.5
364.562	387.5
364.788	390.5
365.015	383.5
365.241	400.5
365.468	404.5
365.694	384.5
365.92	379.5
366.147	392.5
366.373	369.5
366.599	391.5
366.826	384.5
367.052	382.5
367.278	392.5
367.505	392.5
367.731	395.5
367.957	387.5
368.184	402.5
368.41	414.5
368.636	404.5
368.862	408.5
369.089	371.5
369.315	389.5
369.541	387.5
369.767	381.5
369.993	381.5
370.219	395.5
370.445	412.5
370.672	393.5
370.898	390.5
371.124	400.5
371.35	412.5
371.576	388.5
371.802	394.5
372.028	403.5
372.254	415.5
372.48	404.5
372.706	402.5
372.932	413.5
373.158	403.5
373.384	415.5
373.61	387.5
373.835	408.5
374.061	403.5
374.287	419.5
374.513	417.5
374.739	431.5
374.965	415.5
375.191	444.5
375.416	425.5
375.642	427.5
375.868	428.5
376.094	404.5
376.319	398.5
376.545	405.5
376.771	421.5
376.997	409.5
377.222	402.5
377.448	404.5
377.674	404.5
377.899	408.5
378.125	383.5
378.35	401.5
378.576	401.5
378.802	392.5
379.027	390.5
379.253	378.5
379.478	399.5
379.704	399.5
379.929	406.5
380.155	390.5
380.38	395.5
380.606	395.5
380.831	408.5
381.057	416.5
381.282	406.5
381.507	392.5
381.733	408.5
381.958	439.5
382.184	411.5
382.409	412.5
382.634	436.5
382.86	427.5
383.085	439.5
383.31	405.5
383.535	441.5
383.761	428.5
383.986	446.5
384.211	437.5
384.436	428.5
384.662	457.5
384.887	458.5
385.112	467.5
385.337	462.5
385.562	466.5
385.787	484.5
386.013	459.5
386.238	488.5
386.463	471.5
386.688	454.5
386.913	444.5
387.138	489.5
387.363	461.5
387.588	462.5
387.813	470.5
388.038	457.5
388.263	481.5
388.488	461.5
388.713	460.5
388.938	463.5
389.163	461.5
389.387	449.5
389.612	453.5
389.837	461.5
390.062	447.5
390.287	437.5
390.512	445.5
390.736	441.5
390.961	456.5
391.186	466.5
391.411	465.5
391.636	492.5
391.86	492.5
392.085	475.5
392.31	511.5
392.534	490.5
392.759	480.5
392.984	493.5
393.208	479.5
393.433	497.5
393.658	468.5
393.882	470.5
394.107	458.5
394.331	466.5
394.556	476.5
394.78	479.5
395.005	478.5
395.229	476.5
395.454	468.5
395.678	509.5
395.903	495.5
396.127	505.5
396.352	514.5
396.576	493.5
396.801	478.5
397.025	464.5
397.249	495.5
397.474	486.5
397.698	479.5
397.922	534.5
398.147	512.5
398.371	502.5
398.595	548.5
398.82	543.5
399.044	587.5
399.268	600.5
399.492	662.5
399.717	742.5
399.941	755.5
400.165	704.5
400.389	669.5
400.613	581.5
400.837	574.5
401.062	568.5
401.286	549.5
401.51	548.5
401.734	541.5
401.958	538.5
402.182	542.5
402.406	544.5
402.63	596.5
402.854	587.5
403.078	592.5
403.302	579.5
403.526	593.5
403.75	600.5
403.974	600.5
404.198	601.5
404.422	623.5
404.645	609.5
404.869	597.5
405.093	625.5
405.317	632.5
405.541	656.5
405.765	599.5
405.988	614.5
406.212	596.5
406.436	584.5
406.66	620.5
406.883	598.5
407.107	615.5
407.331	703.5
407.555	742.5
407.778	707.5
408.002	686.5
408.226	638.5
408.449	648.5
408.673	628.5
408.896	624.5
409.12	639.5
409.344	617.5
409.567	593.5
409.791	588.5
410.014	577.5
410.238	581.5
410.461	598.5
410.685	575.5
410.908	573.5
411.132	617.5
411.355	617.5
411.578	615.5
411.802	575.5
412.025	565.5
412.249	576.5
412.472	588.5
412.695	613.5
412.919	580.5
413.142	578.5
413.365	546.5
413.589	566.5
413.812	529.5
414.035	541.5
414.258	532.5
414.482	545.5
414.705	545.5
414.928	573.5
415.151	520.5
415.374	552.5
415.597	542.5
415.821	527.5
416.044	521.5
416.267	540.5
416.49	515.5
416.713	498.5
416.936	529.5
417.159	539.5
417.382	511.5
417.605	531.5
417.828	541.5
418.051	544.5
418.274	561.5
418.497	547.5
418.72	536.5
418.943	545.5
419.166	559.5
419.389	580.5
419.611	565.5
419.834	556.5
420.057	564.5
420.28	550.5
420.503	557.5
420.726	551.5
420.948	548.5
421.171	586.5
421.394	575.5
421.617	560.5
421.839	549.5
422.062	547.5
422.285	578.5
422.507	593.5
422.73	633.5
422.953	607.5
423.175	575.5
423.398	547.5
423.621	591.5
423.843	588.5
424.066	581.5
424.288	566.5
424.511	587.5
424.733	607.5
424.956	647.5
425.178	622.5
425.401	620.5
425.623	648.5
425.846	572.5
426.068	549.5
426.291	544.5
426.513	537.5
426.735	584.5
426.958	576.5
427.18	599.5
427.402	672.5
427.625	695.5
427.847	672.5
428.069	585.5
428.292	563.5
428.514	524.5
428.736	520.5
428.958	494.5
429.181	487.5
429.403	491.5
429.625	504.5
429.847	540.5
430.069	551.5
430.292	545.5
430.514	522.5
430.736	500.5
430.958	465.5
431.18	491.5
431.402	499.5
431.624	458.5
431.846	485.5
432.068	474.5
432.29	491.5
432.512	484.5
432.734	510.5
432.956	489.5
433.178	495.5
433.4	482.5
433.622	501.5
433.844	504.5
434.066	492.5
434.287	503.5
434.509	505.5
434.731	525.5
434.953	521.5
435.175	532.5
435.397	548.5
435.618	569.5
435.84	546.5
436.062	610.5
436.284	644.5
436.505	551.5
436.727	521.5
436.949	526.5
437.17	521.5
437.392	516.5
437.614	525.5
437.835	510.5
438.057	535.5
438.278	612.5
438.5	631.5
438.721	635.5
438.943	636.5
439.165	537.5
439.386	525.5
439.608	543.5
439.829	513.5
440.05	523.5
440.272	534.5
440.493	547.5
440.715	526.5
440.936	524.5
441.158	517.5
441.379	525.5
441.6	558.5
441.822	541.5
442.043	556.5
442.264	579.5
442.486	625.5
442.707	594.5
442.928	536.5
443.149	563.5
443.371	556.5
443.592	599.5
443.813	641.5
444.034	654.5
444.255	596.5
444.476	583.5
444.698	575.5
444.919	611.5
445.14	679.5
445.361	623.5
445.582	594.5
445.803	582.5
446.024	640.5
446.245	625.5
446.466	584.5
446.687	541.5
446.908	499.5
447.129	485.5
447.35	487.5
447.571	473.5
447.792	484.5
448.013	509.5
448.234	488.5
448.455	514.5
448.675	564.5
448.896	629.5
449.117	554.5
449.338	551.5
449.559	588.5
449.779	645.5
450	536.5
450.221	480.5
450.442	470.5
450.662	465.5
450.883	446.5
451.104	466.5
451.324	460.5
451.545	484.5
451.766	457.5
451.986	467.5
452.207	450.5
452.428	447.5
452.648	449.5
452.869	442.5
453.089	455.5
453.31	450.5
453.53	437.5
453.751	429.5
453.971	422.5
454.192	441.5
454.412	436.5
454.633	429.5
454.853	421.5
455.073	422.5
455.294	429.5
455.514	481.5
455.734	479.5
455.955	423.5
456.175	415.5
456.395	421.5
456.616	422.5
456.836	402.5
457.056	395.5
457.276	406.5
457.497	429.5
457.717	422.5
457.937	435.5
458.157	423.5
458.377	441.5
458.598	441.5
458.818	459.5
459.038	514.5
459.258	556.5
459.478	497.5
459.698	503.5
459.918	511.5
460.138	503.5
460.358	523.5
460.578	544.5
460.798	541.5
461.018	512.5
461.238	548.5
461.458	536.5
461.678	523.5
461.898	533.5
462.118	533.5
462.338	549.5
462.558	581.5
462.777	574.5
462.997	593.5
463.217	635.5
463.437	647.5
463.657	611.5
463.876	580.5
464.096	593.5
464.316	574.5
464.536	598.5
464.755	564.5
464.975	574.5
465.195	588.5
465.414	572.5
465.634	513.5
465.854	510.5
466.073	495.5
466.293	478.5
466.512	461.5
466.732	470.5
466.951	455.5
467.171	451.5
467.391	479.5
467.61	460.5
467.829	461.5
468.049	494.5
468.268	478.5
468.488	447.5
468.707	440.5
468.927	442.5
469.146	444.5
469.365	449.5
469.585	460.5
469.804	449.5
470.023	475.5
470.243	472.5
470.462	485.5
470.681	490.5
470.901	479.5
471.12	481.5
471.339	477.5
471.558	468.5
471.777	445.5
471.997	463.5
472.216	456.5
472.435	477.5
472.654	476.5
472.873	455.5
473.092	456.5
473.311	444.5
473.53	436.5
473.749	451.5
473.968	456.5
474.187	529.5
474.406	520.5
474.625	469.5
474.844	457.5
475.063	444.5
475.282	462.5
475.501	434.5
475.72	451.5
475.939	453.5
476.158	468.5
476.377	461.5
476.596	475.5
476.814	472.5
477.033	472.5
477.252	483.5
477.471	474.5
477.69	516.5
477.908	528.5
478.127	521.5
478.346	533.5
478.564	514.5
478.783	547.5
479.002	544.5
479.22	542.5
479.439	540.5
479.658	536.5
479.876	555.5
480.095	557.5
480.313	594.5
480.532	591.5
480.751	583.5
480.969	591.5
481.188	583.5
481.406	602.5
481.624	577.5
481.843	543.5
482.061	529.5
482.28	525.5
482.498	506.5
482.717	512.5
482.935	532.5
483.153	523.5
483.372	520.5
483.59	512.5
483.808	518.5
484.027	520.5
484.245	507.5
484.463	524.5
484.681	547.5
484.9	527.5
485.118	553.5
485.336	510.5
485.554	537.5
485.772	537.5
485.99	539.5
486.209	535.5
486.427	541.5
486.645	540.5
486.863	564.5
487.081	561.5
487.299	582.5
487.517	527.5
487.735	552.5
487.953	552.5
488.171	552.5
488.389	561.5
488.607	554.5
488.825	547.5
489.043	546.5
489.261	552.5
489.479	546.5
489.696	571.5
489.914	574.5
490.132	578.5
490.35	563.5
490.568	579.5
490.786	575.5
491.003	558.5
491.221	590.5
491.439	588.5
491.657	609.5
491.874	616.5
492.092	633.5
492.31	628.5
492.527	623.5
492.745	621.5
492.963	630.5
493.18	637.5
493.398	621.5
493.615	645.5
493.833	638.5
494.05	628.5
494.268	634.5
494.485	629.5
494.703	629.5
494.92	637.5
495.138	617.5
495.355	609.5
495.573	624.5
495.79	631.5
496.008	633.5
496.225	632.5
496.442	632.5
496.66	638.5
496.877	654.5
497.094	629.5
497.312	641.5
497.529	674.5
497.746	668.5
497.963	685.5
498.181	704.5
498.398	744.5
498.615	728.5
498.832	791.5
499.049	847.5
499.267	884.5
499.484	899.5
499.701	987.5
499.918	1037.5
500.135	1125.5
500.352	1205.5
500.569	1255.5
500.786	1247.5
501.003	1195.5
501.22	1135.5
501.437	1056.5
501.654	964.5
501.871	917.5
502.088	838.5
502.305	811.5
502.522	799.5
502.739	750.5
502.956	735.5
503.172	706.5
503.389	673.5
503.606	680.5
503.823	631.5
504.04	655.5
504.256	660.5
504.473	647.5
504.69	689.5
504.907	683.5
505.123	657.5
505.34	627.5
505.557	624.5
505.773	593.5
505.99	588.5
506.207	566.5
506.423	587.5
506.64	582.5
506.856	568.5
507.073	579.5
507.289	578.5
507.506	565.5
507.722	567.5
507.939	561.5
508.155	544.5
508.372	539.5
508.588	540.5
508.805	544.5
509.021	552.5
509.238	541.5
509.454	547.5
509.67	557.5
509.887	544.5
510.103	544.5
510.319	519.5
510.536	584.5
510.752	813.5
510.968	691.5
511.184	517.5
511.401	498.5
511.617	516.5
511.833	491.5
512.049	528.5
512.265	502.5
512.481	516.5
512.698	507.5
512.914	498.5
513.13	482.5
513.346	473.5
513.562	509.5
513.778	511.5
513.994	476.5
514.21	526.5
514.426	523.5
514.642	535.5
514.858	565.5
515.074	552.5
515.29	612.5
515.506	791.5
515.721	733.5
515.937	588.5
516.153	562.5
516.369	540.5
516.585	560.5
516.801	548.5
517.016	573.5
517.232	597.5
517.448	599.5
517.664	611.5
517.879	603.5
518.095	639.5
518.311	613.5
518.527	595.5
518.742	579.5
518.958	562.5
519.173	545.5
519.389	530.5
519.605	537.5
519.82	526.5
520.036	531.5
