Data from 1960PennyLincolnUp.LampE5.5.200Scan.07172019.P1.ChangedAngle_HRD10591_13-15-10-821.txt Node
Date: Thu Jul 18 13:15:10 EDT 2019
User: cochatt
Spectrometer: HR+D1059
Trigger mode: 1
Integration Time (sec): 1.000000E-1
Scans to average: 1
Electric dark correction enabled: true
Nonlinearity correction enabled: false
Boxcar width: 0
XAxis mode: Wavelengths
Number of Pixels in Spectrum: 2048
>>>>>Begin Spectral Data<<<<<
223.165	-17.88
223.4	-17.88
223.635	-17.88
223.869	-13.88
224.104	-24.88
224.338	-10.88
224.573	-14.88
224.808	-10.88
225.042	-2.88
225.277	-4.88
225.511	3.12
225.746	-2.88
225.98	2.12
226.215	11.12
226.449	28.12
226.683	19.12
226.918	18.12
227.152	22.12
227.387	30.12
227.621	34.12
227.856	47.12
228.09	53.12
228.324	61.12
228.559	52.12
228.793	67.12
229.027	94.12
229.262	101.12
229.496	102.12
229.73	113.12
229.964	132.12
230.199	116.12
230.433	104.12
230.667	112.12
230.901	113.12
231.136	111.12
231.37	99.12
231.604	109.12
231.838	97.12
232.072	111.12
232.306	105.12
232.541	109.12
232.775	100.12
233.009	109.12
233.243	114.12
233.477	99.12
233.711	109.12
233.945	114.12
234.179	114.12
234.413	102.12
234.647	104.12
234.881	107.12
235.115	118.12
235.349	117.12
235.583	114.12
235.817	121.12
236.051	112.12
236.285	119.12
236.519	120.12
236.753	131.12
236.987	134.12
237.221	162.12
237.455	184.12
237.689	165.12
237.922	128.12
238.156	129.12
238.39	112.12
238.624	111.12
238.858	113.12
239.091	117.12
239.325	112.12
239.559	109.12
239.793	134.12
240.027	125.12
240.26	126.12
240.494	134.12
240.728	133.12
240.961	157.12
241.195	131.12
241.429	138.12
241.662	123.12
241.896	129.12
242.13	135.12
242.363	128.12
242.597	127.12
242.83	148.12
243.064	143.12
243.298	126.12
243.531	133.12
243.765	159.12
243.998	139.12
244.232	149.12
244.465	144.12
244.699	133.12
244.932	152.12
245.166	145.12
245.399	134.12
245.633	144.12
245.866	163.12
246.099	151.12
246.333	158.12
246.566	150.12
246.8	166.12
247.033	158.12
247.266	150.12
247.5	145.12
247.733	139.12
247.966	156.12
248.2	185.12
248.433	167.12
248.666	159.12
248.899	171.12
249.133	171.12
249.366	189.12
249.599	199.12
249.832	173.12
250.066	174.12
250.299	167.12
250.532	175.12
250.765	174.12
250.998	220.12
251.231	212.12
251.465	196.12
251.698	206.12
251.931	187.12
252.164	187.12
252.397	183.12
252.63	185.12
252.863	184.12
253.096	209.12
253.329	202.12
253.562	206.12
253.795	200.12
254.028	189.12
254.261	187.12
254.494	212.12
254.727	210.12
254.96	240.12
255.193	250.12
255.426	217.12
255.659	206.12
255.892	223.12
256.124	207.12
256.357	229.12
256.59	213.12
256.823	188.12
257.056	209.12
257.289	203.12
257.521	212.12
257.754	200.12
257.987	199.12
258.22	208.12
258.452	196.12
258.685	208.12
258.918	201.12
259.151	196.12
259.383	204.12
259.616	198.12
259.849	210.12
260.081	211.12
260.314	254.12
260.547	231.12
260.779	237.12
261.012	217.12
261.244	222.12
261.477	200.12
261.71	209.12
261.942	210.12
262.175	233.12
262.407	213.12
262.64	217.12
262.872	215.12
263.105	202.12
263.337	213.12
263.57	203.12
263.802	226.12
264.035	208.12
264.267	205.12
264.499	208.12
264.732	201.12
264.964	216.12
265.197	214.12
265.429	219.12
265.661	211.12
265.894	226.12
266.126	215.12
266.358	211.12
266.591	235.12
266.823	229.12
267.055	218.12
267.287	218.12
267.52	238.12
267.752	213.12
267.984	222.12
268.216	229.12
268.448	241.12
268.681	224.12
268.913	224.12
269.145	250.12
269.377	252.12
269.609	250.12
269.841	240.12
270.073	260.12
270.306	261.12
270.538	279.12
270.77	267.12
271.002	282.12
271.234	283.12
271.466	272.12
271.698	269.12
271.93	304.12
272.162	303.12
272.394	285.12
272.626	266.12
272.858	271.12
273.09	261.12
273.322	284.12
273.553	241.12
273.785	253.12
274.017	268.12
274.249	250.12
274.481	272.12
274.713	242.12
274.945	256.12
275.176	258.12
275.408	257.12
275.64	273.12
275.872	258.12
276.104	259.12
276.335	275.12
276.567	274.12
276.799	266.12
277.031	272.12
277.262	291.12
277.494	312.12
277.726	304.12
277.957	283.12
278.189	284.12
278.421	277.12
278.652	266.12
278.884	254.12
279.115	263.12
279.347	281.12
279.579	280.12
279.81	266.12
280.042	270.12
280.273	267.12
280.505	276.12
280.736	255.12
280.968	259.12
281.199	260.12
281.431	270.12
281.662	270.12
281.894	282.12
282.125	287.12
282.356	278.12
282.588	285.12
282.819	301.12
283.051	278.12
283.282	270.12
283.513	287.12
283.745	284.12
283.976	290.12
284.207	287.12
284.439	279.12
284.67	286.12
284.901	271.12
285.132	283.12
285.364	283.12
285.595	272.12
285.826	282.12
286.057	301.12
286.288	287.12
286.52	273.12
286.751	288.12
286.982	311.12
287.213	288.12
287.444	309.12
287.675	307.12
287.906	286.12
288.138	315.12
288.369	293.12
288.6	299.12
288.831	297.12
289.062	274.12
289.293	303.12
289.524	273.12
289.755	283.12
289.986	301.12
290.217	285.12
290.448	295.12
290.679	306.12
290.91	285.12
291.141	288.12
291.371	279.12
291.602	286.12
291.833	303.12
292.064	294.12
292.295	304.12
292.526	288.12
292.757	309.12
292.987	293.12
293.218	277.12
293.449	296.12
293.68	299.12
293.91	301.12
294.141	314.12
294.372	286.12
294.603	304.12
294.833	287.12
295.064	289.12
295.295	288.12
295.525	314.12
295.756	309.12
295.987	303.12
296.217	335.12
296.448	347.12
296.679	312.12
296.909	305.12
297.14	291.12
297.37	297.12
297.601	315.12
297.831	319.12
298.062	312.12
298.292	320.12
298.523	306.12
298.753	329.12
298.984	321.12
299.214	315.12
299.445	296.12
299.675	316.12
299.905	323.12
300.136	320.12
300.366	319.12
300.597	315.12
300.827	340.12
301.057	307.12
301.288	344.12
301.518	316.12
301.748	346.12
301.979	323.12
302.209	341.12
302.439	347.12
302.669	344.12
302.9	332.12
303.13	337.12
303.36	320.12
303.59	325.12
303.82	355.12
304.051	337.12
304.281	345.12
304.511	332.12
304.741	339.12
304.971	332.12
305.201	345.12
305.431	339.12
305.661	324.12
305.891	322.12
306.121	331.12
306.352	333.12
306.582	343.12
306.812	352.12
307.042	335.12
307.272	344.12
307.502	342.12
307.731	349.12
307.961	348.12
308.191	316.12
308.421	355.12
308.651	338.12
308.881	345.12
309.111	336.12
309.341	335.12
309.571	341.12
309.8	364.12
310.03	369.12
310.26	364.12
310.49	351.12
310.72	365.12
310.949	389.12
311.179	375.12
311.409	368.12
311.639	369.12
311.868	349.12
312.098	381.12
312.328	382.12
312.557	388.12
312.787	392.12
313.017	385.12
313.246	369.12
313.476	368.12
313.706	391.12
313.935	367.12
314.165	377.12
314.394	382.12
314.624	376.12
314.853	377.12
315.083	365.12
315.312	374.12
315.542	384.12
315.771	369.12
316.001	370.12
316.23	379.12
316.46	365.12
316.689	375.12
316.919	377.12
317.148	394.12
317.377	371.12
317.607	389.12
317.836	385.12
318.065	365.12
318.295	369.12
318.524	389.12
318.753	382.12
318.983	375.12
319.212	371.12
319.441	392.12
319.67	364.12
319.9	375.12
320.129	393.12
320.358	402.12
320.587	398.12
320.816	354.12
321.046	385.12
321.275	385.12
321.504	385.12
321.733	401.12
321.962	402.12
322.191	410.12
322.42	411.12
322.649	415.12
322.878	424.12
323.108	423.12
323.337	446.12
323.566	447.12
323.795	466.12
324.024	489.12
324.253	582.12
324.482	797.12
324.71	1109.12
324.939	1481.12
325.168	1259.12
325.397	731.12
325.626	563.12
325.855	478.12
326.084	471.12
326.313	442.12
326.542	462.12
326.77	489.12
326.999	540.12
327.228	719.12
327.457	983.12
327.686	1110.12
327.914	800.12
328.143	588.12
328.372	535.12
328.6	494.12
328.829	491.12
329.058	487.12
329.287	482.12
329.515	490.12
329.744	468.12
329.972	480.12
330.201	482.12
330.43	516.12
330.658	503.12
330.887	529.12
331.115	528.12
331.344	470.12
331.572	450.12
331.801	442.12
332.03	465.12
332.258	461.12
332.486	458.12
332.715	453.12
332.943	426.12
333.172	453.12
333.4	455.12
333.629	462.12
333.857	460.12
334.085	474.12
334.314	478.12
334.542	483.12
334.771	505.12
334.999	475.12
335.227	444.12
335.455	453.12
335.684	437.12
335.912	452.12
336.14	449.12
336.369	449.12
336.597	457.12
336.825	432.12
337.053	443.12
337.281	444.12
337.51	433.12
337.738	431.12
337.966	427.12
338.194	427.12
338.422	416.12
338.65	427.12
338.878	421.12
339.106	421.12
339.334	417.12
339.562	437.12
339.79	397.12
340.018	415.12
340.246	428.12
340.474	413.12
340.702	421.12
340.93	395.12
341.158	425.12
341.386	431.12
341.614	413.12
341.842	402.12
342.07	411.12
342.298	407.12
342.526	401.12
342.754	405.12
342.981	396.12
343.209	397.12
343.437	420.12
343.665	419.12
343.893	434.12
344.12	445.12
344.348	426.12
344.576	424.12
344.804	423.12
345.031	425.12
345.259	434.12
345.487	420.12
345.714	403.12
345.942	415.12
346.17	408.12
346.397	415.12
346.625	398.12
346.853	395.12
347.08	405.12
347.308	409.12
347.535	398.12
347.763	396.12
347.99	409.12
348.218	407.12
348.445	399.12
348.673	404.12
348.9	391.12
349.128	380.12
349.355	379.12
349.583	389.12
349.81	377.12
350.037	395.12
350.265	377.12
350.492	388.12
350.72	392.12
350.947	391.12
351.174	392.12
351.402	413.12
351.629	394.12
351.856	386.12
352.083	389.12
352.311	387.12
352.538	391.12
352.765	393.12
352.992	390.12
353.22	382.12
353.447	400.12
353.674	377.12
353.901	385.12
354.128	380.12
354.355	386.12
354.583	370.12
354.81	369.12
355.037	367.12
355.264	367.12
355.491	373.12
355.718	382.12
355.945	348.12
356.172	365.12
356.399	355.12
356.626	373.12
356.853	365.12
357.08	367.12
357.307	377.12
357.534	378.12
357.761	354.12
357.988	365.12
358.215	399.12
358.441	393.12
358.668	377.12
358.895	372.12
359.122	374.12
359.349	387.12
359.576	381.12
359.802	389.12
360.029	395.12
360.256	405.12
360.483	409.12
360.709	375.12
360.936	391.12
361.163	375.12
361.39	383.12
361.616	380.12
361.843	388.12
362.07	353.12
362.296	386.12
362.523	382.12
362.749	366.12
362.976	379.12
363.203	371.12
363.429	364.12
363.656	377.12
363.882	384.12
364.109	374.12
364.335	351.12
364.562	369.12
364.788	360.12
365.015	377.12
365.241	375.12
365.468	369.12
365.694	369.12
365.92	371.12
366.147	370.12
366.373	361.12
366.599	377.12
366.826	357.12
367.052	374.12
367.278	377.12
367.505	363.12
367.731	373.12
367.957	378.12
368.184	360.12
368.41	385.12
368.636	395.12
368.862	362.12
369.089	373.12
369.315	377.12
369.541	370.12
369.767	382.12
369.993	386.12
370.219	362.12
370.445	362.12
370.672	365.12
370.898	362.12
371.124	367.12
371.35	343.12
371.576	362.12
371.802	378.12
372.028	363.12
372.254	383.12
372.48	371.12
372.706	364.12
372.932	368.12
373.158	359.12
373.384	389.12
373.61	385.12
373.835	366.12
374.061	380.12
374.287	371.12
374.513	369.12
374.739	365.12
374.965	376.12
375.191	375.12
375.416	385.12
375.642	371.12
375.868	372.12
376.094	357.12
376.319	368.12
376.545	361.12
376.771	357.12
376.997	364.12
377.222	358.12
377.448	362.12
377.674	363.12
377.899	361.12
378.125	364.12
378.35	367.12
378.576	367.12
378.802	364.12
379.027	363.12
379.253	372.12
379.478	372.12
379.704	366.12
379.929	381.12
380.155	367.12
380.38	352.12
380.606	377.12
380.831	365.12
381.057	367.12
381.282	357.12
381.507	380.12
381.733	361.12
381.958	364.12
382.184	380.12
382.409	386.12
382.634	377.12
382.86	380.12
383.085	380.12
383.31	380.12
383.535	375.12
383.761	393.12
383.986	370.12
384.211	386.12
384.436	380.12
384.662	388.12
384.887	391.12
385.112	380.12
385.337	408.12
385.562	402.12
385.787	394.12
386.013	401.12
386.238	387.12
386.463	400.12
386.688	402.12
386.913	369.12
387.138	377.12
387.363	385.12
387.588	390.12
387.813	391.12
388.038	382.12
388.263	394.12
388.488	393.12
388.713	392.12
388.938	403.12
389.163	393.12
389.387	394.12
389.612	387.12
389.837	395.12
390.062	396.12
390.287	394.12
390.512	376.12
390.736	370.12
390.961	391.12
391.186	400.12
391.411	402.12
391.636	394.12
391.86	398.12
392.085	412.12
392.31	402.12
392.534	402.12
392.759	405.12
392.984	402.12
393.208	396.12
393.433	402.12
393.658	407.12
393.882	393.12
394.107	377.12
394.331	393.12
394.556	389.12
394.78	393.12
395.005	403.12
395.229	405.12
395.454	405.12
395.678	390.12
395.903	417.12
396.127	411.12
396.352	402.12
396.576	387.12
396.801	386.12
397.025	393.12
397.249	413.12
397.474	416.12
397.698	412.12
397.922	412.12
398.147	417.12
398.371	433.12
398.595	440.12
398.82	455.12
399.044	465.12
399.268	465.12
399.492	499.12
399.717	487.12
399.941	527.12
400.165	524.12
400.389	498.12
400.613	490.12
400.837	466.12
401.062	440.12
401.286	443.12
401.51	427.12
401.734	429.12
401.958	446.12
402.182	425.12
402.406	430.12
402.63	440.12
402.854	447.12
403.078	451.12
403.302	433.12
403.526	453.12
403.75	425.12
403.974	424.12
404.198	440.12
404.422	482.12
404.645	453.12
404.869	455.12
405.093	493.12
405.317	511.12
405.541	521.12
405.765	495.12
405.988	481.12
406.212	465.12
406.436	492.12
406.66	491.12
406.883	488.12
407.107	490.12
407.331	496.12
407.555	556.12
407.778	576.12
408.002	524.12
408.226	485.12
408.449	482.12
408.673	491.12
408.896	505.12
409.12	527.12
409.344	531.12
409.567	472.12
409.791	447.12
410.014	455.12
410.238	452.12
410.461	458.12
410.685	439.12
410.908	448.12
411.132	483.12
411.355	484.12
411.578	495.12
411.802	459.12
412.025	437.12
412.249	434.12
412.472	456.12
412.695	486.12
412.919	477.12
413.142	466.12
413.365	430.12
413.589	432.12
413.812	437.12
414.035	420.12
414.258	425.12
414.482	409.12
414.705	425.12
414.928	415.12
415.151	422.12
415.374	411.12
415.597	397.12
415.821	424.12
416.044	406.12
416.267	415.12
416.49	423.12
416.713	419.12
416.936	407.12
417.159	412.12
417.382	418.12
417.605	427.12
417.828	422.12
418.051	437.12
418.274	441.12
418.497	431.12
418.72	429.12
418.943	430.12
419.166	451.12
419.389	430.12
419.611	441.12
419.834	428.12
420.057	433.12
420.28	417.12
420.503	429.12
420.726	414.12
420.948	467.12
421.171	469.12
421.394	474.12
421.617	439.12
421.839	415.12
422.062	431.12
422.285	430.12
422.507	465.12
422.73	533.12
422.953	476.12
423.175	451.12
423.398	454.12
423.621	449.12
423.843	453.12
424.066	467.12
424.288	470.12
424.511	465.12
424.733	503.12
424.956	569.12
425.178	539.12
425.401	521.12
425.623	563.12
425.846	499.12
426.068	449.12
426.291	463.12
426.513	435.12
426.735	437.12
426.958	480.12
427.18	544.12
427.402	617.12
427.625	676.12
427.847	577.12
428.069	515.12
428.292	480.12
428.514	431.12
428.736	435.12
428.958	419.12
429.181	403.12
429.403	427.12
429.625	433.12
429.847	430.12
430.069	494.12
430.292	503.12
430.514	427.12
430.736	426.12
430.958	429.12
431.18	404.12
431.402	395.12
431.624	383.12
431.846	376.12
432.068	393.12
432.29	387.12
432.512	398.12
432.734	402.12
432.956	402.12
433.178	416.12
433.4	384.12
433.622	392.12
433.844	413.12
434.066	400.12
434.287	394.12
434.509	408.12
434.731	417.12
434.953	429.12
435.175	409.12
435.397	443.12
435.618	443.12
435.84	483.12
436.062	527.12
436.284	592.12
436.505	495.12
436.727	446.12
436.949	446.12
437.17	404.12
437.392	418.12
437.614	440.12
437.835	457.12
438.057	511.12
438.278	559.12
438.5	559.12
438.721	607.12
438.943	582.12
439.165	492.12
439.386	459.12
439.608	457.12
439.829	443.12
440.05	446.12
440.272	478.12
440.493	456.12
440.715	417.12
440.936	396.12
441.158	434.12
441.379	441.12
441.6	426.12
441.822	463.12
442.043	472.12
442.264	523.12
442.486	545.12
442.707	459.12
442.928	465.12
443.149	466.12
443.371	457.12
443.592	506.12
443.813	542.12
444.034	589.12
444.255	505.12
444.476	473.12
444.698	472.12
444.919	441.12
445.14	514.12
445.361	476.12
445.582	499.12
445.803	511.12
446.024	569.12
446.245	582.12
446.466	539.12
446.687	464.12
446.908	453.12
447.129	413.12
447.35	422.12
447.571	419.12
447.792	409.12
448.013	409.12
448.234	402.12
448.455	459.12
448.675	521.12
448.896	578.12
449.117	521.12
449.338	488.12
449.559	576.12
449.779	631.12
450	517.12
450.221	433.12
450.442	401.12
450.662	409.12
450.883	400.12
451.104	393.12
451.324	381.12
451.545	380.12
451.766	381.12
451.986	364.12
452.207	370.12
452.428	372.12
452.648	377.12
452.869	366.12
453.089	368.12
453.31	364.12
453.53	373.12
453.751	361.12
453.971	363.12
454.192	385.12
454.412	371.12
454.633	354.12
454.853	357.12
455.073	360.12
455.294	405.12
455.514	417.12
455.734	405.12
455.955	370.12
456.175	336.12
456.395	347.12
456.616	355.12
456.836	350.12
457.056	373.12
457.276	347.12
457.497	381.12
457.717	368.12
457.937	346.12
458.157	357.12
458.377	363.12
458.598	375.12
458.818	405.12
459.038	441.12
459.258	452.12
459.478	417.12
459.698	414.12
459.918	397.12
460.138	397.12
460.358	407.12
460.578	393.12
460.798	393.12
461.018	426.12
461.238	406.12
461.458	402.12
461.678	391.12
461.898	387.12
462.118	423.12
462.338	417.12
462.558	433.12
462.777	415.12
462.997	442.12
463.217	453.12
463.437	447.12
463.657	440.12
463.876	438.12
464.096	425.12
464.316	418.12
464.536	430.12
464.755	445.12
464.975	415.12
465.195	443.12
465.414	475.12
465.634	427.12
465.854	404.12
466.073	393.12
466.293	397.12
466.512	413.12
466.732	385.12
466.951	402.12
467.171	373.12
467.391	383.12
467.61	384.12
467.829	388.12
468.049	399.12
468.268	385.12
468.488	379.12
468.707	360.12
468.927	370.12
469.146	384.12
469.365	380.12
469.585	371.12
469.804	378.12
470.023	361.12
470.243	389.12
470.462	395.12
470.681	391.12
470.901	412.12
471.12	367.12
471.339	378.12
471.558	400.12
471.777	396.12
471.997	372.12
472.216	403.12
472.435	425.12
472.654	397.12
472.873	392.12
473.092	388.12
473.311	407.12
473.53	395.12
473.749	391.12
473.968	440.12
474.187	489.12
474.406	480.12
474.625	426.12
474.844	426.12
475.063	394.12
475.282	390.12
475.501	378.12
475.72	400.12
475.939	409.12
476.158	401.12
476.377	410.12
476.596	388.12
476.814	409.12
477.033	412.12
477.252	401.12
477.471	418.12
477.69	431.12
477.908	404.12
478.127	421.12
478.346	433.12
478.564	427.12
478.783	442.12
479.002	430.12
479.22	445.12
479.439	457.12
479.658	462.12
479.876	441.12
480.095	460.12
480.313	482.12
480.532	491.12
480.751	489.12
480.969	448.12
481.188	496.12
481.406	524.12
481.624	497.12
481.843	470.12
482.061	454.12
482.28	447.12
482.498	432.12
482.717	441.12
482.935	450.12
483.153	451.12
483.372	437.12
483.59	458.12
483.808	443.12
484.027	457.12
484.245	459.12
484.463	441.12
484.681	475.12
484.9	441.12
485.118	464.12
485.336	443.12
485.554	466.12
485.772	464.12
485.99	465.12
486.209	461.12
486.427	461.12
486.645	459.12
486.863	460.12
487.081	491.12
487.299	481.12
487.517	466.12
487.735	481.12
487.953	491.12
488.171	456.12
488.389	462.12
488.607	455.12
488.825	478.12
489.043	490.12
489.261	487.12
489.479	461.12
489.696	463.12
489.914	468.12
490.132	474.12
490.35	472.12
490.568	488.12
490.786	521.12
491.003	491.12
491.221	503.12
491.439	489.12
491.657	497.12
491.874	538.12
492.092	521.12
492.31	520.12
492.527	541.12
492.745	521.12
492.963	510.12
493.18	532.12
493.398	557.12
493.615	541.12
493.833	547.12
494.05	558.12
494.268	553.12
494.485	521.12
494.703	549.12
494.92	551.12
495.138	539.12
495.355	546.12
495.573	560.12
495.79	527.12
496.008	566.12
496.225	553.12
496.442	540.12
496.66	566.12
496.877	571.12
497.094	559.12
497.312	562.12
497.529	555.12
497.746	595.12
497.963	576.12
498.181	621.12
498.398	618.12
498.615	639.12
498.832	638.12
499.049	645.12
499.267	680.12
499.484	695.12
499.701	716.12
499.918	690.12
500.135	755.12
500.352	750.12
500.569	790.12
500.786	800.12
501.003	765.12
501.22	744.12
501.437	755.12
501.654	720.12
501.871	695.12
