Data from 1960PennyLincolnUp.LampE5.5.200Scan.07172019.P1.ChangedAngle_HRD10591_13-14-17-821.txt Node
Date: Thu Jul 18 13:14:17 EDT 2019
User: cochatt
Spectrometer: HR+D1059
Trigger mode: 1
Integration Time (sec): 1.000000E-1
Scans to average: 1
Electric dark correction enabled: true
Nonlinearity correction enabled: false
Boxcar width: 0
XAxis mode: Wavelengths
Number of Pixels in Spectrum: 2048
>>>>>Begin Spectral Data<<<<<
223.165	-27.88
223.4	-27.88
223.635	-27.88
223.869	-12.88
224.104	-14.88
224.338	-6.88
224.573	-16.88
224.808	-14.88
225.042	-5.88
225.277	-22.88
225.511	-15.88
225.746	1.12
225.98	6.12
226.215	-1.88
226.449	26.12
226.683	29.12
226.918	34.12
227.152	44.12
227.387	18.12
227.621	37.12
227.856	39.12
228.09	41.12
228.324	53.12
228.559	45.12
228.793	50.12
229.027	76.12
229.262	93.12
229.496	101.12
229.73	93.12
229.964	107.12
230.199	88.12
230.433	90.12
230.667	97.12
230.901	98.12
231.136	106.12
231.37	91.12
231.604	93.12
231.838	94.12
232.072	103.12
232.306	113.12
232.541	99.12
232.775	110.12
233.009	111.12
233.243	106.12
233.477	112.12
233.711	113.12
233.945	107.12
234.179	101.12
234.413	105.12
234.647	113.12
234.881	91.12
235.115	97.12
235.349	109.12
235.583	103.12
235.817	111.12
236.051	113.12
236.285	113.12
236.519	119.12
236.753	114.12
236.987	114.12
237.221	140.12
237.455	157.12
237.689	140.12
237.922	126.12
238.156	113.12
238.39	104.12
238.624	124.12
238.858	115.12
239.091	102.12
239.325	93.12
239.559	107.12
239.793	111.12
240.027	110.12
240.26	124.12
240.494	133.12
240.728	123.12
240.961	132.12
241.195	118.12
241.429	126.12
241.662	111.12
241.896	120.12
242.13	119.12
242.363	122.12
242.597	121.12
242.83	133.12
243.064	126.12
243.298	125.12
243.531	127.12
243.765	134.12
243.998	125.12
244.232	130.12
244.465	114.12
244.699	125.12
244.932	120.12
245.166	131.12
245.399	116.12
245.633	127.12
245.866	127.12
246.099	132.12
246.333	121.12
246.566	141.12
246.8	141.12
247.033	131.12
247.266	146.12
247.5	141.12
247.733	145.12
247.966	140.12
248.2	153.12
248.433	146.12
248.666	157.12
248.899	156.12
249.133	166.12
249.366	153.12
249.599	168.12
249.832	151.12
250.066	151.12
250.299	156.12
250.532	166.12
250.765	164.12
250.998	181.12
251.231	183.12
251.465	168.12
251.698	190.12
251.931	165.12
252.164	169.12
252.397	171.12
252.63	186.12
252.863	178.12
253.096	190.12
253.329	183.12
253.562	171.12
253.795	190.12
254.028	190.12
254.261	180.12
254.494	183.12
254.727	188.12
254.96	197.12
255.193	206.12
255.426	200.12
255.659	183.12
255.892	196.12
256.124	200.12
256.357	201.12
256.59	175.12
256.823	195.12
257.056	184.12
257.289	185.12
257.521	192.12
257.754	164.12
257.987	181.12
258.22	174.12
258.452	185.12
258.685	174.12
258.918	176.12
259.151	180.12
259.383	209.12
259.616	207.12
259.849	200.12
260.081	194.12
260.314	186.12
260.547	192.12
260.779	219.12
261.012	199.12
261.244	188.12
261.477	199.12
261.71	191.12
261.942	186.12
262.175	200.12
262.407	199.12
262.64	182.12
262.872	189.12
263.105	198.12
263.337	186.12
263.57	192.12
263.802	188.12
264.035	200.12
264.267	198.12
264.499	179.12
264.732	195.12
264.964	188.12
265.197	204.12
265.429	196.12
265.661	199.12
265.894	208.12
266.126	192.12
266.358	189.12
266.591	191.12
266.823	208.12
267.055	198.12
267.287	193.12
267.52	205.12
267.752	201.12
267.984	218.12
268.216	202.12
268.448	197.12
268.681	203.12
268.913	217.12
269.145	222.12
269.377	242.12
269.609	228.12
269.841	227.12
270.073	230.12
270.306	242.12
270.538	235.12
270.77	237.12
271.002	241.12
271.234	230.12
271.466	231.12
271.698	242.12
271.93	256.12
272.162	257.12
272.394	250.12
272.626	258.12
272.858	254.12
273.09	240.12
273.322	235.12
273.553	235.12
273.785	232.12
274.017	232.12
274.249	228.12
274.481	226.12
274.713	215.12
274.945	244.12
275.176	236.12
275.408	241.12
275.64	248.12
275.872	249.12
276.104	244.12
276.335	237.12
276.567	241.12
276.799	237.12
277.031	265.12
277.262	263.12
277.494	278.12
277.726	264.12
277.957	258.12
278.189	249.12
278.421	256.12
278.652	248.12
278.884	242.12
279.115	229.12
279.347	253.12
279.579	249.12
279.81	262.12
280.042	251.12
280.273	245.12
280.505	252.12
280.736	248.12
280.968	240.12
281.199	244.12
281.431	249.12
281.662	230.12
281.894	252.12
282.125	250.12
282.356	288.12
282.588	276.12
282.819	250.12
283.051	254.12
283.282	266.12
283.513	255.12
283.745	256.12
283.976	252.12
284.207	262.12
284.439	267.12
284.67	257.12
284.901	269.12
285.132	275.12
285.364	253.12
285.595	255.12
285.826	272.12
286.057	256.12
286.288	266.12
286.52	268.12
286.751	274.12
286.982	253.12
287.213	277.12
287.444	264.12
287.675	295.12
287.906	281.12
288.138	273.12
288.369	282.12
288.6	268.12
288.831	267.12
289.062	260.12
289.293	275.12
289.524	265.12
289.755	262.12
289.986	280.12
290.217	268.12
290.448	280.12
290.679	267.12
290.91	272.12
291.141	270.12
291.371	269.12
291.602	290.12
291.833	263.12
292.064	290.12
292.295	251.12
292.526	275.12
292.757	283.12
292.987	270.12
293.218	253.12
293.449	274.12
293.68	270.12
293.91	279.12
294.141	289.12
294.372	274.12
294.603	282.12
294.833	272.12
295.064	281.12
295.295	280.12
295.525	284.12
295.756	283.12
295.987	278.12
296.217	273.12
296.448	308.12
296.679	297.12
296.909	278.12
297.14	290.12
297.37	283.12
297.601	289.12
297.831	290.12
298.062	290.12
298.292	290.12
298.523	290.12
298.753	299.12
298.984	285.12
299.214	284.12
299.445	281.12
299.675	312.12
299.905	297.12
300.136	287.12
300.366	288.12
300.597	280.12
300.827	301.12
301.057	312.12
301.288	301.12
301.518	287.12
301.748	296.12
301.979	297.12
302.209	308.12
302.439	301.12
302.669	315.12
302.9	308.12
303.13	295.12
303.36	299.12
303.59	317.12
303.82	310.12
304.051	317.12
304.281	304.12
304.511	296.12
304.741	299.12
304.971	308.12
305.201	314.12
305.431	300.12
305.661	304.12
305.891	313.12
306.121	323.12
306.352	311.12
306.582	321.12
306.812	309.12
307.042	303.12
307.272	314.12
307.502	309.12
307.731	305.12
307.961	317.12
308.191	318.12
308.421	302.12
308.651	302.12
308.881	303.12
309.111	314.12
309.341	320.12
309.571	313.12
309.8	318.12
310.03	330.12
310.26	332.12
310.49	337.12
310.72	337.12
310.949	323.12
311.179	336.12
311.409	329.12
311.639	334.12
311.868	329.12
312.098	316.12
312.328	338.12
312.557	328.12
312.787	354.12
313.017	358.12
313.246	342.12
313.476	336.12
313.706	342.12
313.935	335.12
314.165	348.12
314.394	365.12
314.624	356.12
314.853	330.12
315.083	333.12
315.312	347.12
315.542	329.12
315.771	339.12
316.001	328.12
316.23	369.12
316.46	326.12
316.689	349.12
316.919	330.12
317.148	359.12
317.377	349.12
317.607	345.12
317.836	345.12
318.065	353.12
318.295	341.12
318.524	341.12
318.753	352.12
318.983	358.12
319.212	331.12
319.441	341.12
319.67	361.12
319.9	353.12
320.129	347.12
320.358	355.12
320.587	361.12
320.816	353.12
321.046	353.12
321.275	359.12
321.504	361.12
321.733	360.12
321.962	359.12
322.191	356.12
322.42	367.12
322.649	357.12
322.878	386.12
323.108	385.12
323.337	399.12
323.566	391.12
323.795	418.12
324.024	440.12
324.253	507.12
324.482	647.12
324.71	901.12
324.939	1211.12
325.168	994.12
325.397	562.12
325.626	465.12
325.855	400.12
326.084	402.12
326.313	410.12
326.542	422.12
326.77	408.12
326.999	472.12
327.228	583.12
327.457	802.12
327.686	875.12
327.914	640.12
328.143	490.12
328.372	446.12
328.6	439.12
328.829	424.12
329.058	413.12
329.287	406.12
329.515	408.12
329.744	428.12
329.972	404.12
330.201	416.12
330.43	446.12
330.658	428.12
330.887	453.12
331.115	430.12
331.344	408.12
331.572	408.12
331.801	409.12
332.03	395.12
332.258	399.12
332.486	386.12
332.715	411.12
332.943	397.12
333.172	408.12
333.4	403.12
333.629	423.12
333.857	402.12
334.085	437.12
334.314	421.12
334.542	435.12
334.771	463.12
334.999	436.12
335.227	416.12
335.455	399.12
335.684	413.12
335.912	390.12
336.14	377.12
336.369	380.12
336.597	401.12
336.825	402.12
337.053	392.12
337.281	397.12
337.51	395.12
337.738	392.12
337.966	397.12
338.194	389.12
338.422	398.12
338.65	379.12
338.878	374.12
339.106	385.12
339.334	399.12
339.562	390.12
339.79	391.12
340.018	367.12
340.246	356.12
340.474	388.12
340.702	380.12
340.93	366.12
341.158	387.12
341.386	391.12
341.614	381.12
341.842	378.12
342.07	367.12
342.298	376.12
342.526	387.12
342.754	374.12
342.981	381.12
343.209	362.12
343.437	359.12
343.665	381.12
343.893	403.12
344.12	405.12
344.348	386.12
344.576	391.12
344.804	401.12
345.031	393.12
345.259	396.12
345.487	378.12
345.714	382.12
345.942	386.12
346.17	369.12
346.397	364.12
346.625	368.12
346.853	362.12
347.08	356.12
347.308	362.12
347.535	381.12
347.763	368.12
347.99	355.12
348.218	379.12
348.445	363.12
348.673	377.12
348.9	374.12
349.128	358.12
349.355	339.12
349.583	360.12
349.81	336.12
350.037	364.12
350.265	362.12
350.492	360.12
350.72	360.12
350.947	339.12
351.174	349.12
351.402	347.12
351.629	349.12
351.856	361.12
352.083	360.12
352.311	376.12
352.538	365.12
352.765	354.12
352.992	358.12
353.22	354.12
353.447	331.12
353.674	330.12
353.901	348.12
354.128	333.12
354.355	348.12
354.583	346.12
354.81	337.12
355.037	334.12
355.264	350.12
355.491	326.12
355.718	332.12
355.945	341.12
356.172	345.12
356.399	356.12
356.626	322.12
356.853	329.12
357.08	336.12
357.307	326.12
357.534	333.12
357.761	349.12
357.988	341.12
358.215	328.12
358.441	334.12
358.668	329.12
358.895	342.12
359.122	376.12
359.349	354.12
359.576	329.12
359.802	362.12
360.029	374.12
360.256	358.12
360.483	370.12
360.709	361.12
360.936	377.12
361.163	344.12
361.39	336.12
361.616	368.12
361.843	342.12
362.07	354.12
362.296	348.12
362.523	348.12
362.749	345.12
362.976	345.12
363.203	355.12
363.429	334.12
363.656	349.12
363.882	353.12
364.109	338.12
364.335	322.12
364.562	343.12
364.788	330.12
365.015	340.12
365.241	348.12
365.468	334.12
365.694	337.12
365.92	349.12
366.147	361.12
366.373	348.12
366.599	356.12
366.826	332.12
367.052	332.12
367.278	314.12
367.505	331.12
367.731	326.12
367.957	334.12
368.184	341.12
368.41	352.12
368.636	335.12
368.862	348.12
369.089	329.12
369.315	337.12
369.541	346.12
369.767	337.12
369.993	323.12
370.219	335.12
370.445	348.12
370.672	343.12
370.898	347.12
371.124	333.12
371.35	356.12
371.576	349.12
371.802	339.12
372.028	325.12
372.254	330.12
372.48	337.12
372.706	342.12
372.932	354.12
373.158	342.12
373.384	341.12
373.61	346.12
373.835	321.12
374.061	332.12
374.287	325.12
374.513	340.12
374.739	364.12
374.965	362.12
375.191	336.12
375.416	342.12
375.642	339.12
375.868	358.12
376.094	341.12
376.319	315.12
376.545	345.12
376.771	345.12
376.997	324.12
377.222	337.12
377.448	333.12
377.674	347.12
377.899	320.12
378.125	343.12
378.35	325.12
378.576	318.12
378.802	315.12
379.027	330.12
379.253	358.12
379.478	332.12
379.704	332.12
379.929	342.12
380.155	326.12
380.38	321.12
380.606	329.12
380.831	342.12
381.057	334.12
381.282	323.12
381.507	339.12
381.733	320.12
381.958	318.12
382.184	338.12
382.409	357.12
382.634	331.12
382.86	358.12
383.085	337.12
383.31	356.12
383.535	339.12
383.761	342.12
383.986	360.12
384.211	348.12
384.436	340.12
384.662	358.12
384.887	353.12
385.112	367.12
385.337	372.12
385.562	361.12
385.787	360.12
386.013	388.12
386.238	391.12
386.463	364.12
386.688	367.12
386.913	374.12
387.138	381.12
387.363	356.12
387.588	367.12
387.813	366.12
388.038	360.12
388.263	361.12
388.488	392.12
388.713	360.12
388.938	365.12
389.163	358.12
389.387	362.12
389.612	362.12
389.837	366.12
390.062	371.12
390.287	334.12
390.512	358.12
390.736	360.12
390.961	361.12
391.186	380.12
391.411	364.12
391.636	378.12
391.86	386.12
392.085	383.12
392.31	382.12
392.534	376.12
392.759	380.12
392.984	375.12
393.208	367.12
393.433	404.12
393.658	378.12
393.882	368.12
394.107	372.12
394.331	364.12
394.556	354.12
394.78	354.12
395.005	365.12
395.229	379.12
395.454	381.12
395.678	392.12
395.903	378.12
396.127	388.12
396.352	386.12
396.576	395.12
396.801	371.12
397.025	398.12
397.249	402.12
397.474	382.12
397.698	377.12
397.922	399.12
398.147	403.12
398.371	408.12
398.595	401.12
398.82	404.12
399.044	405.12
399.268	427.12
399.492	442.12
399.717	464.12
399.941	498.12
400.165	494.12
400.389	487.12
400.613	465.12
400.837	429.12
401.062	408.12
401.286	416.12
401.51	414.12
401.734	395.12
401.958	419.12
402.182	412.12
402.406	405.12
402.63	400.12
402.854	427.12
403.078	419.12
403.302	411.12
403.526	416.12
403.75	412.12
403.974	423.12
404.198	400.12
404.422	412.12
404.645	393.12
404.869	421.12
405.093	435.12
405.317	455.12
405.541	482.12
405.765	433.12
405.988	439.12
406.212	422.12
406.436	445.12
406.66	452.12
406.883	435.12
407.107	451.12
407.331	486.12
407.555	502.12
407.778	500.12
408.002	471.12
408.226	451.12
408.449	461.12
408.673	450.12
408.896	459.12
409.12	480.12
409.344	480.12
409.567	418.12
409.791	431.12
410.014	413.12
410.238	419.12
410.461	433.12
410.685	430.12
410.908	413.12
411.132	447.12
411.355	458.12
411.578	428.12
411.802	409.12
412.025	419.12
412.249	404.12
412.472	438.12
412.695	445.12
412.919	420.12
413.142	424.12
413.365	398.12
413.589	406.12
413.812	385.12
414.035	379.12
414.258	399.12
414.482	403.12
414.705	402.12
414.928	394.12
415.151	390.12
415.374	392.12
415.597	395.12
415.821	391.12
416.044	402.12
416.267	389.12
416.49	391.12
416.713	372.12
416.936	383.12
417.159	398.12
417.382	386.12
417.605	370.12
417.828	389.12
418.051	396.12
418.274	380.12
418.497	399.12
418.72	388.12
418.943	386.12
419.166	397.12
419.389	388.12
419.611	413.12
419.834	424.12
420.057	412.12
420.28	399.12
420.503	394.12
420.726	401.12
420.948	420.12
421.171	440.12
421.394	461.12
421.617	410.12
421.839	392.12
422.062	389.12
422.285	404.12
422.507	442.12
422.73	477.12
422.953	462.12
423.175	413.12
423.398	392.12
423.621	408.12
423.843	401.12
424.066	421.12
424.288	431.12
424.511	411.12
424.733	434.12
424.956	475.12
425.178	479.12
425.401	485.12
425.623	526.12
425.846	437.12
426.068	401.12
426.291	407.12
426.513	421.12
426.735	437.12
426.958	447.12
427.18	472.12
427.402	555.12
427.625	596.12
427.847	532.12
428.069	452.12
428.292	422.12
428.514	394.12
428.736	385.12
428.958	390.12
429.181	382.12
429.403	378.12
429.625	379.12
429.847	405.12
430.069	436.12
430.292	432.12
430.514	394.12
430.736	379.12
430.958	388.12
431.18	380.12
431.402	381.12
431.624	368.12
431.846	362.12
432.068	378.12
432.29	382.12
432.512	358.12
432.734	366.12
432.956	367.12
433.178	390.12
433.4	370.12
433.622	363.12
433.844	389.12
434.066	343.12
434.287	376.12
434.509	371.12
434.731	376.12
434.953	382.12
435.175	404.12
435.397	412.12
435.618	405.12
435.84	455.12
436.062	452.12
436.284	528.12
436.505	440.12
436.727	412.12
436.949	393.12
437.17	376.12
437.392	384.12
437.614	387.12
437.835	397.12
438.057	444.12
438.278	510.12
438.5	496.12
438.721	545.12
438.943	526.12
439.165	440.12
439.386	420.12
439.608	390.12
439.829	395.12
440.05	405.12
440.272	428.12
440.493	410.12
440.715	404.12
440.936	386.12
441.158	406.12
441.379	374.12
441.6	375.12
441.822	418.12
442.043	418.12
442.264	472.12
442.486	502.12
442.707	420.12
442.928	397.12
443.149	408.12
443.371	430.12
443.592	458.12
443.813	504.12
444.034	516.12
444.255	455.12
444.476	411.12
444.698	417.12
444.919	422.12
445.14	544.12
445.361	483.12
445.582	426.12
445.803	461.12
446.024	503.12
446.245	485.12
446.466	465.12
446.687	434.12
446.908	402.12
447.129	398.12
447.35	391.12
447.571	363.12
447.792	382.12
448.013	367.12
448.234	393.12
448.455	427.12
448.675	482.12
448.896	556.12
449.117	490.12
449.338	434.12
449.559	516.12
449.779	577.12
450	437.12
450.221	406.12
450.442	371.12
450.662	347.12
450.883	362.12
451.104	363.12
451.324	373.12
451.545	337.12
451.766	354.12
451.986	336.12
452.207	352.12
452.428	326.12
452.648	334.12
452.869	332.12
453.089	343.12
453.31	355.12
453.53	343.12
453.751	336.12
453.971	338.12
454.192	350.12
454.412	342.12
454.633	331.12
454.853	346.12
455.073	325.12
455.294	357.12
455.514	391.12
455.734	354.12
455.955	329.12
456.175	353.12
456.395	324.12
456.616	309.12
456.836	324.12
457.056	317.12
457.276	338.12
457.497	350.12
457.717	335.12
457.937	316.12
458.157	353.12
458.377	345.12
458.598	336.12
458.818	388.12
459.038	395.12
459.258	423.12
459.478	374.12
459.698	376.12
459.918	356.12
460.138	356.12
460.358	396.12
460.578	375.12
460.798	393.12
461.018	396.12
461.238	372.12
461.458	386.12
461.678	392.12
461.898	378.12
462.118	381.12
462.338	419.12
462.558	402.12
462.777	374.12
462.997	411.12
463.217	427.12
463.437	422.12
463.657	400.12
463.876	411.12
464.096	407.12
464.316	394.12
464.536	412.12
464.755	408.12
464.975	396.12
465.195	392.12
465.414	428.12
465.634	406.12
465.854	381.12
466.073	381.12
466.293	376.12
466.512	369.12
466.732	360.12
466.951	365.12
467.171	331.12
467.391	357.12
467.61	370.12
467.829	367.12
468.049	359.12
468.268	352.12
468.488	362.12
468.707	364.12
468.927	354.12
469.146	326.12
469.365	352.12
469.585	354.12
469.804	359.12
470.023	354.12
470.243	377.12
470.462	354.12
470.681	367.12
470.901	354.12
471.12	371.12
471.339	345.12
471.558	360.12
471.777	371.12
471.997	346.12
472.216	366.12
472.435	361.12
472.654	387.12
472.873	361.12
473.092	355.12
473.311	376.12
473.53	370.12
473.749	366.12
473.968	381.12
474.187	431.12
474.406	443.12
474.625	388.12
474.844	364.12
475.063	356.12
475.282	370.12
475.501	356.12
475.72	355.12
475.939	373.12
476.158	380.12
476.377	373.12
476.596	381.12
476.814	369.12
477.033	377.12
477.252	365.12
477.471	380.12
477.69	375.12
477.908	406.12
478.127	388.12
478.346	419.12
478.564	406.12
478.783	409.12
479.002	411.12
479.22	421.12
479.439	417.12
479.658	428.12
479.876	417.12
480.095	442.12
480.313	443.12
480.532	435.12
480.751	438.12
480.969	443.12
481.188	440.12
481.406	440.12
481.624	441.12
481.843	440.12
482.061	419.12
482.28	418.12
482.498	414.12
482.717	425.12
482.935	422.12
483.153	412.12
483.372	414.12
483.59	431.12
483.808	421.12
484.027	427.12
484.245	409.12
484.463	413.12
484.681	427.12
484.9	435.12
485.118	424.12
485.336	410.12
485.554	424.12
485.772	430.12
485.99	420.12
486.209	452.12
486.427	434.12
486.645	429.12
486.863	448.12
487.081	443.12
487.299	450.12
487.517	443.12
487.735	428.12
487.953	451.12
488.171	445.12
488.389	426.12
488.607	432.12
488.825	423.12
489.043	440.12
489.261	435.12
489.479	441.12
489.696	458.12
489.914	451.12
490.132	444.12
490.35	475.12
490.568	456.12
490.786	443.12
491.003	464.12
491.221	476.12
491.439	459.12
491.657	503.12
491.874	467.12
492.092	492.12
492.31	490.12
492.527	469.12
492.745	502.12
492.963	502.12
493.18	488.12
493.398	501.12
493.615	496.12
493.833	484.12
494.05	492.12
494.268	508.12
494.485	493.12
494.703	519.12
494.92	508.12
495.138	489.12
495.355	496.12
495.573	509.12
495.79	509.12
496.008	513.12
496.225	500.12
496.442	514.12
496.66	536.12
496.877	508.12
497.094	514.12
497.312	519.12
497.529	529.12
497.746	527.12
497.963	532.12
498.181	546.12
498.398	551.12
498.615	568.12
498.832	585.12
499.049	584.12
499.267	615.12
499.484	638.12
499.701	648.12
499.918	694.12
500.135	707.12
500.352	744.12
500.569	733.12
500.786	764.12
501.003	755.12
501.22	702.12
501.437	696.12
501.654	674.12
501.871	685.12
502.088	645.12
