Data from 1960PennyLincolnUp.LampE6.200Scan.07172019.P1_HRD10591_13-06-38-002.txt Node
Date: Thu Jul 18 13:06:38 EDT 2019
User: cochatt
Spectrometer: HR+D1059
Trigger mode: 1
Integration Time (sec): 1.000000E-1
Scans to average: 1
Electric dark correction enabled: true
Nonlinearity correction enabled: false
Boxcar width: 0
XAxis mode: Wavelengths
Number of Pixels in Spectrum: 2048
>>>>>Begin Spectral Data<<<<<
223.165	-23.56
223.4	-23.56
223.635	-23.56
223.869	-16.56
224.104	-17.56
224.338	-17.56
224.573	-26.56
224.808	0.44
225.042	-5.56
225.277	-9.56
225.511	1.44
225.746	3.44
225.98	7.44
226.215	11.44
226.449	21.44
226.683	21.44
226.918	13.44
227.152	36.44
227.387	20.44
227.621	20.44
227.856	37.44
228.09	35.44
228.324	35.44
228.559	38.44
228.793	62.44
229.027	73.44
229.262	96.44
229.496	100.44
229.73	91.44
229.964	112.44
230.199	108.44
230.433	89.44
230.667	93.44
230.901	107.44
231.136	103.44
231.37	112.44
231.604	102.44
231.838	106.44
232.072	113.44
232.306	116.44
232.541	88.44
232.775	113.44
233.009	109.44
233.243	115.44
233.477	104.44
233.711	113.44
233.945	117.44
234.179	105.44
234.413	99.44
234.647	107.44
234.881	100.44
235.115	116.44
235.349	109.44
235.583	109.44
235.817	110.44
236.051	123.44
236.285	110.44
236.519	108.44
236.753	119.44
236.987	128.44
237.221	146.44
237.455	187.44
237.689	135.44
237.922	119.44
238.156	119.44
238.39	115.44
238.624	124.44
238.858	106.44
239.091	111.44
239.325	122.44
239.559	114.44
239.793	120.44
240.027	116.44
240.26	128.44
240.494	136.44
240.728	140.44
240.961	133.44
241.195	120.44
241.429	138.44
241.662	121.44
241.896	112.44
242.13	123.44
242.363	132.44
242.597	125.44
242.83	128.44
243.064	139.44
243.298	117.44
243.531	128.44
243.765	123.44
243.998	127.44
244.232	149.44
244.465	145.44
244.699	134.44
244.932	123.44
245.166	128.44
245.399	146.44
245.633	148.44
245.866	136.44
246.099	133.44
246.333	134.44
246.566	144.44
246.8	140.44
247.033	158.44
247.266	132.44
247.5	158.44
247.733	157.44
247.966	162.44
248.2	160.44
248.433	154.44
248.666	159.44
248.899	172.44
249.133	168.44
249.366	164.44
249.599	154.44
249.832	164.44
250.066	154.44
250.299	185.44
250.532	175.44
250.765	197.44
250.998	193.44
251.231	203.44
251.465	185.44
251.698	182.44
251.931	191.44
252.164	188.44
252.397	182.44
252.63	178.44
252.863	191.44
253.096	197.44
253.329	181.44
253.562	209.44
253.795	196.44
254.028	187.44
254.261	186.44
254.494	202.44
254.727	221.44
254.96	227.44
255.193	232.44
255.426	192.44
255.659	208.44
255.892	199.44
256.124	188.44
256.357	214.44
256.59	204.44
256.823	193.44
257.056	181.44
257.289	175.44
257.521	191.44
257.754	184.44
257.987	195.44
258.22	186.44
258.452	176.44
258.685	182.44
258.918	197.44
259.151	203.44
259.383	188.44
259.616	200.44
259.849	210.44
260.081	204.44
260.314	216.44
260.547	208.44
260.779	214.44
261.012	227.44
261.244	199.44
261.477	200.44
261.71	235.44
261.942	212.44
262.175	209.44
262.407	211.44
262.64	212.44
262.872	200.44
263.105	185.44
263.337	195.44
263.57	192.44
263.802	190.44
264.035	185.44
264.267	198.44
264.499	209.44
264.732	202.44
264.964	205.44
265.197	195.44
265.429	196.44
265.661	203.44
265.894	200.44
266.126	207.44
266.358	205.44
266.591	204.44
266.823	221.44
267.055	200.44
267.287	218.44
267.52	207.44
267.752	218.44
267.984	211.44
268.216	220.44
268.448	229.44
268.681	221.44
268.913	229.44
269.145	230.44
269.377	250.44
269.609	261.44
269.841	239.44
270.073	238.44
270.306	266.44
270.538	273.44
270.77	263.44
271.002	266.44
271.234	267.44
271.466	266.44
271.698	270.44
271.93	297.44
272.162	284.44
272.394	268.44
272.626	273.44
272.858	247.44
273.09	243.44
273.322	264.44
273.553	258.44
273.785	247.44
274.017	251.44
274.249	260.44
274.481	244.44
274.713	249.44
274.945	244.44
275.176	246.44
275.408	245.44
275.64	250.44
275.872	254.44
276.104	258.44
276.335	244.44
276.567	255.44
276.799	260.44
277.031	259.44
277.262	297.44
277.494	285.44
277.726	263.44
277.957	261.44
278.189	275.44
278.421	272.44
278.652	265.44
278.884	266.44
279.115	267.44
279.347	258.44
279.579	251.44
279.81	266.44
280.042	254.44
280.273	259.44
280.505	260.44
280.736	277.44
280.968	254.44
281.199	282.44
281.431	259.44
281.662	258.44
281.894	254.44
282.125	271.44
282.356	270.44
282.588	296.44
282.819	286.44
283.051	289.44
283.282	282.44
283.513	280.44
283.745	273.44
283.976	306.44
284.207	287.44
284.439	292.44
284.67	284.44
284.901	285.44
285.132	283.44
285.364	293.44
285.595	277.44
285.826	282.44
286.057	279.44
286.288	278.44
286.52	304.44
286.751	297.44
286.982	289.44
287.213	294.44
287.444	281.44
287.675	282.44
287.906	311.44
288.138	302.44
288.369	286.44
288.6	296.44
288.831	305.44
289.062	310.44
289.293	300.44
289.524	300.44
289.755	294.44
289.986	293.44
290.217	283.44
290.448	298.44
290.679	295.44
290.91	285.44
291.141	300.44
291.371	294.44
291.602	302.44
291.833	285.44
292.064	311.44
292.295	303.44
292.526	300.44
292.757	304.44
292.987	299.44
293.218	295.44
293.449	299.44
293.68	294.44
293.91	294.44
294.141	308.44
294.372	325.44
294.603	305.44
294.833	304.44
295.064	297.44
295.295	323.44
295.525	300.44
295.756	331.44
295.987	324.44
296.217	310.44
296.448	334.44
296.679	328.44
296.909	324.44
297.14	304.44
297.37	318.44
297.601	302.44
297.831	318.44
298.062	310.44
298.292	334.44
298.523	322.44
298.753	324.44
298.984	320.44
299.214	313.44
299.445	328.44
299.675	313.44
299.905	338.44
300.136	348.44
300.366	326.44
300.597	328.44
300.827	342.44
301.057	353.44
301.288	353.44
301.518	349.44
301.748	350.44
301.979	354.44
302.209	332.44
302.439	346.44
302.669	334.44
302.9	342.44
303.13	330.44
303.36	335.44
303.59	339.44
303.82	351.44
304.051	352.44
304.281	369.44
304.511	356.44
304.741	351.44
304.971	327.44
305.201	337.44
305.431	361.44
305.661	341.44
305.891	350.44
306.121	331.44
306.352	319.44
306.582	333.44
306.812	343.44
307.042	338.44
307.272	342.44
307.502	358.44
307.731	336.44
307.961	344.44
308.191	356.44
308.421	330.44
308.651	352.44
308.881	351.44
309.111	353.44
309.341	360.44
309.571	351.44
309.8	369.44
310.03	364.44
310.26	351.44
310.49	351.44
310.72	371.44
310.949	364.44
311.179	384.44
311.409	364.44
311.639	364.44
311.868	383.44
312.098	375.44
312.328	377.44
312.557	398.44
312.787	390.44
313.017	358.44
313.246	371.44
313.476	377.44
313.706	384.44
313.935	369.44
314.165	391.44
314.394	400.44
314.624	399.44
314.853	378.44
315.083	378.44
315.312	370.44
315.542	356.44
315.771	384.44
316.001	395.44
316.23	371.44
316.46	370.44
316.689	369.44
316.919	374.44
317.148	382.44
317.377	393.44
317.607	391.44
317.836	364.44
318.065	371.44
318.295	363.44
318.524	382.44
318.753	396.44
318.983	397.44
319.212	382.44
319.441	385.44
319.67	374.44
319.9	385.44
320.129	368.44
320.358	391.44
320.587	356.44
320.816	395.44
321.046	402.44
321.275	393.44
321.504	390.44
321.733	382.44
321.962	403.44
322.191	404.44
322.42	373.44
322.649	402.44
322.878	384.44
323.108	416.44
323.337	415.44
323.566	422.44
323.795	456.44
324.024	490.44
324.253	544.44
324.482	718.44
324.71	1041.44
324.939	1406.44
325.168	1160.44
325.397	608.44
325.626	490.44
325.855	461.44
326.084	444.44
326.313	430.44
326.542	436.44
326.77	489.44
326.999	554.44
327.228	693.44
327.457	962.44
327.686	1116.44
327.914	733.44
328.143	549.44
328.372	516.44
328.6	492.44
328.829	481.44
329.058	480.44
329.287	486.44
329.515	502.44
329.744	458.44
329.972	488.44
330.201	465.44
330.43	497.44
330.658	510.44
330.887	542.44
331.115	511.44
331.344	474.44
331.572	469.44
331.801	471.44
332.03	468.44
332.258	495.44
332.486	461.44
332.715	487.44
332.943	490.44
333.172	492.44
333.4	504.44
333.629	503.44
333.857	517.44
334.085	538.44
334.314	525.44
334.542	563.44
334.771	536.44
334.999	534.44
335.227	508.44
335.455	478.44
335.684	488.44
335.912	486.44
336.14	489.44
336.369	470.44
336.597	490.44
336.825	462.44
337.053	465.44
337.281	492.44
337.51	484.44
337.738	461.44
337.966	451.44
338.194	446.44
338.422	454.44
338.65	438.44
338.878	461.44
339.106	464.44
339.334	448.44
339.562	433.44
339.79	453.44
340.018	432.44
340.246	424.44
340.474	436.44
340.702	445.44
340.93	428.44
341.158	437.44
341.386	434.44
341.614	441.44
341.842	423.44
342.07	450.44
342.298	416.44
342.526	437.44
342.754	424.44
342.981	434.44
343.209	435.44
343.437	448.44
343.665	461.44
343.893	489.44
344.12	490.44
344.348	479.44
344.576	477.44
344.804	446.44
345.031	464.44
345.259	443.44
345.487	435.44
345.714	443.44
345.942	414.44
346.17	421.44
346.397	420.44
346.625	417.44
346.853	415.44
347.08	414.44
347.308	436.44
347.535	418.44
347.763	428.44
347.99	431.44
348.218	441.44
348.445	410.44
348.673	430.44
348.9	402.44
349.128	408.44
349.355	421.44
349.583	420.44
349.81	422.44
350.037	392.44
350.265	412.44
350.492	394.44
350.72	397.44
350.947	418.44
351.174	411.44
351.402	407.44
351.629	410.44
351.856	425.44
352.083	396.44
352.311	408.44
352.538	418.44
352.765	410.44
352.992	427.44
353.22	398.44
353.447	398.44
353.674	416.44
353.901	401.44
354.128	417.44
354.355	382.44
354.583	386.44
354.81	398.44
355.037	400.44
355.264	417.44
355.491	408.44
355.718	392.44
355.945	389.44
356.172	398.44
356.399	419.44
356.626	378.44
356.853	393.44
357.08	382.44
357.307	397.44
357.534	404.44
357.761	420.44
357.988	408.44
358.215	400.44
358.441	407.44
358.668	414.44
358.895	401.44
359.122	422.44
359.349	413.44
359.576	421.44
359.802	434.44
360.029	449.44
360.256	435.44
360.483	445.44
360.709	408.44
360.936	420.44
361.163	408.44
361.39	423.44
361.616	427.44
361.843	415.44
362.07	424.44
362.296	418.44
362.523	421.44
362.749	405.44
362.976	422.44
363.203	402.44
363.429	404.44
363.656	394.44
363.882	400.44
364.109	413.44
364.335	419.44
364.562	405.44
364.788	391.44
365.015	400.44
365.241	388.44
365.468	401.44
365.694	417.44
365.92	398.44
366.147	410.44
366.373	412.44
366.599	388.44
366.826	403.44
367.052	394.44
367.278	402.44
367.505	410.44
367.731	406.44
367.957	403.44
368.184	407.44
368.41	415.44
368.636	422.44
368.862	426.44
369.089	416.44
369.315	418.44
369.541	423.44
369.767	414.44
369.993	454.44
370.219	420.44
370.445	429.44
370.672	424.44
370.898	410.44
371.124	423.44
371.35	402.44
371.576	403.44
371.802	426.44
372.028	416.44
372.254	414.44
372.48	437.44
372.706	426.44
372.932	442.44
373.158	430.44
373.384	433.44
373.61	435.44
373.835	413.44
374.061	408.44
374.287	437.44
374.513	435.44
374.739	449.44
374.965	468.44
375.191	448.44
375.416	452.44
375.642	448.44
375.868	423.44
376.094	433.44
376.319	427.44
376.545	398.44
376.771	428.44
376.997	425.44
377.222	403.44
377.448	426.44
377.674	425.44
377.899	434.44
378.125	413.44
378.35	412.44
378.576	404.44
378.802	415.44
379.027	419.44
379.253	399.44
379.478	419.44
379.704	393.44
379.929	429.44
380.155	410.44
380.38	423.44
380.606	436.44
380.831	425.44
381.057	431.44
381.282	431.44
381.507	416.44
381.733	435.44
381.958	424.44
382.184	439.44
382.409	436.44
382.634	450.44
382.86	425.44
383.085	453.44
383.31	445.44
383.535	444.44
383.761	458.44
383.986	458.44
384.211	472.44
384.436	452.44
384.662	463.44
384.887	482.44
385.112	490.44
385.337	489.44
385.562	468.44
385.787	486.44
386.013	508.44
386.238	470.44
386.463	488.44
386.688	490.44
386.913	493.44
387.138	474.44
387.363	466.44
387.588	448.44
387.813	502.44
388.038	468.44
388.263	475.44
388.488	490.44
388.713	461.44
388.938	461.44
389.163	461.44
389.387	488.44
389.612	463.44
389.837	474.44
390.062	486.44
390.287	468.44
390.512	467.44
390.736	450.44
390.961	469.44
391.186	463.44
391.411	484.44
391.636	516.44
391.86	522.44
392.085	518.44
392.31	526.44
392.534	513.44
392.759	520.44
392.984	500.44
393.208	499.44
393.433	490.44
393.658	491.44
393.882	479.44
394.107	489.44
394.331	503.44
394.556	502.44
394.78	520.44
395.005	508.44
395.229	501.44
395.454	518.44
395.678	531.44
395.903	500.44
396.127	537.44
396.352	543.44
396.576	489.44
396.801	500.44
397.025	515.44
397.249	532.44
397.474	533.44
397.698	547.44
397.922	524.44
398.147	543.44
398.371	554.44
398.595	560.44
398.82	557.44
399.044	586.44
399.268	628.44
399.492	714.44
399.717	785.44
399.941	774.44
400.165	734.44
400.389	704.44
400.613	631.44
400.837	592.44
401.062	576.44
401.286	587.44
401.51	565.44
401.734	560.44
401.958	568.44
402.182	595.44
402.406	582.44
402.63	580.44
402.854	605.44
403.078	612.44
403.302	586.44
403.526	636.44
403.75	641.44
403.974	645.44
404.198	626.44
404.422	634.44
404.645	638.44
404.869	615.44
405.093	627.44
405.317	673.44
405.541	696.44
405.765	655.44
405.988	639.44
406.212	658.44
406.436	650.44
406.66	671.44
406.883	661.44
407.107	688.44
407.331	715.44
407.555	782.44
407.778	758.44
408.002	708.44
408.226	677.44
408.449	669.44
408.673	651.44
408.896	648.44
409.12	691.44
409.344	670.44
409.567	614.44
409.791	621.44
410.014	612.44
410.238	616.44
410.461	612.44
410.685	620.44
410.908	612.44
411.132	632.44
411.355	626.44
411.578	641.44
411.802	589.44
412.025	576.44
412.249	593.44
412.472	617.44
412.695	620.44
412.919	625.44
413.142	582.44
413.365	566.44
413.589	585.44
413.812	574.44
414.035	577.44
414.258	582.44
414.482	552.44
414.705	578.44
414.928	578.44
415.151	591.44
415.374	593.44
415.597	568.44
415.821	547.44
416.044	542.44
416.267	539.44
416.49	552.44
416.713	562.44
416.936	559.44
417.159	559.44
417.382	553.44
417.605	562.44
417.828	550.44
418.051	577.44
418.274	563.44
418.497	564.44
418.72	568.44
418.943	577.44
419.166	608.44
419.389	654.44
419.611	589.44
419.834	621.44
420.057	605.44
420.28	582.44
420.503	568.44
420.726	570.44
420.948	604.44
421.171	631.44
421.394	635.44
421.617	610.44
421.839	576.44
422.062	570.44
422.285	600.44
422.507	634.44
422.73	647.44
422.953	670.44
423.175	604.44
423.398	605.44
423.621	616.44
423.843	625.44
424.066	644.44
424.288	614.44
424.511	625.44
424.733	657.44
424.956	693.44
425.178	681.44
425.401	678.44
425.623	683.44
425.846	595.44
426.068	591.44
426.291	579.44
426.513	577.44
426.735	584.44
426.958	585.44
427.18	650.44
427.402	737.44
427.625	778.44
427.847	710.44
428.069	624.44
428.292	576.44
428.514	528.44
428.736	532.44
428.958	533.44
429.181	511.44
429.403	526.44
429.625	532.44
429.847	561.44
430.069	590.44
430.292	583.44
430.514	538.44
430.736	547.44
430.958	544.44
431.18	521.44
431.402	536.44
431.624	484.44
431.846	515.44
432.068	541.44
432.29	548.44
432.512	517.44
432.734	528.44
432.956	528.44
433.178	530.44
433.4	527.44
433.622	515.44
433.844	534.44
434.066	509.44
434.287	530.44
434.509	539.44
434.731	559.44
434.953	577.44
435.175	578.44
435.397	602.44
435.618	589.44
435.84	579.44
436.062	643.44
436.284	658.44
436.505	588.44
436.727	560.44
436.949	521.44
437.17	529.44
437.392	508.44
437.614	530.44
437.835	530.44
438.057	612.44
438.278	655.44
438.5	645.44
438.721	688.44
438.943	690.44
439.165	580.44
439.386	571.44
439.608	535.44
439.829	544.44
440.05	574.44
440.272	601.44
440.493	580.44
440.715	564.44
440.936	569.44
441.158	565.44
441.379	542.44
441.6	590.44
441.822	577.44
442.043	603.44
442.264	652.44
442.486	674.44
442.707	616.44
442.928	620.44
443.149	612.44
443.371	585.44
443.592	636.44
443.813	700.44
444.034	728.44
444.255	652.44
444.476	628.44
444.698	635.44
444.919	660.44
445.14	721.44
445.361	655.44
445.582	635.44
445.803	652.44
446.024	689.44
446.245	701.44
446.466	646.44
446.687	579.44
446.908	558.44
447.129	540.44
447.35	527.44
447.571	504.44
447.792	516.44
448.013	486.44
448.234	511.44
448.455	539.44
448.675	606.44
448.896	678.44
449.117	587.44
449.338	577.44
449.559	657.44
449.779	711.44
450	595.44
450.221	510.44
450.442	488.44
450.662	483.44
450.883	489.44
451.104	518.44
451.324	494.44
451.545	500.44
451.766	464.44
451.986	456.44
452.207	479.44
452.428	467.44
452.648	454.44
452.869	466.44
453.089	458.44
453.31	486.44
453.53	472.44
453.751	464.44
453.971	458.44
454.192	454.44
454.412	457.44
454.633	466.44
454.853	451.44
455.073	452.44
455.294	462.44
455.514	525.44
455.734	498.44
455.955	474.44
456.175	453.44
456.395	442.44
456.616	420.44
456.836	438.44
457.056	434.44
457.276	422.44
457.497	452.44
457.717	429.44
457.937	420.44
458.157	451.44
458.377	470.44
458.598	457.44
458.818	544.44
459.038	562.44
459.258	593.44
459.478	523.44
459.698	511.44
459.918	528.44
460.138	555.44
460.358	524.44
460.578	549.44
460.798	542.44
461.018	569.44
461.238	541.44
461.458	532.44
461.678	542.44
461.898	561.44
462.118	566.44
462.338	577.44
462.558	610.44
462.777	584.44
462.997	625.44
463.217	670.44
463.437	673.44
463.657	628.44
463.876	626.44
464.096	610.44
464.316	594.44
464.536	613.44
464.755	611.44
464.975	620.44
465.195	604.44
465.414	607.44
465.634	577.44
465.854	514.44
466.073	499.44
466.293	508.44
466.512	504.44
466.732	501.44
466.951	500.44
467.171	473.44
467.391	500.44
467.61	498.44
467.829	509.44
468.049	495.44
468.268	456.44
468.488	455.44
468.707	456.44
468.927	466.44
469.146	469.44
469.365	449.44
469.585	461.44
469.804	481.44
470.023	493.44
470.243	490.44
470.462	519.44
470.681	509.44
470.901	511.44
471.12	506.44
471.339	477.44
471.558	508.44
471.777	491.44
471.997	500.44
472.216	479.44
472.435	513.44
472.654	489.44
472.873	479.44
473.092	470.44
473.311	466.44
473.53	477.44
473.749	462.44
473.968	496.44
474.187	548.44
474.406	573.44
474.625	508.44
474.844	473.44
475.063	465.44
475.282	476.44
475.501	494.44
475.72	482.44
475.939	473.44
476.158	472.44
476.377	478.44
476.596	473.44
476.814	488.44
477.033	506.44
477.252	514.44
477.471	491.44
477.69	510.44
477.908	536.44
478.127	518.44
478.346	548.44
478.564	542.44
478.783	548.44
479.002	576.44
479.22	573.44
479.439	576.44
479.658	583.44
479.876	580.44
480.095	579.44
480.313	605.44
480.532	603.44
480.751	608.44
480.969	584.44
481.188	638.44
481.406	659.44
481.624	595.44
481.843	572.44
482.061	559.44
482.28	545.44
482.498	539.44
482.717	526.44
482.935	555.44
483.153	543.44
483.372	544.44
483.59	548.44
483.808	556.44
484.027	536.44
484.245	569.44
484.463	524.44
484.681	548.44
484.9	544.44
485.118	555.44
485.336	587.44
485.554	566.44
485.772	570.44
485.99	564.44
486.209	588.44
486.427	576.44
486.645	587.44
486.863	584.44
487.081	596.44
487.299	589.44
487.517	553.44
487.735	575.44
487.953	582.44
488.171	608.44
488.389	583.44
488.607	580.44
488.825	585.44
489.043	562.44
489.261	582.44
489.479	584.44
489.696	596.44
489.914	570.44
490.132	587.44
490.35	600.44
490.568	600.44
490.786	607.44
491.003	615.44
491.221	627.44
491.439	657.44
491.657	669.44
491.874	646.44
492.092	628.44
492.31	682.44
492.527	677.44
492.745	659.44
492.963	661.44
493.18	656.44
493.398	664.44
493.615	696.44
493.833	689.44
494.05	684.44
494.268	665.44
494.485	676.44
494.703	672.44
494.92	669.44
495.138	665.44
495.355	672.44
495.573	658.44
495.79	666.44
496.008	658.44
496.225	652.44
496.442	668.44
496.66	710.44
496.877	672.44
497.094	684.44
497.312	674.44
497.529	707.44
497.746	710.44
497.963	732.44
498.181	744.44
498.398	765.44
498.615	776.44
498.832	830.44
499.049	863.44
499.267	914.44
499.484	939.44
499.701	1008.44
499.918	1090.44
500.135	1203.44
500.352	1309.44
500.569	1336.44
500.786	1329.44
501.003	1268.44
501.22	1154.44
501.437	1082.44
501.654	1022.44
501.871	939.44
502.088	893.44
