Data from 1960PennyLincolnUp.LampE6.200Scan.07172019.P1_HRD10591_13-06-17-002.txt Node
Date: Thu Jul 18 13:06:17 EDT 2019
User: cochatt
Spectrometer: HR+D1059
Trigger mode: 1
Integration Time (sec): 1.000000E-1
Scans to average: 1
Electric dark correction enabled: true
Nonlinearity correction enabled: false
Boxcar width: 0
XAxis mode: Wavelengths
Number of Pixels in Spectrum: 2048
>>>>>Begin Spectral Data<<<<<
223.165	-12
223.4	-12
223.635	-12
223.869	-29
224.104	-8
224.338	-5
224.573	-11
224.808	-15
225.042	-14
225.277	-10
225.511	-9
225.746	-5
225.98	7
226.215	11
226.449	9
226.683	34
226.918	35
227.152	22
227.387	35
227.621	49
227.856	39
228.09	37
228.324	55
228.559	69
228.793	64
229.027	94
229.262	101
229.496	92
229.73	129
229.964	130
230.199	98
230.433	105
230.667	101
230.901	104
231.136	116
231.37	114
231.604	120
231.838	103
232.072	110
232.306	112
232.541	118
232.775	118
233.009	110
233.243	113
233.477	114
233.711	105
233.945	115
234.179	121
234.413	108
234.647	116
234.881	109
235.115	102
235.349	123
235.583	121
235.817	124
236.051	127
236.285	114
236.519	115
236.753	121
236.987	123
237.221	150
237.455	177
237.689	150
237.922	138
238.156	123
238.39	118
238.624	117
238.858	127
239.091	125
239.325	113
239.559	131
239.793	110
240.027	123
240.26	123
240.494	147
240.728	145
240.961	145
241.195	140
241.429	144
241.662	139
241.896	129
242.13	127
242.363	132
242.597	135
242.83	132
243.064	133
243.298	146
243.531	140
243.765	132
243.998	131
244.232	130
244.465	120
244.699	130
244.932	133
245.166	138
245.399	143
245.633	149
245.866	144
246.099	140
246.333	162
246.566	152
246.8	140
247.033	138
247.266	162
247.5	162
247.733	150
247.966	167
248.2	164
248.433	158
248.666	153
248.899	175
249.133	162
249.366	169
249.599	183
249.832	158
250.066	165
250.299	170
250.532	190
250.765	173
250.998	198
251.231	207
251.465	200
251.698	181
251.931	180
252.164	193
252.397	184
252.63	187
252.863	196
253.096	191
253.329	198
253.562	193
253.795	191
254.028	187
254.261	187
254.494	198
254.727	213
254.96	245
255.193	228
255.426	202
255.659	206
255.892	210
256.124	213
256.357	228
256.59	215
256.823	195
257.056	201
257.289	183
257.521	196
257.754	182
257.987	199
258.22	196
258.452	191
258.685	202
258.918	193
259.151	212
259.383	196
259.616	207
259.849	215
260.081	214
260.314	230
260.547	240
260.779	224
261.012	212
261.244	202
261.477	218
261.71	214
261.942	185
262.175	204
262.407	198
262.64	228
262.872	215
263.105	204
263.337	196
263.57	207
263.802	207
264.035	206
264.267	210
264.499	188
264.732	190
264.964	216
265.197	209
265.429	206
265.661	210
265.894	222
266.126	213
266.358	207
266.591	225
266.823	209
267.055	240
267.287	231
267.52	234
267.752	208
267.984	221
268.216	226
268.448	248
268.681	228
268.913	256
269.145	255
269.377	266
269.609	252
269.841	267
270.073	260
270.306	265
270.538	286
270.77	271
271.002	264
271.234	265
271.466	288
271.698	284
271.93	282
272.162	283
272.394	287
272.626	277
272.858	277
273.09	290
273.322	262
273.553	243
273.785	264
274.017	264
274.249	259
274.481	270
274.713	246
274.945	259
275.176	254
275.408	257
275.64	267
275.872	247
276.104	258
276.335	247
276.567	268
276.799	288
277.031	289
277.262	296
277.494	293
277.726	288
277.957	273
278.189	265
278.421	275
278.652	255
278.884	250
279.115	262
279.347	277
279.579	286
279.81	274
280.042	267
280.273	274
280.505	251
280.736	287
280.968	266
281.199	254
281.431	266
281.662	279
281.894	271
282.125	279
282.356	279
282.588	294
282.819	286
283.051	284
283.282	266
283.513	305
283.745	291
283.976	285
284.207	293
284.439	284
284.67	286
284.901	292
285.132	280
285.364	267
285.595	291
285.826	270
286.057	287
286.288	296
286.52	281
286.751	286
286.982	273
287.213	293
287.444	281
287.675	295
287.906	314
288.138	296
288.369	308
288.6	319
288.831	301
289.062	307
289.293	337
289.524	299
289.755	305
289.986	306
290.217	311
290.448	303
290.679	305
290.91	306
291.141	305
291.371	313
291.602	308
291.833	290
292.064	286
292.295	287
292.526	302
292.757	318
292.987	298
293.218	311
293.449	314
293.68	306
293.91	297
294.141	303
294.372	295
294.603	288
294.833	310
295.064	313
295.295	307
295.525	320
295.756	318
295.987	320
296.217	338
296.448	340
296.679	323
296.909	315
297.14	318
297.37	339
297.601	327
297.831	320
298.062	326
298.292	332
298.523	334
298.753	325
298.984	336
299.214	326
299.445	330
299.675	335
299.905	342
300.136	343
300.366	331
300.597	335
300.827	353
301.057	360
301.288	360
301.518	342
301.748	350
301.979	379
302.209	346
302.439	356
302.669	353
302.9	339
303.13	359
303.36	366
303.59	373
303.82	346
304.051	347
304.281	342
304.511	357
304.741	356
304.971	358
305.201	339
305.431	350
305.661	356
305.891	363
306.121	347
306.352	353
306.582	352
306.812	347
307.042	360
307.272	345
307.502	341
307.731	347
307.961	361
308.191	364
308.421	347
308.651	360
308.881	349
309.111	347
309.341	358
309.571	366
309.8	347
310.03	366
310.26	368
310.49	362
310.72	389
310.949	382
311.179	383
311.409	370
311.639	367
311.868	381
312.098	367
312.328	362
312.557	363
312.787	393
313.017	404
313.246	384
313.476	386
313.706	382
313.935	392
314.165	379
314.394	406
314.624	384
314.853	406
315.083	400
315.312	386
315.542	374
315.771	374
316.001	390
316.23	377
316.46	376
316.689	386
316.919	400
317.148	379
317.377	365
317.607	370
317.836	377
318.065	380
318.295	407
318.524	380
318.753	385
318.983	378
319.212	396
319.441	387
319.67	392
319.9	368
320.129	371
320.358	385
320.587	409
320.816	400
321.046	397
321.275	403
321.504	400
321.733	384
321.962	372
322.191	414
322.42	434
322.649	424
322.878	422
323.108	412
323.337	431
323.566	430
323.795	471
324.024	501
324.253	535
324.482	758
324.71	1067
324.939	1436
325.168	1190
325.397	665
325.626	501
325.855	458
326.084	437
326.313	455
326.542	466
326.77	507
326.999	536
327.228	711
327.457	958
327.686	1103
327.914	770
328.143	573
328.372	536
328.6	482
328.829	473
329.058	504
329.287	512
329.515	489
329.744	475
329.972	460
330.201	473
330.43	501
330.658	522
330.887	544
331.115	534
331.344	471
331.572	463
331.801	474
332.03	482
332.258	491
332.486	496
332.715	473
332.943	491
333.172	507
333.4	507
333.629	512
333.857	528
334.085	524
334.314	553
334.542	584
334.771	578
334.999	510
335.227	496
335.455	514
335.684	507
335.912	490
336.14	487
336.369	501
336.597	491
336.825	472
337.053	455
337.281	465
337.51	464
337.738	461
337.966	468
338.194	467
338.422	463
338.65	453
338.878	444
339.106	458
339.334	448
339.562	428
339.79	428
340.018	444
340.246	435
340.474	442
340.702	462
340.93	438
341.158	438
341.386	450
341.614	449
341.842	438
342.07	434
342.298	436
342.526	424
342.754	430
342.981	446
343.209	441
343.437	463
343.665	474
343.893	498
344.12	497
344.348	500
344.576	465
344.804	447
345.031	482
345.259	453
345.487	447
345.714	429
345.942	428
346.17	420
346.397	411
346.625	412
346.853	425
347.08	442
347.308	410
347.535	422
347.763	432
347.99	435
348.218	439
348.445	436
348.673	423
348.9	422
349.128	436
349.355	426
349.583	404
349.81	425
350.037	410
350.265	418
350.492	414
350.72	409
350.947	415
351.174	420
351.402	431
351.629	391
351.856	419
352.083	418
352.311	423
352.538	426
352.765	430
352.992	406
353.22	414
353.447	408
353.674	420
353.901	410
354.128	407
354.355	424
354.583	409
354.81	406
355.037	400
355.264	408
355.491	407
355.718	399
355.945	397
356.172	405
356.399	393
356.626	381
356.853	403
357.08	392
357.307	406
357.534	381
357.761	406
357.988	402
358.215	414
358.441	386
358.668	414
358.895	415
359.122	406
359.349	417
359.576	430
359.802	427
360.029	436
360.256	451
360.483	467
360.709	432
360.936	436
361.163	424
361.39	419
361.616	430
361.843	410
362.07	426
362.296	437
362.523	432
362.749	411
362.976	422
363.203	422
363.429	407
363.656	406
363.882	406
364.109	414
364.335	414
364.562	421
364.788	400
365.015	415
365.241	388
365.468	412
365.694	420
365.92	423
366.147	404
366.373	418
366.599	406
366.826	397
367.052	409
367.278	406
367.505	414
367.731	386
367.957	395
368.184	417
368.41	414
368.636	420
368.862	422
369.089	445
369.315	430
369.541	421
369.767	419
369.993	408
370.219	433
370.445	417
370.672	402
370.898	416
371.124	431
371.35	433
371.576	430
371.802	426
372.028	426
372.254	421
372.48	437
372.706	438
372.932	449
373.158	436
373.384	444
373.61	427
373.835	450
374.061	433
374.287	435
374.513	436
374.739	447
374.965	452
375.191	443
375.416	464
375.642	451
375.868	448
376.094	444
376.319	434
376.545	438
376.771	434
376.997	420
377.222	423
377.448	424
377.674	437
377.899	428
378.125	430
378.35	418
378.576	422
378.802	430
379.027	417
379.253	439
379.478	408
379.704	435
379.929	449
380.155	431
380.38	430
380.606	428
380.831	433
381.057	404
381.282	420
381.507	424
381.733	432
381.958	442
382.184	450
382.409	438
382.634	457
382.86	443
383.085	454
383.31	450
383.535	467
383.761	440
383.986	460
384.211	455
384.436	478
384.662	469
384.887	486
385.112	464
385.337	494
385.562	492
385.787	497
386.013	508
386.238	492
386.463	483
386.688	494
386.913	469
387.138	484
387.363	502
387.588	488
387.813	484
388.038	463
388.263	466
388.488	468
388.713	483
388.938	488
389.163	481
389.387	489
389.612	493
389.837	474
390.062	474
390.287	478
390.512	488
390.736	501
390.961	501
391.186	504
391.411	530
391.636	496
391.86	521
392.085	533
392.31	537
392.534	523
392.759	488
392.984	502
393.208	511
393.433	527
393.658	523
393.882	512
394.107	496
394.331	506
394.556	482
394.78	515
395.005	509
395.229	505
395.454	506
395.678	528
395.903	526
396.127	548
396.352	532
396.576	518
396.801	528
397.025	522
397.249	551
397.474	518
397.698	530
397.922	537
398.147	544
398.371	554
398.595	550
398.82	559
399.044	609
399.268	648
399.492	717
399.717	784
399.941	775
400.165	759
400.389	707
400.613	663
400.837	619
401.062	607
401.286	592
401.51	572
401.734	585
401.958	574
402.182	582
402.406	625
402.63	620
402.854	596
403.078	619
403.302	630
403.526	644
403.75	619
403.974	654
404.198	648
404.422	610
404.645	627
404.869	664
405.093	667
405.317	700
405.541	683
405.765	646
405.988	641
406.212	653
406.436	678
406.66	663
406.883	672
407.107	670
407.331	752
407.555	756
407.778	740
408.002	716
408.226	658
408.449	663
408.673	672
408.896	686
409.12	672
409.344	686
409.567	614
409.791	615
410.014	614
410.238	599
410.461	622
410.685	620
410.908	642
411.132	647
411.355	642
411.578	644
411.802	605
412.025	608
412.249	598
412.472	614
412.695	634
412.919	624
413.142	588
413.365	592
413.589	573
413.812	588
414.035	582
414.258	574
414.482	579
414.705	583
414.928	579
415.151	549
415.374	569
415.597	568
415.821	561
416.044	567
416.267	569
416.49	553
416.713	563
416.936	574
417.159	565
417.382	572
417.605	563
417.828	567
418.051	598
418.274	557
418.497	576
418.72	581
418.943	563
419.166	612
419.389	624
419.611	598
419.834	613
420.057	607
420.28	605
420.503	599
420.726	583
420.948	600
421.171	608
421.394	619
421.617	570
421.839	571
422.062	576
422.285	596
422.507	644
422.73	686
422.953	668
423.175	617
423.398	610
423.621	615
423.843	618
424.066	629
424.288	596
424.511	637
424.733	642
424.956	696
425.178	650
425.401	674
425.623	680
425.846	615
426.068	608
426.291	561
426.513	554
426.735	567
426.958	597
427.18	682
427.402	740
427.625	788
427.847	722
428.069	662
428.292	595
428.514	560
428.736	537
428.958	559
429.181	519
429.403	504
429.625	546
429.847	557
430.069	596
430.292	592
430.514	560
430.736	516
430.958	517
431.18	530
431.402	524
431.624	505
431.846	519
432.068	529
432.29	513
432.512	519
432.734	537
432.956	520
433.178	534
433.4	512
433.622	526
433.844	549
434.066	536
434.287	531
434.509	540
434.731	555
434.953	568
435.175	592
435.397	599
435.618	588
435.84	606
436.062	624
436.284	685
436.505	619
436.727	559
436.949	530
437.17	548
437.392	560
437.614	538
437.835	556
438.057	610
438.278	657
438.5	675
438.721	720
438.943	732
439.165	611
439.386	558
439.608	588
439.829	547
440.05	585
440.272	596
440.493	582
440.715	543
440.936	551
441.158	540
441.379	535
441.6	558
441.822	576
442.043	619
442.264	674
442.486	660
442.707	610
442.928	611
443.149	596
443.371	609
443.592	647
443.813	719
444.034	752
444.255	668
444.476	630
444.698	629
444.919	643
445.14	722
445.361	657
445.582	628
445.803	671
446.024	706
446.245	715
446.466	649
446.687	560
446.908	556
447.129	533
447.35	533
447.571	519
447.792	523
448.013	522
448.234	527
448.455	548
448.675	618
448.896	693
449.117	609
449.338	597
449.559	654
449.779	729
450	587
450.221	507
450.442	488
450.662	491
450.883	526
451.104	537
451.324	511
451.545	481
451.766	458
451.986	494
452.207	469
452.428	480
452.648	469
452.869	478
453.089	499
453.31	486
453.53	485
453.751	483
453.971	470
454.192	498
454.412	481
454.633	473
454.853	456
455.073	463
455.294	480
455.514	522
455.734	508
455.955	460
456.175	463
456.395	455
456.616	457
456.836	440
457.056	434
457.276	438
457.497	426
457.717	448
457.937	459
458.157	460
458.377	441
458.598	482
458.818	524
459.038	554
459.258	598
459.478	535
459.698	520
459.918	507
460.138	527
460.358	566
460.578	541
460.798	562
461.018	572
461.238	562
461.458	555
461.678	552
461.898	553
462.118	553
462.338	575
462.558	603
462.777	608
462.997	642
463.217	672
463.437	661
463.657	640
463.876	627
464.096	627
464.316	619
464.536	620
464.755	618
464.975	598
465.195	590
465.414	619
465.634	594
465.854	549
466.073	522
466.293	500
466.512	486
466.732	489
466.951	494
467.171	476
467.391	489
467.61	498
467.829	492
468.049	503
468.268	494
468.488	468
468.707	479
468.927	496
469.146	462
469.365	469
469.585	488
469.804	496
470.023	497
470.243	498
470.462	505
470.681	518
470.901	539
471.12	512
471.339	509
471.558	502
471.777	480
471.997	496
472.216	488
472.435	484
472.654	488
472.873	481
473.092	470
473.311	473
473.53	491
473.749	465
473.968	503
474.187	563
474.406	568
474.625	502
474.844	480
475.063	472
475.282	489
475.501	468
475.72	491
475.939	494
476.158	494
476.377	486
476.596	487
476.814	521
477.033	503
477.252	515
477.471	516
477.69	505
477.908	532
478.127	554
478.346	566
478.564	551
478.783	579
479.002	586
479.22	574
479.439	572
479.658	582
479.876	581
480.095	607
480.313	620
480.532	612
480.751	630
480.969	618
481.188	625
481.406	653
481.624	594
481.843	571
482.061	554
482.28	562
482.498	544
482.717	553
482.935	551
483.153	552
483.372	545
483.59	546
483.808	548
484.027	539
484.245	565
484.463	555
484.681	567
484.9	563
485.118	553
485.336	566
485.554	576
485.772	583
485.99	571
486.209	593
486.427	570
486.645	564
486.863	586
487.081	577
487.299	588
487.517	578
487.735	578
487.953	590
488.171	575
488.389	577
488.607	575
488.825	564
489.043	565
489.261	582
489.479	606
489.696	590
489.914	572
490.132	616
490.35	607
490.568	623
490.786	624
491.003	621
491.221	642
491.439	638
491.657	629
491.874	660
492.092	665
492.31	664
492.527	665
492.745	676
492.963	657
493.18	666
493.398	672
493.615	648
493.833	672
494.05	651
494.268	661
494.485	670
494.703	673
494.92	704
495.138	649
495.355	672
495.573	674
495.79	660
496.008	646
496.225	658
496.442	655
496.66	686
496.877	673
497.094	664
497.312	668
497.529	694
497.746	707
497.963	726
498.181	750
498.398	788
498.615	808
498.832	828
499.049	876
499.267	922
499.484	960
499.701	1036
499.918	1085
500.135	1185
500.352	1273
500.569	1326
500.786	1324
501.003	1272
501.22	1190
501.437	1109
501.654	1030
501.871	965
502.088	901
502.305	842
502.522	825
502.739	783
502.956	766
503.172	743
503.389	730
503.606	717
503.823	685
504.04	695
504.256	684
504.473	715
504.69	737
504.907	710
505.123	688
505.34	661
505.557	646
505.773	644
505.99	639
506.207	644
506.423	621
506.64	614
506.856	609
507.073	624
507.289	587
507.506	611
507.722	584
507.939	597
508.155	594
508.372	596
508.588	594
508.805	560
509.021	576
509.238	599
509.454	576
509.67	569
509.887	546
510.103	563
510.319	564
510.536	619
510.752	879
510.968	792
511.184	581
511.401	569
511.617	530
511.833	552
512.049	550
512.265	528
512.481	547
512.698	544
512.914	564
513.13	550
513.346	536
513.562	533
513.778	551
513.994	558
514.21	546
514.426	564
514.642	583
514.858	616
515.074	645
515.29	722
515.506	940
515.721	833
515.937	626
516.153	611
516.369	600
516.585	576
516.801	607
517.016	620
517.232	633
517.448	632
517.664	640
517.879	665
518.095	654
518.311	638
518.527	610
518.742	609
518.958	570
519.173	554
519.389	591
519.605	564
519.82	552
520.036	544
520.251	555
520.467	583
520.682	568
520.898	574
521.113	553
521.329	625
521.544	637
521.76	748
521.975	1171
522.19	1154
522.406	674
522.621	552
522.836	533
523.052	510
523.267	497
523.482	521
523.698	488
523.913	519
524.128	493
524.343	486
524.559	481
524.774	494
524.989	495
525.204	472
525.419	479
525.634	440
525.849	464
526.064	481
526.28	488
526.495	471
526.71	463
526.925	463
527.14	465
527.355	465
527.57	462
527.785	458
527.999	454
528.214	450
528.429	468
528.644	458
528.859	461
529.074	477
529.289	479
529.503	529
529.718	498
529.933	463
530.148	458
530.363	466
530.577	439
530.792	434
531.007	457
531.221	467
531.436	451
531.651	456
531.865	453
532.08	467
532.295	455
532.509	434
532.724	446
532.938	457
533.153	454
533.367	447
533.582	464
533.796	459
534.011	439
534.225	463
534.44	438
534.654	474
534.868	439
535.083	445
535.297	447
535.511	451
535.726	465
535.94	441
536.154	428
536.369	457
536.583	433
536.797	417
537.011	414
537.225	437
537.44	424
537.654	428
537.868	416
538.082	427
538.296	423
538.51	423
538.724	439
538.938	434
539.153	432
539.367	447
539.581	428
539.795	427
540.009	426
540.222	434
540.436	418
540.65	436
540.864	428
541.078	422
541.292	452
541.506	435
541.72	436
541.934	430
542.147	435
542.361	436
542.575	430
542.789	423
543.002	428
543.216	405
543.43	408
543.644	430
543.857	424
544.071	419
544.285	433
544.498	427
544.712	419
544.925	404
545.139	422
545.352	398
545.566	446
545.779	427
545.993	428
546.206	438
546.42	434
546.633	442
546.847	426
547.06	421
547.274	430
547.487	414
547.7	426
547.914	423
548.127	428
548.34	447
548.554	432
548.767	424
548.98	426
549.193	414
549.407	438
549.62	430
549.833	424
550.046	438
550.259	427
550.473	424
550.686	432
550.899	431
551.112	431
551.325	424
551.538	430
551.751	412
551.964	417
552.177	422
552.39	437
552.603	416
552.816	428
553.029	460
553.242	437
553.455	466
553.667	462
553.88	467
554.093	456
554.306	446
554.519	443
554.732	446
554.944	438
555.157	418
555.37	398
555.583	419
555.795	388
556.008	389
556.221	399
556.433	385
556.646	403
556.859	394
557.071	388
557.284	386
557.496	376
557.709	378
557.921	366
558.134	375
558.346	372
558.559	380
558.771	372
558.984	356
559.196	360
559.409	369
559.621	363
559.833	375
560.046	358
560.258	347
560.47	363
560.683	354
560.895	366
561.107	363
561.32	358
561.532	386
561.744	369
561.956	364
562.168	365
562.381	377
562.593	374
562.805	354
563.017	358
563.229	363
563.441	356
