Data from 1960PennyLincolnUp.LampE5.5.200Scan.07172019.P1.ChangedAngle_HRD10591_13-14-07-821.txt Node
Date: Thu Jul 18 13:14:07 EDT 2019
User: cochatt
Spectrometer: HR+D1059
Trigger mode: 1
Integration Time (sec): 1.000000E-1
Scans to average: 1
Electric dark correction enabled: true
Nonlinearity correction enabled: false
Boxcar width: 0
XAxis mode: Wavelengths
Number of Pixels in Spectrum: 2048
>>>>>Begin Spectral Data<<<<<
223.165	-10.5
223.4	-10.5
223.635	-10.5
223.869	-13.5
224.104	-10.5
224.338	-18.5
224.573	-7.5
224.808	-11.5
225.042	-12.5
225.277	0.5
225.511	-16.5
225.746	-0.5
225.98	0.5
226.215	6.5
226.449	25.5
226.683	24.5
226.918	21.5
227.152	22.5
227.387	30.5
227.621	26.5
227.856	53.5
228.09	49.5
228.324	51.5
228.559	58.5
228.793	64.5
229.027	87.5
229.262	89.5
229.496	86.5
229.73	88.5
229.964	102.5
230.199	110.5
230.433	109.5
230.667	110.5
230.901	110.5
231.136	108.5
231.37	115.5
231.604	101.5
231.838	101.5
232.072	95.5
232.306	109.5
232.541	115.5
232.775	105.5
233.009	97.5
233.243	122.5
233.477	106.5
233.711	117.5
233.945	111.5
234.179	107.5
234.413	111.5
234.647	94.5
234.881	102.5
235.115	110.5
235.349	117.5
235.583	111.5
235.817	123.5
236.051	115.5
236.285	99.5
236.519	105.5
236.753	132.5
236.987	119.5
237.221	145.5
237.455	169.5
237.689	138.5
237.922	114.5
238.156	136.5
238.39	120.5
238.624	125.5
238.858	129.5
239.091	123.5
239.325	118.5
239.559	123.5
239.793	115.5
240.027	122.5
240.26	123.5
240.494	123.5
240.728	126.5
240.961	134.5
241.195	131.5
241.429	136.5
241.662	137.5
241.896	138.5
242.13	123.5
242.363	133.5
242.597	129.5
242.83	122.5
243.064	113.5
243.298	112.5
243.531	137.5
243.765	127.5
243.998	121.5
244.232	138.5
244.465	149.5
244.699	147.5
244.932	119.5
245.166	146.5
245.399	138.5
245.633	123.5
245.866	137.5
246.099	136.5
246.333	114.5
246.566	157.5
246.8	135.5
247.033	146.5
247.266	142.5
247.5	142.5
247.733	158.5
247.966	171.5
248.2	155.5
248.433	155.5
248.666	149.5
248.899	160.5
249.133	158.5
249.366	160.5
249.599	176.5
249.832	155.5
250.066	155.5
250.299	167.5
250.532	163.5
250.765	169.5
250.998	167.5
251.231	178.5
251.465	176.5
251.698	186.5
251.931	165.5
252.164	175.5
252.397	161.5
252.63	170.5
252.863	162.5
253.096	179.5
253.329	194.5
253.562	192.5
253.795	181.5
254.028	190.5
254.261	187.5
254.494	208.5
254.727	199.5
254.96	213.5
255.193	203.5
255.426	203.5
255.659	187.5
255.892	190.5
256.124	189.5
256.357	193.5
256.59	181.5
256.823	199.5
257.056	189.5
257.289	196.5
257.521	184.5
257.754	184.5
257.987	185.5
258.22	203.5
258.452	171.5
258.685	180.5
258.918	185.5
259.151	193.5
259.383	188.5
259.616	181.5
259.849	194.5
260.081	199.5
260.314	211.5
260.547	199.5
260.779	199.5
261.012	195.5
261.244	207.5
261.477	198.5
261.71	189.5
261.942	190.5
262.175	195.5
262.407	198.5
262.64	197.5
262.872	190.5
263.105	192.5
263.337	195.5
263.57	200.5
263.802	186.5
264.035	191.5
264.267	205.5
264.499	195.5
264.732	201.5
264.964	208.5
265.197	192.5
265.429	208.5
265.661	194.5
265.894	187.5
266.126	214.5
266.358	208.5
266.591	211.5
266.823	198.5
267.055	207.5
267.287	204.5
267.52	195.5
267.752	202.5
267.984	213.5
268.216	190.5
268.448	210.5
268.681	213.5
268.913	219.5
269.145	223.5
269.377	221.5
269.609	249.5
269.841	242.5
270.073	227.5
270.306	251.5
270.538	265.5
270.77	229.5
271.002	254.5
271.234	257.5
271.466	242.5
271.698	243.5
271.93	253.5
272.162	243.5
272.394	257.5
272.626	244.5
272.858	257.5
273.09	250.5
273.322	231.5
273.553	229.5
273.785	224.5
274.017	242.5
274.249	226.5
274.481	236.5
274.713	229.5
274.945	239.5
275.176	257.5
275.408	233.5
275.64	227.5
275.872	216.5
276.104	238.5
276.335	255.5
276.567	262.5
276.799	260.5
277.031	267.5
277.262	259.5
277.494	283.5
277.726	270.5
277.957	258.5
278.189	260.5
278.421	274.5
278.652	262.5
278.884	257.5
279.115	233.5
279.347	278.5
279.579	263.5
279.81	299.5
280.042	290.5
280.273	280.5
280.505	280.5
280.736	280.5
280.968	277.5
281.199	257.5
281.431	271.5
281.662	261.5
281.894	262.5
282.125	260.5
282.356	270.5
282.588	295.5
282.819	265.5
283.051	267.5
283.282	257.5
283.513	258.5
283.745	266.5
283.976	264.5
284.207	251.5
284.439	269.5
284.67	273.5
284.901	273.5
285.132	274.5
285.364	283.5
285.595	274.5
285.826	266.5
286.057	258.5
286.288	267.5
286.52	279.5
286.751	241.5
286.982	263.5
287.213	262.5
287.444	260.5
287.675	274.5
287.906	294.5
288.138	301.5
288.369	288.5
288.6	293.5
288.831	281.5
289.062	278.5
289.293	267.5
289.524	269.5
289.755	269.5
289.986	281.5
290.217	262.5
290.448	270.5
290.679	273.5
290.91	280.5
291.141	283.5
291.371	281.5
291.602	280.5
291.833	276.5
292.064	287.5
292.295	273.5
292.526	271.5
292.757	284.5
292.987	287.5
293.218	280.5
293.449	269.5
293.68	278.5
293.91	267.5
294.141	277.5
294.372	270.5
294.603	287.5
294.833	295.5
295.064	279.5
295.295	291.5
295.525	265.5
295.756	274.5
295.987	299.5
296.217	297.5
296.448	306.5
296.679	299.5
296.909	293.5
297.14	301.5
297.37	306.5
297.601	289.5
297.831	281.5
298.062	302.5
298.292	289.5
298.523	285.5
298.753	301.5
298.984	312.5
299.214	301.5
299.445	277.5
299.675	291.5
299.905	304.5
300.136	287.5
300.366	299.5
300.597	305.5
300.827	299.5
301.057	298.5
301.288	323.5
301.518	312.5
301.748	317.5
301.979	314.5
302.209	314.5
302.439	313.5
302.669	317.5
302.9	309.5
303.13	294.5
303.36	305.5
303.59	319.5
303.82	326.5
304.051	341.5
304.281	315.5
304.511	309.5
304.741	310.5
304.971	317.5
305.201	290.5
305.431	309.5
305.661	328.5
305.891	307.5
306.121	311.5
306.352	327.5
306.582	321.5
306.812	308.5
307.042	312.5
307.272	316.5
307.502	322.5
307.731	312.5
307.961	326.5
308.191	331.5
308.421	335.5
308.651	307.5
308.881	330.5
309.111	339.5
309.341	339.5
309.571	335.5
309.8	313.5
310.03	330.5
310.26	335.5
310.49	345.5
310.72	361.5
310.949	330.5
311.179	327.5
311.409	346.5
311.639	350.5
311.868	333.5
312.098	351.5
312.328	351.5
312.557	346.5
312.787	345.5
313.017	374.5
313.246	350.5
313.476	356.5
313.706	344.5
313.935	350.5
314.165	349.5
314.394	359.5
314.624	350.5
314.853	357.5
315.083	350.5
315.312	353.5
315.542	350.5
315.771	355.5
316.001	343.5
316.23	351.5
316.46	351.5
316.689	321.5
316.919	346.5
317.148	377.5
317.377	373.5
317.607	361.5
317.836	347.5
318.065	339.5
318.295	358.5
318.524	354.5
318.753	355.5
318.983	349.5
319.212	362.5
319.441	343.5
319.67	369.5
319.9	359.5
320.129	363.5
320.358	370.5
320.587	354.5
320.816	345.5
321.046	351.5
321.275	353.5
321.504	371.5
321.733	366.5
321.962	375.5
322.191	383.5
322.42	381.5
322.649	374.5
322.878	377.5
323.108	379.5
323.337	415.5
323.566	410.5
323.795	410.5
324.024	461.5
324.253	528.5
324.482	701.5
324.71	1049.5
324.939	1419.5
325.168	1167.5
325.397	663.5
325.626	507.5
325.855	441.5
326.084	410.5
326.313	424.5
326.542	415.5
326.77	448.5
326.999	521.5
327.228	677.5
327.457	950.5
327.686	1075.5
327.914	755.5
328.143	559.5
328.372	508.5
328.6	463.5
328.829	449.5
329.058	451.5
329.287	443.5
329.515	442.5
329.744	406.5
329.972	430.5
330.201	412.5
330.43	445.5
330.658	446.5
330.887	451.5
331.115	458.5
331.344	415.5
331.572	414.5
331.801	425.5
332.03	402.5
332.258	410.5
332.486	406.5
332.715	399.5
332.943	403.5
333.172	409.5
333.4	410.5
333.629	413.5
333.857	418.5
334.085	427.5
334.314	444.5
334.542	451.5
334.771	450.5
334.999	459.5
335.227	425.5
335.455	424.5
335.684	395.5
335.912	402.5
336.14	438.5
336.369	425.5
336.597	413.5
336.825	407.5
337.053	402.5
337.281	421.5
337.51	403.5
337.738	387.5
337.966	409.5
338.194	406.5
338.422	421.5
338.65	410.5
338.878	399.5
339.106	405.5
339.334	395.5
339.562	402.5
339.79	379.5
340.018	390.5
340.246	389.5
340.474	366.5
340.702	373.5
340.93	394.5
341.158	386.5
341.386	381.5
341.614	411.5
341.842	389.5
342.07	375.5
342.298	381.5
342.526	389.5
342.754	361.5
342.981	374.5
343.209	375.5
343.437	387.5
343.665	411.5
343.893	405.5
344.12	412.5
344.348	422.5
344.576	399.5
344.804	403.5
345.031	410.5
345.259	389.5
345.487	374.5
345.714	381.5
345.942	348.5
346.17	370.5
346.397	386.5
346.625	370.5
346.853	387.5
347.08	373.5
347.308	383.5
347.535	376.5
347.763	369.5
347.99	366.5
348.218	395.5
348.445	393.5
348.673	373.5
348.9	377.5
349.128	368.5
349.355	358.5
349.583	353.5
349.81	363.5
350.037	387.5
350.265	356.5
350.492	363.5
350.72	376.5
350.947	368.5
351.174	395.5
351.402	358.5
351.629	382.5
351.856	366.5
352.083	367.5
352.311	377.5
352.538	376.5
352.765	372.5
352.992	373.5
353.22	360.5
353.447	361.5
353.674	359.5
353.901	366.5
354.128	352.5
354.355	338.5
354.583	363.5
354.81	337.5
355.037	357.5
355.264	351.5
355.491	357.5
355.718	350.5
355.945	349.5
356.172	333.5
356.399	332.5
356.626	353.5
356.853	361.5
357.08	327.5
357.307	350.5
357.534	357.5
357.761	333.5
357.988	359.5
358.215	335.5
358.441	355.5
358.668	367.5
358.895	350.5
359.122	363.5
359.349	377.5
359.576	371.5
359.802	369.5
360.029	372.5
360.256	381.5
360.483	383.5
360.709	368.5
360.936	373.5
361.163	363.5
361.39	374.5
361.616	351.5
361.843	347.5
362.07	358.5
362.296	365.5
362.523	350.5
362.749	343.5
362.976	378.5
363.203	366.5
363.429	365.5
363.656	360.5
363.882	361.5
364.109	359.5
364.335	340.5
364.562	343.5
364.788	346.5
365.015	343.5
365.241	333.5
365.468	337.5
365.694	337.5
365.92	359.5
366.147	352.5
366.373	340.5
366.599	358.5
366.826	339.5
367.052	336.5
367.278	346.5
367.505	349.5
367.731	347.5
367.957	330.5
368.184	357.5
368.41	341.5
368.636	354.5
368.862	339.5
369.089	353.5
369.315	349.5
369.541	337.5
369.767	343.5
369.993	367.5
370.219	353.5
370.445	335.5
370.672	368.5
370.898	352.5
371.124	351.5
371.35	353.5
371.576	350.5
371.802	349.5
372.028	345.5
372.254	354.5
372.48	344.5
372.706	354.5
372.932	379.5
373.158	359.5
373.384	356.5
373.61	339.5
373.835	360.5
374.061	347.5
374.287	336.5
374.513	355.5
374.739	358.5
374.965	363.5
375.191	361.5
375.416	359.5
375.642	361.5
375.868	360.5
376.094	358.5
376.319	347.5
376.545	346.5
376.771	349.5
376.997	353.5
377.222	364.5
377.448	351.5
377.674	353.5
377.899	363.5
378.125	333.5
378.35	349.5
378.576	353.5
378.802	337.5
379.027	354.5
379.253	338.5
379.478	345.5
379.704	341.5
379.929	334.5
380.155	347.5
380.38	344.5
380.606	353.5
380.831	342.5
381.057	345.5
381.282	348.5
381.507	353.5
381.733	364.5
381.958	350.5
382.184	373.5
382.409	357.5
382.634	354.5
382.86	358.5
383.085	367.5
383.31	366.5
383.535	369.5
383.761	363.5
383.986	374.5
384.211	380.5
384.436	385.5
384.662	365.5
384.887	387.5
385.112	385.5
385.337	376.5
385.562	371.5
385.787	384.5
386.013	389.5
386.238	371.5
386.463	412.5
386.688	383.5
386.913	374.5
387.138	375.5
387.363	398.5
387.588	387.5
387.813	379.5
388.038	368.5
388.263	400.5
388.488	386.5
388.713	369.5
388.938	363.5
389.163	370.5
389.387	366.5
389.612	382.5
389.837	369.5
390.062	368.5
390.287	367.5
390.512	352.5
390.736	358.5
390.961	377.5
391.186	366.5
391.411	383.5
391.636	392.5
391.86	384.5
392.085	387.5
392.31	397.5
392.534	391.5
392.759	387.5
392.984	396.5
393.208	394.5
393.433	458.5
393.658	475.5
393.882	390.5
394.107	387.5
394.331	381.5
394.556	390.5
394.78	383.5
395.005	373.5
395.229	373.5
395.454	362.5
395.678	397.5
395.903	397.5
396.127	411.5
396.352	409.5
396.576	400.5
396.801	412.5
397.025	425.5
397.249	432.5
397.474	402.5
397.698	391.5
397.922	409.5
398.147	397.5
398.371	421.5
398.595	401.5
398.82	408.5
399.044	427.5
399.268	447.5
399.492	450.5
399.717	490.5
399.941	493.5
400.165	508.5
400.389	496.5
400.613	469.5
400.837	444.5
401.062	436.5
401.286	417.5
401.51	414.5
401.734	414.5
401.958	401.5
402.182	413.5
402.406	440.5
402.63	421.5
402.854	414.5
403.078	423.5
403.302	417.5
403.526	434.5
403.75	419.5
403.974	449.5
404.198	419.5
404.422	415.5
404.645	450.5
404.869	425.5
405.093	436.5
405.317	476.5
405.541	481.5
405.765	446.5
405.988	419.5
406.212	452.5
406.436	461.5
406.66	470.5
406.883	459.5
407.107	478.5
407.331	490.5
407.555	519.5
407.778	523.5
408.002	488.5
408.226	458.5
408.449	479.5
408.673	437.5
408.896	475.5
409.12	485.5
409.344	479.5
409.567	451.5
409.791	451.5
410.014	417.5
410.238	419.5
410.461	415.5
410.685	422.5
410.908	445.5
411.132	464.5
411.355	457.5
411.578	454.5
411.802	426.5
412.025	425.5
412.249	432.5
412.472	430.5
412.695	464.5
412.919	442.5
413.142	427.5
413.365	427.5
413.589	430.5
413.812	401.5
414.035	390.5
414.258	406.5
414.482	404.5
414.705	409.5
414.928	408.5
415.151	392.5
415.374	385.5
415.597	395.5
415.821	409.5
416.044	416.5
416.267	384.5
416.49	377.5
416.713	386.5
416.936	394.5
417.159	397.5
417.382	408.5
417.605	415.5
417.828	391.5
418.051	405.5
418.274	390.5
418.497	386.5
418.72	399.5
418.943	390.5
419.166	431.5
419.389	410.5
419.611	423.5
419.834	419.5
420.057	426.5
420.28	402.5
420.503	406.5
420.726	418.5
420.948	417.5
421.171	425.5
421.394	465.5
421.617	414.5
421.839	397.5
422.062	430.5
422.285	416.5
422.507	447.5
422.73	508.5
422.953	481.5
423.175	417.5
423.398	409.5
423.621	405.5
423.843	420.5
424.066	426.5
424.288	423.5
424.511	450.5
424.733	453.5
424.956	503.5
425.178	495.5
425.401	502.5
425.623	521.5
425.846	437.5
426.068	426.5
426.291	438.5
426.513	423.5
426.735	427.5
426.958	447.5
427.18	475.5
427.402	556.5
427.625	625.5
427.847	547.5
428.069	459.5
428.292	444.5
428.514	431.5
428.736	406.5
428.958	399.5
429.181	385.5
429.403	409.5
429.625	387.5
429.847	392.5
430.069	434.5
430.292	446.5
430.514	383.5
430.736	411.5
430.958	388.5
431.18	388.5
431.402	402.5
431.624	365.5
431.846	361.5
432.068	379.5
432.29	385.5
432.512	396.5
432.734	383.5
432.956	400.5
433.178	399.5
433.4	393.5
433.622	401.5
433.844	358.5
434.066	393.5
434.287	374.5
434.509	373.5
434.731	388.5
434.953	379.5
435.175	385.5
435.397	423.5
435.618	413.5
435.84	462.5
436.062	491.5
436.284	510.5
436.505	479.5
436.727	412.5
436.949	394.5
437.17	381.5
437.392	380.5
437.614	409.5
437.835	421.5
438.057	477.5
438.278	513.5
438.5	519.5
438.721	569.5
438.943	555.5
439.165	442.5
439.386	413.5
439.608	415.5
439.829	402.5
440.05	435.5
440.272	461.5
440.493	422.5
440.715	399.5
440.936	403.5
441.158	397.5
441.379	403.5
441.6	398.5
441.822	408.5
442.043	450.5
442.264	493.5
442.486	470.5
442.707	425.5
442.928	407.5
443.149	414.5
443.371	427.5
443.592	454.5
443.813	521.5
444.034	546.5
444.255	462.5
444.476	439.5
444.698	426.5
444.919	416.5
445.14	550.5
445.361	496.5
445.582	447.5
445.803	467.5
446.024	509.5
446.245	538.5
446.466	499.5
446.687	423.5
446.908	426.5
447.129	391.5
447.35	410.5
447.571	390.5
447.792	392.5
448.013	393.5
448.234	391.5
448.455	434.5
448.675	503.5
448.896	538.5
449.117	457.5
449.338	463.5
449.559	527.5
449.779	600.5
450	476.5
450.221	416.5
450.442	392.5
450.662	380.5
450.883	399.5
451.104	398.5
451.324	382.5
451.545	364.5
451.766	367.5
451.986	357.5
452.207	364.5
452.428	339.5
452.648	339.5
452.869	339.5
453.089	335.5
453.31	346.5
453.53	364.5
453.751	337.5
453.971	365.5
454.192	346.5
454.412	357.5
454.633	351.5
454.853	339.5
455.073	355.5
455.294	373.5
455.514	404.5
455.734	381.5
455.955	340.5
456.175	344.5
456.395	332.5
456.616	331.5
456.836	328.5
457.056	338.5
457.276	328.5
457.497	349.5
457.717	342.5
457.937	322.5
458.157	333.5
458.377	369.5
458.598	363.5
458.818	393.5
459.038	407.5
459.258	429.5
459.478	395.5
459.698	365.5
459.918	359.5
460.138	387.5
460.358	387.5
460.578	375.5
460.798	390.5
461.018	375.5
461.238	372.5
461.458	407.5
461.678	391.5
461.898	388.5
462.118	393.5
462.338	421.5
462.558	397.5
462.777	397.5
462.997	413.5
463.217	422.5
463.437	439.5
463.657	406.5
463.876	410.5
464.096	412.5
464.316	401.5
464.536	413.5
464.755	407.5
464.975	422.5
465.195	426.5
465.414	422.5
465.634	435.5
465.854	398.5
466.073	398.5
466.293	353.5
466.512	367.5
466.732	342.5
466.951	364.5
467.171	363.5
467.391	371.5
467.61	358.5
467.829	367.5
468.049	387.5
468.268	363.5
468.488	377.5
468.707	357.5
468.927	352.5
469.146	366.5
469.365	363.5
469.585	376.5
469.804	397.5
470.023	371.5
470.243	386.5
470.462	373.5
470.681	368.5
470.901	387.5
471.12	381.5
471.339	353.5
471.558	357.5
471.777	390.5
471.997	373.5
472.216	361.5
472.435	399.5
472.654	366.5
472.873	369.5
473.092	357.5
473.311	360.5
473.53	363.5
473.749	365.5
473.968	391.5
474.187	449.5
474.406	451.5
474.625	394.5
474.844	375.5
475.063	376.5
475.282	367.5
475.501	375.5
475.72	366.5
475.939	378.5
476.158	388.5
476.377	409.5
476.596	384.5
476.814	381.5
477.033	399.5
477.252	397.5
477.471	421.5
477.69	396.5
477.908	407.5
478.127	423.5
478.346	412.5
478.564	416.5
478.783	420.5
479.002	424.5
479.22	416.5
479.439	428.5
479.658	426.5
479.876	425.5
480.095	453.5
480.313	433.5
480.532	456.5
480.751	451.5
480.969	448.5
481.188	473.5
481.406	482.5
481.624	444.5
481.843	427.5
482.061	414.5
482.28	441.5
482.498	424.5
482.717	444.5
482.935	441.5
483.153	416.5
483.372	451.5
483.59	452.5
483.808	451.5
484.027	442.5
484.245	429.5
484.463	421.5
484.681	427.5
484.9	458.5
485.118	449.5
485.336	412.5
485.554	444.5
485.772	430.5
485.99	443.5
486.209	436.5
486.427	455.5
486.645	435.5
486.863	462.5
487.081	450.5
487.299	440.5
487.517	465.5
487.735	458.5
487.953	465.5
488.171	434.5
488.389	452.5
488.607	469.5
488.825	450.5
489.043	457.5
489.261	451.5
489.479	445.5
489.696	465.5
489.914	465.5
490.132	462.5
490.35	442.5
490.568	472.5
490.786	483.5
491.003	486.5
491.221	497.5
491.439	492.5
491.657	490.5
491.874	503.5
492.092	488.5
492.31	501.5
492.527	493.5
492.745	465.5
492.963	513.5
493.18	504.5
493.398	497.5
493.615	500.5
493.833	519.5
494.05	503.5
494.268	507.5
494.485	527.5
494.703	503.5
494.92	494.5
495.138	512.5
495.355	514.5
495.573	497.5
495.79	509.5
496.008	508.5
496.225	533.5
496.442	504.5
496.66	521.5
496.877	519.5
497.094	538.5
497.312	535.5
497.529	539.5
497.746	528.5
497.963	547.5
498.181	560.5
498.398	549.5
498.615	578.5
498.832	595.5
499.049	626.5
499.267	634.5
499.484	647.5
499.701	675.5
499.918	695.5
500.135	725.5
500.352	749.5
500.569	745.5
500.786	747.5
501.003	764.5
501.22	734.5
501.437	698.5
501.654	682.5
501.871	655.5
502.088	622.5
502.305	608.5
502.522	577.5
502.739	587.5
502.956	567.5
503.172	560.5
503.389	573.5
503.606	542.5
503.823	556.5
504.04	539.5
504.256	543.5
504.473	525.5
504.69	535.5
504.907	501.5
505.123	528.5
505.34	519.5
505.557	503.5
505.773	503.5
505.99	487.5
506.207	500.5
506.423	489.5
506.64	481.5
506.856	477.5
507.073	483.5
507.289	465.5
507.506	473.5
507.722	470.5
507.939	481.5
508.155	486.5
508.372	482.5
508.588	467.5
508.805	464.5
509.021	448.5
509.238	461.5
509.454	454.5
509.67	444.5
509.887	447.5
510.103	444.5
510.319	449.5
510.536	530.5
510.752	755.5
510.968	639.5
511.184	477.5
511.401	458.5
511.617	454.5
511.833	433.5
512.049	439.5
512.265	426.5
512.481	445.5
512.698	455.5
512.914	427.5
513.13	433.5
513.346	457.5
513.562	425.5
513.778	451.5
513.994	413.5
514.21	441.5
514.426	443.5
514.642	456.5
514.858	478.5
515.074	510.5
515.29	566.5
515.506	704.5
515.721	637.5
515.937	498.5
516.153	490.5
516.369	467.5
516.585	475.5
516.801	449.5
517.016	470.5
517.232	453.5
517.448	482.5
517.664	467.5
517.879	471.5
518.095	465.5
518.311	465.5
518.527	479.5
518.742	477.5
518.958	460.5
519.173	449.5
519.389	431.5
519.605	461.5
519.82	457.5
