Data from 1960PennyLincolnUp.LampE6.200Scan.07172019.P1_HRD10591_13-05-08-002.txt Node
Date: Thu Jul 18 13:05:08 EDT 2019
User: cochatt
Spectrometer: HR+D1059
Trigger mode: 1
Integration Time (sec): 1.000000E-1
Scans to average: 1
Electric dark correction enabled: true
Nonlinearity correction enabled: false
Boxcar width: 0
XAxis mode: Wavelengths
Number of Pixels in Spectrum: 2048
>>>>>Begin Spectral Data<<<<<
223.165	-11.44
223.4	-11.44
223.635	-11.44
223.869	-16.44
224.104	-23.44
224.338	-19.44
224.573	-10.44
224.808	0.56
225.042	-6.44
225.277	-6.44
225.511	-7.44
225.746	5.56
225.98	-1.44
226.215	-11.44
226.449	8.56
226.683	30.56
226.918	23.56
227.152	45.56
227.387	30.56
227.621	35.56
227.856	27.56
228.09	44.56
228.324	44.56
228.559	37.56
228.793	55.56
229.027	85.56
229.262	82.56
229.496	103.56
229.73	106.56
229.964	105.56
230.199	107.56
230.433	114.56
230.667	108.56
230.901	103.56
231.136	101.56
231.37	90.56
231.604	121.56
231.838	115.56
232.072	103.56
232.306	120.56
232.541	115.56
232.775	101.56
233.009	108.56
233.243	106.56
233.477	121.56
233.711	116.56
233.945	98.56
234.179	108.56
234.413	114.56
234.647	106.56
234.881	117.56
235.115	102.56
235.349	106.56
235.583	113.56
235.817	99.56
236.051	123.56
236.285	119.56
236.519	128.56
236.753	115.56
236.987	119.56
237.221	141.56
237.455	170.56
237.689	143.56
237.922	125.56
238.156	118.56
238.39	108.56
238.624	129.56
238.858	109.56
239.091	111.56
239.325	90.56
239.559	121.56
239.793	103.56
240.027	110.56
240.26	121.56
240.494	137.56
240.728	118.56
240.961	143.56
241.195	124.56
241.429	139.56
241.662	104.56
241.896	120.56
242.13	109.56
242.363	124.56
242.597	127.56
242.83	128.56
243.064	125.56
243.298	135.56
243.531	130.56
243.765	138.56
243.998	132.56
244.232	134.56
244.465	145.56
244.699	129.56
244.932	137.56
245.166	138.56
245.399	131.56
245.633	146.56
245.866	130.56
246.099	128.56
246.333	139.56
246.566	151.56
246.8	131.56
247.033	150.56
247.266	138.56
247.5	127.56
247.733	141.56
247.966	146.56
248.2	151.56
248.433	163.56
248.666	148.56
248.899	159.56
249.133	159.56
249.366	165.56
249.599	151.56
249.832	163.56
250.066	163.56
250.299	169.56
250.532	177.56
250.765	159.56
250.998	176.56
251.231	158.56
251.465	183.56
251.698	174.56
251.931	173.56
252.164	164.56
252.397	168.56
252.63	174.56
252.863	171.56
253.096	191.56
253.329	179.56
253.562	183.56
253.795	182.56
254.028	192.56
254.261	169.56
254.494	199.56
254.727	196.56
254.96	203.56
255.193	198.56
255.426	180.56
255.659	193.56
255.892	199.56
256.124	187.56
256.357	183.56
256.59	177.56
256.823	182.56
257.056	171.56
257.289	184.56
257.521	182.56
257.754	182.56
257.987	188.56
258.22	198.56
258.452	194.56
258.685	191.56
258.918	175.56
259.151	177.56
259.383	189.56
259.616	187.56
259.849	196.56
260.081	181.56
260.314	206.56
260.547	212.56
260.779	201.56
261.012	201.56
261.244	190.56
261.477	194.56
261.71	202.56
261.942	192.56
262.175	214.56
262.407	203.56
262.64	195.56
262.872	197.56
263.105	203.56
263.337	198.56
263.57	188.56
263.802	191.56
264.035	197.56
264.267	188.56
264.499	192.56
264.732	187.56
264.964	191.56
265.197	185.56
265.429	201.56
265.661	202.56
265.894	193.56
266.126	198.56
266.358	223.56
266.591	217.56
266.823	222.56
267.055	203.56
267.287	203.56
267.52	191.56
267.752	212.56
267.984	199.56
268.216	200.56
268.448	206.56
268.681	203.56
268.913	235.56
269.145	229.56
269.377	244.56
269.609	228.56
269.841	225.56
270.073	233.56
270.306	240.56
270.538	254.56
270.77	248.56
271.002	242.56
271.234	234.56
271.466	248.56
271.698	246.56
271.93	250.56
272.162	258.56
272.394	243.56
272.626	246.56
272.858	225.56
273.09	231.56
273.322	247.56
273.553	226.56
273.785	241.56
274.017	241.56
274.249	218.56
274.481	250.56
274.713	243.56
274.945	230.56
275.176	235.56
275.408	251.56
275.64	240.56
275.872	261.56
276.104	250.56
276.335	242.56
276.567	236.56
276.799	243.56
277.031	263.56
277.262	264.56
277.494	256.56
277.726	275.56
277.957	256.56
278.189	242.56
278.421	254.56
278.652	237.56
278.884	253.56
279.115	270.56
279.347	246.56
279.579	263.56
279.81	242.56
280.042	271.56
280.273	261.56
280.505	253.56
280.736	243.56
280.968	251.56
281.199	259.56
281.431	263.56
281.662	254.56
281.894	273.56
282.125	267.56
282.356	257.56
282.588	262.56
282.819	256.56
283.051	285.56
283.282	261.56
283.513	249.56
283.745	257.56
283.976	278.56
284.207	276.56
284.439	268.56
284.67	264.56
284.901	258.56
285.132	271.56
285.364	261.56
285.595	278.56
285.826	281.56
286.057	272.56
286.288	280.56
286.52	279.56
286.751	271.56
286.982	258.56
287.213	281.56
287.444	294.56
287.675	277.56
287.906	282.56
288.138	298.56
288.369	294.56
288.6	298.56
288.831	294.56
289.062	280.56
289.293	291.56
289.524	293.56
289.755	289.56
289.986	295.56
290.217	304.56
290.448	293.56
290.679	292.56
290.91	275.56
291.141	301.56
291.371	293.56
291.602	281.56
291.833	266.56
292.064	293.56
292.295	293.56
292.526	297.56
292.757	275.56
292.987	298.56
293.218	301.56
293.449	288.56
293.68	285.56
293.91	285.56
294.141	302.56
294.372	289.56
294.603	293.56
294.833	297.56
295.064	301.56
295.295	302.56
295.525	287.56
295.756	296.56
295.987	301.56
296.217	298.56
296.448	313.56
296.679	294.56
296.909	297.56
297.14	302.56
297.37	305.56
297.601	301.56
297.831	296.56
298.062	299.56
298.292	285.56
298.523	315.56
298.753	309.56
298.984	319.56
299.214	300.56
299.445	320.56
299.675	313.56
299.905	314.56
300.136	311.56
300.366	310.56
300.597	325.56
300.827	304.56
301.057	317.56
301.288	338.56
301.518	326.56
301.748	330.56
301.979	326.56
302.209	325.56
302.439	301.56
302.669	324.56
302.9	328.56
303.13	327.56
303.36	325.56
303.59	343.56
303.82	350.56
304.051	334.56
304.281	341.56
304.511	343.56
304.741	320.56
304.971	310.56
305.201	339.56
305.431	338.56
305.661	331.56
305.891	337.56
306.121	327.56
306.352	323.56
306.582	334.56
306.812	322.56
307.042	330.56
307.272	328.56
307.502	337.56
307.731	338.56
307.961	335.56
308.191	322.56
308.421	342.56
308.651	335.56
308.881	326.56
309.111	343.56
309.341	339.56
309.571	337.56
309.8	339.56
310.03	342.56
310.26	348.56
310.49	337.56
310.72	357.56
310.949	333.56
311.179	336.56
311.409	338.56
311.639	331.56
311.868	351.56
312.098	357.56
312.328	351.56
312.557	363.56
312.787	367.56
313.017	345.56
313.246	375.56
313.476	367.56
313.706	369.56
313.935	369.56
314.165	356.56
314.394	353.56
314.624	349.56
314.853	354.56
315.083	345.56
315.312	385.56
315.542	367.56
315.771	369.56
316.001	369.56
316.23	350.56
316.46	356.56
316.689	359.56
316.919	359.56
317.148	342.56
317.377	379.56
317.607	357.56
317.836	351.56
318.065	353.56
318.295	358.56
318.524	362.56
318.753	352.56
318.983	345.56
319.212	357.56
319.441	369.56
319.67	370.56
319.9	345.56
320.129	371.56
320.358	357.56
320.587	357.56
320.816	353.56
321.046	359.56
321.275	377.56
321.504	369.56
321.733	366.56
321.962	372.56
322.191	374.56
322.42	392.56
322.649	386.56
322.878	385.56
323.108	370.56
323.337	408.56
323.566	378.56
323.795	406.56
324.024	427.56
324.253	474.56
324.482	595.56
324.71	797.56
324.939	1092.56
325.168	931.56
325.397	531.56
325.626	446.56
325.855	421.56
326.084	402.56
326.313	413.56
326.542	401.56
326.77	409.56
326.999	471.56
327.228	589.56
327.457	775.56
327.686	873.56
327.914	617.56
328.143	481.56
328.372	460.56
328.6	455.56
328.829	454.56
329.058	422.56
329.287	411.56
329.515	446.56
329.744	434.56
329.972	435.56
330.201	413.56
330.43	455.56
330.658	466.56
330.887	466.56
331.115	454.56
331.344	441.56
331.572	442.56
331.801	450.56
332.03	443.56
332.258	425.56
332.486	443.56
332.715	430.56
332.943	460.56
333.172	452.56
333.4	470.56
333.629	479.56
333.857	499.56
334.085	482.56
334.314	494.56
334.542	502.56
334.771	517.56
334.999	468.56
335.227	479.56
335.455	443.56
335.684	445.56
335.912	450.56
336.14	440.56
336.369	455.56
336.597	454.56
336.825	452.56
337.053	440.56
337.281	424.56
337.51	450.56
337.738	455.56
337.966	424.56
338.194	435.56
338.422	419.56
338.65	446.56
338.878	421.56
339.106	417.56
339.334	422.56
339.562	408.56
339.79	407.56
340.018	415.56
340.246	403.56
340.474	410.56
340.702	418.56
340.93	409.56
341.158	402.56
341.386	393.56
341.614	405.56
341.842	429.56
342.07	410.56
342.298	400.56
342.526	416.56
342.754	405.56
342.981	420.56
343.209	424.56
343.437	443.56
343.665	449.56
343.893	471.56
344.12	495.56
344.348	448.56
344.576	444.56
344.804	411.56
345.031	409.56
345.259	430.56
345.487	435.56
345.714	423.56
345.942	417.56
346.17	391.56
346.397	400.56
346.625	395.56
346.853	387.56
347.08	384.56
347.308	373.56
347.535	393.56
347.763	421.56
347.99	400.56
348.218	392.56
348.445	390.56
348.673	393.56
348.9	378.56
349.128	406.56
349.355	375.56
349.583	367.56
349.81	392.56
350.037	376.56
350.265	392.56
350.492	387.56
350.72	401.56
350.947	395.56
351.174	395.56
351.402	385.56
351.629	408.56
351.856	399.56
352.083	406.56
352.311	398.56
352.538	384.56
352.765	422.56
352.992	385.56
353.22	406.56
353.447	387.56
353.674	371.56
353.901	389.56
354.128	379.56
354.355	389.56
354.583	368.56
354.81	395.56
355.037	411.56
355.264	381.56
355.491	369.56
355.718	397.56
355.945	380.56
356.172	372.56
356.399	399.56
356.626	373.56
356.853	386.56
357.08	383.56
357.307	381.56
357.534	380.56
357.761	386.56
357.988	375.56
358.215	384.56
358.441	395.56
358.668	391.56
358.895	381.56
359.122	410.56
359.349	399.56
359.576	411.56
359.802	394.56
360.029	419.56
360.256	429.56
360.483	395.56
360.709	379.56
360.936	404.56
361.163	382.56
361.39	400.56
361.616	385.56
361.843	378.56
362.07	389.56
362.296	395.56
362.523	394.56
362.749	393.56
362.976	393.56
363.203	389.56
363.429	392.56
363.656	402.56
363.882	374.56
364.109	385.56
364.335	390.56
364.562	389.56
364.788	379.56
365.015	389.56
365.241	387.56
365.468	405.56
365.694	369.56
365.92	395.56
366.147	375.56
366.373	378.56
366.599	379.56
366.826	395.56
367.052	400.56
367.278	399.56
367.505	371.56
367.731	377.56
367.957	373.56
368.184	367.56
368.41	406.56
368.636	395.56
368.862	412.56
369.089	398.56
369.315	388.56
369.541	394.56
369.767	404.56
369.993	397.56
370.219	392.56
370.445	386.56
370.672	402.56
370.898	365.56
371.124	401.56
371.35	415.56
371.576	402.56
371.802	417.56
372.028	387.56
372.254	418.56
372.48	401.56
372.706	430.56
372.932	421.56
373.158	403.56
373.384	421.56
373.61	407.56
373.835	413.56
374.061	401.56
374.287	429.56
374.513	424.56
374.739	425.56
374.965	423.56
375.191	423.56
375.416	427.56
375.642	413.56
375.868	444.56
376.094	408.56
376.319	410.56
376.545	410.56
376.771	400.56
376.997	419.56
377.222	402.56
377.448	424.56
377.674	407.56
377.899	407.56
378.125	407.56
378.35	395.56
378.576	404.56
378.802	371.56
379.027	385.56
379.253	409.56
379.478	393.56
379.704	404.56
379.929	413.56
380.155	392.56
380.38	398.56
380.606	418.56
380.831	410.56
381.057	420.56
381.282	400.56
381.507	413.56
381.733	399.56
381.958	407.56
382.184	433.56
382.409	441.56
382.634	431.56
382.86	417.56
383.085	421.56
383.31	426.56
383.535	452.56
383.761	432.56
383.986	427.56
384.211	458.56
384.436	462.56
384.662	478.56
384.887	477.56
385.112	452.56
385.337	489.56
385.562	479.56
385.787	485.56
386.013	466.56
386.238	457.56
386.463	473.56
386.688	452.56
386.913	461.56
387.138	449.56
387.363	455.56
387.588	465.56
387.813	459.56
388.038	449.56
388.263	466.56
388.488	478.56
388.713	457.56
388.938	495.56
389.163	438.56
389.387	461.56
389.612	453.56
389.837	444.56
390.062	458.56
390.287	465.56
390.512	456.56
390.736	477.56
390.961	471.56
391.186	486.56
391.411	472.56
391.636	475.56
391.86	474.56
392.085	474.56
392.31	502.56
392.534	506.56
392.759	491.56
392.984	469.56
393.208	483.56
393.433	489.56
393.658	491.56
393.882	479.56
394.107	490.56
394.331	485.56
394.556	518.56
394.78	475.56
395.005	493.56
395.229	478.56
395.454	502.56
395.678	516.56
395.903	511.56
396.127	531.56
396.352	503.56
396.576	474.56
396.801	517.56
397.025	513.56
397.249	487.56
397.474	507.56
397.698	511.56
397.922	529.56
398.147	508.56
398.371	518.56
398.595	534.56
398.82	559.56
399.044	589.56
399.268	609.56
399.492	686.56
399.717	758.56
399.941	767.56
400.165	687.56
400.389	667.56
400.613	623.56
400.837	571.56
401.062	585.56
401.286	562.56
401.51	553.56
401.734	562.56
401.958	554.56
402.182	583.56
402.406	555.56
402.63	547.56
402.854	587.56
403.078	608.56
403.302	567.56
403.526	591.56
403.75	592.56
403.974	605.56
404.198	613.56
404.422	605.56
404.645	611.56
404.869	602.56
405.093	628.56
405.317	635.56
405.541	631.56
405.765	592.56
405.988	609.56
406.212	615.56
406.436	621.56
406.66	623.56
406.883	615.56
407.107	657.56
407.331	677.56
407.555	714.56
407.778	689.56
408.002	681.56
408.226	657.56
408.449	624.56
408.673	609.56
408.896	619.56
409.12	653.56
409.344	628.56
409.567	583.56
409.791	591.56
410.014	564.56
410.238	574.56
410.461	595.56
410.685	593.56
410.908	585.56
411.132	627.56
411.355	591.56
411.578	594.56
411.802	573.56
412.025	553.56
412.249	560.56
412.472	590.56
412.695	602.56
412.919	591.56
413.142	566.56
413.365	558.56
413.589	547.56
413.812	565.56
414.035	554.56
414.258	549.56
414.482	525.56
414.705	554.56
414.928	552.56
415.151	556.56
415.374	529.56
415.597	549.56
415.821	532.56
416.044	550.56
416.267	535.56
416.49	543.56
416.713	506.56
416.936	529.56
417.159	519.56
417.382	535.56
417.605	542.56
417.828	531.56
418.051	569.56
418.274	561.56
418.497	554.56
418.72	565.56
418.943	554.56
419.166	567.56
419.389	605.56
419.611	605.56
419.834	563.56
420.057	570.56
420.28	560.56
420.503	551.56
420.726	541.56
420.948	566.56
421.171	578.56
421.394	581.56
421.617	542.56
421.839	525.56
422.062	558.56
422.285	549.56
422.507	577.56
422.73	634.56
422.953	606.56
423.175	576.56
423.398	594.56
423.621	571.56
423.843	591.56
424.066	581.56
424.288	594.56
424.511	586.56
424.733	625.56
424.956	661.56
425.178	613.56
425.401	627.56
425.623	615.56
425.846	552.56
426.068	580.56
426.291	575.56
426.513	526.56
426.735	558.56
426.958	559.56
427.18	601.56
427.402	663.56
427.625	690.56
427.847	635.56
428.069	566.56
428.292	537.56
428.514	505.56
428.736	507.56
428.958	518.56
429.181	524.56
429.403	490.56
429.625	501.56
429.847	522.56
430.069	551.56
430.292	531.56
430.514	507.56
430.736	521.56
430.958	495.56
431.18	497.56
431.402	496.56
431.624	479.56
431.846	501.56
432.068	485.56
432.29	500.56
432.512	502.56
432.734	515.56
432.956	497.56
433.178	515.56
433.4	505.56
433.622	513.56
433.844	485.56
434.066	500.56
434.287	488.56
434.509	510.56
434.731	505.56
434.953	568.56
435.175	549.56
435.397	560.56
435.618	553.56
435.84	575.56
436.062	559.56
436.284	611.56
436.505	546.56
436.727	541.56
436.949	495.56
437.17	505.56
437.392	510.56
437.614	493.56
437.835	497.56
438.057	551.56
438.278	593.56
438.5	593.56
438.721	647.56
438.943	606.56
439.165	512.56
439.386	536.56
439.608	528.56
439.829	518.56
440.05	531.56
440.272	563.56
440.493	530.56
440.715	528.56
440.936	516.56
441.158	536.56
441.379	509.56
441.6	565.56
441.822	575.56
442.043	575.56
442.264	589.56
442.486	617.56
442.707	587.56
442.928	549.56
443.149	547.56
443.371	547.56
443.592	601.56
443.813	622.56
444.034	662.56
444.255	607.56
444.476	580.56
444.698	596.56
444.919	592.56
445.14	682.56
445.361	613.56
445.582	591.56
445.803	577.56
446.024	649.56
446.245	617.56
446.466	563.56
446.687	559.56
446.908	515.56
447.129	511.56
447.35	482.56
447.571	498.56
447.792	469.56
448.013	484.56
448.234	483.56
448.455	506.56
448.675	546.56
448.896	605.56
449.117	579.56
449.338	558.56
449.559	598.56
449.779	618.56
450	523.56
450.221	492.56
450.442	463.56
450.662	450.56
450.883	480.56
451.104	458.56
451.324	458.56
451.545	444.56
451.766	460.56
451.986	455.56
452.207	463.56
452.428	474.56
452.648	446.56
452.869	447.56
453.089	441.56
453.31	464.56
453.53	439.56
453.751	431.56
453.971	438.56
454.192	441.56
454.412	429.56
454.633	436.56
454.853	413.56
455.073	426.56
455.294	430.56
455.514	453.56
455.734	452.56
455.955	438.56
456.175	432.56
456.395	408.56
456.616	401.56
456.836	440.56
457.056	406.56
457.276	429.56
457.497	432.56
457.717	417.56
457.937	419.56
458.157	433.56
458.377	438.56
458.598	473.56
458.818	485.56
459.038	478.56
459.258	527.56
459.478	512.56
459.698	505.56
459.918	497.56
460.138	510.56
460.358	529.56
460.578	547.56
460.798	538.56
461.018	541.56
461.238	536.56
461.458	533.56
461.678	531.56
461.898	549.56
462.118	528.56
462.338	562.56
462.558	547.56
462.777	589.56
462.997	607.56
463.217	644.56
463.437	638.56
463.657	601.56
463.876	613.56
464.096	598.56
464.316	568.56
464.536	584.56
464.755	566.56
464.975	591.56
465.195	582.56
465.414	568.56
465.634	517.56
465.854	497.56
466.073	502.56
466.293	461.56
466.512	488.56
466.732	468.56
466.951	455.56
467.171	493.56
467.391	477.56
467.61	481.56
467.829	480.56
468.049	459.56
468.268	463.56
468.488	438.56
468.707	440.56
468.927	462.56
469.146	447.56
469.365	465.56
469.585	456.56
469.804	484.56
470.023	477.56
470.243	457.56
470.462	471.56
470.681	497.56
470.901	471.56
471.12	505.56
471.339	483.56
471.558	458.56
471.777	447.56
471.997	462.56
472.216	453.56
472.435	470.56
472.654	464.56
472.873	438.56
473.092	456.56
473.311	449.56
473.53	444.56
473.749	465.56
473.968	482.56
474.187	513.56
474.406	507.56
474.625	446.56
474.844	437.56
475.063	468.56
475.282	453.56
475.501	456.56
475.72	450.56
475.939	461.56
476.158	463.56
476.377	461.56
476.596	473.56
476.814	461.56
477.033	463.56
477.252	485.56
477.471	487.56
477.69	494.56
477.908	508.56
478.127	523.56
478.346	526.56
478.564	531.56
478.783	510.56
479.002	525.56
479.22	538.56
479.439	558.56
479.658	537.56
479.876	555.56
480.095	543.56
480.313	574.56
480.532	567.56
480.751	582.56
480.969	589.56
481.188	610.56
481.406	569.56
481.624	549.56
481.843	558.56
482.061	538.56
482.28	503.56
482.498	531.56
482.717	514.56
482.935	523.56
483.153	526.56
483.372	523.56
483.59	536.56
483.808	505.56
484.027	544.56
484.245	526.56
484.463	529.56
484.681	562.56
484.9	543.56
485.118	546.56
485.336	543.56
485.554	537.56
485.772	543.56
485.99	552.56
486.209	553.56
486.427	531.56
486.645	551.56
486.863	566.56
487.081	545.56
487.299	565.56
487.517	559.56
487.735	547.56
487.953	570.56
488.171	552.56
488.389	556.56
488.607	561.56
488.825	562.56
489.043	552.56
489.261	553.56
489.479	551.56
489.696	562.56
489.914	583.56
490.132	581.56
490.35	580.56
490.568	595.56
490.786	571.56
491.003	585.56
491.221	608.56
491.439	587.56
491.657	597.56
491.874	615.56
492.092	615.56
492.31	601.56
492.527	610.56
492.745	617.56
492.963	621.56
493.18	615.56
493.398	611.56
493.615	638.56
493.833	642.56
494.05	643.56
494.268	629.56
494.485	625.56
494.703	607.56
494.92	621.56
495.138	616.56
495.355	630.56
495.573	663.56
495.79	626.56
496.008	639.56
496.225	637.56
496.442	645.56
496.66	654.56
496.877	654.56
497.094	630.56
497.312	647.56
497.529	663.56
497.746	671.56
497.963	686.56
498.181	712.56
498.398	731.56
498.615	740.56
498.832	787.56
499.049	841.56
499.267	878.56
499.484	907.56
499.701	981.56
499.918	1040.56
500.135	1127.56
500.352	1238.56
500.569	1287.56
500.786	1297.56
501.003	1240.56
501.22	1133.56
501.437	1053.56
501.654	956.56
501.871	945.56
502.088	877.56
