Data from 1960PennyLincolnUp.LampE6.200Scan.07172019.P1_HRD10591_13-05-09-003.txt Node
Date: Thu Jul 18 13:05:09 EDT 2019
User: cochatt
Spectrometer: HR+D1059
Trigger mode: 1
Integration Time (sec): 1.000000E-1
Scans to average: 1
Electric dark correction enabled: true
Nonlinearity correction enabled: false
Boxcar width: 0
XAxis mode: Wavelengths
Number of Pixels in Spectrum: 2048
>>>>>Begin Spectral Data<<<<<
223.165	-12.38
223.4	-12.38
223.635	-12.38
223.869	-13.38
224.104	-9.38
224.338	-23.38
224.573	-21.38
224.808	-17.38
225.042	-15.38
225.277	5.62
225.511	-4.38
225.746	3.62
225.98	2.62
226.215	13.62
226.449	20.62
226.683	25.62
226.918	14.62
227.152	30.62
227.387	35.62
227.621	52.62
227.856	49.62
228.09	35.62
228.324	59.62
228.559	50.62
228.793	59.62
229.027	65.62
229.262	81.62
229.496	100.62
229.73	109.62
229.964	108.62
230.199	112.62
230.433	114.62
230.667	104.62
230.901	93.62
231.136	113.62
231.37	97.62
231.604	104.62
231.838	120.62
232.072	105.62
232.306	97.62
232.541	120.62
232.775	106.62
233.009	102.62
233.243	123.62
233.477	117.62
233.711	117.62
233.945	106.62
234.179	112.62
234.413	111.62
234.647	98.62
234.881	113.62
235.115	115.62
235.349	108.62
235.583	120.62
235.817	103.62
236.051	108.62
236.285	107.62
236.519	123.62
236.753	121.62
236.987	121.62
237.221	141.62
237.455	170.62
237.689	138.62
237.922	126.62
238.156	117.62
238.39	110.62
238.624	109.62
238.858	127.62
239.091	119.62
239.325	113.62
239.559	109.62
239.793	118.62
240.027	146.62
240.26	117.62
240.494	119.62
240.728	137.62
240.961	142.62
241.195	123.62
241.429	133.62
241.662	129.62
241.896	128.62
242.13	129.62
242.363	118.62
242.597	121.62
242.83	132.62
243.064	135.62
243.298	127.62
243.531	133.62
243.765	137.62
243.998	134.62
244.232	130.62
244.465	153.62
244.699	147.62
244.932	152.62
245.166	145.62
245.399	126.62
245.633	138.62
245.866	138.62
246.099	115.62
246.333	135.62
246.566	140.62
246.8	141.62
247.033	146.62
247.266	158.62
247.5	151.62
247.733	144.62
247.966	150.62
248.2	144.62
248.433	170.62
248.666	153.62
248.899	170.62
249.133	157.62
249.366	178.62
249.599	177.62
249.832	173.62
250.066	162.62
250.299	160.62
250.532	161.62
250.765	173.62
250.998	162.62
251.231	177.62
251.465	168.62
251.698	143.62
251.931	171.62
252.164	175.62
252.397	159.62
252.63	163.62
252.863	185.62
253.096	179.62
253.329	174.62
253.562	188.62
253.795	180.62
254.028	186.62
254.261	186.62
254.494	197.62
254.727	196.62
254.96	193.62
255.193	206.62
255.426	186.62
255.659	195.62
255.892	198.62
256.124	192.62
256.357	183.62
256.59	191.62
256.823	182.62
257.056	190.62
257.289	182.62
257.521	175.62
257.754	188.62
257.987	185.62
258.22	183.62
258.452	175.62
258.685	198.62
258.918	198.62
259.151	195.62
259.383	206.62
259.616	179.62
259.849	191.62
260.081	188.62
260.314	202.62
260.547	208.62
260.779	204.62
261.012	197.62
261.244	202.62
261.477	206.62
261.71	194.62
261.942	176.62
262.175	200.62
262.407	205.62
262.64	189.62
262.872	179.62
263.105	187.62
263.337	208.62
263.57	197.62
263.802	181.62
264.035	202.62
264.267	191.62
264.499	186.62
264.732	201.62
264.964	197.62
265.197	194.62
265.429	203.62
265.661	213.62
265.894	195.62
266.126	204.62
266.358	201.62
266.591	181.62
266.823	200.62
267.055	218.62
267.287	198.62
267.52	225.62
267.752	216.62
267.984	203.62
268.216	211.62
268.448	215.62
268.681	211.62
268.913	217.62
269.145	229.62
269.377	227.62
269.609	237.62
269.841	229.62
270.073	221.62
270.306	249.62
270.538	247.62
270.77	247.62
271.002	239.62
271.234	224.62
271.466	241.62
271.698	269.62
271.93	238.62
272.162	267.62
272.394	261.62
272.626	240.62
272.858	241.62
273.09	221.62
273.322	233.62
273.553	243.62
273.785	223.62
274.017	232.62
274.249	246.62
274.481	237.62
274.713	266.62
274.945	252.62
275.176	246.62
275.408	252.62
275.64	245.62
275.872	241.62
276.104	244.62
276.335	254.62
276.567	238.62
276.799	252.62
277.031	265.62
277.262	250.62
277.494	287.62
277.726	275.62
277.957	249.62
278.189	249.62
278.421	244.62
278.652	240.62
278.884	239.62
279.115	249.62
279.347	246.62
279.579	261.62
279.81	269.62
280.042	256.62
280.273	261.62
280.505	273.62
280.736	262.62
280.968	255.62
281.199	268.62
281.431	255.62
281.662	279.62
281.894	249.62
282.125	259.62
282.356	262.62
282.588	275.62
282.819	285.62
283.051	269.62
283.282	271.62
283.513	254.62
283.745	260.62
283.976	263.62
284.207	278.62
284.439	280.62
284.67	281.62
284.901	277.62
285.132	253.62
285.364	249.62
285.595	276.62
285.826	291.62
286.057	292.62
286.288	279.62
286.52	289.62
286.751	281.62
286.982	281.62
287.213	272.62
287.444	271.62
287.675	294.62
287.906	283.62
288.138	296.62
288.369	296.62
288.6	292.62
288.831	276.62
289.062	293.62
289.293	283.62
289.524	281.62
289.755	276.62
289.986	290.62
290.217	302.62
290.448	294.62
290.679	283.62
290.91	295.62
291.141	291.62
291.371	300.62
291.602	317.62
291.833	289.62
292.064	285.62
292.295	296.62
292.526	279.62
292.757	287.62
292.987	289.62
293.218	298.62
293.449	305.62
293.68	301.62
293.91	265.62
294.141	286.62
294.372	306.62
294.603	294.62
294.833	297.62
295.064	274.62
295.295	301.62
295.525	305.62
295.756	314.62
295.987	289.62
296.217	281.62
296.448	321.62
296.679	271.62
296.909	288.62
297.14	309.62
297.37	308.62
297.601	297.62
297.831	327.62
298.062	319.62
298.292	305.62
298.523	312.62
298.753	295.62
298.984	313.62
299.214	314.62
299.445	301.62
299.675	324.62
299.905	323.62
300.136	335.62
300.366	323.62
300.597	310.62
300.827	336.62
301.057	313.62
301.288	327.62
301.518	319.62
301.748	338.62
301.979	332.62
302.209	323.62
302.439	326.62
302.669	326.62
302.9	326.62
303.13	336.62
303.36	334.62
303.59	325.62
303.82	333.62
304.051	332.62
304.281	344.62
304.511	350.62
304.741	337.62
304.971	325.62
305.201	339.62
305.431	325.62
305.661	320.62
305.891	330.62
306.121	310.62
306.352	334.62
306.582	340.62
306.812	315.62
307.042	319.62
307.272	328.62
307.502	331.62
307.731	335.62
307.961	330.62
308.191	317.62
308.421	327.62
308.651	341.62
308.881	332.62
309.111	324.62
309.341	332.62
309.571	338.62
309.8	353.62
310.03	332.62
310.26	344.62
310.49	341.62
310.72	347.62
310.949	359.62
311.179	353.62
311.409	353.62
311.639	341.62
311.868	343.62
312.098	350.62
312.328	357.62
312.557	358.62
312.787	366.62
313.017	362.62
313.246	355.62
313.476	370.62
313.706	355.62
313.935	365.62
314.165	347.62
314.394	369.62
314.624	379.62
314.853	360.62
315.083	386.62
315.312	367.62
315.542	379.62
315.771	354.62
316.001	356.62
316.23	357.62
316.46	366.62
316.689	373.62
316.919	362.62
317.148	358.62
317.377	364.62
317.607	378.62
317.836	369.62
318.065	385.62
318.295	357.62
318.524	366.62
318.753	355.62
318.983	351.62
319.212	344.62
319.441	357.62
319.67	363.62
319.9	360.62
320.129	376.62
320.358	379.62
320.587	382.62
320.816	358.62
321.046	365.62
321.275	374.62
321.504	377.62
321.733	386.62
321.962	376.62
322.191	377.62
322.42	390.62
322.649	393.62
322.878	386.62
323.108	385.62
323.337	398.62
323.566	393.62
323.795	419.62
324.024	421.62
324.253	467.62
324.482	595.62
324.71	803.62
324.939	1062.62
325.168	890.62
325.397	541.62
325.626	429.62
325.855	410.62
326.084	424.62
326.313	424.62
326.542	414.62
326.77	421.62
326.999	468.62
327.228	583.62
327.457	803.62
327.686	862.62
327.914	614.62
328.143	465.62
328.372	465.62
328.6	445.62
328.829	432.62
329.058	450.62
329.287	460.62
329.515	442.62
329.744	422.62
329.972	424.62
330.201	437.62
330.43	428.62
330.658	455.62
330.887	465.62
331.115	442.62
331.344	447.62
331.572	419.62
331.801	441.62
332.03	435.62
332.258	424.62
332.486	455.62
332.715	450.62
332.943	470.62
333.172	468.62
333.4	482.62
333.629	495.62
333.857	518.62
334.085	505.62
334.314	492.62
334.542	507.62
334.771	519.62
334.999	496.62
335.227	472.62
335.455	494.62
335.684	474.62
335.912	466.62
336.14	458.62
336.369	452.62
336.597	448.62
336.825	437.62
337.053	449.62
337.281	436.62
337.51	442.62
337.738	441.62
337.966	433.62
338.194	434.62
338.422	437.62
338.65	421.62
338.878	423.62
339.106	426.62
339.334	405.62
339.562	429.62
339.79	423.62
340.018	411.62
340.246	422.62
340.474	410.62
340.702	404.62
340.93	426.62
341.158	399.62
341.386	409.62
341.614	422.62
341.842	430.62
342.07	413.62
342.298	407.62
342.526	397.62
342.754	402.62
342.981	408.62
343.209	428.62
343.437	432.62
343.665	441.62
343.893	456.62
344.12	471.62
344.348	463.62
344.576	434.62
344.804	422.62
345.031	436.62
345.259	422.62
345.487	431.62
345.714	426.62
345.942	385.62
346.17	408.62
346.397	398.62
346.625	394.62
346.853	415.62
347.08	401.62
347.308	387.62
347.535	399.62
347.763	395.62
347.99	382.62
348.218	393.62
348.445	409.62
348.673	409.62
348.9	395.62
349.128	373.62
349.355	364.62
349.583	391.62
349.81	387.62
350.037	371.62
350.265	379.62
350.492	378.62
350.72	383.62
350.947	373.62
351.174	394.62
351.402	399.62
351.629	400.62
351.856	385.62
352.083	403.62
352.311	399.62
352.538	413.62
352.765	385.62
352.992	392.62
353.22	403.62
353.447	378.62
353.674	378.62
353.901	391.62
354.128	400.62
354.355	385.62
354.583	367.62
354.81	376.62
355.037	382.62
355.264	392.62
355.491	369.62
355.718	389.62
355.945	390.62
356.172	368.62
356.399	377.62
356.626	375.62
356.853	385.62
357.08	387.62
357.307	399.62
357.534	400.62
357.761	377.62
357.988	391.62
358.215	397.62
358.441	382.62
358.668	386.62
358.895	403.62
359.122	399.62
359.349	395.62
359.576	388.62
359.802	394.62
360.029	417.62
360.256	412.62
360.483	409.62
360.709	402.62
360.936	385.62
361.163	383.62
361.39	369.62
361.616	397.62
361.843	385.62
362.07	404.62
362.296	368.62
362.523	386.62
362.749	420.62
362.976	402.62
363.203	391.62
363.429	397.62
363.656	393.62
363.882	373.62
364.109	382.62
364.335	385.62
364.562	369.62
364.788	386.62
365.015	395.62
365.241	387.62
365.468	387.62
365.694	393.62
365.92	397.62
366.147	387.62
366.373	401.62
366.599	369.62
366.826	386.62
367.052	357.62
367.278	382.62
367.505	391.62
367.731	381.62
367.957	389.62
368.184	399.62
368.41	402.62
368.636	409.62
368.862	418.62
369.089	406.62
369.315	396.62
369.541	389.62
369.767	401.62
369.993	388.62
370.219	371.62
370.445	386.62
370.672	387.62
370.898	414.62
371.124	396.62
371.35	401.62
371.576	405.62
371.802	408.62
372.028	407.62
372.254	426.62
372.48	396.62
372.706	417.62
372.932	411.62
373.158	419.62
373.384	402.62
373.61	423.62
373.835	416.62
374.061	418.62
374.287	405.62
374.513	413.62
374.739	426.62
374.965	411.62
375.191	436.62
375.416	443.62
375.642	424.62
375.868	433.62
376.094	435.62
376.319	428.62
376.545	411.62
376.771	403.62
376.997	413.62
377.222	395.62
377.448	399.62
377.674	413.62
377.899	402.62
378.125	412.62
378.35	396.62
378.576	403.62
378.802	391.62
379.027	423.62
379.253	410.62
379.478	381.62
379.704	376.62
379.929	405.62
380.155	419.62
380.38	414.62
380.606	390.62
380.831	409.62
381.057	409.62
381.282	389.62
381.507	407.62
381.733	411.62
381.958	426.62
382.184	420.62
382.409	418.62
382.634	432.62
382.86	437.62
383.085	434.62
383.31	437.62
383.535	427.62
383.761	436.62
383.986	437.62
384.211	443.62
384.436	448.62
384.662	447.62
384.887	466.62
385.112	477.62
385.337	448.62
385.562	467.62
385.787	476.62
386.013	481.62
386.238	473.62
386.463	485.62
386.688	468.62
386.913	472.62
387.138	459.62
387.363	456.62
387.588	445.62
387.813	458.62
388.038	465.62
388.263	472.62
388.488	488.62
388.713	449.62
388.938	458.62
389.163	472.62
389.387	461.62
389.612	460.62
389.837	446.62
390.062	465.62
390.287	470.62
390.512	463.62
390.736	460.62
390.961	471.62
391.186	481.62
391.411	477.62
391.636	501.62
391.86	494.62
392.085	519.62
392.31	508.62
392.534	508.62
392.759	496.62
392.984	486.62
393.208	513.62
393.433	503.62
393.658	511.62
393.882	471.62
394.107	463.62
394.331	484.62
394.556	485.62
394.78	500.62
395.005	481.62
395.229	466.62
395.454	512.62
395.678	511.62
395.903	506.62
396.127	499.62
396.352	501.62
396.576	494.62
396.801	480.62
397.025	486.62
397.249	515.62
397.474	490.62
397.698	496.62
397.922	505.62
398.147	519.62
398.371	516.62
398.595	547.62
398.82	546.62
399.044	584.62
399.268	619.62
399.492	656.62
399.717	726.62
399.941	737.62
400.165	698.62
400.389	680.62
400.613	589.62
400.837	587.62
401.062	562.62
401.286	557.62
401.51	563.62
401.734	545.62
401.958	547.62
402.182	569.62
402.406	579.62
402.63	570.62
402.854	572.62
403.078	572.62
403.302	586.62
403.526	617.62
403.75	586.62
403.974	617.62
404.198	608.62
404.422	625.62
404.645	585.62
404.869	605.62
405.093	598.62
405.317	627.62
405.541	634.62
405.765	607.62
405.988	605.62
406.212	611.62
406.436	595.62
406.66	633.62
406.883	618.62
407.107	657.62
407.331	711.62
407.555	735.62
407.778	715.62
408.002	681.62
408.226	657.62
408.449	653.62
408.673	624.62
408.896	648.62
409.12	651.62
409.344	617.62
409.567	610.62
409.791	594.62
410.014	576.62
410.238	581.62
410.461	577.62
410.685	585.62
410.908	576.62
411.132	595.62
411.355	616.62
411.578	614.62
411.802	538.62
412.025	579.62
412.249	582.62
412.472	580.62
412.695	590.62
412.919	606.62
413.142	580.62
413.365	541.62
413.589	557.62
413.812	546.62
414.035	580.62
414.258	559.62
414.482	550.62
414.705	548.62
414.928	531.62
415.151	525.62
415.374	547.62
415.597	546.62
415.821	538.62
416.044	516.62
416.267	546.62
416.49	523.62
416.713	530.62
416.936	549.62
417.159	536.62
417.382	557.62
417.605	517.62
417.828	525.62
418.051	559.62
418.274	572.62
418.497	538.62
418.72	551.62
418.943	540.62
419.166	585.62
419.389	599.62
419.611	589.62
419.834	605.62
420.057	571.62
420.28	563.62
420.503	554.62
420.726	567.62
420.948	549.62
421.171	575.62
421.394	576.62
421.617	566.62
421.839	537.62
422.062	553.62
422.285	554.62
422.507	588.62
422.73	630.62
422.953	621.62
423.175	573.62
423.398	571.62
423.621	560.62
423.843	575.62
424.066	594.62
424.288	580.62
424.511	590.62
424.733	608.62
424.956	646.62
425.178	629.62
425.401	627.62
425.623	598.62
425.846	570.62
426.068	552.62
426.291	565.62
426.513	554.62
426.735	549.62
426.958	576.62
427.18	602.62
427.402	654.62
427.625	683.62
427.847	626.62
428.069	579.62
428.292	540.62
428.514	534.62
428.736	526.62
428.958	516.62
429.181	497.62
429.403	479.62
429.625	523.62
429.847	536.62
430.069	535.62
430.292	557.62
430.514	496.62
430.736	493.62
430.958	501.62
431.18	489.62
431.402	480.62
431.624	489.62
431.846	489.62
432.068	497.62
432.29	501.62
432.512	482.62
432.734	490.62
432.956	504.62
433.178	495.62
433.4	494.62
433.622	508.62
433.844	493.62
434.066	503.62
434.287	491.62
434.509	512.62
434.731	505.62
434.953	553.62
435.175	550.62
435.397	551.62
435.618	550.62
435.84	556.62
436.062	595.62
436.284	629.62
436.505	559.62
436.727	509.62
436.949	517.62
437.17	497.62
437.392	513.62
437.614	519.62
437.835	499.62
438.057	564.62
438.278	596.62
438.5	593.62
438.721	623.62
438.943	621.62
439.165	536.62
439.386	515.62
439.608	521.62
439.829	521.62
440.05	535.62
440.272	521.62
440.493	511.62
440.715	502.62
440.936	513.62
441.158	522.62
441.379	528.62
441.6	559.62
441.822	568.62
442.043	584.62
442.264	601.62
442.486	612.62
442.707	563.62
442.928	556.62
443.149	566.62
443.371	550.62
443.592	578.62
443.813	607.62
444.034	655.62
444.255	585.62
444.476	598.62
444.698	600.62
444.919	601.62
445.14	681.62
445.361	627.62
445.582	577.62
445.803	587.62
446.024	625.62
446.245	643.62
446.466	609.62
446.687	563.62
446.908	513.62
447.129	488.62
447.35	481.62
447.571	494.62
447.792	463.62
448.013	479.62
448.234	481.62
448.455	521.62
448.675	559.62
448.896	597.62
449.117	551.62
449.338	535.62
449.559	578.62
449.779	643.62
450	545.62
450.221	504.62
450.442	464.62
450.662	470.62
450.883	459.62
451.104	488.62
451.324	467.62
451.545	445.62
451.766	449.62
451.986	441.62
452.207	449.62
452.428	451.62
452.648	436.62
452.869	429.62
453.089	442.62
453.31	446.62
453.53	426.62
453.751	442.62
453.971	441.62
454.192	446.62
454.412	428.62
454.633	422.62
454.853	426.62
455.073	441.62
455.294	448.62
455.514	488.62
455.734	457.62
455.955	414.62
456.175	434.62
456.395	416.62
456.616	420.62
456.836	422.62
457.056	427.62
457.276	417.62
457.497	432.62
457.717	431.62
457.937	448.62
458.157	431.62
458.377	436.62
458.598	450.62
458.818	477.62
459.038	517.62
459.258	534.62
459.478	492.62
459.698	482.62
459.918	487.62
460.138	515.62
460.358	542.62
460.578	520.62
460.798	547.62
461.018	527.62
461.238	542.62
461.458	535.62
461.678	525.62
461.898	554.62
462.118	525.62
462.338	585.62
462.558	599.62
462.777	585.62
462.997	606.62
463.217	643.62
463.437	653.62
463.657	612.62
463.876	590.62
464.096	573.62
464.316	587.62
464.536	586.62
464.755	591.62
464.975	579.62
465.195	573.62
465.414	559.62
465.634	512.62
465.854	499.62
466.073	485.62
466.293	488.62
466.512	465.62
466.732	469.62
466.951	458.62
467.171	466.62
467.391	483.62
467.61	472.62
467.829	479.62
468.049	465.62
468.268	478.62
468.488	455.62
468.707	448.62
468.927	461.62
469.146	436.62
469.365	462.62
469.585	438.62
469.804	480.62
470.023	495.62
470.243	446.62
470.462	480.62
470.681	484.62
470.901	502.62
471.12	475.62
471.339	477.62
471.558	481.62
471.777	468.62
471.997	468.62
472.216	465.62
472.435	469.62
472.654	462.62
472.873	442.62
473.092	449.62
473.311	466.62
473.53	438.62
473.749	458.62
473.968	454.62
474.187	498.62
474.406	497.62
474.625	471.62
474.844	436.62
475.063	441.62
475.282	435.62
475.501	458.62
475.72	466.62
475.939	473.62
476.158	463.62
476.377	463.62
476.596	477.62
476.814	482.62
477.033	497.62
477.252	483.62
477.471	491.62
477.69	484.62
477.908	530.62
478.127	532.62
478.346	520.62
478.564	525.62
478.783	525.62
479.002	554.62
479.22	565.62
479.439	539.62
479.658	552.62
479.876	557.62
480.095	560.62
480.313	594.62
480.532	599.62
480.751	584.62
480.969	611.62
481.188	608.62
481.406	593.62
481.624	557.62
481.843	533.62
482.061	535.62
482.28	535.62
482.498	511.62
482.717	529.62
482.935	530.62
483.153	533.62
483.372	530.62
483.59	519.62
483.808	527.62
484.027	523.62
484.245	522.62
484.463	548.62
484.681	528.62
484.9	547.62
485.118	546.62
485.336	539.62
485.554	565.62
485.772	552.62
485.99	550.62
486.209	537.62
486.427	557.62
486.645	555.62
486.863	547.62
487.081	579.62
487.299	549.62
487.517	538.62
487.735	548.62
487.953	565.62
488.171	585.62
488.389	549.62
488.607	559.62
488.825	554.62
489.043	533.62
489.261	567.62
489.479	537.62
489.696	566.62
489.914	559.62
490.132	556.62
490.35	581.62
490.568	577.62
490.786	559.62
491.003	574.62
491.221	594.62
491.439	605.62
491.657	591.62
491.874	625.62
492.092	617.62
492.31	598.62
492.527	609.62
492.745	598.62
492.963	609.62
493.18	619.62
493.398	645.62
493.615	623.62
493.833	627.62
494.05	626.62
494.268	618.62
494.485	618.62
494.703	617.62
494.92	612.62
495.138	622.62
495.355	622.62
495.573	634.62
495.79	630.62
496.008	639.62
496.225	637.62
496.442	623.62
496.66	631.62
496.877	621.62
497.094	633.62
497.312	643.62
497.529	645.62
497.746	651.62
497.963	658.62
498.181	712.62
498.398	739.62
498.615	781.62
498.832	811.62
499.049	824.62
499.267	874.62
499.484	925.62
499.701	986.62
499.918	1069.62
500.135	1147.62
500.352	1273.62
500.569	1294.62
500.786	1272.62
501.003	1229.62
501.22	1142.62
501.437	1051.62
501.654	961.62
501.871	945.62
502.088	855.62
