Data from 1960PennyLincolnUp.LampE5.5.200Scan.07172019.P1.ChangedAngle_HRD10591_13-15-02-821.txt Node
Date: Thu Jul 18 13:15:02 EDT 2019
User: cochatt
Spectrometer: HR+D1059
Trigger mode: 1
Integration Time (sec): 1.000000E-1
Scans to average: 1
Electric dark correction enabled: true
Nonlinearity correction enabled: false
Boxcar width: 0
XAxis mode: Wavelengths
Number of Pixels in Spectrum: 2048
>>>>>Begin Spectral Data<<<<<
223.165	0.06
223.4	0.06
223.635	0.06
223.869	-24.94
224.104	-9.94
224.338	-14.94
224.573	-16.94
224.808	-3.94
225.042	-6.94
225.277	-3.94
225.511	-8.94
225.746	-2.94
225.98	5.06
226.215	10.06
226.449	9.06
226.683	14.06
226.918	21.06
227.152	34.06
227.387	20.06
227.621	32.06
227.856	28.06
228.09	46.06
228.324	53.06
228.559	63.06
228.793	65.06
229.027	91.06
229.262	84.06
229.496	95.06
229.73	110.06
229.964	136.06
230.199	114.06
230.433	102.06
230.667	100.06
230.901	106.06
231.136	90.06
231.37	114.06
231.604	109.06
231.838	104.06
232.072	106.06
232.306	96.06
232.541	107.06
232.775	90.06
233.009	100.06
233.243	102.06
233.477	98.06
233.711	106.06
233.945	107.06
234.179	109.06
234.413	109.06
234.647	78.06
234.881	105.06
235.115	109.06
235.349	107.06
235.583	117.06
235.817	103.06
236.051	110.06
236.285	122.06
236.519	115.06
236.753	116.06
236.987	126.06
237.221	134.06
237.455	168.06
237.689	152.06
237.922	127.06
238.156	119.06
238.39	121.06
238.624	108.06
238.858	103.06
239.091	104.06
239.325	105.06
239.559	116.06
239.793	125.06
240.027	124.06
240.26	119.06
240.494	126.06
240.728	128.06
240.961	139.06
241.195	115.06
241.429	132.06
241.662	122.06
241.896	120.06
242.13	121.06
242.363	128.06
242.597	123.06
242.83	123.06
243.064	137.06
243.298	119.06
243.531	139.06
243.765	133.06
243.998	134.06
244.232	126.06
244.465	118.06
244.699	147.06
244.932	126.06
245.166	128.06
245.399	133.06
245.633	141.06
245.866	136.06
246.099	142.06
246.333	141.06
246.566	138.06
246.8	136.06
247.033	140.06
247.266	142.06
247.5	140.06
247.733	132.06
247.966	147.06
248.2	148.06
248.433	151.06
248.666	167.06
248.899	158.06
249.133	166.06
249.366	180.06
249.599	174.06
249.832	150.06
250.066	153.06
250.299	156.06
250.532	182.06
250.765	183.06
250.998	168.06
251.231	196.06
251.465	181.06
251.698	174.06
251.931	182.06
252.164	168.06
252.397	170.06
252.63	166.06
252.863	180.06
253.096	195.06
253.329	198.06
253.562	181.06
253.795	190.06
254.028	205.06
254.261	179.06
254.494	198.06
254.727	205.06
254.96	212.06
255.193	219.06
255.426	199.06
255.659	197.06
255.892	213.06
256.124	199.06
256.357	208.06
256.59	209.06
256.823	189.06
257.056	196.06
257.289	199.06
257.521	186.06
257.754	188.06
257.987	192.06
258.22	194.06
258.452	198.06
258.685	183.06
258.918	183.06
259.151	197.06
259.383	197.06
259.616	196.06
259.849	207.06
260.081	218.06
260.314	212.06
260.547	217.06
260.779	193.06
261.012	206.06
261.244	209.06
261.477	203.06
261.71	197.06
261.942	197.06
262.175	206.06
262.407	204.06
262.64	203.06
262.872	186.06
263.105	178.06
263.337	191.06
263.57	191.06
263.802	190.06
264.035	200.06
264.267	189.06
264.499	186.06
264.732	187.06
264.964	193.06
265.197	197.06
265.429	207.06
265.661	198.06
265.894	196.06
266.126	203.06
266.358	204.06
266.591	210.06
266.823	224.06
267.055	207.06
267.287	222.06
267.52	219.06
267.752	223.06
267.984	219.06
268.216	234.06
268.448	208.06
268.681	231.06
268.913	197.06
269.145	244.06
269.377	242.06
269.609	237.06
269.841	246.06
270.073	240.06
270.306	251.06
270.538	270.06
270.77	260.06
271.002	232.06
271.234	268.06
271.466	272.06
271.698	269.06
271.93	263.06
272.162	261.06
272.394	274.06
272.626	266.06
272.858	256.06
273.09	259.06
273.322	236.06
273.553	258.06
273.785	250.06
274.017	268.06
274.249	238.06
274.481	242.06
274.713	240.06
274.945	248.06
275.176	229.06
275.408	240.06
275.64	233.06
275.872	250.06
276.104	273.06
276.335	253.06
276.567	244.06
276.799	272.06
277.031	261.06
277.262	273.06
277.494	292.06
277.726	266.06
277.957	267.06
278.189	255.06
278.421	255.06
278.652	255.06
278.884	260.06
279.115	243.06
279.347	257.06
279.579	252.06
279.81	253.06
280.042	261.06
280.273	254.06
280.505	258.06
280.736	268.06
280.968	250.06
281.199	263.06
281.431	251.06
281.662	272.06
281.894	263.06
282.125	258.06
282.356	257.06
282.588	266.06
282.819	280.06
283.051	248.06
283.282	256.06
283.513	262.06
283.745	263.06
283.976	270.06
284.207	264.06
284.439	266.06
284.67	252.06
284.901	251.06
285.132	274.06
285.364	280.06
285.595	277.06
285.826	264.06
286.057	260.06
286.288	276.06
286.52	270.06
286.751	284.06
286.982	274.06
287.213	272.06
287.444	276.06
287.675	276.06
287.906	293.06
288.138	274.06
288.369	276.06
288.6	278.06
288.831	285.06
289.062	280.06
289.293	285.06
289.524	294.06
289.755	281.06
289.986	250.06
290.217	299.06
290.448	276.06
290.679	290.06
290.91	276.06
291.141	264.06
291.371	279.06
291.602	271.06
291.833	280.06
292.064	276.06
292.295	295.06
292.526	283.06
292.757	281.06
292.987	267.06
293.218	280.06
293.449	293.06
293.68	283.06
293.91	264.06
294.141	295.06
294.372	278.06
294.603	276.06
294.833	293.06
295.064	281.06
295.295	295.06
295.525	291.06
295.756	284.06
295.987	280.06
296.217	303.06
296.448	285.06
296.679	292.06
296.909	270.06
297.14	302.06
297.37	293.06
297.601	298.06
297.831	297.06
298.062	291.06
298.292	296.06
298.523	290.06
298.753	288.06
298.984	297.06
299.214	304.06
299.445	287.06
299.675	302.06
299.905	286.06
300.136	298.06
300.366	264.06
300.597	305.06
300.827	318.06
301.057	317.06
301.288	304.06
301.518	303.06
301.748	302.06
301.979	310.06
302.209	315.06
302.439	312.06
302.669	321.06
302.9	288.06
303.13	326.06
303.36	323.06
303.59	315.06
303.82	320.06
304.051	305.06
304.281	321.06
304.511	317.06
304.741	298.06
304.971	312.06
305.201	318.06
305.431	323.06
305.661	306.06
305.891	307.06
306.121	306.06
306.352	313.06
306.582	311.06
306.812	318.06
307.042	326.06
307.272	308.06
307.502	331.06
307.731	311.06
307.961	320.06
308.191	320.06
308.421	303.06
308.651	333.06
308.881	314.06
309.111	330.06
309.341	328.06
309.571	333.06
309.8	329.06
310.03	334.06
310.26	351.06
310.49	347.06
310.72	358.06
310.949	352.06
311.179	350.06
311.409	340.06
311.639	344.06
311.868	343.06
312.098	331.06
312.328	372.06
312.557	353.06
312.787	381.06
313.017	351.06
313.246	366.06
313.476	354.06
313.706	368.06
313.935	369.06
314.165	355.06
314.394	369.06
314.624	358.06
314.853	366.06
315.083	356.06
315.312	351.06
315.542	357.06
315.771	356.06
316.001	344.06
316.23	349.06
316.46	365.06
316.689	351.06
316.919	340.06
317.148	375.06
317.377	336.06
317.607	342.06
317.836	366.06
318.065	345.06
318.295	346.06
318.524	361.06
318.753	351.06
318.983	351.06
319.212	366.06
319.441	350.06
319.67	373.06
319.9	352.06
320.129	366.06
320.358	358.06
320.587	365.06
320.816	367.06
321.046	374.06
321.275	350.06
321.504	357.06
321.733	354.06
321.962	381.06
322.191	369.06
322.42	393.06
322.649	406.06
322.878	370.06
323.108	392.06
323.337	405.06
323.566	416.06
323.795	449.06
324.024	463.06
324.253	533.06
324.482	744.06
324.71	1015.06
324.939	1348.06
325.168	1179.06
325.397	664.06
325.626	494.06
325.855	456.06
326.084	433.06
326.313	446.06
326.542	440.06
326.77	471.06
326.999	506.06
327.228	665.06
327.457	933.06
327.686	1051.06
327.914	742.06
328.143	546.06
328.372	490.06
328.6	444.06
328.829	459.06
329.058	467.06
329.287	473.06
329.515	449.06
329.744	435.06
329.972	458.06
330.201	453.06
330.43	470.06
330.658	477.06
330.887	466.06
331.115	483.06
331.344	434.06
331.572	418.06
331.801	435.06
332.03	435.06
332.258	412.06
332.486	399.06
332.715	428.06
332.943	421.06
333.172	404.06
333.4	417.06
333.629	416.06
333.857	458.06
334.085	450.06
334.314	452.06
334.542	449.06
334.771	460.06
334.999	450.06
335.227	445.06
335.455	427.06
335.684	423.06
335.912	425.06
336.14	408.06
336.369	422.06
336.597	406.06
336.825	414.06
337.053	411.06
337.281	420.06
337.51	398.06
337.738	396.06
337.966	406.06
338.194	390.06
338.422	406.06
338.65	406.06
338.878	392.06
339.106	399.06
339.334	410.06
339.562	404.06
339.79	394.06
340.018	393.06
340.246	393.06
340.474	391.06
340.702	389.06
340.93	391.06
341.158	395.06
341.386	387.06
341.614	381.06
341.842	380.06
342.07	377.06
342.298	384.06
342.526	374.06
342.754	387.06
342.981	383.06
343.209	376.06
343.437	390.06
343.665	385.06
343.893	423.06
344.12	390.06
344.348	398.06
344.576	406.06
344.804	392.06
345.031	405.06
345.259	387.06
345.487	397.06
345.714	377.06
345.942	380.06
346.17	381.06
346.397	394.06
346.625	381.06
346.853	371.06
347.08	383.06
347.308	376.06
347.535	361.06
347.763	378.06
347.99	397.06
348.218	368.06
348.445	370.06
348.673	375.06
348.9	361.06
349.128	357.06
349.355	374.06
349.583	384.06
349.81	368.06
350.037	371.06
350.265	355.06
350.492	368.06
350.72	367.06
350.947	363.06
351.174	347.06
351.402	363.06
351.629	366.06
351.856	365.06
352.083	362.06
352.311	381.06
352.538	370.06
352.765	377.06
352.992	380.06
353.22	370.06
353.447	367.06
353.674	362.06
353.901	364.06
354.128	358.06
354.355	358.06
354.583	339.06
354.81	360.06
355.037	341.06
355.264	354.06
355.491	357.06
355.718	350.06
355.945	338.06
356.172	342.06
356.399	348.06
356.626	340.06
356.853	347.06
357.08	337.06
357.307	354.06
357.534	360.06
357.761	340.06
357.988	336.06
358.215	331.06
358.441	346.06
358.668	341.06
358.895	351.06
359.122	355.06
359.349	362.06
359.576	349.06
359.802	368.06
360.029	362.06
360.256	379.06
360.483	358.06
360.709	349.06
360.936	368.06
361.163	364.06
361.39	364.06
361.616	366.06
361.843	335.06
362.07	351.06
362.296	347.06
362.523	356.06
362.749	373.06
362.976	363.06
363.203	383.06
363.429	361.06
363.656	360.06
363.882	335.06
364.109	356.06
364.335	339.06
364.562	330.06
364.788	338.06
365.015	347.06
365.241	348.06
365.468	358.06
365.694	348.06
365.92	351.06
366.147	346.06
366.373	362.06
366.599	337.06
366.826	343.06
367.052	356.06
367.278	350.06
367.505	354.06
367.731	370.06
367.957	339.06
368.184	345.06
368.41	356.06
368.636	370.06
368.862	363.06
369.089	352.06
369.315	351.06
369.541	346.06
369.767	362.06
369.993	348.06
370.219	351.06
370.445	328.06
370.672	349.06
370.898	350.06
371.124	360.06
371.35	337.06
371.576	326.06
371.802	356.06
372.028	341.06
372.254	352.06
372.48	359.06
372.706	342.06
372.932	346.06
373.158	343.06
373.384	336.06
373.61	350.06
373.835	350.06
374.061	339.06
374.287	354.06
374.513	352.06
374.739	365.06
374.965	358.06
375.191	365.06
375.416	365.06
375.642	337.06
375.868	358.06
376.094	342.06
376.319	352.06
376.545	339.06
376.771	346.06
376.997	374.06
377.222	335.06
377.448	354.06
377.674	354.06
377.899	345.06
378.125	346.06
378.35	336.06
378.576	345.06
378.802	349.06
379.027	355.06
379.253	347.06
379.478	343.06
379.704	337.06
379.929	336.06
380.155	338.06
380.38	339.06
380.606	325.06
380.831	335.06
381.057	347.06
381.282	335.06
381.507	334.06
381.733	375.06
381.958	342.06
382.184	332.06
382.409	358.06
382.634	357.06
382.86	332.06
383.085	352.06
383.31	356.06
383.535	354.06
383.761	346.06
383.986	356.06
384.211	367.06
384.436	364.06
384.662	351.06
384.887	364.06
385.112	365.06
385.337	372.06
385.562	365.06
385.787	364.06
386.013	366.06
386.238	356.06
386.463	367.06
386.688	355.06
386.913	370.06
387.138	362.06
387.363	364.06
387.588	367.06
387.813	377.06
388.038	378.06
388.263	387.06
388.488	365.06
388.713	363.06
388.938	375.06
389.163	373.06
389.387	381.06
389.612	372.06
389.837	377.06
390.062	362.06
390.287	377.06
390.512	372.06
390.736	362.06
390.961	384.06
391.186	366.06
391.411	366.06
391.636	383.06
391.86	393.06
392.085	380.06
392.31	394.06
392.534	368.06
392.759	386.06
392.984	385.06
393.208	368.06
393.433	382.06
393.658	354.06
393.882	351.06
394.107	396.06
394.331	372.06
394.556	376.06
394.78	369.06
395.005	366.06
395.229	373.06
395.454	375.06
395.678	389.06
395.903	380.06
396.127	386.06
396.352	395.06
396.576	368.06
396.801	393.06
397.025	378.06
397.249	383.06
397.474	396.06
397.698	395.06
397.922	418.06
398.147	390.06
398.371	399.06
398.595	399.06
398.82	430.06
399.044	432.06
399.268	425.06
399.492	458.06
399.717	474.06
399.941	487.06
400.165	506.06
400.389	506.06
400.613	468.06
400.837	438.06
401.062	441.06
401.286	430.06
401.51	420.06
401.734	413.06
401.958	420.06
402.182	434.06
402.406	409.06
402.63	431.06
402.854	423.06
403.078	423.06
403.302	423.06
403.526	420.06
403.75	408.06
403.974	433.06
404.198	428.06
404.422	431.06
404.645	426.06
404.869	429.06
405.093	473.06
405.317	475.06
405.541	499.06
405.765	470.06
405.988	441.06
406.212	454.06
406.436	473.06
406.66	462.06
406.883	468.06
407.107	469.06
407.331	509.06
407.555	530.06
407.778	531.06
408.002	482.06
408.226	457.06
408.449	453.06
408.673	461.06
408.896	472.06
409.12	474.06
409.344	463.06
409.567	454.06
409.791	431.06
410.014	446.06
410.238	430.06
410.461	433.06
410.685	420.06
410.908	427.06
411.132	442.06
411.355	463.06
411.578	448.06
411.802	422.06
412.025	438.06
412.249	438.06
412.472	445.06
412.695	452.06
412.919	447.06
413.142	399.06
413.365	411.06
413.589	388.06
413.812	410.06
414.035	411.06
414.258	400.06
414.482	401.06
414.705	400.06
414.928	400.06
415.151	399.06
415.374	393.06
415.597	407.06
415.821	392.06
416.044	386.06
416.267	410.06
416.49	403.06
416.713	388.06
416.936	403.06
417.159	386.06
417.382	389.06
417.605	385.06
417.828	414.06
418.051	402.06
418.274	403.06
418.497	379.06
418.72	398.06
418.943	387.06
419.166	394.06
419.389	420.06
419.611	422.06
419.834	414.06
420.057	399.06
420.28	404.06
420.503	399.06
420.726	424.06
420.948	409.06
421.171	448.06
421.394	453.06
421.617	396.06
421.839	405.06
422.062	414.06
422.285	378.06
422.507	434.06
422.73	483.06
422.953	478.06
423.175	416.06
423.398	441.06
423.621	398.06
423.843	429.06
424.066	427.06
424.288	407.06
424.511	422.06
424.733	465.06
424.956	497.06
425.178	505.06
425.401	484.06
425.623	519.06
425.846	449.06
426.068	441.06
426.291	411.06
426.513	428.06
426.735	429.06
426.958	463.06
427.18	494.06
427.402	597.06
427.625	624.06
427.847	540.06
428.069	473.06
428.292	451.06
428.514	424.06
428.736	402.06
428.958	414.06
429.181	412.06
429.403	400.06
429.625	410.06
429.847	418.06
430.069	441.06
430.292	463.06
430.514	410.06
430.736	394.06
430.958	383.06
431.18	398.06
431.402	370.06
431.624	367.06
431.846	365.06
432.068	387.06
432.29	382.06
432.512	372.06
432.734	379.06
432.956	383.06
433.178	413.06
433.4	403.06
433.622	374.06
433.844	390.06
434.066	368.06
434.287	362.06
434.509	409.06
434.731	382.06
434.953	403.06
435.175	404.06
435.397	403.06
435.618	419.06
435.84	455.06
436.062	460.06
436.284	528.06
436.505	469.06
436.727	424.06
436.949	394.06
437.17	392.06
437.392	380.06
437.614	400.06
437.835	419.06
438.057	463.06
438.278	530.06
438.5	554.06
438.721	572.06
438.943	544.06
439.165	454.06
439.386	422.06
439.608	432.06
439.829	407.06
440.05	430.06
440.272	464.06
440.493	445.06
440.715	410.06
440.936	398.06
441.158	397.06
441.379	390.06
441.6	400.06
441.822	425.06
442.043	447.06
442.264	490.06
442.486	498.06
442.707	434.06
442.928	445.06
443.149	433.06
443.371	433.06
443.592	470.06
443.813	530.06
444.034	564.06
444.255	455.06
444.476	432.06
444.698	424.06
444.919	434.06
445.14	509.06
445.361	482.06
445.582	447.06
445.803	470.06
446.024	544.06
446.245	527.06
446.466	508.06
446.687	437.06
446.908	415.06
447.129	394.06
447.35	390.06
447.571	402.06
447.792	386.06
448.013	370.06
448.234	408.06
448.455	428.06
448.675	513.06
448.896	583.06
449.117	502.06
449.338	457.06
449.559	548.06
449.779	587.06
450	477.06
450.221	420.06
450.442	416.06
450.662	382.06
450.883	368.06
451.104	385.06
451.324	383.06
451.545	374.06
451.766	354.06
451.986	351.06
452.207	356.06
452.428	338.06
452.648	364.06
452.869	358.06
453.089	348.06
453.31	360.06
453.53	357.06
453.751	356.06
453.971	332.06
454.192	345.06
454.412	365.06
454.633	345.06
454.853	347.06
455.073	343.06
455.294	363.06
455.514	406.06
455.734	404.06
455.955	354.06
456.175	346.06
456.395	344.06
456.616	342.06
456.836	327.06
457.056	333.06
457.276	343.06
457.497	342.06
457.717	352.06
457.937	325.06
458.157	331.06
458.377	344.06
458.598	354.06
458.818	364.06
459.038	442.06
459.258	450.06
459.478	388.06
459.698	385.06
459.918	376.06
460.138	348.06
460.358	376.06
460.578	384.06
460.798	395.06
461.018	375.06
461.238	387.06
461.458	376.06
461.678	381.06
461.898	383.06
462.118	384.06
462.338	399.06
462.558	405.06
462.777	389.06
462.997	421.06
463.217	424.06
463.437	437.06
463.657	435.06
463.876	404.06
464.096	399.06
464.316	402.06
464.536	411.06
464.755	416.06
464.975	404.06
465.195	430.06
465.414	434.06
465.634	393.06
465.854	397.06
466.073	388.06
466.293	347.06
466.512	364.06
466.732	372.06
466.951	368.06
467.171	366.06
467.391	352.06
467.61	362.06
467.829	361.06
468.049	394.06
468.268	374.06
468.488	370.06
468.707	361.06
468.927	359.06
469.146	352.06
469.365	348.06
469.585	355.06
469.804	356.06
470.023	362.06
470.243	363.06
470.462	367.06
470.681	373.06
470.901	368.06
471.12	373.06
471.339	340.06
471.558	360.06
471.777	374.06
471.997	390.06
472.216	367.06
472.435	394.06
472.654	393.06
472.873	352.06
473.092	371.06
473.311	368.06
473.53	348.06
473.749	354.06
473.968	394.06
474.187	466.06
474.406	452.06
474.625	372.06
474.844	369.06
475.063	360.06
475.282	373.06
475.501	378.06
475.72	375.06
475.939	370.06
476.158	378.06
476.377	392.06
476.596	376.06
476.814	370.06
477.033	385.06
477.252	380.06
477.471	374.06
477.69	382.06
477.908	373.06
478.127	389.06
478.346	392.06
478.564	390.06
478.783	396.06
479.002	398.06
479.22	409.06
479.439	426.06
479.658	431.06
479.876	415.06
480.095	451.06
480.313	457.06
480.532	431.06
480.751	428.06
480.969	448.06
481.188	479.06
481.406	492.06
481.624	458.06
481.843	435.06
482.061	419.06
482.28	433.06
482.498	428.06
482.717	432.06
482.935	414.06
483.153	426.06
483.372	406.06
483.59	412.06
483.808	405.06
484.027	422.06
484.245	437.06
484.463	419.06
484.681	430.06
484.9	434.06
485.118	414.06
485.336	428.06
485.554	431.06
485.772	428.06
485.99	423.06
486.209	444.06
486.427	433.06
486.645	437.06
486.863	444.06
487.081	436.06
487.299	443.06
487.517	455.06
487.735	448.06
487.953	441.06
488.171	444.06
488.389	470.06
488.607	428.06
488.825	440.06
489.043	438.06
489.261	456.06
489.479	473.06
489.696	459.06
489.914	435.06
490.132	457.06
490.35	438.06
490.568	465.06
490.786	477.06
491.003	458.06
491.221	458.06
491.439	466.06
491.657	486.06
491.874	501.06
492.092	474.06
492.31	510.06
492.527	481.06
492.745	472.06
492.963	508.06
493.18	509.06
493.398	517.06
493.615	490.06
493.833	504.06
494.05	499.06
494.268	491.06
494.485	496.06
494.703	508.06
494.92	518.06
495.138	511.06
495.355	533.06
495.573	536.06
495.79	514.06
496.008	502.06
496.225	491.06
496.442	531.06
496.66	534.06
496.877	528.06
497.094	530.06
497.312	530.06
497.529	526.06
497.746	553.06
497.963	540.06
498.181	555.06
498.398	571.06
498.615	585.06
498.832	597.06
499.049	616.06
499.267	607.06
499.484	642.06
499.701	651.06
499.918	679.06
500.135	703.06
500.352	748.06
500.569	754.06
500.786	731.06
501.003	732.06
501.22	715.06
501.437	699.06
501.654	677.06
501.871	646.06
502.088	638.06
