Data from 1960PennyLincolnUp.LampE6.200Scan.07172019.P1_HRD10591_13-05-12-001.txt Node
Date: Thu Jul 18 13:05:12 EDT 2019
User: cochatt
Spectrometer: HR+D1059
Trigger mode: 1
Integration Time (sec): 1.000000E-1
Scans to average: 1
Electric dark correction enabled: true
Nonlinearity correction enabled: false
Boxcar width: 0
XAxis mode: Wavelengths
Number of Pixels in Spectrum: 2048
>>>>>Begin Spectral Data<<<<<
223.165	-20.81
223.4	-20.81
223.635	-20.81
223.869	-28.81
224.104	-9.81
224.338	-1.81
224.573	-9.81
224.808	-15.81
225.042	-5.81
225.277	-3.81
225.511	-2.81
225.746	10.19
225.98	4.19
226.215	23.19
226.449	15.19
226.683	17.19
226.918	12.19
227.152	17.19
227.387	30.19
227.621	22.19
227.856	42.19
228.09	40.19
228.324	57.19
228.559	45.19
228.793	57.19
229.027	91.19
229.262	85.19
229.496	91.19
229.73	92.19
229.964	114.19
230.199	111.19
230.433	103.19
230.667	107.19
230.901	110.19
231.136	104.19
231.37	101.19
231.604	105.19
231.838	97.19
232.072	109.19
232.306	106.19
232.541	109.19
232.775	103.19
233.009	107.19
233.243	100.19
233.477	98.19
233.711	110.19
233.945	111.19
234.179	117.19
234.413	133.19
234.647	111.19
234.881	113.19
235.115	117.19
235.349	103.19
235.583	108.19
235.817	113.19
236.051	105.19
236.285	108.19
236.519	126.19
236.753	124.19
236.987	131.19
237.221	148.19
237.455	147.19
237.689	144.19
237.922	113.19
238.156	113.19
238.39	112.19
238.624	108.19
238.858	107.19
239.091	113.19
239.325	101.19
239.559	114.19
239.793	113.19
240.027	122.19
240.26	131.19
240.494	124.19
240.728	125.19
240.961	124.19
241.195	130.19
241.429	131.19
241.662	123.19
241.896	136.19
242.13	125.19
242.363	111.19
242.597	121.19
242.83	124.19
243.064	131.19
243.298	138.19
243.531	124.19
243.765	113.19
243.998	130.19
244.232	131.19
244.465	115.19
244.699	136.19
244.932	133.19
245.166	137.19
245.399	131.19
245.633	135.19
245.866	127.19
246.099	121.19
246.333	149.19
246.566	157.19
246.8	142.19
247.033	147.19
247.266	135.19
247.5	161.19
247.733	142.19
247.966	160.19
248.2	152.19
248.433	137.19
248.666	161.19
248.899	164.19
249.133	171.19
249.366	164.19
249.599	187.19
249.832	164.19
250.066	166.19
250.299	150.19
250.532	165.19
250.765	162.19
250.998	163.19
251.231	184.19
251.465	177.19
251.698	159.19
251.931	173.19
252.164	164.19
252.397	159.19
252.63	179.19
252.863	174.19
253.096	185.19
253.329	196.19
253.562	174.19
253.795	172.19
254.028	197.19
254.261	190.19
254.494	187.19
254.727	192.19
254.96	201.19
255.193	189.19
255.426	205.19
255.659	184.19
255.892	189.19
256.124	188.19
256.357	201.19
256.59	183.19
256.823	180.19
257.056	171.19
257.289	183.19
257.521	172.19
257.754	184.19
257.987	169.19
258.22	175.19
258.452	179.19
258.685	183.19
258.918	196.19
259.151	184.19
259.383	192.19
259.616	198.19
259.849	196.19
260.081	198.19
260.314	194.19
260.547	204.19
260.779	212.19
261.012	200.19
261.244	190.19
261.477	184.19
261.71	190.19
261.942	212.19
262.175	196.19
262.407	210.19
262.64	200.19
262.872	188.19
263.105	181.19
263.337	194.19
263.57	191.19
263.802	195.19
264.035	211.19
264.267	192.19
264.499	187.19
264.732	192.19
264.964	197.19
265.197	204.19
265.429	225.19
265.661	214.19
265.894	191.19
266.126	197.19
266.358	197.19
266.591	203.19
266.823	186.19
267.055	214.19
267.287	213.19
267.52	219.19
267.752	208.19
267.984	208.19
268.216	204.19
268.448	211.19
268.681	219.19
268.913	223.19
269.145	222.19
269.377	236.19
269.609	252.19
269.841	225.19
270.073	248.19
270.306	233.19
270.538	261.19
270.77	254.19
271.002	228.19
271.234	239.19
271.466	228.19
271.698	249.19
271.93	255.19
272.162	255.19
272.394	260.19
272.626	244.19
272.858	239.19
273.09	232.19
273.322	254.19
273.553	239.19
273.785	233.19
274.017	230.19
274.249	240.19
274.481	254.19
274.713	223.19
274.945	224.19
275.176	228.19
275.408	237.19
275.64	252.19
275.872	255.19
276.104	240.19
276.335	244.19
276.567	240.19
276.799	243.19
277.031	261.19
277.262	268.19
277.494	255.19
277.726	254.19
277.957	244.19
278.189	258.19
278.421	245.19
278.652	255.19
278.884	249.19
279.115	259.19
279.347	256.19
279.579	246.19
279.81	242.19
280.042	274.19
280.273	257.19
280.505	255.19
280.736	261.19
280.968	264.19
281.199	241.19
281.431	246.19
281.662	258.19
281.894	270.19
282.125	250.19
282.356	269.19
282.588	291.19
282.819	281.19
283.051	272.19
283.282	255.19
283.513	271.19
283.745	273.19
283.976	283.19
284.207	275.19
284.439	269.19
284.67	262.19
284.901	256.19
285.132	285.19
285.364	276.19
285.595	283.19
285.826	278.19
286.057	293.19
286.288	266.19
286.52	292.19
286.751	287.19
286.982	293.19
287.213	267.19
287.444	278.19
287.675	275.19
287.906	285.19
288.138	285.19
288.369	289.19
288.6	279.19
288.831	296.19
289.062	303.19
289.293	285.19
289.524	280.19
289.755	303.19
289.986	291.19
290.217	270.19
290.448	293.19
290.679	283.19
290.91	287.19
291.141	304.19
291.371	295.19
291.602	293.19
291.833	291.19
292.064	300.19
292.295	304.19
292.526	288.19
292.757	287.19
292.987	268.19
293.218	277.19
293.449	300.19
293.68	298.19
293.91	298.19
294.141	287.19
294.372	286.19
294.603	293.19
294.833	297.19
295.064	295.19
295.295	301.19
295.525	292.19
295.756	316.19
295.987	311.19
296.217	296.19
296.448	321.19
296.679	319.19
296.909	303.19
297.14	295.19
297.37	297.19
297.601	305.19
297.831	292.19
298.062	301.19
298.292	326.19
298.523	307.19
298.753	308.19
298.984	328.19
299.214	312.19
299.445	320.19
299.675	313.19
299.905	317.19
300.136	320.19
300.366	324.19
300.597	314.19
300.827	319.19
301.057	327.19
301.288	336.19
301.518	327.19
301.748	336.19
301.979	333.19
302.209	325.19
302.439	330.19
302.669	324.19
302.9	335.19
303.13	311.19
303.36	347.19
303.59	351.19
303.82	334.19
304.051	330.19
304.281	328.19
304.511	335.19
304.741	332.19
304.971	335.19
305.201	329.19
305.431	332.19
305.661	348.19
305.891	332.19
306.121	348.19
306.352	313.19
306.582	324.19
306.812	327.19
307.042	323.19
307.272	332.19
307.502	347.19
307.731	343.19
307.961	320.19
308.191	334.19
308.421	334.19
308.651	336.19
308.881	317.19
309.111	344.19
309.341	329.19
309.571	317.19
309.8	339.19
310.03	337.19
310.26	353.19
310.49	332.19
310.72	367.19
310.949	352.19
311.179	355.19
311.409	338.19
311.639	347.19
311.868	353.19
312.098	343.19
312.328	351.19
312.557	366.19
312.787	340.19
313.017	357.19
313.246	347.19
313.476	354.19
313.706	365.19
313.935	359.19
314.165	369.19
314.394	361.19
314.624	368.19
314.853	353.19
315.083	350.19
315.312	368.19
315.542	344.19
315.771	344.19
316.001	356.19
316.23	367.19
316.46	359.19
316.689	368.19
316.919	357.19
317.148	364.19
317.377	353.19
317.607	373.19
317.836	381.19
318.065	359.19
318.295	372.19
318.524	369.19
318.753	365.19
318.983	360.19
319.212	353.19
319.441	356.19
319.67	374.19
319.9	369.19
320.129	365.19
320.358	372.19
320.587	353.19
320.816	356.19
321.046	367.19
321.275	368.19
321.504	375.19
321.733	369.19
321.962	371.19
322.191	384.19
322.42	383.19
322.649	381.19
322.878	380.19
323.108	395.19
323.337	406.19
323.566	423.19
323.795	415.19
324.024	426.19
324.253	480.19
324.482	589.19
324.71	820.19
324.939	1100.19
325.168	915.19
325.397	550.19
325.626	439.19
325.855	431.19
326.084	397.19
326.313	415.19
326.542	401.19
326.77	431.19
326.999	486.19
327.228	580.19
327.457	808.19
327.686	903.19
327.914	600.19
328.143	497.19
328.372	441.19
328.6	443.19
328.829	447.19
329.058	452.19
329.287	443.19
329.515	446.19
329.744	423.19
329.972	435.19
330.201	436.19
330.43	448.19
330.658	456.19
330.887	448.19
331.115	445.19
331.344	420.19
331.572	424.19
331.801	435.19
332.03	456.19
332.258	451.19
332.486	460.19
332.715	455.19
332.943	472.19
333.172	479.19
333.4	464.19
333.629	491.19
333.857	500.19
334.085	485.19
334.314	516.19
334.542	522.19
334.771	503.19
334.999	497.19
335.227	490.19
335.455	465.19
335.684	472.19
335.912	456.19
336.14	446.19
336.369	471.19
336.597	451.19
336.825	448.19
337.053	466.19
337.281	443.19
337.51	433.19
337.738	431.19
337.966	428.19
338.194	424.19
338.422	428.19
338.65	421.19
338.878	453.19
339.106	420.19
339.334	429.19
339.562	428.19
339.79	422.19
340.018	413.19
340.246	436.19
340.474	422.19
340.702	425.19
340.93	407.19
341.158	428.19
341.386	406.19
341.614	413.19
341.842	422.19
342.07	385.19
342.298	400.19
342.526	410.19
342.754	417.19
342.981	421.19
343.209	419.19
343.437	430.19
343.665	440.19
343.893	441.19
344.12	471.19
344.348	461.19
344.576	432.19
344.804	430.19
345.031	420.19
345.259	403.19
345.487	420.19
345.714	408.19
345.942	415.19
346.17	396.19
346.397	391.19
346.625	393.19
346.853	395.19
347.08	397.19
347.308	377.19
347.535	388.19
347.763	393.19
347.99	391.19
348.218	394.19
348.445	399.19
348.673	402.19
348.9	402.19
349.128	392.19
349.355	389.19
349.583	378.19
349.81	393.19
350.037	383.19
350.265	386.19
350.492	394.19
350.72	392.19
350.947	385.19
351.174	372.19
351.402	403.19
351.629	399.19
351.856	381.19
352.083	387.19
352.311	387.19
352.538	386.19
352.765	382.19
352.992	399.19
353.22	392.19
353.447	385.19
353.674	386.19
353.901	379.19
354.128	395.19
354.355	394.19
354.583	376.19
354.81	369.19
355.037	380.19
355.264	400.19
355.491	387.19
355.718	378.19
355.945	377.19
356.172	369.19
356.399	373.19
356.626	363.19
356.853	391.19
357.08	372.19
357.307	379.19
357.534	395.19
357.761	378.19
357.988	374.19
358.215	401.19
358.441	380.19
358.668	380.19
358.895	395.19
359.122	374.19
359.349	401.19
359.576	395.19
359.802	410.19
360.029	399.19
360.256	412.19
360.483	401.19
360.709	404.19
360.936	388.19
361.163	390.19
361.39	404.19
361.616	397.19
361.843	399.19
362.07	392.19
362.296	385.19
362.523	375.19
362.749	401.19
362.976	399.19
363.203	390.19
363.429	391.19
363.656	390.19
363.882	396.19
364.109	365.19
364.335	374.19
364.562	391.19
364.788	380.19
365.015	374.19
365.241	371.19
365.468	390.19
365.694	387.19
365.92	391.19
366.147	373.19
366.373	386.19
366.599	396.19
366.826	371.19
367.052	389.19
367.278	383.19
367.505	396.19
367.731	374.19
367.957	392.19
368.184	390.19
368.41	392.19
368.636	398.19
368.862	399.19
369.089	400.19
369.315	403.19
369.541	404.19
369.767	381.19
369.993	407.19
370.219	408.19
370.445	394.19
370.672	404.19
370.898	421.19
371.124	399.19
371.35	392.19
371.576	415.19
371.802	421.19
372.028	405.19
372.254	417.19
372.48	409.19
372.706	426.19
372.932	415.19
373.158	417.19
373.384	418.19
373.61	388.19
373.835	395.19
374.061	401.19
374.287	405.19
374.513	416.19
374.739	423.19
374.965	428.19
375.191	431.19
375.416	446.19
375.642	417.19
375.868	399.19
376.094	405.19
376.319	435.19
376.545	414.19
376.771	391.19
376.997	416.19
377.222	407.19
377.448	397.19
377.674	376.19
377.899	399.19
378.125	410.19
378.35	400.19
378.576	391.19
378.802	399.19
379.027	418.19
379.253	391.19
379.478	403.19
379.704	395.19
379.929	430.19
380.155	405.19
380.38	405.19
380.606	402.19
380.831	416.19
381.057	426.19
381.282	419.19
381.507	403.19
381.733	398.19
381.958	406.19
382.184	406.19
382.409	419.19
382.634	413.19
382.86	454.19
383.085	426.19
383.31	450.19
383.535	445.19
383.761	439.19
383.986	451.19
384.211	447.19
384.436	453.19
384.662	460.19
384.887	479.19
385.112	472.19
385.337	464.19
385.562	487.19
385.787	483.19
386.013	457.19
386.238	469.19
386.463	485.19
386.688	463.19
386.913	476.19
387.138	475.19
387.363	479.19
387.588	456.19
387.813	448.19
388.038	445.19
388.263	481.19
388.488	468.19
388.713	451.19
388.938	470.19
389.163	453.19
389.387	455.19
389.612	452.19
389.837	463.19
390.062	445.19
390.287	461.19
390.512	450.19
390.736	454.19
390.961	466.19
391.186	467.19
391.411	498.19
391.636	492.19
391.86	478.19
392.085	503.19
392.31	489.19
392.534	488.19
392.759	501.19
392.984	481.19
393.208	482.19
393.433	504.19
393.658	502.19
393.882	488.19
394.107	468.19
394.331	478.19
394.556	451.19
394.78	486.19
395.005	462.19
395.229	497.19
395.454	495.19
395.678	509.19
395.903	494.19
396.127	499.19
396.352	501.19
396.576	505.19
396.801	499.19
397.025	517.19
397.249	507.19
397.474	511.19
397.698	528.19
397.922	500.19
398.147	545.19
398.371	528.19
398.595	543.19
398.82	554.19
399.044	567.19
399.268	617.19
399.492	684.19
399.717	756.19
399.941	729.19
400.165	712.19
400.389	646.19
400.613	608.19
400.837	581.19
401.062	558.19
401.286	568.19
401.51	573.19
401.734	563.19
401.958	560.19
402.182	532.19
402.406	552.19
402.63	567.19
402.854	588.19
403.078	583.19
403.302	613.19
403.526	598.19
403.75	584.19
403.974	594.19
404.198	589.19
404.422	600.19
404.645	590.19
404.869	608.19
405.093	628.19
405.317	639.19
405.541	635.19
405.765	616.19
405.988	607.19
406.212	598.19
406.436	607.19
406.66	637.19
406.883	634.19
407.107	633.19
407.331	663.19
407.555	702.19
407.778	702.19
408.002	677.19
408.226	680.19
408.449	626.19
408.673	606.19
408.896	613.19
409.12	637.19
409.344	627.19
409.567	621.19
409.791	609.19
410.014	596.19
410.238	573.19
410.461	573.19
410.685	595.19
410.908	572.19
411.132	597.19
411.355	605.19
411.578	596.19
411.802	589.19
412.025	573.19
412.249	596.19
412.472	606.19
412.695	606.19
412.919	574.19
413.142	550.19
413.365	551.19
413.589	564.19
413.812	565.19
414.035	541.19
414.258	531.19
414.482	524.19
414.705	577.19
414.928	568.19
415.151	561.19
415.374	536.19
415.597	539.19
415.821	566.19
416.044	528.19
416.267	539.19
416.49	541.19
416.713	542.19
416.936	539.19
417.159	535.19
417.382	542.19
417.605	540.19
417.828	544.19
418.051	544.19
418.274	558.19
418.497	555.19
418.72	548.19
418.943	540.19
419.166	566.19
419.389	605.19
419.611	587.19
419.834	582.19
420.057	568.19
420.28	560.19
420.503	543.19
420.726	550.19
420.948	569.19
421.171	583.19
421.394	595.19
421.617	555.19
421.839	553.19
422.062	558.19
422.285	569.19
422.507	578.19
422.73	614.19
422.953	605.19
423.175	567.19
423.398	589.19
423.621	574.19
423.843	579.19
424.066	597.19
424.288	579.19
424.511	588.19
424.733	599.19
424.956	637.19
425.178	633.19
425.401	619.19
425.623	629.19
425.846	562.19
426.068	544.19
426.291	551.19
426.513	531.19
426.735	542.19
426.958	581.19
427.18	589.19
427.402	653.19
427.625	694.19
427.847	619.19
428.069	565.19
428.292	543.19
428.514	525.19
428.736	511.19
428.958	513.19
429.181	477.19
429.403	511.19
429.625	512.19
429.847	525.19
430.069	552.19
430.292	535.19
430.514	504.19
430.736	505.19
430.958	509.19
431.18	509.19
431.402	483.19
431.624	482.19
431.846	495.19
432.068	491.19
432.29	484.19
432.512	508.19
432.734	483.19
432.956	490.19
433.178	504.19
433.4	489.19
433.622	499.19
433.844	499.19
434.066	496.19
434.287	516.19
434.509	523.19
434.731	514.19
434.953	555.19
435.175	568.19
435.397	549.19
435.618	533.19
435.84	551.19
436.062	583.19
436.284	599.19
436.505	549.19
436.727	521.19
436.949	513.19
437.17	539.19
437.392	502.19
437.614	520.19
437.835	513.19
438.057	549.19
438.278	589.19
438.5	596.19
438.721	634.19
438.943	637.19
439.165	552.19
439.386	532.19
439.608	539.19
439.829	521.19
440.05	566.19
440.272	545.19
440.493	534.19
440.715	531.19
440.936	488.19
441.158	519.19
441.379	540.19
441.6	528.19
441.822	557.19
442.043	575.19
442.264	604.19
442.486	600.19
442.707	569.19
442.928	556.19
443.149	566.19
443.371	553.19
443.592	573.19
443.813	642.19
444.034	682.19
444.255	603.19
444.476	579.19
444.698	613.19
444.919	587.19
445.14	697.19
445.361	639.19
445.582	573.19
445.803	587.19
446.024	596.19
446.245	610.19
446.466	573.19
446.687	539.19
446.908	525.19
447.129	491.19
447.35	495.19
447.571	510.19
447.792	456.19
448.013	476.19
448.234	488.19
448.455	508.19
448.675	563.19
448.896	621.19
449.117	565.19
449.338	537.19
449.559	599.19
449.779	656.19
450	563.19
450.221	485.19
450.442	473.19
450.662	454.19
450.883	489.19
451.104	475.19
451.324	477.19
451.545	464.19
451.766	457.19
451.986	440.19
452.207	457.19
452.428	445.19
452.648	436.19
452.869	432.19
453.089	440.19
453.31	457.19
453.53	451.19
453.751	422.19
453.971	432.19
454.192	439.19
454.412	448.19
454.633	447.19
454.853	419.19
455.073	439.19
455.294	463.19
455.514	464.19
455.734	470.19
455.955	439.19
456.175	459.19
456.395	435.19
456.616	433.19
456.836	421.19
457.056	419.19
457.276	398.19
457.497	423.19
457.717	420.19
457.937	398.19
458.157	434.19
458.377	431.19
458.598	446.19
458.818	468.19
459.038	524.19
459.258	530.19
459.478	503.19
459.698	492.19
459.918	501.19
460.138	504.19
460.358	505.19
460.578	515.19
460.798	539.19
461.018	531.19
461.238	530.19
461.458	540.19
461.678	519.19
461.898	536.19
462.118	534.19
462.338	566.19
462.558	559.19
462.777	576.19
462.997	624.19
463.217	640.19
463.437	650.19
463.657	626.19
463.876	606.19
464.096	591.19
464.316	583.19
464.536	604.19
464.755	582.19
464.975	565.19
465.195	557.19
465.414	561.19
465.634	526.19
465.854	511.19
466.073	491.19
466.293	487.19
466.512	476.19
466.732	475.19
466.951	480.19
467.171	481.19
467.391	476.19
467.61	478.19
467.829	457.19
468.049	445.19
468.268	464.19
468.488	446.19
468.707	439.19
468.927	437.19
469.146	452.19
469.365	452.19
469.585	444.19
469.804	464.19
470.023	480.19
470.243	478.19
470.462	487.19
470.681	497.19
470.901	496.19
471.12	471.19
471.339	468.19
471.558	470.19
471.777	442.19
471.997	467.19
472.216	456.19
472.435	466.19
472.654	487.19
472.873	435.19
473.092	458.19
473.311	452.19
473.53	440.19
473.749	453.19
473.968	475.19
474.187	503.19
474.406	515.19
474.625	477.19
474.844	477.19
475.063	436.19
475.282	478.19
475.501	450.19
475.72	455.19
475.939	452.19
476.158	480.19
476.377	454.19
476.596	463.19
476.814	470.19
477.033	485.19
477.252	484.19
477.471	495.19
477.69	509.19
477.908	495.19
478.127	503.19
478.346	512.19
478.564	521.19
478.783	547.19
479.002	545.19
479.22	543.19
479.439	533.19
479.658	543.19
479.876	557.19
480.095	581.19
480.313	592.19
480.532	594.19
480.751	581.19
480.969	589.19
481.188	619.19
481.406	620.19
481.624	549.19
481.843	529.19
482.061	527.19
482.28	545.19
482.498	491.19
482.717	539.19
482.935	527.19
483.153	551.19
483.372	519.19
483.59	540.19
483.808	500.19
484.027	529.19
484.245	532.19
484.463	535.19
484.681	545.19
484.9	536.19
485.118	554.19
485.336	577.19
485.554	535.19
485.772	561.19
485.99	531.19
486.209	542.19
486.427	543.19
486.645	572.19
486.863	583.19
487.081	575.19
487.299	561.19
487.517	550.19
487.735	570.19
487.953	561.19
488.171	556.19
488.389	573.19
488.607	544.19
488.825	550.19
489.043	545.19
489.261	548.19
489.479	567.19
489.696	592.19
489.914	528.19
490.132	558.19
490.35	579.19
490.568	561.19
490.786	587.19
491.003	595.19
491.221	595.19
491.439	610.19
491.657	585.19
491.874	603.19
492.092	607.19
492.31	633.19
492.527	626.19
492.745	624.19
492.963	633.19
493.18	608.19
493.398	626.19
493.615	613.19
493.833	632.19
494.05	625.19
494.268	645.19
494.485	615.19
494.703	637.19
494.92	624.19
495.138	647.19
495.355	622.19
495.573	621.19
495.79	605.19
496.008	633.19
496.225	632.19
496.442	659.19
496.66	647.19
496.877	645.19
497.094	641.19
497.312	648.19
497.529	656.19
497.746	659.19
497.963	686.19
498.181	706.19
498.398	732.19
498.615	737.19
498.832	796.19
499.049	830.19
499.267	863.19
499.484	920.19
499.701	1005.19
499.918	1074.19
500.135	1149.19
500.352	1237.19
500.569	1291.19
500.786	1259.19
501.003	1209.19
501.22	1142.19
501.437	1056.19
501.654	972.19
501.871	929.19
502.088	861.19
