Data from 1961.PennyLincolnUp.Lamp.En5.5.200Scan.071719.P1._HRD10591_13-48-41-058.txt Node
Date: Thu Jul 18 13:48:41 EDT 2019
User: cochatt
Spectrometer: HR+D1059
Trigger mode: 1
Integration Time (sec): 1.000000E-1
Scans to average: 1
Electric dark correction enabled: true
Nonlinearity correction enabled: false
Boxcar width: 0
XAxis mode: Wavelengths
Number of Pixels in Spectrum: 2048
>>>>>Begin Spectral Data<<<<<
223.165	-9.75
223.4	-9.75
223.635	-9.75
223.869	-11.75
224.104	-16.75
224.338	-9.75
224.573	-21.75
224.808	-20.75
225.042	-22.75
225.277	-5.75
225.511	-1.75
225.746	6.25
225.98	3.25
226.215	8.25
226.449	14.25
226.683	21.25
226.918	25.25
227.152	42.25
227.387	29.25
227.621	30.25
227.856	47.25
228.09	44.25
228.324	36.25
228.559	71.25
228.793	70.25
229.027	87.25
229.262	101.25
229.496	114.25
229.73	126.25
229.964	149.25
230.199	124.25
230.433	103.25
230.667	98.25
230.901	105.25
231.136	95.25
231.37	90.25
231.604	111.25
231.838	103.25
232.072	112.25
232.306	89.25
232.541	94.25
232.775	112.25
233.009	113.25
233.243	116.25
233.477	113.25
233.711	103.25
233.945	115.25
234.179	92.25
234.413	115.25
234.647	104.25
234.881	112.25
235.115	102.25
235.349	118.25
235.583	117.25
235.817	109.25
236.051	123.25
236.285	118.25
236.519	101.25
236.753	111.25
236.987	129.25
237.221	176.25
237.455	227.25
237.689	176.25
237.922	144.25
238.156	112.25
238.39	143.25
238.624	123.25
238.858	115.25
239.091	119.25
239.325	114.25
239.559	121.25
239.793	105.25
240.027	112.25
240.26	122.25
240.494	146.25
240.728	139.25
240.961	138.25
241.195	127.25
241.429	118.25
241.662	115.25
241.896	106.25
242.13	124.25
242.363	120.25
242.597	114.25
242.83	138.25
243.064	140.25
243.298	119.25
243.531	117.25
243.765	128.25
243.998	120.25
244.232	126.25
244.465	130.25
244.699	141.25
244.932	144.25
245.166	125.25
245.399	122.25
245.633	138.25
245.866	130.25
246.099	124.25
246.333	147.25
246.566	131.25
246.8	152.25
247.033	137.25
247.266	144.25
247.5	134.25
247.733	148.25
247.966	144.25
248.2	154.25
248.433	137.25
248.666	147.25
248.899	166.25
249.133	176.25
249.366	177.25
249.599	177.25
249.832	162.25
250.066	160.25
250.299	151.25
250.532	158.25
250.765	171.25
250.998	183.25
251.231	188.25
251.465	177.25
251.698	184.25
251.931	172.25
252.164	174.25
252.397	180.25
252.63	161.25
252.863	183.25
253.096	165.25
253.329	188.25
253.562	180.25
253.795	195.25
254.028	190.25
254.261	187.25
254.494	203.25
254.727	212.25
254.96	244.25
255.193	221.25
255.426	211.25
255.659	205.25
255.892	192.25
256.124	197.25
256.357	202.25
256.59	199.25
256.823	186.25
257.056	190.25
257.289	190.25
257.521	182.25
257.754	196.25
257.987	185.25
258.22	181.25
258.452	188.25
258.685	178.25
258.918	193.25
259.151	179.25
259.383	177.25
259.616	188.25
259.849	174.25
260.081	205.25
260.314	221.25
260.547	201.25
260.779	211.25
261.012	187.25
261.244	196.25
261.477	196.25
261.71	195.25
261.942	195.25
262.175	199.25
262.407	214.25
262.64	174.25
262.872	187.25
263.105	177.25
263.337	184.25
263.57	178.25
263.802	189.25
264.035	168.25
264.267	164.25
264.499	167.25
264.732	184.25
264.964	189.25
265.197	184.25
265.429	180.25
265.661	192.25
265.894	187.25
266.126	193.25
266.358	203.25
266.591	186.25
266.823	185.25
267.055	188.25
267.287	190.25
267.52	203.25
267.752	192.25
267.984	186.25
268.216	187.25
268.448	191.25
268.681	197.25
268.913	201.25
269.145	198.25
269.377	231.25
269.609	225.25
269.841	225.25
270.073	227.25
270.306	246.25
270.538	265.25
270.77	272.25
271.002	243.25
271.234	238.25
271.466	261.25
271.698	274.25
271.93	264.25
272.162	268.25
272.394	290.25
272.626	266.25
272.858	243.25
273.09	233.25
273.322	254.25
273.553	226.25
273.785	206.25
274.017	216.25
274.249	227.25
274.481	224.25
274.713	224.25
274.945	230.25
275.176	209.25
275.408	227.25
275.64	223.25
275.872	216.25
276.104	229.25
276.335	216.25
276.567	230.25
276.799	233.25
277.031	263.25
277.262	254.25
277.494	251.25
277.726	245.25
277.957	233.25
278.189	244.25
278.421	226.25
278.652	235.25
278.884	227.25
279.115	246.25
279.347	211.25
279.579	229.25
279.81	218.25
280.042	219.25
280.273	218.25
280.505	219.25
280.736	211.25
280.968	222.25
281.199	216.25
281.431	223.25
281.662	227.25
281.894	216.25
282.125	214.25
282.356	247.25
282.588	261.25
282.819	263.25
283.051	221.25
283.282	227.25
283.513	218.25
283.745	226.25
283.976	226.25
284.207	231.25
284.439	246.25
284.67	214.25
284.901	214.25
285.132	216.25
285.364	234.25
285.595	209.25
285.826	230.25
286.057	225.25
286.288	227.25
286.52	212.25
286.751	235.25
286.982	231.25
287.213	236.25
287.444	215.25
287.675	235.25
287.906	236.25
288.138	253.25
288.369	260.25
288.6	259.25
288.831	235.25
289.062	246.25
289.293	236.25
289.524	228.25
289.755	246.25
289.986	242.25
290.217	232.25
290.448	234.25
290.679	246.25
290.91	233.25
291.141	228.25
291.371	222.25
291.602	226.25
291.833	216.25
292.064	231.25
292.295	232.25
292.526	225.25
292.757	247.25
292.987	238.25
293.218	244.25
293.449	225.25
293.68	235.25
293.91	243.25
294.141	254.25
294.372	224.25
294.603	246.25
294.833	232.25
295.064	226.25
295.295	250.25
295.525	239.25
295.756	248.25
295.987	256.25
296.217	282.25
296.448	286.25
296.679	264.25
296.909	229.25
297.14	246.25
297.37	244.25
297.601	236.25
297.831	243.25
298.062	242.25
298.292	240.25
298.523	265.25
298.753	251.25
298.984	252.25
299.214	256.25
299.445	258.25
299.675	255.25
299.905	252.25
300.136	269.25
300.366	258.25
300.597	247.25
300.827	250.25
301.057	235.25
301.288	278.25
301.518	280.25
301.748	262.25
301.979	260.25
302.209	256.25
302.439	267.25
302.669	275.25
302.9	270.25
303.13	247.25
303.36	250.25
303.59	264.25
303.82	277.25
304.051	288.25
304.281	278.25
304.511	266.25
304.741	276.25
304.971	280.25
305.201	277.25
305.431	264.25
305.661	263.25
305.891	263.25
306.121	248.25
306.352	276.25
306.582	287.25
306.812	258.25
307.042	248.25
307.272	276.25
307.502	275.25
307.731	297.25
307.961	268.25
308.191	276.25
308.421	278.25
308.651	285.25
308.881	268.25
309.111	282.25
309.341	299.25
309.571	274.25
309.8	313.25
310.03	305.25
310.26	340.25
310.49	318.25
310.72	338.25
310.949	337.25
311.179	336.25
311.409	326.25
311.639	326.25
311.868	298.25
312.098	330.25
312.328	330.25
312.557	319.25
312.787	357.25
313.017	352.25
313.246	339.25
313.476	336.25
313.706	326.25
313.935	313.25
314.165	336.25
314.394	335.25
314.624	334.25
314.853	328.25
315.083	338.25
315.312	306.25
315.542	300.25
315.771	315.25
316.001	337.25
316.23	309.25
316.46	300.25
316.689	311.25
316.919	318.25
317.148	331.25
317.377	336.25
317.607	342.25
317.836	330.25
318.065	329.25
318.295	311.25
318.524	313.25
318.753	310.25
318.983	307.25
319.212	334.25
319.441	329.25
319.67	332.25
319.9	329.25
320.129	330.25
320.358	339.25
320.587	324.25
320.816	336.25
321.046	350.25
321.275	344.25
321.504	361.25
321.733	346.25
321.962	340.25
322.191	367.25
322.42	386.25
322.649	402.25
322.878	394.25
323.108	401.25
323.337	455.25
323.566	458.25
323.795	496.25
324.024	548.25
324.253	716.25
324.482	1033.25
324.71	1664.25
324.939	2277.25
325.168	1866.25
325.397	1003.25
325.626	642.25
325.855	536.25
326.084	484.25
326.313	471.25
326.542	480.25
326.77	516.25
326.999	668.25
327.228	911.25
327.457	1409.25
327.686	1654.25
327.914	1067.25
328.143	700.25
328.372	611.25
328.6	553.25
328.829	556.25
329.058	558.25
329.287	539.25
329.515	514.25
329.744	457.25
329.972	464.25
330.201	498.25
330.43	523.25
330.658	546.25
330.887	591.25
331.115	538.25
331.344	478.25
331.572	440.25
331.801	448.25
332.03	456.25
332.258	407.25
332.486	385.25
332.715	392.25
332.943	377.25
333.172	402.25
333.4	387.25
333.629	393.25
333.857	381.25
334.085	420.25
334.314	444.25
334.542	456.25
334.771	480.25
334.999	421.25
335.227	393.25
335.455	377.25
335.684	379.25
335.912	361.25
336.14	363.25
336.369	367.25
336.597	379.25
336.825	399.25
337.053	356.25
337.281	371.25
337.51	386.25
337.738	380.25
337.966	359.25
338.194	375.25
338.422	382.25
338.65	368.25
338.878	357.25
339.106	357.25
339.334	349.25
339.562	343.25
339.79	368.25
340.018	358.25
340.246	358.25
340.474	363.25
340.702	350.25
340.93	355.25
341.158	357.25
341.386	347.25
341.614	353.25
341.842	350.25
342.07	341.25
342.298	351.25
342.526	339.25
342.754	324.25
342.981	340.25
343.209	332.25
343.437	348.25
343.665	353.25
343.893	342.25
344.12	347.25
344.348	345.25
344.576	352.25
344.804	363.25
345.031	352.25
345.259	376.25
345.487	379.25
345.714	357.25
345.942	370.25
346.17	342.25
346.397	333.25
346.625	368.25
346.853	352.25
347.08	370.25
347.308	357.25
347.535	358.25
347.763	356.25
347.99	370.25
348.218	368.25
348.445	345.25
348.673	364.25
348.9	352.25
349.128	333.25
349.355	327.25
349.583	342.25
349.81	314.25
350.037	339.25
350.265	336.25
350.492	322.25
350.72	346.25
350.947	340.25
351.174	355.25
351.402	378.25
351.629	343.25
351.856	366.25
352.083	378.25
352.311	369.25
352.538	389.25
352.765	398.25
352.992	354.25
353.22	358.25
353.447	350.25
353.674	344.25
353.901	351.25
354.128	334.25
354.355	332.25
354.583	329.25
354.81	300.25
355.037	315.25
355.264	307.25
355.491	317.25
355.718	328.25
355.945	328.25
356.172	326.25
356.399	317.25
356.626	312.25
356.853	303.25
357.08	327.25
357.307	336.25
357.534	322.25
357.761	311.25
357.988	323.25
358.215	330.25
358.441	336.25
358.668	314.25
358.895	327.25
359.122	341.25
359.349	342.25
359.576	347.25
359.802	382.25
360.029	392.25
360.256	412.25
360.483	382.25
360.709	363.25
360.936	348.25
361.163	342.25
361.39	352.25
361.616	345.25
361.843	352.25
362.07	348.25
362.296	341.25
362.523	358.25
362.749	347.25
362.976	348.25
363.203	338.25
363.429	346.25
363.656	331.25
363.882	329.25
364.109	322.25
364.335	334.25
364.562	331.25
364.788	324.25
365.015	313.25
365.241	329.25
365.468	345.25
365.694	352.25
365.92	347.25
366.147	336.25
366.373	345.25
366.599	324.25
366.826	332.25
367.052	338.25
367.278	326.25
367.505	324.25
367.731	325.25
367.957	326.25
368.184	337.25
368.41	356.25
368.636	352.25
368.862	333.25
369.089	335.25
369.315	314.25
369.541	317.25
369.767	326.25
369.993	319.25
370.219	331.25
370.445	318.25
370.672	314.25
370.898	335.25
371.124	333.25
371.35	325.25
371.576	342.25
371.802	332.25
372.028	320.25
372.254	314.25
372.48	312.25
372.706	337.25
372.932	332.25
373.158	327.25
373.384	329.25
373.61	326.25
373.835	320.25
374.061	336.25
374.287	321.25
374.513	315.25
374.739	314.25
374.965	329.25
375.191	321.25
375.416	321.25
375.642	322.25
375.868	319.25
376.094	318.25
376.319	314.25
376.545	321.25
376.771	315.25
376.997	301.25
377.222	310.25
377.448	331.25
377.674	338.25
377.899	332.25
378.125	330.25
378.35	340.25
378.576	311.25
378.802	327.25
379.027	324.25
379.253	322.25
379.478	324.25
379.704	313.25
379.929	330.25
380.155	321.25
380.38	305.25
380.606	323.25
380.831	335.25
381.057	327.25
381.282	325.25
381.507	315.25
381.733	329.25
381.958	326.25
382.184	339.25
382.409	318.25
382.634	315.25
382.86	331.25
383.085	342.25
383.31	328.25
383.535	339.25
383.761	334.25
383.986	324.25
384.211	337.25
384.436	343.25
384.662	339.25
384.887	318.25
385.112	338.25
385.337	343.25
385.562	352.25
385.787	336.25
386.013	351.25
386.238	346.25
386.463	363.25
386.688	348.25
386.913	337.25
387.138	351.25
387.363	333.25
387.588	342.25
387.813	359.25
388.038	342.25
388.263	331.25
388.488	355.25
388.713	342.25
388.938	356.25
389.163	363.25
389.387	356.25
389.612	345.25
389.837	355.25
390.062	332.25
390.287	329.25
390.512	346.25
390.736	338.25
390.961	344.25
391.186	361.25
391.411	342.25
391.636	348.25
391.86	344.25
392.085	372.25
392.31	346.25
392.534	339.25
392.759	358.25
392.984	339.25
393.208	340.25
393.433	340.25
393.658	345.25
393.882	336.25
394.107	364.25
394.331	349.25
394.556	354.25
394.78	348.25
395.005	342.25
395.229	334.25
395.454	354.25
395.678	348.25
395.903	378.25
396.127	396.25
396.352	383.25
396.576	376.25
396.801	355.25
397.025	364.25
397.249	361.25
397.474	361.25
397.698	377.25
397.922	378.25
398.147	382.25
398.371	400.25
398.595	395.25
398.82	389.25
399.044	386.25
399.268	406.25
399.492	408.25
399.717	425.25
399.941	466.25
400.165	463.25
400.389	482.25
400.613	434.25
400.837	419.25
401.062	432.25
401.286	419.25
401.51	420.25
401.734	382.25
401.958	382.25
402.182	392.25
402.406	396.25
402.63	411.25
402.854	406.25
403.078	405.25
403.302	431.25
403.526	395.25
403.75	422.25
403.974	406.25
404.198	393.25
404.422	411.25
404.645	423.25
404.869	414.25
405.093	441.25
405.317	480.25
405.541	506.25
405.765	460.25
405.988	432.25
406.212	464.25
406.436	466.25
406.66	487.25
406.883	456.25
407.107	464.25
407.331	507.25
407.555	558.25
407.778	568.25
408.002	499.25
408.226	481.25
408.449	431.25
408.673	448.25
408.896	478.25
409.12	513.25
409.344	491.25
409.567	438.25
409.791	429.25
410.014	428.25
410.238	410.25
410.461	422.25
410.685	431.25
410.908	409.25
411.132	470.25
411.355	479.25
411.578	444.25
411.802	434.25
412.025	403.25
412.249	430.25
412.472	452.25
412.695	470.25
412.919	483.25
413.142	432.25
413.365	400.25
413.589	395.25
413.812	397.25
414.035	411.25
414.258	394.25
414.482	386.25
414.705	393.25
414.928	396.25
415.151	370.25
415.374	386.25
415.597	392.25
415.821	375.25
416.044	380.25
416.267	415.25
416.49	379.25
416.713	396.25
416.936	373.25
417.159	373.25
417.382	387.25
417.605	390.25
417.828	405.25
418.051	419.25
418.274	414.25
418.497	384.25
418.72	391.25
418.943	412.25
419.166	403.25
419.389	421.25
419.611	417.25
419.834	401.25
420.057	412.25
420.28	435.25
420.503	436.25
420.726	430.25
420.948	441.25
421.171	456.25
421.394	494.25
421.617	445.25
421.839	412.25
422.062	396.25
422.285	425.25
422.507	474.25
422.73	547.25
422.953	508.25
423.175	452.25
423.398	441.25
423.621	434.25
423.843	444.25
424.066	444.25
424.288	449.25
424.511	468.25
424.733	524.25
424.956	577.25
425.178	561.25
425.401	559.25
425.623	563.25
425.846	504.25
426.068	462.25
426.291	448.25
426.513	459.25
426.735	475.25
426.958	497.25
427.18	556.25
427.402	674.25
427.625	774.25
427.847	676.25
428.069	576.25
428.292	528.25
428.514	464.25
428.736	441.25
428.958	446.25
429.181	421.25
429.403	427.25
429.625	429.25
429.847	475.25
430.069	498.25
430.292	510.25
430.514	451.25
430.736	439.25
430.958	405.25
431.18	407.25
431.402	391.25
431.624	386.25
431.846	380.25
432.068	374.25
432.29	390.25
432.512	398.25
432.734	412.25
432.956	401.25
433.178	416.25
433.4	406.25
433.622	400.25
433.844	397.25
434.066	390.25
434.287	409.25
434.509	388.25
434.731	410.25
434.953	422.25
435.175	434.25
435.397	449.25
435.618	463.25
435.84	492.25
436.062	568.25
436.284	600.25
436.505	524.25
436.727	475.25
436.949	446.25
437.17	434.25
437.392	451.25
437.614	441.25
437.835	473.25
438.057	567.25
438.278	662.25
438.5	644.25
438.721	680.25
438.943	667.25
439.165	540.25
439.386	487.25
439.608	464.25
439.829	483.25
440.05	512.25
440.272	551.25
440.493	531.25
440.715	474.25
440.936	459.25
441.158	432.25
441.379	416.25
441.6	417.25
441.822	466.25
442.043	495.25
442.264	555.25
442.486	608.25
442.707	511.25
442.928	475.25
443.149	478.25
443.371	511.25
443.592	553.25
443.813	630.25
444.034	658.25
444.255	546.25
444.476	494.25
444.698	477.25
444.919	452.25
445.14	558.25
445.361	508.25
445.582	502.25
445.803	569.25
446.024	640.25
446.245	662.25
446.466	625.25
446.687	489.25
446.908	461.25
447.129	451.25
447.35	427.25
447.571	445.25
447.792	417.25
448.013	438.25
448.234	459.25
448.455	507.25
448.675	584.25
448.896	676.25
449.117	589.25
449.338	566.25
449.559	644.25
449.779	699.25
450	587.25
450.221	467.25
450.442	454.25
450.662	435.25
450.883	436.25
451.104	456.25
451.324	454.25
451.545	435.25
451.766	416.25
451.986	402.25
452.207	402.25
452.428	388.25
452.648	406.25
452.869	397.25
453.089	404.25
453.31	394.25
453.53	394.25
453.751	403.25
453.971	406.25
454.192	423.25
454.412	414.25
454.633	424.25
454.853	373.25
455.073	374.25
455.294	397.25
455.514	470.25
455.734	464.25
455.955	399.25
456.175	379.25
456.395	369.25
456.616	348.25
456.836	369.25
457.056	349.25
457.276	376.25
457.497	362.25
457.717	352.25
457.937	362.25
458.157	380.25
458.377	379.25
458.598	390.25
458.818	455.25
459.038	549.25
459.258	544.25
459.478	457.25
459.698	396.25
459.918	404.25
460.138	385.25
460.358	418.25
460.578	390.25
460.798	385.25
461.018	393.25
461.238	404.25
461.458	413.25
461.678	395.25
461.898	369.25
462.118	390.25
462.338	413.25
462.558	382.25
462.777	397.25
462.997	399.25
463.217	415.25
463.437	424.25
463.657	429.25
463.876	394.25
464.096	410.25
464.316	419.25
464.536	436.25
464.755	433.25
464.975	459.25
465.195	506.25
465.414	558.25
465.634	496.25
465.854	471.25
466.073	430.25
466.293	427.25
466.512	417.25
466.732	406.25
466.951	397.25
467.171	386.25
467.391	386.25
467.61	383.25
467.829	436.25
468.049	400.25
468.268	408.25
468.488	413.25
468.707	400.25
468.927	398.25
469.146	364.25
469.365	392.25
469.585	382.25
469.804	398.25
470.023	414.25
470.243	419.25
470.462	386.25
470.681	423.25
470.901	421.25
471.12	394.25
471.339	383.25
471.558	403.25
471.777	405.25
471.997	396.25
472.216	416.25
472.435	442.25
472.654	448.25
472.873	419.25
473.092	410.25
473.311	399.25
473.53	411.25
473.749	406.25
473.968	453.25
474.187	553.25
474.406	566.25
474.625	473.25
474.844	420.25
475.063	408.25
475.282	408.25
475.501	395.25
475.72	380.25
475.939	396.25
476.158	418.25
476.377	426.25
476.596	417.25
476.814	412.25
477.033	446.25
477.252	422.25
477.471	413.25
477.69	417.25
477.908	448.25
478.127	424.25
478.346	417.25
478.564	418.25
478.783	449.25
479.002	460.25
479.22	467.25
479.439	474.25
479.658	469.25
479.876	485.25
480.095	473.25
480.313	509.25
480.532	488.25
480.751	475.25
480.969	500.25
481.188	554.25
481.406	642.25
481.624	537.25
481.843	494.25
482.061	474.25
482.28	450.25
482.498	470.25
482.717	471.25
482.935	478.25
483.153	468.25
483.372	455.25
483.59	458.25
483.808	442.25
484.027	464.25
484.245	478.25
484.463	475.25
484.681	460.25
484.9	459.25
485.118	481.25
485.336	487.25
485.554	476.25
485.772	455.25
485.99	465.25
486.209	507.25
486.427	489.25
486.645	506.25
486.863	518.25
487.081	506.25
487.299	512.25
487.517	498.25
487.735	490.25
487.953	499.25
488.171	492.25
488.389	521.25
488.607	505.25
488.825	504.25
489.043	488.25
489.261	504.25
489.479	513.25
489.696	508.25
489.914	534.25
490.132	528.25
490.35	514.25
490.568	546.25
490.786	543.25
491.003	528.25
491.221	550.25
491.439	562.25
491.657	581.25
491.874	574.25
492.092	590.25
492.31	575.25
492.527	582.25
492.745	596.25
492.963	578.25
493.18	604.25
493.398	592.25
493.615	598.25
493.833	591.25
494.05	603.25
494.268	602.25
494.485	583.25
494.703	589.25
494.92	577.25
495.138	584.25
495.355	597.25
495.573	596.25
495.79	610.25
496.008	592.25
496.225	580.25
496.442	572.25
496.66	587.25
496.877	581.25
497.094	600.25
497.312	597.25
497.529	611.25
497.746	626.25
497.963	626.25
498.181	615.25
498.398	634.25
498.615	678.25
498.832	677.25
499.049	655.25
499.267	668.25
499.484	683.25
499.701	687.25
499.918	724.25
500.135	734.25
500.352	746.25
500.569	736.25
500.786	763.25
501.003	754.25
501.22	717.25
501.437	704.25
501.654	720.25
501.871	750.25
502.088	708.25
