Data from 1961.PennyLincolnUp.Lamp.En5.5.200Scan.071719.P1._HRD10591_13-46-38-057.txt Node
Date: Thu Jul 18 13:46:38 EDT 2019
User: cochatt
Spectrometer: HR+D1059
Trigger mode: 1
Integration Time (sec): 1.000000E-1
Scans to average: 1
Electric dark correction enabled: true
Nonlinearity correction enabled: false
Boxcar width: 0
XAxis mode: Wavelengths
Number of Pixels in Spectrum: 2048
>>>>>Begin Spectral Data<<<<<
223.165	-3.44
223.4	-3.44
223.635	-3.44
223.869	-17.44
224.104	-29.44
224.338	-13.44
224.573	-4.44
224.808	-19.44
225.042	-1.44
225.277	-7.44
225.511	-10.44
225.746	13.56
225.98	7.56
226.215	12.56
226.449	11.56
226.683	15.56
226.918	21.56
227.152	24.56
227.387	35.56
227.621	33.56
227.856	54.56
228.09	39.56
228.324	67.56
228.559	57.56
228.793	57.56
229.027	78.56
229.262	81.56
229.496	99.56
229.73	110.56
229.964	135.56
230.199	122.56
230.433	101.56
230.667	101.56
230.901	92.56
231.136	119.56
231.37	95.56
231.604	100.56
231.838	91.56
232.072	98.56
232.306	93.56
232.541	107.56
232.775	101.56
233.009	105.56
233.243	105.56
233.477	110.56
233.711	96.56
233.945	118.56
234.179	110.56
234.413	94.56
234.647	96.56
234.881	109.56
235.115	113.56
235.349	111.56
235.583	98.56
235.817	118.56
236.051	100.56
236.285	93.56
236.519	117.56
236.753	123.56
236.987	107.56
237.221	141.56
237.455	182.56
237.689	146.56
237.922	115.56
238.156	111.56
238.39	105.56
238.624	94.56
238.858	100.56
239.091	110.56
239.325	111.56
239.559	94.56
239.793	104.56
240.027	116.56
240.26	129.56
240.494	127.56
240.728	105.56
240.961	124.56
241.195	119.56
241.429	117.56
241.662	116.56
241.896	107.56
242.13	114.56
242.363	117.56
242.597	110.56
242.83	113.56
243.064	114.56
243.298	105.56
243.531	122.56
243.765	122.56
243.998	104.56
244.232	113.56
244.465	126.56
244.699	105.56
244.932	111.56
245.166	139.56
245.399	129.56
245.633	113.56
245.866	130.56
246.099	101.56
246.333	122.56
246.566	116.56
246.8	123.56
247.033	122.56
247.266	131.56
247.5	123.56
247.733	132.56
247.966	140.56
248.2	139.56
248.433	142.56
248.666	141.56
248.899	131.56
249.133	139.56
249.366	167.56
249.599	149.56
249.832	144.56
250.066	156.56
250.299	144.56
250.532	143.56
250.765	162.56
250.998	165.56
251.231	178.56
251.465	162.56
251.698	150.56
251.931	145.56
252.164	140.56
252.397	142.56
252.63	142.56
252.863	152.56
253.096	155.56
253.329	158.56
253.562	176.56
253.795	186.56
254.028	166.56
254.261	166.56
254.494	179.56
254.727	200.56
254.96	205.56
255.193	204.56
255.426	174.56
255.659	173.56
255.892	177.56
256.124	166.56
256.357	170.56
256.59	170.56
256.823	175.56
257.056	168.56
257.289	163.56
257.521	176.56
257.754	164.56
257.987	157.56
258.22	152.56
258.452	154.56
258.685	152.56
258.918	154.56
259.151	169.56
259.383	153.56
259.616	164.56
259.849	172.56
260.081	178.56
260.314	194.56
260.547	179.56
260.779	182.56
261.012	179.56
261.244	163.56
261.477	155.56
261.71	179.56
261.942	172.56
262.175	166.56
262.407	174.56
262.64	176.56
262.872	162.56
263.105	165.56
263.337	162.56
263.57	154.56
263.802	171.56
264.035	147.56
264.267	161.56
264.499	162.56
264.732	171.56
264.964	169.56
265.197	158.56
265.429	148.56
265.661	172.56
265.894	166.56
266.126	151.56
266.358	146.56
266.591	180.56
266.823	169.56
267.055	139.56
267.287	167.56
267.52	158.56
267.752	164.56
267.984	170.56
268.216	167.56
268.448	165.56
268.681	169.56
268.913	188.56
269.145	205.56
269.377	210.56
269.609	189.56
269.841	203.56
270.073	194.56
270.306	217.56
270.538	241.56
270.77	220.56
271.002	216.56
271.234	203.56
271.466	213.56
271.698	223.56
271.93	222.56
272.162	214.56
272.394	223.56
272.626	208.56
272.858	216.56
273.09	209.56
273.322	196.56
273.553	194.56
273.785	185.56
274.017	191.56
274.249	181.56
274.481	209.56
274.713	191.56
274.945	200.56
275.176	200.56
275.408	204.56
275.64	198.56
275.872	199.56
276.104	200.56
276.335	210.56
276.567	204.56
276.799	214.56
277.031	212.56
277.262	232.56
277.494	229.56
277.726	216.56
277.957	223.56
278.189	197.56
278.421	204.56
278.652	199.56
278.884	185.56
279.115	208.56
279.347	209.56
279.579	197.56
279.81	203.56
280.042	192.56
280.273	219.56
280.505	218.56
280.736	194.56
280.968	193.56
281.199	197.56
281.431	188.56
281.662	208.56
281.894	200.56
282.125	188.56
282.356	207.56
282.588	232.56
282.819	226.56
283.051	213.56
283.282	195.56
283.513	191.56
283.745	206.56
283.976	203.56
284.207	208.56
284.439	208.56
284.67	199.56
284.901	203.56
285.132	213.56
285.364	198.56
285.595	203.56
285.826	205.56
286.057	192.56
286.288	191.56
286.52	205.56
286.751	198.56
286.982	201.56
287.213	199.56
287.444	207.56
287.675	214.56
287.906	214.56
288.138	203.56
288.369	198.56
288.6	232.56
288.831	196.56
289.062	221.56
289.293	213.56
289.524	220.56
289.755	208.56
289.986	211.56
290.217	224.56
290.448	214.56
290.679	203.56
290.91	196.56
291.141	208.56
291.371	213.56
291.602	218.56
291.833	206.56
292.064	200.56
292.295	201.56
292.526	211.56
292.757	214.56
292.987	215.56
293.218	216.56
293.449	200.56
293.68	203.56
293.91	190.56
294.141	222.56
294.372	207.56
294.603	203.56
294.833	213.56
295.064	215.56
295.295	216.56
295.525	221.56
295.756	227.56
295.987	227.56
296.217	232.56
296.448	242.56
296.679	226.56
296.909	216.56
297.14	208.56
297.37	212.56
297.601	222.56
297.831	219.56
298.062	212.56
298.292	222.56
298.523	218.56
298.753	228.56
298.984	211.56
299.214	225.56
299.445	216.56
299.675	229.56
299.905	228.56
300.136	227.56
300.366	215.56
300.597	233.56
300.827	224.56
301.057	227.56
301.288	231.56
301.518	236.56
301.748	244.56
301.979	232.56
302.209	226.56
302.439	231.56
302.669	238.56
302.9	239.56
303.13	238.56
303.36	238.56
303.59	241.56
303.82	241.56
304.051	247.56
304.281	230.56
304.511	237.56
304.741	224.56
304.971	223.56
305.201	248.56
305.431	249.56
305.661	249.56
305.891	240.56
306.121	236.56
306.352	219.56
306.582	246.56
306.812	212.56
307.042	240.56
307.272	229.56
307.502	255.56
307.731	241.56
307.961	244.56
308.191	226.56
308.421	238.56
308.651	242.56
308.881	254.56
309.111	246.56
309.341	232.56
309.571	244.56
309.8	250.56
310.03	247.56
310.26	259.56
310.49	275.56
310.72	279.56
310.949	276.56
311.179	293.56
311.409	297.56
311.639	274.56
311.868	284.56
312.098	272.56
312.328	263.56
312.557	290.56
312.787	299.56
313.017	308.56
313.246	306.56
313.476	264.56
313.706	280.56
313.935	281.56
314.165	278.56
314.394	287.56
314.624	295.56
314.853	263.56
315.083	267.56
315.312	283.56
315.542	249.56
315.771	248.56
316.001	262.56
316.23	261.56
316.46	269.56
316.689	281.56
316.919	278.56
317.148	278.56
317.377	278.56
317.607	274.56
317.836	297.56
318.065	274.56
318.295	272.56
318.524	274.56
318.753	292.56
318.983	285.56
319.212	288.56
319.441	283.56
319.67	276.56
319.9	259.56
320.129	270.56
320.358	290.56
320.587	286.56
320.816	291.56
321.046	284.56
321.275	313.56
321.504	311.56
321.733	308.56
321.962	289.56
322.191	310.56
322.42	302.56
322.649	327.56
322.878	337.56
323.108	342.56
323.337	370.56
323.566	364.56
323.795	390.56
324.024	417.56
324.253	516.56
324.482	724.56
324.71	1142.56
324.939	1544.56
325.168	1348.56
325.397	716.56
325.626	465.56
325.855	390.56
326.084	384.56
326.313	359.56
326.542	353.56
326.77	412.56
326.999	478.56
327.228	666.56
327.457	991.56
327.686	1165.56
327.914	796.56
328.143	530.56
328.372	474.56
328.6	440.56
328.829	410.56
329.058	405.56
329.287	432.56
329.515	408.56
329.744	378.56
329.972	392.56
330.201	370.56
330.43	400.56
330.658	431.56
330.887	425.56
331.115	413.56
331.344	400.56
331.572	347.56
331.801	348.56
332.03	353.56
332.258	354.56
332.486	334.56
332.715	338.56
332.943	324.56
333.172	328.56
333.4	306.56
333.629	340.56
333.857	348.56
334.085	362.56
334.314	371.56
334.542	393.56
334.771	394.56
334.999	366.56
335.227	335.56
335.455	330.56
335.684	313.56
335.912	318.56
336.14	313.56
336.369	290.56
336.597	331.56
336.825	312.56
337.053	314.56
337.281	334.56
337.51	328.56
337.738	304.56
337.966	310.56
338.194	334.56
338.422	320.56
338.65	307.56
338.878	316.56
339.106	309.56
339.334	309.56
339.562	311.56
339.79	315.56
340.018	314.56
340.246	297.56
340.474	320.56
340.702	299.56
340.93	316.56
341.158	308.56
341.386	291.56
341.614	320.56
341.842	315.56
342.07	310.56
342.298	312.56
342.526	295.56
342.754	312.56
342.981	297.56
343.209	298.56
343.437	304.56
343.665	298.56
343.893	305.56
344.12	316.56
344.348	306.56
344.576	307.56
344.804	329.56
345.031	324.56
345.259	335.56
345.487	331.56
345.714	316.56
345.942	309.56
346.17	302.56
346.397	302.56
346.625	318.56
346.853	316.56
347.08	294.56
347.308	324.56
347.535	293.56
347.763	322.56
347.99	322.56
348.218	307.56
348.445	329.56
348.673	316.56
348.9	311.56
349.128	303.56
349.355	284.56
349.583	288.56
349.81	264.56
350.037	306.56
350.265	309.56
350.492	287.56
350.72	306.56
350.947	312.56
351.174	308.56
351.402	304.56
351.629	308.56
351.856	321.56
352.083	308.56
352.311	321.56
352.538	313.56
352.765	303.56
352.992	314.56
353.22	322.56
353.447	292.56
353.674	290.56
353.901	296.56
354.128	302.56
354.355	282.56
354.583	284.56
354.81	281.56
355.037	294.56
355.264	294.56
355.491	283.56
355.718	289.56
355.945	292.56
356.172	282.56
356.399	286.56
356.626	275.56
356.853	270.56
357.08	287.56
357.307	263.56
357.534	274.56
357.761	278.56
357.988	276.56
358.215	290.56
358.441	280.56
358.668	295.56
358.895	289.56
359.122	297.56
359.349	297.56
359.576	321.56
359.802	324.56
360.029	338.56
360.256	328.56
360.483	326.56
360.709	310.56
360.936	292.56
361.163	309.56
361.39	301.56
361.616	288.56
361.843	312.56
362.07	308.56
362.296	285.56
362.523	308.56
362.749	315.56
362.976	286.56
363.203	286.56
363.429	295.56
363.656	276.56
363.882	284.56
364.109	306.56
364.335	306.56
364.562	314.56
364.788	291.56
365.015	310.56
365.241	312.56
365.468	297.56
365.694	299.56
365.92	319.56
366.147	294.56
366.373	302.56
366.599	271.56
366.826	294.56
367.052	283.56
367.278	303.56
367.505	281.56
367.731	306.56
367.957	287.56
368.184	289.56
368.41	292.56
368.636	311.56
368.862	298.56
369.089	304.56
369.315	275.56
369.541	302.56
369.767	308.56
369.993	288.56
370.219	284.56
370.445	303.56
370.672	282.56
370.898	283.56
371.124	294.56
371.35	303.56
371.576	282.56
371.802	283.56
372.028	298.56
372.254	291.56
372.48	299.56
372.706	282.56
372.932	288.56
373.158	279.56
373.384	303.56
373.61	286.56
373.835	297.56
374.061	306.56
374.287	302.56
374.513	305.56
374.739	300.56
374.965	288.56
375.191	316.56
375.416	303.56
375.642	308.56
375.868	310.56
376.094	285.56
376.319	295.56
376.545	302.56
376.771	303.56
376.997	294.56
377.222	291.56
377.448	293.56
377.674	293.56
377.899	293.56
378.125	305.56
378.35	294.56
378.576	280.56
378.802	286.56
379.027	279.56
379.253	290.56
379.478	283.56
379.704	299.56
379.929	305.56
380.155	307.56
380.38	300.56
380.606	304.56
380.831	290.56
381.057	301.56
381.282	275.56
381.507	294.56
381.733	312.56
381.958	320.56
382.184	312.56
382.409	299.56
382.634	308.56
382.86	298.56
383.085	296.56
383.31	305.56
383.535	306.56
383.761	310.56
383.986	311.56
384.211	324.56
384.436	317.56
384.662	308.56
384.887	306.56
385.112	306.56
385.337	315.56
385.562	307.56
385.787	320.56
386.013	312.56
386.238	314.56
386.463	307.56
386.688	308.56
386.913	319.56
387.138	312.56
387.363	300.56
387.588	328.56
387.813	331.56
388.038	315.56
388.263	314.56
388.488	307.56
388.713	285.56
388.938	318.56
389.163	317.56
389.387	319.56
389.612	323.56
389.837	313.56
390.062	314.56
390.287	313.56
390.512	295.56
390.736	326.56
390.961	306.56
391.186	320.56
391.411	309.56
391.636	345.56
391.86	322.56
392.085	325.56
392.31	329.56
392.534	344.56
392.759	318.56
392.984	323.56
393.208	318.56
393.433	324.56
393.658	334.56
393.882	308.56
394.107	312.56
394.331	314.56
394.556	323.56
394.78	315.56
395.005	332.56
395.229	342.56
395.454	339.56
395.678	338.56
395.903	329.56
396.127	359.56
396.352	349.56
396.576	347.56
396.801	338.56
397.025	342.56
397.249	347.56
397.474	329.56
397.698	336.56
397.922	331.56
398.147	354.56
398.371	361.56
398.595	363.56
398.82	332.56
399.044	359.56
399.268	351.56
399.492	382.56
399.717	382.56
399.941	409.56
400.165	459.56
400.389	419.56
400.613	404.56
400.837	373.56
401.062	375.56
401.286	364.56
401.51	382.56
401.734	354.56
401.958	344.56
402.182	374.56
402.406	376.56
402.63	386.56
402.854	377.56
403.078	364.56
403.302	363.56
403.526	361.56
403.75	372.56
403.974	394.56
404.198	382.56
404.422	352.56
404.645	376.56
404.869	376.56
405.093	390.56
405.317	445.56
405.541	460.56
405.765	421.56
405.988	393.56
406.212	419.56
406.436	407.56
406.66	419.56
406.883	413.56
407.107	418.56
407.331	464.56
407.555	513.56
407.778	487.56
408.002	446.56
408.226	424.56
408.449	408.56
408.673	422.56
408.896	461.56
409.12	461.56
409.344	443.56
409.567	415.56
409.791	400.56
410.014	363.56
410.238	393.56
410.461	376.56
410.685	371.56
410.908	410.56
411.132	424.56
411.355	441.56
411.578	427.56
411.802	396.56
412.025	380.56
412.249	379.56
412.472	407.56
412.695	419.56
412.919	425.56
413.142	389.56
413.365	371.56
413.589	349.56
413.812	372.56
414.035	375.56
414.258	361.56
414.482	385.56
414.705	364.56
414.928	366.56
415.151	355.56
415.374	350.56
415.597	361.56
415.821	356.56
416.044	370.56
416.267	374.56
416.49	344.56
416.713	359.56
416.936	361.56
417.159	376.56
417.382	382.56
417.605	358.56
417.828	362.56
418.051	377.56
418.274	390.56
418.497	359.56
418.72	337.56
418.943	354.56
419.166	361.56
419.389	387.56
419.611	388.56
419.834	380.56
420.057	376.56
420.28	367.56
420.503	371.56
420.726	348.56
420.948	390.56
421.171	413.56
421.394	425.56
421.617	402.56
421.839	376.56
422.062	385.56
422.285	382.56
422.507	410.56
422.73	468.56
422.953	483.56
423.175	408.56
423.398	394.56
423.621	378.56
423.843	396.56
424.066	409.56
424.288	390.56
424.511	420.56
424.733	436.56
424.956	492.56
425.178	467.56
425.401	487.56
425.623	500.56
425.846	432.56
426.068	415.56
426.291	374.56
426.513	411.56
426.735	421.56
426.958	437.56
427.18	496.56
427.402	580.56
427.625	656.56
427.847	566.56
428.069	499.56
428.292	436.56
428.514	397.56
428.736	390.56
428.958	369.56
429.181	377.56
429.403	373.56
429.625	401.56
429.847	422.56
430.069	467.56
430.292	451.56
430.514	373.56
430.736	389.56
430.958	363.56
431.18	348.56
431.402	362.56
431.624	356.56
431.846	348.56
432.068	345.56
432.29	363.56
432.512	374.56
432.734	369.56
432.956	363.56
433.178	369.56
433.4	386.56
433.622	369.56
433.844	369.56
434.066	355.56
434.287	346.56
434.509	367.56
434.731	362.56
434.953	378.56
435.175	375.56
435.397	414.56
435.618	414.56
435.84	438.56
436.062	499.56
436.284	555.56
436.505	465.56
436.727	427.56
436.949	400.56
437.17	374.56
437.392	382.56
437.614	413.56
437.835	410.56
438.057	482.56
438.278	558.56
438.5	544.56
438.721	620.56
438.943	564.56
439.165	456.56
439.386	394.56
439.608	406.56
439.829	423.56
440.05	457.56
440.272	481.56
440.493	440.56
440.715	386.56
440.936	384.56
441.158	371.56
441.379	366.56
441.6	401.56
441.822	393.56
442.043	418.56
442.264	489.56
442.486	528.56
442.707	457.56
442.928	407.56
443.149	426.56
443.371	430.56
443.592	463.56
443.813	532.56
444.034	570.56
444.255	487.56
444.476	396.56
444.698	410.56
444.919	404.56
445.14	553.56
445.361	486.56
445.582	436.56
445.803	515.56
446.024	562.56
446.245	581.56
446.466	502.56
446.687	430.56
446.908	410.56
447.129	380.56
447.35	397.56
447.571	384.56
447.792	370.56
448.013	376.56
448.234	406.56
448.455	434.56
448.675	541.56
448.896	583.56
449.117	495.56
449.338	487.56
449.559	574.56
449.779	615.56
450	505.56
450.221	430.56
450.442	386.56
450.662	380.56
450.883	372.56
451.104	382.56
451.324	370.56
451.545	376.56
451.766	358.56
451.986	354.56
452.207	351.56
452.428	347.56
452.648	344.56
452.869	347.56
453.089	364.56
453.31	337.56
453.53	337.56
453.751	338.56
453.971	347.56
454.192	363.56
454.412	368.56
454.633	340.56
454.853	340.56
455.073	327.56
455.294	365.56
455.514	419.56
455.734	396.56
455.955	350.56
456.175	330.56
456.395	321.56
456.616	326.56
456.836	328.56
457.056	351.56
457.276	313.56
457.497	331.56
457.717	326.56
457.937	326.56
458.157	340.56
458.377	340.56
458.598	345.56
458.818	404.56
459.038	442.56
459.258	450.56
459.478	408.56
459.698	380.56
459.918	366.56
460.138	362.56
460.358	365.56
460.578	360.56
460.798	347.56
461.018	376.56
461.238	365.56
461.458	357.56
461.678	370.56
461.898	369.56
462.118	357.56
462.338	368.56
462.558	373.56
462.777	374.56
462.997	375.56
463.217	377.56
463.437	384.56
463.657	386.56
463.876	387.56
464.096	384.56
464.316	378.56
464.536	392.56
464.755	388.56
464.975	384.56
465.195	427.56
465.414	502.56
465.634	427.56
465.854	400.56
466.073	372.56
466.293	359.56
466.512	353.56
466.732	360.56
466.951	376.56
467.171	358.56
467.391	352.56
467.61	369.56
467.829	362.56
468.049	384.56
468.268	390.56
468.488	340.56
468.707	339.56
468.927	328.56
469.146	343.56
469.365	354.56
469.585	342.56
469.804	355.56
470.023	372.56
470.243	348.56
470.462	368.56
470.681	379.56
470.901	382.56
471.12	366.56
471.339	356.56
471.558	360.56
471.777	352.56
471.997	360.56
472.216	376.56
472.435	400.56
472.654	377.56
472.873	370.56
473.092	362.56
473.311	348.56
473.53	348.56
473.749	362.56
473.968	392.56
474.187	481.56
474.406	498.56
474.625	408.56
474.844	373.56
475.063	357.56
475.282	376.56
475.501	362.56
475.72	384.56
475.939	370.56
476.158	373.56
476.377	368.56
476.596	381.56
476.814	389.56
477.033	385.56
477.252	381.56
477.471	371.56
477.69	386.56
477.908	380.56
478.127	370.56
478.346	400.56
478.564	388.56
478.783	387.56
479.002	405.56
479.22	405.56
479.439	417.56
479.658	408.56
479.876	446.56
480.095	440.56
480.313	457.56
480.532	416.56
480.751	444.56
480.969	444.56
481.188	487.56
481.406	528.56
481.624	459.56
481.843	450.56
482.061	431.56
482.28	438.56
482.498	423.56
482.717	425.56
482.935	416.56
483.153	420.56
483.372	403.56
483.59	423.56
483.808	433.56
484.027	413.56
484.245	423.56
484.463	419.56
484.681	438.56
484.9	404.56
485.118	432.56
485.336	446.56
485.554	432.56
485.772	434.56
485.99	424.56
486.209	428.56
486.427	426.56
486.645	446.56
486.863	452.56
487.081	436.56
487.299	459.56
487.517	441.56
487.735	451.56
487.953	460.56
488.171	457.56
488.389	459.56
488.607	443.56
488.825	443.56
489.043	448.56
489.261	440.56
489.479	484.56
489.696	462.56
489.914	451.56
490.132	477.56
490.35	472.56
490.568	472.56
490.786	470.56
491.003	480.56
491.221	483.56
491.439	489.56
491.657	479.56
491.874	511.56
492.092	505.56
492.31	520.56
492.527	484.56
492.745	495.56
492.963	502.56
493.18	537.56
493.398	510.56
493.615	514.56
493.833	525.56
494.05	544.56
494.268	542.56
494.485	503.56
494.703	500.56
494.92	504.56
495.138	510.56
495.355	522.56
495.573	530.56
495.79	506.56
496.008	532.56
496.225	531.56
496.442	519.56
496.66	514.56
496.877	536.56
497.094	534.56
497.312	525.56
497.529	551.56
497.746	537.56
497.963	556.56
498.181	570.56
498.398	564.56
498.615	594.56
498.832	583.56
499.049	587.56
499.267	598.56
499.484	618.56
499.701	629.56
499.918	632.56
500.135	663.56
500.352	674.56
500.569	692.56
500.786	680.56
501.003	682.56
501.22	670.56
501.437	638.56
501.654	638.56
501.871	658.56
502.088	628.56
