Data from 1961.PennyLincolnUp.Lamp.En5.5.200Scan.071719.P1._HRD10591_13-46-24-057.txt Node
Date: Thu Jul 18 13:46:24 EDT 2019
User: cochatt
Spectrometer: HR+D1059
Trigger mode: 1
Integration Time (sec): 1.000000E-1
Scans to average: 1
Electric dark correction enabled: true
Nonlinearity correction enabled: false
Boxcar width: 0
XAxis mode: Wavelengths
Number of Pixels in Spectrum: 2048
>>>>>Begin Spectral Data<<<<<
223.165	2.88
223.4	2.88
223.635	2.88
223.869	-17.12
224.104	-22.12
224.338	-8.12
224.573	-1.12
224.808	-11.12
225.042	-13.12
225.277	-4.12
225.511	-3.12
225.746	-3.12
225.98	0.88
226.215	8.88
226.449	6.88
226.683	19.88
226.918	17.88
227.152	25.88
227.387	39.88
227.621	43.88
227.856	31.88
228.09	56.88
228.324	46.88
228.559	65.88
228.793	81.88
229.027	85.88
229.262	102.88
229.496	93.88
229.73	108.88
229.964	126.88
230.199	116.88
230.433	105.88
230.667	89.88
230.901	107.88
231.136	93.88
231.37	90.88
231.604	106.88
231.838	116.88
232.072	87.88
232.306	102.88
232.541	92.88
232.775	88.88
233.009	102.88
233.243	111.88
233.477	103.88
233.711	113.88
233.945	89.88
234.179	106.88
234.413	90.88
234.647	104.88
234.881	116.88
235.115	106.88
235.349	105.88
235.583	102.88
235.817	106.88
236.051	106.88
236.285	101.88
236.519	115.88
236.753	112.88
236.987	117.88
237.221	149.88
237.455	161.88
237.689	129.88
237.922	122.88
238.156	107.88
238.39	117.88
238.624	99.88
238.858	103.88
239.091	107.88
239.325	98.88
239.559	102.88
239.793	110.88
240.027	101.88
240.26	106.88
240.494	121.88
240.728	125.88
240.961	124.88
241.195	129.88
241.429	124.88
241.662	108.88
241.896	114.88
242.13	110.88
242.363	104.88
242.597	106.88
242.83	125.88
243.064	123.88
243.298	124.88
243.531	116.88
243.765	124.88
243.998	123.88
244.232	123.88
244.465	111.88
244.699	130.88
244.932	140.88
245.166	131.88
245.399	126.88
245.633	129.88
245.866	129.88
246.099	135.88
246.333	148.88
246.566	117.88
246.8	130.88
247.033	129.88
247.266	135.88
247.5	127.88
247.733	144.88
247.966	124.88
248.2	140.88
248.433	131.88
248.666	149.88
248.899	130.88
249.133	131.88
249.366	163.88
249.599	155.88
249.832	139.88
250.066	147.88
250.299	145.88
250.532	139.88
250.765	151.88
250.998	164.88
251.231	161.88
251.465	161.88
251.698	160.88
251.931	154.88
252.164	161.88
252.397	158.88
252.63	137.88
252.863	144.88
253.096	158.88
253.329	166.88
253.562	163.88
253.795	178.88
254.028	158.88
254.261	158.88
254.494	171.88
254.727	183.88
254.96	175.88
255.193	203.88
255.426	174.88
255.659	160.88
255.892	173.88
256.124	175.88
256.357	172.88
256.59	165.88
256.823	150.88
257.056	155.88
257.289	167.88
257.521	168.88
257.754	165.88
257.987	156.88
258.22	159.88
258.452	158.88
258.685	158.88
258.918	169.88
259.151	159.88
259.383	155.88
259.616	153.88
259.849	151.88
260.081	164.88
260.314	172.88
260.547	178.88
260.779	165.88
261.012	167.88
261.244	166.88
261.477	166.88
261.71	167.88
261.942	156.88
262.175	167.88
262.407	179.88
262.64	167.88
262.872	149.88
263.105	164.88
263.337	146.88
263.57	166.88
263.802	159.88
264.035	181.88
264.267	166.88
264.499	163.88
264.732	164.88
264.964	142.88
265.197	157.88
265.429	151.88
265.661	166.88
265.894	174.88
266.126	160.88
266.358	153.88
266.591	159.88
266.823	178.88
267.055	178.88
267.287	159.88
267.52	168.88
267.752	166.88
267.984	168.88
268.216	158.88
268.448	167.88
268.681	189.88
268.913	177.88
269.145	191.88
269.377	171.88
269.609	185.88
269.841	190.88
270.073	186.88
270.306	206.88
270.538	215.88
270.77	217.88
271.002	217.88
271.234	203.88
271.466	207.88
271.698	219.88
271.93	197.88
272.162	211.88
272.394	202.88
272.626	193.88
272.858	180.88
273.09	195.88
273.322	204.88
273.553	207.88
273.785	205.88
274.017	185.88
274.249	178.88
274.481	180.88
274.713	200.88
274.945	201.88
275.176	196.88
275.408	166.88
275.64	198.88
275.872	182.88
276.104	172.88
276.335	191.88
276.567	196.88
276.799	201.88
277.031	207.88
277.262	228.88
277.494	214.88
277.726	199.88
277.957	212.88
278.189	194.88
278.421	181.88
278.652	185.88
278.884	200.88
279.115	193.88
279.347	205.88
279.579	192.88
279.81	199.88
280.042	194.88
280.273	194.88
280.505	196.88
280.736	189.88
280.968	199.88
281.199	193.88
281.431	190.88
281.662	191.88
281.894	173.88
282.125	183.88
282.356	220.88
282.588	207.88
282.819	204.88
283.051	197.88
283.282	190.88
283.513	184.88
283.745	199.88
283.976	209.88
284.207	207.88
284.439	220.88
284.67	191.88
284.901	184.88
285.132	198.88
285.364	192.88
285.595	201.88
285.826	194.88
286.057	194.88
286.288	174.88
286.52	202.88
286.751	185.88
286.982	216.88
287.213	191.88
287.444	191.88
287.675	198.88
287.906	189.88
288.138	202.88
288.369	226.88
288.6	210.88
288.831	201.88
289.062	218.88
289.293	204.88
289.524	200.88
289.755	214.88
289.986	198.88
290.217	197.88
290.448	200.88
290.679	195.88
290.91	196.88
291.141	190.88
291.371	202.88
291.602	229.88
291.833	202.88
292.064	210.88
292.295	201.88
292.526	215.88
292.757	209.88
292.987	211.88
293.218	198.88
293.449	222.88
293.68	196.88
293.91	191.88
294.141	204.88
294.372	206.88
294.603	214.88
294.833	213.88
295.064	197.88
295.295	198.88
295.525	203.88
295.756	219.88
295.987	208.88
296.217	201.88
296.448	237.88
296.679	199.88
296.909	215.88
297.14	218.88
297.37	216.88
297.601	190.88
297.831	191.88
298.062	214.88
298.292	203.88
298.523	218.88
298.753	218.88
298.984	212.88
299.214	229.88
299.445	202.88
299.675	219.88
299.905	214.88
300.136	201.88
300.366	229.88
300.597	227.88
300.827	223.88
301.057	213.88
301.288	212.88
301.518	217.88
301.748	223.88
301.979	242.88
302.209	235.88
302.439	221.88
302.669	236.88
302.9	224.88
303.13	219.88
303.36	231.88
303.59	220.88
303.82	222.88
304.051	231.88
304.281	237.88
304.511	231.88
304.741	225.88
304.971	236.88
305.201	253.88
305.431	209.88
305.661	226.88
305.891	224.88
306.121	232.88
306.352	232.88
306.582	236.88
306.812	220.88
307.042	230.88
307.272	220.88
307.502	228.88
307.731	232.88
307.961	243.88
308.191	249.88
308.421	222.88
308.651	235.88
308.881	220.88
309.111	245.88
309.341	217.88
309.571	264.88
309.8	237.88
310.03	241.88
310.26	270.88
310.49	242.88
310.72	259.88
310.949	250.88
311.179	263.88
311.409	276.88
311.639	252.88
311.868	245.88
312.098	250.88
312.328	261.88
312.557	269.88
312.787	281.88
313.017	281.88
313.246	269.88
313.476	262.88
313.706	279.88
313.935	253.88
314.165	247.88
314.394	263.88
314.624	275.88
314.853	257.88
315.083	261.88
315.312	273.88
315.542	261.88
315.771	237.88
316.001	256.88
316.23	254.88
316.46	249.88
316.689	249.88
316.919	256.88
317.148	267.88
317.377	269.88
317.607	273.88
317.836	260.88
318.065	265.88
318.295	270.88
318.524	271.88
318.753	258.88
318.983	286.88
319.212	257.88
319.441	265.88
319.67	262.88
319.9	278.88
320.129	270.88
320.358	275.88
320.587	255.88
320.816	266.88
321.046	290.88
321.275	290.88
321.504	275.88
321.733	291.88
321.962	267.88
322.191	288.88
322.42	286.88
322.649	289.88
322.878	314.88
323.108	323.88
323.337	325.88
323.566	332.88
323.795	331.88
324.024	386.88
324.253	420.88
324.482	644.88
324.71	963.88
324.939	1352.88
325.168	1124.88
325.397	598.88
325.626	399.88
325.855	362.88
326.084	311.88
326.313	347.88
326.542	336.88
326.77	375.88
326.999	435.88
327.228	587.88
327.457	842.88
327.686	985.88
327.914	665.88
328.143	498.88
328.372	420.88
328.6	373.88
328.829	374.88
329.058	364.88
329.287	374.88
329.515	359.88
329.744	317.88
329.972	343.88
330.201	354.88
330.43	366.88
330.658	389.88
330.887	371.88
331.115	365.88
331.344	346.88
331.572	347.88
331.801	317.88
332.03	320.88
332.258	322.88
332.486	318.88
332.715	294.88
332.943	300.88
333.172	289.88
333.4	321.88
333.629	300.88
333.857	332.88
334.085	310.88
334.314	324.88
334.542	369.88
334.771	344.88
334.999	338.88
335.227	318.88
335.455	313.88
335.684	302.88
335.912	293.88
336.14	307.88
336.369	305.88
336.597	315.88
336.825	312.88
337.053	293.88
337.281	294.88
337.51	309.88
337.738	306.88
337.966	306.88
338.194	303.88
338.422	305.88
338.65	297.88
338.878	279.88
339.106	300.88
339.334	284.88
339.562	302.88
339.79	296.88
340.018	297.88
340.246	297.88
340.474	318.88
340.702	311.88
340.93	296.88
341.158	294.88
341.386	289.88
341.614	294.88
341.842	284.88
342.07	307.88
342.298	293.88
342.526	293.88
342.754	276.88
342.981	288.88
343.209	308.88
343.437	290.88
343.665	296.88
343.893	283.88
344.12	310.88
344.348	302.88
344.576	286.88
344.804	305.88
345.031	313.88
345.259	324.88
345.487	305.88
345.714	287.88
345.942	305.88
346.17	309.88
346.397	288.88
346.625	293.88
346.853	287.88
347.08	272.88
347.308	302.88
347.535	286.88
347.763	299.88
347.99	298.88
348.218	287.88
348.445	308.88
348.673	286.88
348.9	286.88
349.128	285.88
349.355	287.88
349.583	282.88
349.81	282.88
350.037	264.88
350.265	279.88
350.492	269.88
350.72	283.88
350.947	263.88
351.174	301.88
351.402	300.88
351.629	297.88
351.856	285.88
352.083	293.88
352.311	285.88
352.538	313.88
352.765	287.88
352.992	312.88
353.22	319.88
353.447	286.88
353.674	291.88
353.901	279.88
354.128	289.88
354.355	281.88
354.583	267.88
354.81	279.88
355.037	271.88
355.264	269.88
355.491	249.88
355.718	268.88
355.945	274.88
356.172	282.88
356.399	293.88
356.626	288.88
356.853	243.88
357.08	273.88
357.307	271.88
357.534	266.88
357.761	276.88
357.988	301.88
358.215	295.88
358.441	285.88
358.668	289.88
358.895	277.88
359.122	278.88
359.349	282.88
359.576	310.88
359.802	302.88
360.029	303.88
360.256	317.88
360.483	315.88
360.709	293.88
360.936	302.88
361.163	273.88
361.39	289.88
361.616	313.88
361.843	293.88
362.07	295.88
362.296	293.88
362.523	283.88
362.749	302.88
362.976	292.88
363.203	283.88
363.429	281.88
363.656	281.88
363.882	278.88
364.109	285.88
364.335	259.88
364.562	281.88
364.788	281.88
365.015	294.88
365.241	300.88
365.468	275.88
365.694	284.88
365.92	291.88
366.147	276.88
366.373	290.88
366.599	259.88
366.826	286.88
367.052	289.88
367.278	287.88
367.505	272.88
367.731	284.88
367.957	279.88
368.184	263.88
368.41	278.88
368.636	308.88
368.862	285.88
369.089	286.88
369.315	275.88
369.541	293.88
369.767	289.88
369.993	278.88
370.219	295.88
370.445	261.88
370.672	279.88
370.898	274.88
371.124	278.88
371.35	275.88
371.576	268.88
371.802	257.88
372.028	284.88
372.254	297.88
372.48	290.88
372.706	285.88
372.932	274.88
373.158	266.88
373.384	273.88
373.61	283.88
373.835	282.88
374.061	288.88
374.287	301.88
374.513	289.88
374.739	292.88
374.965	293.88
375.191	283.88
375.416	294.88
375.642	285.88
375.868	295.88
376.094	271.88
376.319	294.88
376.545	275.88
376.771	275.88
376.997	280.88
377.222	272.88
377.448	269.88
377.674	285.88
377.899	284.88
378.125	293.88
378.35	292.88
378.576	296.88
378.802	299.88
379.027	287.88
379.253	282.88
379.478	279.88
379.704	266.88
379.929	267.88
380.155	287.88
380.38	290.88
380.606	297.88
380.831	288.88
381.057	303.88
381.282	300.88
381.507	290.88
381.733	279.88
381.958	276.88
382.184	300.88
382.409	298.88
382.634	301.88
382.86	295.88
383.085	293.88
383.31	307.88
383.535	285.88
383.761	296.88
383.986	306.88
384.211	307.88
384.436	308.88
384.662	305.88
384.887	305.88
385.112	295.88
385.337	326.88
385.562	315.88
385.787	310.88
386.013	328.88
386.238	307.88
386.463	314.88
386.688	312.88
386.913	314.88
387.138	318.88
387.363	313.88
387.588	329.88
387.813	311.88
388.038	305.88
388.263	325.88
388.488	302.88
388.713	294.88
388.938	297.88
389.163	323.88
389.387	305.88
389.612	289.88
389.837	323.88
390.062	316.88
390.287	324.88
390.512	305.88
390.736	312.88
390.961	296.88
391.186	334.88
391.411	310.88
391.636	307.88
391.86	310.88
392.085	314.88
392.31	307.88
392.534	315.88
392.759	314.88
392.984	322.88
393.208	321.88
393.433	307.88
393.658	316.88
393.882	330.88
394.107	307.88
394.331	310.88
394.556	306.88
394.78	320.88
395.005	309.88
395.229	317.88
395.454	323.88
395.678	332.88
395.903	321.88
396.127	329.88
396.352	342.88
396.576	344.88
396.801	328.88
397.025	349.88
397.249	328.88
397.474	324.88
397.698	331.88
397.922	355.88
398.147	351.88
398.371	366.88
398.595	335.88
398.82	332.88
399.044	340.88
399.268	358.88
399.492	374.88
399.717	375.88
399.941	391.88
400.165	417.88
400.389	406.88
400.613	379.88
400.837	361.88
401.062	377.88
401.286	358.88
401.51	352.88
401.734	331.88
401.958	357.88
402.182	362.88
402.406	367.88
402.63	348.88
402.854	350.88
403.078	344.88
403.302	341.88
403.526	372.88
403.75	363.88
403.974	336.88
404.198	347.88
404.422	371.88
404.645	369.88
404.869	370.88
405.093	386.88
405.317	397.88
405.541	442.88
405.765	409.88
405.988	399.88
406.212	385.88
406.436	360.88
406.66	385.88
406.883	391.88
407.107	408.88
407.331	441.88
407.555	464.88
407.778	466.88
408.002	428.88
408.226	399.88
408.449	417.88
408.673	404.88
408.896	399.88
409.12	433.88
409.344	414.88
409.567	381.88
409.791	366.88
410.014	374.88
410.238	375.88
410.461	395.88
410.685	378.88
410.908	367.88
411.132	400.88
411.355	415.88
411.578	421.88
411.802	363.88
412.025	377.88
412.249	372.88
412.472	389.88
412.695	395.88
412.919	395.88
413.142	371.88
413.365	362.88
413.589	352.88
413.812	358.88
414.035	349.88
414.258	361.88
414.482	347.88
414.705	371.88
414.928	335.88
415.151	347.88
415.374	352.88
415.597	345.88
415.821	356.88
416.044	349.88
416.267	349.88
416.49	346.88
416.713	341.88
416.936	353.88
417.159	344.88
417.382	350.88
417.605	346.88
417.828	345.88
418.051	341.88
418.274	350.88
418.497	351.88
418.72	351.88
418.943	339.88
419.166	354.88
419.389	373.88
419.611	349.88
419.834	369.88
420.057	375.88
420.28	363.88
420.503	379.88
420.726	359.88
420.948	379.88
421.171	393.88
421.394	404.88
421.617	377.88
421.839	361.88
422.062	372.88
422.285	375.88
422.507	398.88
422.73	451.88
422.953	434.88
423.175	394.88
423.398	371.88
423.621	375.88
423.843	378.88
424.066	379.88
424.288	386.88
424.511	389.88
424.733	403.88
424.956	469.88
425.178	461.88
425.401	447.88
425.623	474.88
425.846	397.88
426.068	399.88
426.291	379.88
426.513	387.88
426.735	405.88
426.958	419.88
427.18	471.88
427.402	542.88
427.625	583.88
427.847	517.88
428.069	474.88
428.292	395.88
428.514	364.88
428.736	363.88
428.958	360.88
429.181	343.88
429.403	372.88
429.625	365.88
429.847	387.88
430.069	433.88
430.292	429.88
430.514	395.88
430.736	346.88
430.958	337.88
431.18	348.88
431.402	371.88
431.624	339.88
431.846	338.88
432.068	351.88
432.29	359.88
432.512	323.88
432.734	345.88
432.956	373.88
433.178	361.88
433.4	369.88
433.622	343.88
433.844	354.88
434.066	349.88
434.287	350.88
434.509	355.88
434.731	359.88
434.953	338.88
435.175	365.88
435.397	377.88
435.618	393.88
435.84	401.88
436.062	484.88
436.284	511.88
436.505	433.88
436.727	406.88
436.949	367.88
437.17	374.88
437.392	355.88
437.614	381.88
437.835	391.88
438.057	447.88
438.278	528.88
438.5	515.88
438.721	573.88
438.943	526.88
439.165	433.88
439.386	400.88
439.608	391.88
439.829	380.88
440.05	406.88
440.272	439.88
440.493	407.88
440.715	376.88
440.936	357.88
441.158	356.88
441.379	361.88
441.6	378.88
441.822	413.88
442.043	422.88
442.264	454.88
442.486	493.88
442.707	425.88
442.928	406.88
443.149	406.88
443.371	409.88
443.592	442.88
443.813	477.88
444.034	530.88
444.255	455.88
444.476	406.88
444.698	381.88
444.919	398.88
445.14	523.88
445.361	447.88
445.582	421.88
445.803	434.88
446.024	517.88
446.245	554.88
446.466	495.88
446.687	424.88
446.908	386.88
447.129	382.88
447.35	382.88
447.571	350.88
447.792	373.88
448.013	361.88
448.234	390.88
448.455	416.88
448.675	462.88
448.896	550.88
449.117	481.88
449.338	469.88
449.559	538.88
449.779	589.88
450	459.88
450.221	407.88
450.442	364.88
450.662	358.88
450.883	350.88
451.104	364.88
451.324	379.88
451.545	357.88
451.766	335.88
451.986	323.88
452.207	328.88
452.428	323.88
452.648	342.88
452.869	348.88
453.089	353.88
453.31	327.88
453.53	315.88
453.751	333.88
453.971	334.88
454.192	330.88
454.412	329.88
454.633	325.88
454.853	332.88
455.073	322.88
455.294	364.88
455.514	385.88
455.734	389.88
455.955	339.88
456.175	319.88
456.395	331.88
456.616	300.88
456.836	312.88
457.056	307.88
457.276	303.88
457.497	302.88
457.717	322.88
457.937	305.88
458.157	320.88
458.377	330.88
458.598	341.88
458.818	352.88
459.038	408.88
459.258	433.88
459.478	369.88
459.698	340.88
459.918	367.88
460.138	350.88
460.358	342.88
460.578	354.88
460.798	349.88
461.018	368.88
461.238	335.88
461.458	362.88
461.678	363.88
461.898	348.88
462.118	347.88
462.338	363.88
462.558	357.88
462.777	361.88
462.997	369.88
463.217	385.88
463.437	386.88
463.657	365.88
463.876	355.88
464.096	381.88
464.316	387.88
464.536	359.88
464.755	366.88
464.975	370.88
465.195	384.88
465.414	424.88
465.634	385.88
465.854	375.88
466.073	357.88
466.293	353.88
466.512	345.88
466.732	323.88
466.951	341.88
467.171	362.88
467.391	329.88
467.61	333.88
467.829	332.88
468.049	359.88
468.268	344.88
468.488	330.88
468.707	342.88
468.927	347.88
469.146	343.88
469.365	347.88
469.585	335.88
469.804	338.88
470.023	346.88
470.243	335.88
470.462	353.88
470.681	359.88
470.901	340.88
471.12	350.88
471.339	355.88
471.558	338.88
471.777	342.88
471.997	334.88
472.216	352.88
472.435	356.88
472.654	356.88
472.873	354.88
473.092	365.88
473.311	357.88
473.53	363.88
473.749	358.88
473.968	361.88
474.187	412.88
474.406	441.88
474.625	381.88
474.844	352.88
475.063	351.88
475.282	349.88
475.501	346.88
475.72	342.88
475.939	342.88
476.158	344.88
476.377	372.88
476.596	342.88
476.814	368.88
477.033	383.88
477.252	372.88
477.471	371.88
477.69	352.88
477.908	373.88
478.127	403.88
478.346	367.88
478.564	383.88
478.783	389.88
479.002	399.88
479.22	385.88
479.439	400.88
479.658	409.88
479.876	405.88
480.095	418.88
480.313	437.88
480.532	430.88
480.751	405.88
480.969	431.88
481.188	437.88
481.406	474.88
481.624	426.88
481.843	426.88
482.061	408.88
482.28	397.88
482.498	414.88
482.717	388.88
482.935	395.88
483.153	396.88
483.372	404.88
483.59	414.88
483.808	412.88
484.027	404.88
484.245	407.88
484.463	413.88
484.681	424.88
484.9	419.88
485.118	423.88
485.336	412.88
485.554	426.88
485.772	435.88
485.99	408.88
486.209	431.88
486.427	413.88
486.645	414.88
486.863	425.88
487.081	424.88
487.299	444.88
487.517	421.88
487.735	418.88
487.953	437.88
488.171	442.88
488.389	424.88
488.607	432.88
488.825	412.88
489.043	417.88
489.261	420.88
489.479	445.88
489.696	449.88
489.914	447.88
490.132	438.88
490.35	438.88
490.568	434.88
490.786	454.88
491.003	443.88
491.221	470.88
491.439	473.88
491.657	491.88
491.874	494.88
492.092	480.88
492.31	491.88
492.527	485.88
492.745	469.88
492.963	489.88
493.18	479.88
493.398	481.88
493.615	524.88
493.833	493.88
494.05	498.88
494.268	492.88
494.485	494.88
494.703	475.88
494.92	497.88
495.138	498.88
495.355	510.88
495.573	507.88
495.79	503.88
496.008	495.88
496.225	494.88
496.442	504.88
496.66	509.88
496.877	517.88
497.094	519.88
497.312	498.88
497.529	512.88
497.746	507.88
497.963	518.88
498.181	555.88
498.398	565.88
498.615	579.88
498.832	562.88
499.049	557.88
499.267	565.88
499.484	609.88
499.701	606.88
499.918	635.88
500.135	649.88
500.352	646.88
500.569	645.88
500.786	690.88
501.003	675.88
501.22	644.88
501.437	635.88
501.654	625.88
501.871	604.88
502.088	613.88
502.305	571.88
