Data from 1961.PennyLincolnUp.Lamp.En5.5.200Scan.071719.P1._HRD10591_13-47-34-059.txt Node
Date: Thu Jul 18 13:47:34 EDT 2019
User: cochatt
Spectrometer: HR+D1059
Trigger mode: 1
Integration Time (sec): 1.000000E-1
Scans to average: 1
Electric dark correction enabled: true
Nonlinearity correction enabled: false
Boxcar width: 0
XAxis mode: Wavelengths
Number of Pixels in Spectrum: 2048
>>>>>Begin Spectral Data<<<<<
223.165	-5.06
223.4	-5.06
223.635	-5.06
223.869	-11.06
224.104	-24.06
224.338	-19.06
224.573	-5.06
224.808	-15.06
225.042	-5.06
225.277	-13.06
225.511	1.94
225.746	-5.06
225.98	11.94
226.215	5.94
226.449	18.94
226.683	-7.06
226.918	36.94
227.152	33.94
227.387	24.94
227.621	28.94
227.856	40.94
228.09	56.94
228.324	46.94
228.559	43.94
228.793	70.94
229.027	95.94
229.262	98.94
229.496	118.94
229.73	132.94
229.964	138.94
230.199	121.94
230.433	95.94
230.667	110.94
230.901	96.94
231.136	87.94
231.37	110.94
231.604	100.94
231.838	100.94
232.072	89.94
232.306	96.94
232.541	112.94
232.775	96.94
233.009	92.94
233.243	107.94
233.477	102.94
233.711	110.94
233.945	104.94
234.179	114.94
234.413	119.94
234.647	116.94
234.881	105.94
235.115	118.94
235.349	110.94
235.583	121.94
235.817	97.94
236.051	104.94
236.285	113.94
236.519	108.94
236.753	115.94
236.987	146.94
237.221	166.94
237.455	209.94
237.689	164.94
237.922	122.94
238.156	122.94
238.39	129.94
238.624	109.94
238.858	99.94
239.091	122.94
239.325	115.94
239.559	94.94
239.793	106.94
240.027	111.94
240.26	122.94
240.494	130.94
240.728	136.94
240.961	138.94
241.195	134.94
241.429	103.94
241.662	121.94
241.896	115.94
242.13	119.94
242.363	112.94
242.597	117.94
242.83	126.94
243.064	120.94
243.298	128.94
243.531	126.94
243.765	134.94
243.998	125.94
244.232	116.94
244.465	123.94
244.699	127.94
244.932	125.94
245.166	126.94
245.399	124.94
245.633	127.94
245.866	132.94
246.099	126.94
246.333	137.94
246.566	130.94
246.8	134.94
247.033	118.94
247.266	131.94
247.5	135.94
247.733	150.94
247.966	155.94
248.2	163.94
248.433	128.94
248.666	158.94
248.899	163.94
249.133	169.94
249.366	181.94
249.599	166.94
249.832	165.94
250.066	150.94
250.299	158.94
250.532	145.94
250.765	162.94
250.998	179.94
251.231	178.94
251.465	183.94
251.698	170.94
251.931	178.94
252.164	174.94
252.397	157.94
252.63	162.94
252.863	148.94
253.096	187.94
253.329	187.94
253.562	183.94
253.795	186.94
254.028	178.94
254.261	175.94
254.494	187.94
254.727	218.94
254.96	222.94
255.193	222.94
255.426	200.94
255.659	192.94
255.892	213.94
256.124	198.94
256.357	186.94
256.59	186.94
256.823	183.94
257.056	189.94
257.289	179.94
257.521	184.94
257.754	175.94
257.987	168.94
258.22	184.94
258.452	163.94
258.685	161.94
258.918	169.94
259.151	191.94
259.383	186.94
259.616	170.94
259.849	193.94
260.081	191.94
260.314	209.94
260.547	220.94
260.779	193.94
261.012	201.94
261.244	180.94
261.477	191.94
261.71	174.94
261.942	182.94
262.175	189.94
262.407	196.94
262.64	176.94
262.872	170.94
263.105	171.94
263.337	182.94
263.57	166.94
263.802	178.94
264.035	196.94
264.267	168.94
264.499	171.94
264.732	187.94
264.964	182.94
265.197	183.94
265.429	198.94
265.661	182.94
265.894	181.94
266.126	176.94
266.358	162.94
266.591	182.94
266.823	174.94
267.055	183.94
267.287	187.94
267.52	189.94
267.752	191.94
267.984	182.94
268.216	191.94
268.448	194.94
268.681	190.94
268.913	192.94
269.145	206.94
269.377	216.94
269.609	219.94
269.841	218.94
270.073	199.94
270.306	236.94
270.538	249.94
270.77	233.94
271.002	239.94
271.234	233.94
271.466	233.94
271.698	272.94
271.93	254.94
272.162	272.94
272.394	267.94
272.626	238.94
272.858	235.94
273.09	226.94
273.322	227.94
273.553	220.94
273.785	220.94
274.017	226.94
274.249	219.94
274.481	229.94
274.713	230.94
274.945	212.94
275.176	219.94
275.408	236.94
275.64	239.94
275.872	217.94
276.104	217.94
276.335	240.94
276.567	225.94
276.799	243.94
277.031	256.94
277.262	249.94
277.494	258.94
277.726	245.94
277.957	231.94
278.189	226.94
278.421	223.94
278.652	222.94
278.884	238.94
279.115	220.94
279.347	201.94
279.579	219.94
279.81	214.94
280.042	220.94
280.273	210.94
280.505	213.94
280.736	204.94
280.968	212.94
281.199	209.94
281.431	214.94
281.662	205.94
281.894	222.94
282.125	226.94
282.356	222.94
282.588	236.94
282.819	256.94
283.051	211.94
283.282	220.94
283.513	219.94
283.745	226.94
283.976	228.94
284.207	230.94
284.439	224.94
284.67	225.94
284.901	217.94
285.132	219.94
285.364	219.94
285.595	216.94
285.826	224.94
286.057	220.94
286.288	211.94
286.52	236.94
286.751	220.94
286.982	224.94
287.213	214.94
287.444	206.94
287.675	233.94
287.906	244.94
288.138	240.94
288.369	247.94
288.6	252.94
288.831	230.94
289.062	245.94
289.293	221.94
289.524	218.94
289.755	239.94
289.986	220.94
290.217	228.94
290.448	225.94
290.679	212.94
290.91	238.94
291.141	248.94
291.371	217.94
291.602	238.94
291.833	221.94
292.064	212.94
292.295	231.94
292.526	219.94
292.757	212.94
292.987	223.94
293.218	232.94
293.449	232.94
293.68	225.94
293.91	223.94
294.141	230.94
294.372	241.94
294.603	210.94
294.833	238.94
295.064	236.94
295.295	234.94
295.525	219.94
295.756	232.94
295.987	244.94
296.217	267.94
296.448	254.94
296.679	263.94
296.909	246.94
297.14	221.94
297.37	262.94
297.601	233.94
297.831	229.94
298.062	248.94
298.292	231.94
298.523	251.94
298.753	239.94
298.984	235.94
299.214	242.94
299.445	256.94
299.675	252.94
299.905	242.94
300.136	233.94
300.366	254.94
300.597	248.94
300.827	254.94
301.057	266.94
301.288	258.94
301.518	257.94
301.748	264.94
301.979	261.94
302.209	260.94
302.439	255.94
302.669	272.94
302.9	279.94
303.13	259.94
303.36	268.94
303.59	256.94
303.82	275.94
304.051	272.94
304.281	268.94
304.511	254.94
304.741	262.94
304.971	276.94
305.201	264.94
305.431	250.94
305.661	242.94
305.891	256.94
306.121	266.94
306.352	276.94
306.582	267.94
306.812	270.94
307.042	274.94
307.272	283.94
307.502	259.94
307.731	270.94
307.961	250.94
308.191	287.94
308.421	264.94
308.651	259.94
308.881	263.94
309.111	288.94
309.341	290.94
309.571	292.94
309.8	289.94
310.03	298.94
310.26	319.94
310.49	294.94
310.72	315.94
310.949	343.94
311.179	336.94
311.409	313.94
311.639	326.94
311.868	309.94
312.098	311.94
312.328	313.94
312.557	321.94
312.787	329.94
313.017	346.94
313.246	310.94
313.476	310.94
313.706	308.94
313.935	314.94
314.165	327.94
314.394	337.94
314.624	314.94
314.853	296.94
315.083	318.94
315.312	303.94
315.542	294.94
315.771	303.94
316.001	308.94
316.23	303.94
316.46	281.94
316.689	322.94
316.919	320.94
317.148	319.94
317.377	319.94
317.607	322.94
317.836	312.94
318.065	311.94
318.295	315.94
318.524	291.94
318.753	308.94
318.983	291.94
319.212	291.94
319.441	332.94
319.67	330.94
319.9	329.94
320.129	320.94
320.358	329.94
320.587	328.94
320.816	322.94
321.046	338.94
321.275	336.94
321.504	338.94
321.733	348.94
321.962	359.94
322.191	363.94
322.42	357.94
322.649	391.94
322.878	372.94
323.108	406.94
323.337	434.94
323.566	455.94
323.795	463.94
324.024	539.94
324.253	679.94
324.482	992.94
324.71	1532.94
324.939	2163.94
325.168	1792.94
325.397	935.94
325.626	631.94
325.855	505.94
326.084	474.94
326.313	440.94
326.542	448.94
326.77	500.94
326.999	606.94
327.228	842.94
327.457	1324.94
327.686	1562.94
327.914	1033.94
328.143	680.94
328.372	580.94
328.6	537.94
328.829	507.94
329.058	505.94
329.287	546.94
329.515	510.94
329.744	451.94
329.972	447.94
330.201	488.94
330.43	515.94
330.658	536.94
330.887	558.94
331.115	531.94
331.344	453.94
331.572	404.94
331.801	432.94
332.03	423.94
332.258	383.94
332.486	377.94
332.715	375.94
332.943	373.94
333.172	366.94
333.4	386.94
333.629	372.94
333.857	399.94
334.085	428.94
334.314	403.94
334.542	453.94
334.771	450.94
334.999	424.94
335.227	393.94
335.455	371.94
335.684	350.94
335.912	366.94
336.14	374.94
336.369	358.94
336.597	370.94
336.825	363.94
337.053	351.94
337.281	345.94
337.51	360.94
337.738	354.94
337.966	342.94
338.194	362.94
338.422	347.94
338.65	345.94
338.878	355.94
339.106	346.94
339.334	358.94
339.562	354.94
339.79	355.94
340.018	352.94
340.246	344.94
340.474	354.94
340.702	354.94
340.93	346.94
341.158	337.94
341.386	362.94
341.614	346.94
341.842	351.94
342.07	343.94
342.298	328.94
342.526	324.94
342.754	348.94
342.981	325.94
343.209	322.94
343.437	345.94
343.665	337.94
343.893	346.94
344.12	348.94
344.348	355.94
344.576	337.94
344.804	338.94
345.031	360.94
345.259	374.94
345.487	352.94
345.714	352.94
345.942	341.94
346.17	337.94
346.397	361.94
346.625	346.94
346.853	339.94
347.08	323.94
347.308	351.94
347.535	333.94
347.763	353.94
347.99	360.94
348.218	337.94
348.445	334.94
348.673	347.94
348.9	330.94
349.128	343.94
349.355	320.94
349.583	323.94
349.81	321.94
350.037	331.94
350.265	323.94
350.492	327.94
350.72	333.94
350.947	334.94
351.174	332.94
351.402	354.94
351.629	347.94
351.856	356.94
352.083	362.94
352.311	360.94
352.538	363.94
352.765	365.94
352.992	342.94
353.22	349.94
353.447	339.94
353.674	351.94
353.901	310.94
354.128	315.94
354.355	323.94
354.583	302.94
354.81	317.94
355.037	308.94
355.264	288.94
355.491	313.94
355.718	314.94
355.945	305.94
356.172	303.94
356.399	336.94
356.626	300.94
356.853	317.94
357.08	313.94
357.307	331.94
357.534	318.94
357.761	343.94
357.988	312.94
358.215	328.94
358.441	308.94
358.668	314.94
358.895	313.94
359.122	328.94
359.349	336.94
359.576	351.94
359.802	351.94
360.029	385.94
360.256	403.94
360.483	378.94
360.709	345.94
360.936	347.94
361.163	339.94
361.39	334.94
361.616	339.94
361.843	357.94
362.07	340.94
362.296	329.94
362.523	357.94
362.749	331.94
362.976	339.94
363.203	324.94
363.429	332.94
363.656	337.94
363.882	323.94
364.109	310.94
364.335	315.94
364.562	342.94
364.788	323.94
365.015	327.94
365.241	316.94
365.468	321.94
365.694	321.94
365.92	333.94
366.147	330.94
366.373	315.94
366.599	314.94
366.826	330.94
367.052	332.94
367.278	319.94
367.505	312.94
367.731	325.94
367.957	313.94
368.184	330.94
368.41	323.94
368.636	321.94
368.862	338.94
369.089	327.94
369.315	318.94
369.541	306.94
369.767	309.94
369.993	313.94
370.219	314.94
370.445	329.94
370.672	314.94
370.898	327.94
371.124	331.94
371.35	300.94
371.576	318.94
371.802	296.94
372.028	310.94
372.254	296.94
372.48	307.94
372.706	320.94
372.932	302.94
373.158	327.94
373.384	331.94
373.61	329.94
373.835	322.94
374.061	309.94
374.287	334.94
374.513	313.94
374.739	305.94
374.965	308.94
375.191	334.94
375.416	329.94
375.642	321.94
375.868	322.94
376.094	312.94
376.319	310.94
376.545	331.94
376.771	321.94
376.997	312.94
377.222	314.94
377.448	308.94
377.674	316.94
377.899	318.94
378.125	321.94
378.35	309.94
378.576	302.94
378.802	324.94
379.027	304.94
379.253	308.94
379.478	305.94
379.704	304.94
379.929	315.94
380.155	314.94
380.38	290.94
380.606	306.94
380.831	315.94
381.057	334.94
381.282	323.94
381.507	293.94
381.733	312.94
381.958	314.94
382.184	332.94
382.409	309.94
382.634	295.94
382.86	302.94
383.085	313.94
383.31	340.94
383.535	324.94
383.761	316.94
383.986	318.94
384.211	323.94
384.436	343.94
384.662	312.94
384.887	347.94
385.112	336.94
385.337	333.94
385.562	347.94
385.787	326.94
386.013	357.94
386.238	357.94
386.463	338.94
386.688	357.94
386.913	334.94
387.138	330.94
387.363	335.94
387.588	336.94
387.813	344.94
388.038	355.94
388.263	346.94
388.488	348.94
388.713	335.94
388.938	336.94
389.163	332.94
389.387	342.94
389.612	336.94
389.837	352.94
390.062	337.94
390.287	327.94
390.512	332.94
390.736	350.94
390.961	323.94
391.186	337.94
391.411	330.94
391.636	342.94
391.86	331.94
392.085	335.94
392.31	338.94
392.534	323.94
392.759	350.94
392.984	335.94
393.208	348.94
393.433	329.94
393.658	358.94
393.882	332.94
394.107	365.94
394.331	343.94
394.556	330.94
394.78	333.94
395.005	343.94
395.229	348.94
395.454	355.94
395.678	359.94
395.903	364.94
396.127	383.94
396.352	382.94
396.576	355.94
396.801	368.94
397.025	345.94
397.249	370.94
397.474	375.94
397.698	337.94
397.922	373.94
398.147	386.94
398.371	387.94
398.595	390.94
398.82	383.94
399.044	388.94
399.268	408.94
399.492	396.94
399.717	430.94
399.941	434.94
400.165	466.94
400.389	486.94
400.613	438.94
400.837	427.94
401.062	399.94
401.286	380.94
401.51	402.94
401.734	390.94
401.958	382.94
402.182	398.94
402.406	399.94
402.63	402.94
402.854	402.94
403.078	396.94
403.302	382.94
403.526	397.94
403.75	405.94
403.974	392.94
404.198	390.94
404.422	399.94
404.645	416.94
404.869	422.94
405.093	445.94
405.317	472.94
405.541	479.94
405.765	448.94
405.988	432.94
406.212	440.94
406.436	459.94
406.66	491.94
406.883	456.94
407.107	465.94
407.331	487.94
407.555	543.94
407.778	538.94
408.002	489.94
408.226	470.94
408.449	447.94
408.673	445.94
408.896	451.94
409.12	501.94
409.344	486.94
409.567	435.94
409.791	402.94
410.014	404.94
410.238	412.94
410.461	406.94
410.685	416.94
410.908	425.94
411.132	454.94
411.355	484.94
411.578	459.94
411.802	430.94
412.025	416.94
412.249	427.94
412.472	430.94
412.695	476.94
412.919	466.94
413.142	428.94
413.365	391.94
413.589	389.94
413.812	386.94
414.035	375.94
414.258	413.94
414.482	397.94
414.705	394.94
414.928	376.94
415.151	380.94
415.374	383.94
415.597	395.94
415.821	370.94
416.044	395.94
416.267	380.94
416.49	396.94
416.713	386.94
416.936	382.94
417.159	379.94
417.382	368.94
417.605	378.94
417.828	399.94
418.051	417.94
418.274	397.94
418.497	391.94
418.72	399.94
418.943	396.94
419.166	395.94
419.389	424.94
419.611	422.94
419.834	403.94
420.057	412.94
420.28	400.94
420.503	406.94
420.726	399.94
420.948	410.94
421.171	457.94
421.394	459.94
421.617	438.94
421.839	400.94
422.062	407.94
422.285	434.94
422.507	456.94
422.73	518.94
422.953	516.94
423.175	458.94
423.398	433.94
423.621	418.94
423.843	425.94
424.066	422.94
424.288	437.94
424.511	453.94
424.733	501.94
424.956	556.94
425.178	559.94
425.401	541.94
425.623	563.94
425.846	464.94
426.068	447.94
426.291	452.94
426.513	423.94
426.735	464.94
426.958	494.94
427.18	572.94
427.402	668.94
427.625	716.94
427.847	636.94
428.069	554.94
428.292	498.94
428.514	466.94
428.736	439.94
428.958	417.94
429.181	417.94
429.403	416.94
429.625	407.94
429.847	447.94
430.069	492.94
430.292	488.94
430.514	431.94
430.736	414.94
430.958	407.94
431.18	390.94
431.402	386.94
431.624	381.94
431.846	366.94
432.068	399.94
432.29	391.94
432.512	377.94
432.734	390.94
432.956	400.94
433.178	424.94
433.4	398.94
433.622	377.94
433.844	378.94
434.066	366.94
434.287	372.94
434.509	391.94
434.731	394.94
434.953	390.94
435.175	423.94
435.397	430.94
435.618	451.94
435.84	480.94
436.062	556.94
436.284	630.94
436.505	533.94
436.727	453.94
436.949	443.94
437.17	409.94
437.392	411.94
437.614	428.94
437.835	476.94
438.057	538.94
438.278	621.94
438.5	625.94
438.721	660.94
438.943	642.94
439.165	524.94
439.386	476.94
439.608	465.94
439.829	482.94
440.05	487.94
440.272	515.94
440.493	495.94
440.715	459.94
440.936	452.94
441.158	411.94
441.379	409.94
441.6	418.94
441.822	472.94
442.043	501.94
442.264	566.94
442.486	597.94
442.707	512.94
442.928	457.94
443.149	481.94
443.371	468.94
443.592	539.94
443.813	598.94
444.034	647.94
444.255	510.94
444.476	472.94
444.698	454.94
444.919	454.94
445.14	581.94
445.361	521.94
445.582	471.94
445.803	537.94
446.024	663.94
446.245	659.94
446.466	596.94
446.687	491.94
446.908	449.94
447.129	443.94
447.35	428.94
447.571	426.94
447.792	407.94
448.013	432.94
448.234	435.94
448.455	490.94
448.675	566.94
448.896	658.94
449.117	554.94
449.338	538.94
449.559	594.94
449.779	698.94
450	572.94
450.221	470.94
450.442	436.94
450.662	416.94
450.883	411.94
451.104	447.94
451.324	460.94
451.545	416.94
451.766	385.94
451.986	391.94
452.207	358.94
452.428	376.94
452.648	382.94
452.869	388.94
453.089	375.94
453.31	396.94
453.53	379.94
453.751	383.94
453.971	356.94
454.192	420.94
454.412	379.94
454.633	379.94
454.853	389.94
455.073	378.94
455.294	382.94
455.514	448.94
455.734	443.94
455.955	375.94
456.175	378.94
456.395	353.94
456.616	359.94
456.836	383.94
457.056	355.94
457.276	359.94
457.497	367.94
457.717	358.94
457.937	356.94
458.157	357.94
458.377	399.94
458.598	390.94
458.818	456.94
459.038	532.94
459.258	520.94
459.478	446.94
459.698	415.94
459.918	424.94
460.138	388.94
460.358	402.94
460.578	404.94
460.798	390.94
461.018	389.94
461.238	377.94
461.458	394.94
461.678	381.94
461.898	406.94
462.118	382.94
462.338	376.94
462.558	395.94
462.777	394.94
462.997	420.94
463.217	407.94
463.437	425.94
463.657	423.94
463.876	415.94
464.096	410.94
464.316	414.94
464.536	401.94
464.755	423.94
464.975	436.94
465.195	492.94
465.414	572.94
465.634	494.94
465.854	440.94
466.073	398.94
466.293	386.94
466.512	384.94
466.732	385.94
466.951	397.94
467.171	361.94
467.391	392.94
467.61	418.94
467.829	395.94
468.049	404.94
468.268	390.94
468.488	384.94
468.707	384.94
468.927	378.94
469.146	379.94
469.365	372.94
469.585	383.94
469.804	401.94
470.023	404.94
470.243	401.94
470.462	390.94
470.681	404.94
470.901	399.94
471.12	388.94
471.339	386.94
471.558	391.94
471.777	394.94
471.997	382.94
472.216	393.94
472.435	454.94
472.654	418.94
472.873	410.94
473.092	393.94
473.311	378.94
473.53	388.94
473.749	403.94
473.968	440.94
474.187	528.94
474.406	550.94
474.625	470.94
474.844	397.94
475.063	403.94
475.282	412.94
475.501	390.94
475.72	411.94
475.939	394.94
476.158	403.94
476.377	396.94
476.596	417.94
476.814	410.94
477.033	430.94
477.252	402.94
477.471	434.94
477.69	434.94
477.908	423.94
478.127	420.94
478.346	444.94
478.564	441.94
478.783	434.94
479.002	452.94
479.22	442.94
479.439	446.94
479.658	458.94
479.876	467.94
480.095	472.94
480.313	510.94
480.532	470.94
480.751	485.94
480.969	499.94
481.188	555.94
481.406	607.94
481.624	517.94
481.843	495.94
482.061	481.94
482.28	457.94
482.498	469.94
482.717	454.94
482.935	444.94
483.153	458.94
483.372	455.94
483.59	452.94
483.808	450.94
484.027	452.94
484.245	457.94
484.463	472.94
484.681	489.94
484.9	472.94
485.118	447.94
485.336	464.94
485.554	469.94
485.772	470.94
485.99	464.94
486.209	486.94
486.427	467.94
486.645	496.94
486.863	512.94
487.081	507.94
487.299	514.94
487.517	487.94
487.735	489.94
487.953	505.94
488.171	497.94
488.389	522.94
488.607	489.94
488.825	487.94
489.043	488.94
489.261	495.94
489.479	495.94
489.696	517.94
489.914	525.94
490.132	488.94
490.35	506.94
490.568	520.94
490.786	524.94
491.003	526.94
491.221	539.94
491.439	550.94
491.657	553.94
491.874	550.94
492.092	564.94
492.31	553.94
492.527	577.94
492.745	561.94
492.963	562.94
493.18	553.94
493.398	569.94
493.615	605.94
493.833	586.94
494.05	591.94
494.268	577.94
494.485	562.94
494.703	568.94
494.92	570.94
495.138	582.94
495.355	579.94
495.573	588.94
495.79	598.94
496.008	604.94
496.225	583.94
496.442	586.94
496.66	576.94
496.877	582.94
497.094	589.94
497.312	592.94
497.529	609.94
497.746	622.94
497.963	622.94
498.181	603.94
498.398	615.94
498.615	622.94
498.832	661.94
499.049	656.94
499.267	663.94
499.484	661.94
499.701	692.94
499.918	718.94
500.135	718.94
500.352	700.94
500.569	757.94
500.786	750.94
501.003	723.94
501.22	735.94
501.437	702.94
501.654	690.94
501.871	709.94
502.088	702.94
