Data from 1961.PennyLincolnUp.Lamp.En5.5.200Scan.071719.P1._HRD10591_13-46-54-057.txt Node
Date: Thu Jul 18 13:46:54 EDT 2019
User: cochatt
Spectrometer: HR+D1059
Trigger mode: 1
Integration Time (sec): 1.000000E-1
Scans to average: 1
Electric dark correction enabled: true
Nonlinearity correction enabled: false
Boxcar width: 0
XAxis mode: Wavelengths
Number of Pixels in Spectrum: 2048
>>>>>Begin Spectral Data<<<<<
223.165	-10.81
223.4	-10.81
223.635	-10.81
223.869	-18.81
224.104	-29.81
224.338	-21.81
224.573	3.19
224.808	-9.81
225.042	11.19
225.277	-7.81
225.511	2.19
225.746	5.19
225.98	5.19
226.215	16.19
226.449	16.19
226.683	13.19
226.918	5.19
227.152	21.19
227.387	34.19
227.621	40.19
227.856	38.19
228.09	46.19
228.324	33.19
228.559	51.19
228.793	52.19
229.027	67.19
229.262	95.19
229.496	118.19
229.73	102.19
229.964	123.19
230.199	112.19
230.433	97.19
230.667	101.19
230.901	96.19
231.136	106.19
231.37	103.19
231.604	105.19
231.838	106.19
232.072	101.19
232.306	103.19
232.541	112.19
232.775	109.19
233.009	99.19
233.243	121.19
233.477	85.19
233.711	101.19
233.945	93.19
234.179	89.19
234.413	91.19
234.647	97.19
234.881	102.19
235.115	114.19
235.349	106.19
235.583	107.19
235.817	111.19
236.051	101.19
236.285	118.19
236.519	88.19
236.753	107.19
236.987	138.19
237.221	152.19
237.455	165.19
237.689	142.19
237.922	119.19
238.156	99.19
238.39	104.19
238.624	93.19
238.858	111.19
239.091	110.19
239.325	110.19
239.559	105.19
239.793	117.19
240.027	119.19
240.26	125.19
240.494	129.19
240.728	131.19
240.961	114.19
241.195	137.19
241.429	117.19
241.662	107.19
241.896	104.19
242.13	116.19
242.363	125.19
242.597	116.19
242.83	126.19
243.064	124.19
243.298	113.19
243.531	105.19
243.765	112.19
243.998	119.19
244.232	121.19
244.465	119.19
244.699	112.19
244.932	119.19
245.166	123.19
245.399	112.19
245.633	115.19
245.866	109.19
246.099	120.19
246.333	105.19
246.566	111.19
246.8	118.19
247.033	114.19
247.266	123.19
247.5	138.19
247.733	138.19
247.966	148.19
248.2	144.19
248.433	137.19
248.666	137.19
248.899	165.19
249.133	161.19
249.366	178.19
249.599	151.19
249.832	151.19
250.066	159.19
250.299	134.19
250.532	141.19
250.765	145.19
250.998	177.19
251.231	164.19
251.465	166.19
251.698	150.19
251.931	154.19
252.164	162.19
252.397	152.19
252.63	165.19
252.863	169.19
253.096	175.19
253.329	177.19
253.562	187.19
253.795	163.19
254.028	181.19
254.261	167.19
254.494	166.19
254.727	201.19
254.96	204.19
255.193	193.19
255.426	191.19
255.659	161.19
255.892	176.19
256.124	181.19
256.357	177.19
256.59	173.19
256.823	166.19
257.056	169.19
257.289	177.19
257.521	149.19
257.754	150.19
257.987	170.19
258.22	160.19
258.452	176.19
258.685	154.19
258.918	164.19
259.151	175.19
259.383	166.19
259.616	177.19
259.849	181.19
260.081	164.19
260.314	188.19
260.547	189.19
260.779	186.19
261.012	179.19
261.244	175.19
261.477	179.19
261.71	173.19
261.942	179.19
262.175	174.19
262.407	176.19
262.64	176.19
262.872	176.19
263.105	153.19
263.337	180.19
263.57	188.19
263.802	159.19
264.035	161.19
264.267	161.19
264.499	178.19
264.732	156.19
264.964	156.19
265.197	147.19
265.429	181.19
265.661	174.19
265.894	157.19
266.126	167.19
266.358	146.19
266.591	181.19
266.823	192.19
267.055	169.19
267.287	176.19
267.52	172.19
267.752	183.19
267.984	182.19
268.216	179.19
268.448	167.19
268.681	173.19
268.913	173.19
269.145	178.19
269.377	192.19
269.609	188.19
269.841	196.19
270.073	188.19
270.306	205.19
270.538	225.19
270.77	235.19
271.002	240.19
271.234	222.19
271.466	239.19
271.698	225.19
271.93	218.19
272.162	225.19
272.394	239.19
272.626	205.19
272.858	220.19
273.09	220.19
273.322	211.19
273.553	196.19
273.785	205.19
274.017	202.19
274.249	198.19
274.481	210.19
274.713	197.19
274.945	195.19
275.176	205.19
275.408	205.19
275.64	205.19
275.872	205.19
276.104	210.19
276.335	211.19
276.567	204.19
276.799	224.19
277.031	228.19
277.262	230.19
277.494	233.19
277.726	237.19
277.957	194.19
278.189	209.19
278.421	222.19
278.652	207.19
278.884	214.19
279.115	194.19
279.347	198.19
279.579	216.19
279.81	210.19
280.042	203.19
280.273	205.19
280.505	191.19
280.736	195.19
280.968	201.19
281.199	198.19
281.431	205.19
281.662	199.19
281.894	224.19
282.125	208.19
282.356	210.19
282.588	246.19
282.819	257.19
283.051	208.19
283.282	204.19
283.513	197.19
283.745	207.19
283.976	216.19
284.207	223.19
284.439	219.19
284.67	211.19
284.901	212.19
285.132	209.19
285.364	199.19
285.595	209.19
285.826	206.19
286.057	207.19
286.288	192.19
286.52	228.19
286.751	202.19
286.982	215.19
287.213	210.19
287.444	211.19
287.675	221.19
287.906	246.19
288.138	229.19
288.369	233.19
288.6	222.19
288.831	227.19
289.062	225.19
289.293	219.19
289.524	226.19
289.755	226.19
289.986	207.19
290.217	202.19
290.448	206.19
290.679	219.19
290.91	221.19
291.141	217.19
291.371	205.19
291.602	205.19
291.833	207.19
292.064	203.19
292.295	221.19
292.526	220.19
292.757	220.19
292.987	225.19
293.218	201.19
293.449	221.19
293.68	219.19
293.91	204.19
294.141	212.19
294.372	210.19
294.603	224.19
294.833	215.19
295.064	219.19
295.295	206.19
295.525	212.19
295.756	221.19
295.987	224.19
296.217	248.19
296.448	237.19
296.679	234.19
296.909	210.19
297.14	225.19
297.37	201.19
297.601	211.19
297.831	235.19
298.062	221.19
298.292	239.19
298.523	228.19
298.753	231.19
298.984	232.19
299.214	229.19
299.445	226.19
299.675	218.19
299.905	239.19
300.136	223.19
300.366	235.19
300.597	222.19
300.827	238.19
301.057	253.19
301.288	227.19
301.518	243.19
301.748	241.19
301.979	223.19
302.209	220.19
302.439	237.19
302.669	232.19
302.9	250.19
303.13	232.19
303.36	242.19
303.59	262.19
303.82	250.19
304.051	235.19
304.281	255.19
304.511	222.19
304.741	247.19
304.971	253.19
305.201	247.19
305.431	242.19
305.661	216.19
305.891	246.19
306.121	248.19
306.352	247.19
306.582	242.19
306.812	240.19
307.042	256.19
307.272	255.19
307.502	258.19
307.731	257.19
307.961	238.19
308.191	241.19
308.421	229.19
308.651	263.19
308.881	258.19
309.111	263.19
309.341	238.19
309.571	243.19
309.8	272.19
310.03	256.19
310.26	279.19
310.49	275.19
310.72	286.19
310.949	289.19
311.179	289.19
311.409	279.19
311.639	270.19
311.868	278.19
312.098	283.19
312.328	293.19
312.557	297.19
312.787	287.19
313.017	298.19
313.246	300.19
313.476	311.19
313.706	296.19
313.935	302.19
314.165	298.19
314.394	294.19
314.624	302.19
314.853	301.19
315.083	288.19
315.312	292.19
315.542	277.19
315.771	274.19
316.001	276.19
316.23	264.19
316.46	267.19
316.689	287.19
316.919	300.19
317.148	294.19
317.377	291.19
317.607	303.19
317.836	278.19
318.065	291.19
318.295	269.19
318.524	279.19
318.753	274.19
318.983	267.19
319.212	301.19
319.441	320.19
319.67	295.19
319.9	269.19
320.129	299.19
320.358	295.19
320.587	291.19
320.816	299.19
321.046	284.19
321.275	306.19
321.504	295.19
321.733	301.19
321.962	311.19
322.191	332.19
322.42	344.19
322.649	352.19
322.878	347.19
323.108	358.19
323.337	376.19
323.566	393.19
323.795	431.19
324.024	454.19
324.253	556.19
324.482	805.19
324.71	1258.19
324.939	1738.19
325.168	1490.19
325.397	779.19
325.626	529.19
325.855	445.19
326.084	412.19
326.313	392.19
326.542	388.19
326.77	471.19
326.999	557.19
327.228	738.19
327.457	1108.19
327.686	1291.19
327.914	851.19
328.143	556.19
328.372	522.19
328.6	462.19
328.829	442.19
329.058	463.19
329.287	476.19
329.515	435.19
329.744	392.19
329.972	404.19
330.201	422.19
330.43	442.19
330.658	451.19
330.887	468.19
331.115	455.19
331.344	392.19
331.572	383.19
331.801	379.19
332.03	365.19
332.258	354.19
332.486	327.19
332.715	335.19
332.943	346.19
333.172	349.19
333.4	342.19
333.629	358.19
333.857	349.19
334.085	371.19
334.314	385.19
334.542	398.19
334.771	424.19
334.999	378.19
335.227	373.19
335.455	352.19
335.684	341.19
335.912	332.19
336.14	335.19
336.369	344.19
336.597	352.19
336.825	330.19
337.053	326.19
337.281	313.19
337.51	337.19
337.738	318.19
337.966	324.19
338.194	341.19
338.422	346.19
338.65	330.19
338.878	319.19
339.106	302.19
339.334	321.19
339.562	311.19
339.79	321.19
340.018	310.19
340.246	326.19
340.474	320.19
340.702	352.19
340.93	324.19
341.158	317.19
341.386	332.19
341.614	317.19
341.842	338.19
342.07	322.19
342.298	317.19
342.526	325.19
342.754	313.19
342.981	316.19
343.209	295.19
343.437	305.19
343.665	319.19
343.893	314.19
344.12	335.19
344.348	310.19
344.576	328.19
344.804	325.19
345.031	331.19
345.259	339.19
345.487	341.19
345.714	328.19
345.942	326.19
346.17	319.19
346.397	329.19
346.625	313.19
346.853	315.19
347.08	313.19
347.308	318.19
347.535	317.19
347.763	326.19
347.99	329.19
348.218	321.19
348.445	314.19
348.673	320.19
348.9	323.19
349.128	317.19
349.355	313.19
349.583	296.19
349.81	305.19
350.037	324.19
350.265	309.19
350.492	315.19
350.72	309.19
350.947	311.19
351.174	311.19
351.402	318.19
351.629	309.19
351.856	356.19
352.083	327.19
352.311	338.19
352.538	338.19
352.765	344.19
352.992	331.19
353.22	323.19
353.447	311.19
353.674	304.19
353.901	308.19
354.128	298.19
354.355	284.19
354.583	310.19
354.81	306.19
355.037	290.19
355.264	291.19
355.491	284.19
355.718	298.19
355.945	296.19
356.172	283.19
356.399	298.19
356.626	283.19
356.853	302.19
357.08	271.19
357.307	297.19
357.534	302.19
357.761	299.19
357.988	310.19
358.215	301.19
358.441	280.19
358.668	297.19
358.895	298.19
359.122	307.19
359.349	320.19
359.576	323.19
359.802	329.19
360.029	368.19
360.256	355.19
360.483	325.19
360.709	325.19
360.936	329.19
361.163	332.19
361.39	313.19
361.616	324.19
361.843	325.19
362.07	326.19
362.296	307.19
362.523	335.19
362.749	315.19
362.976	313.19
363.203	309.19
363.429	302.19
363.656	326.19
363.882	312.19
364.109	310.19
364.335	298.19
364.562	301.19
364.788	312.19
365.015	302.19
365.241	290.19
365.468	295.19
365.694	306.19
365.92	298.19
366.147	295.19
366.373	298.19
366.599	298.19
366.826	301.19
367.052	303.19
367.278	302.19
367.505	311.19
367.731	296.19
367.957	311.19
368.184	303.19
368.41	307.19
368.636	297.19
368.862	323.19
369.089	311.19
369.315	307.19
369.541	304.19
369.767	293.19
369.993	303.19
370.219	322.19
370.445	307.19
370.672	287.19
370.898	280.19
371.124	289.19
371.35	299.19
371.576	305.19
371.802	286.19
372.028	304.19
372.254	285.19
372.48	297.19
372.706	302.19
372.932	312.19
373.158	303.19
373.384	297.19
373.61	319.19
373.835	295.19
374.061	293.19
374.287	333.19
374.513	319.19
374.739	320.19
374.965	313.19
375.191	309.19
375.416	311.19
375.642	310.19
375.868	317.19
376.094	303.19
376.319	313.19
376.545	292.19
376.771	283.19
376.997	301.19
377.222	284.19
377.448	297.19
377.674	305.19
377.899	296.19
378.125	294.19
378.35	292.19
378.576	287.19
378.802	308.19
379.027	311.19
379.253	282.19
379.478	309.19
379.704	277.19
379.929	308.19
380.155	306.19
380.38	297.19
380.606	293.19
380.831	295.19
381.057	297.19
381.282	310.19
381.507	306.19
381.733	307.19
381.958	308.19
382.184	295.19
382.409	312.19
382.634	296.19
382.86	314.19
383.085	323.19
383.31	302.19
383.535	310.19
383.761	315.19
383.986	315.19
384.211	311.19
384.436	303.19
384.662	323.19
384.887	298.19
385.112	315.19
385.337	325.19
385.562	320.19
385.787	316.19
386.013	329.19
386.238	321.19
386.463	337.19
386.688	323.19
386.913	321.19
387.138	323.19
387.363	303.19
387.588	328.19
387.813	341.19
388.038	327.19
388.263	330.19
388.488	320.19
388.713	328.19
388.938	313.19
389.163	327.19
389.387	321.19
389.612	325.19
389.837	301.19
390.062	345.19
390.287	332.19
390.512	329.19
390.736	319.19
390.961	336.19
391.186	317.19
391.411	322.19
391.636	321.19
391.86	331.19
392.085	320.19
392.31	341.19
392.534	327.19
392.759	323.19
392.984	312.19
393.208	322.19
393.433	319.19
393.658	331.19
393.882	322.19
394.107	341.19
394.331	321.19
394.556	333.19
394.78	311.19
395.005	321.19
395.229	327.19
395.454	325.19
395.678	326.19
395.903	361.19
396.127	360.19
396.352	350.19
396.576	345.19
396.801	315.19
397.025	343.19
397.249	344.19
397.474	350.19
397.698	333.19
397.922	347.19
398.147	371.19
398.371	356.19
398.595	359.19
398.82	353.19
399.044	374.19
399.268	371.19
399.492	381.19
399.717	393.19
399.941	396.19
400.165	419.19
400.389	440.19
400.613	423.19
400.837	380.19
401.062	381.19
401.286	381.19
401.51	391.19
401.734	364.19
401.958	371.19
402.182	395.19
402.406	394.19
402.63	381.19
402.854	375.19
403.078	390.19
403.302	395.19
403.526	388.19
403.75	397.19
403.974	378.19
404.198	391.19
404.422	402.19
404.645	380.19
404.869	393.19
405.093	410.19
405.317	449.19
405.541	462.19
405.765	422.19
405.988	408.19
406.212	410.19
406.436	432.19
406.66	439.19
406.883	425.19
407.107	442.19
407.331	457.19
407.555	482.19
407.778	493.19
408.002	468.19
408.226	427.19
408.449	429.19
408.673	417.19
408.896	458.19
409.12	486.19
409.344	452.19
409.567	400.19
409.791	385.19
410.014	393.19
410.238	403.19
410.461	373.19
410.685	377.19
410.908	415.19
411.132	431.19
411.355	457.19
411.578	430.19
411.802	396.19
412.025	399.19
412.249	386.19
412.472	395.19
412.695	425.19
412.919	426.19
413.142	401.19
413.365	385.19
413.589	383.19
413.812	384.19
414.035	362.19
414.258	357.19
414.482	371.19
414.705	365.19
414.928	362.19
415.151	354.19
415.374	350.19
415.597	371.19
415.821	341.19
416.044	379.19
416.267	357.19
416.49	371.19
416.713	373.19
416.936	366.19
417.159	375.19
417.382	384.19
417.605	372.19
417.828	378.19
418.051	372.19
418.274	372.19
418.497	364.19
418.72	373.19
418.943	367.19
419.166	359.19
419.389	381.19
419.611	382.19
419.834	406.19
420.057	379.19
420.28	377.19
420.503	378.19
420.726	376.19
420.948	391.19
421.171	431.19
421.394	428.19
421.617	394.19
421.839	386.19
422.062	384.19
422.285	403.19
422.507	438.19
422.73	496.19
422.953	463.19
423.175	424.19
423.398	369.19
423.621	394.19
423.843	418.19
424.066	406.19
424.288	375.19
424.511	419.19
424.733	465.19
424.956	515.19
425.178	485.19
425.401	511.19
425.623	520.19
425.846	451.19
426.068	429.19
426.291	404.19
426.513	419.19
426.735	421.19
426.958	451.19
427.18	521.19
427.402	610.19
427.625	663.19
427.847	593.19
428.069	535.19
428.292	449.19
428.514	409.19
428.736	398.19
428.958	401.19
429.181	400.19
429.403	389.19
429.625	389.19
429.847	421.19
430.069	451.19
430.292	474.19
430.514	407.19
430.736	408.19
430.958	394.19
431.18	375.19
431.402	389.19
431.624	367.19
431.846	355.19
432.068	349.19
432.29	371.19
432.512	394.19
432.734	373.19
432.956	377.19
433.178	364.19
433.4	376.19
433.622	366.19
433.844	360.19
434.066	360.19
434.287	383.19
434.509	354.19
434.731	383.19
434.953	375.19
435.175	387.19
435.397	404.19
435.618	425.19
435.84	466.19
436.062	505.19
436.284	577.19
436.505	498.19
436.727	429.19
436.949	398.19
437.17	394.19
437.392	400.19
437.614	407.19
437.835	414.19
438.057	528.19
438.278	569.19
438.5	572.19
438.721	617.19
438.943	581.19
439.165	470.19
439.386	445.19
439.608	424.19
439.829	432.19
440.05	461.19
440.272	511.19
440.493	452.19
440.715	409.19
440.936	396.19
441.158	396.19
441.379	405.19
441.6	411.19
441.822	428.19
442.043	457.19
442.264	518.19
442.486	533.19
442.707	468.19
442.928	442.19
443.149	431.19
443.371	444.19
443.592	472.19
443.813	536.19
444.034	609.19
444.255	477.19
444.476	440.19
444.698	415.19
444.919	419.19
445.14	551.19
445.361	498.19
445.582	468.19
445.803	513.19
446.024	569.19
446.245	562.19
446.466	508.19
446.687	448.19
446.908	436.19
447.129	408.19
447.35	395.19
447.571	400.19
447.792	384.19
448.013	379.19
448.234	414.19
448.455	435.19
448.675	522.19
448.896	603.19
449.117	509.19
449.338	518.19
449.559	569.19
449.779	640.19
450	546.19
450.221	440.19
450.442	393.19
450.662	371.19
450.883	400.19
451.104	411.19
451.324	399.19
451.545	392.19
451.766	377.19
451.986	373.19
452.207	359.19
452.428	346.19
452.648	358.19
452.869	355.19
453.089	357.19
453.31	367.19
453.53	363.19
453.751	349.19
453.971	338.19
454.192	376.19
454.412	359.19
454.633	367.19
454.853	383.19
455.073	352.19
455.294	379.19
455.514	412.19
455.734	429.19
455.955	353.19
456.175	340.19
456.395	350.19
456.616	325.19
456.836	323.19
457.056	325.19
457.276	322.19
457.497	330.19
457.717	342.19
457.937	341.19
458.157	343.19
458.377	358.19
458.598	361.19
458.818	417.19
459.038	475.19
459.258	468.19
459.478	419.19
459.698	387.19
459.918	371.19
460.138	381.19
460.358	376.19
460.578	374.19
460.798	376.19
461.018	368.19
461.238	362.19
461.458	370.19
461.678	378.19
461.898	383.19
462.118	364.19
462.338	383.19
462.558	381.19
462.777	381.19
462.997	375.19
463.217	387.19
463.437	386.19
463.657	407.19
463.876	375.19
464.096	387.19
464.316	405.19
464.536	408.19
464.755	388.19
464.975	376.19
465.195	432.19
465.414	501.19
465.634	445.19
465.854	413.19
466.073	382.19
466.293	365.19
466.512	379.19
466.732	382.19
466.951	376.19
467.171	376.19
467.391	362.19
467.61	379.19
467.829	383.19
468.049	377.19
468.268	390.19
468.488	376.19
468.707	346.19
468.927	343.19
469.146	332.19
469.365	347.19
469.585	352.19
469.804	366.19
470.023	347.19
470.243	365.19
470.462	375.19
470.681	382.19
470.901	395.19
471.12	360.19
471.339	368.19
471.558	373.19
471.777	365.19
471.997	362.19
472.216	384.19
472.435	419.19
472.654	393.19
472.873	360.19
473.092	367.19
473.311	355.19
473.53	372.19
473.749	386.19
473.968	391.19
474.187	488.19
474.406	490.19
474.625	406.19
474.844	385.19
475.063	361.19
475.282	371.19
475.501	385.19
475.72	383.19
475.939	381.19
476.158	381.19
476.377	367.19
476.596	366.19
476.814	382.19
477.033	387.19
477.252	374.19
477.471	386.19
477.69	394.19
477.908	403.19
478.127	387.19
478.346	389.19
478.564	377.19
478.783	393.19
479.002	406.19
479.22	425.19
479.439	448.19
479.658	447.19
479.876	458.19
480.095	446.19
480.313	466.19
480.532	461.19
480.751	439.19
480.969	443.19
481.188	534.19
481.406	544.19
481.624	471.19
481.843	472.19
482.061	431.19
482.28	426.19
482.498	417.19
482.717	454.19
482.935	425.19
483.153	427.19
483.372	427.19
483.59	442.19
483.808	453.19
484.027	426.19
484.245	442.19
484.463	440.19
484.681	456.19
484.9	448.19
485.118	419.19
485.336	419.19
485.554	436.19
485.772	453.19
485.99	436.19
486.209	455.19
486.427	460.19
486.645	463.19
486.863	466.19
487.081	464.19
487.299	465.19
487.517	472.19
487.735	449.19
487.953	473.19
488.171	470.19
488.389	469.19
488.607	460.19
488.825	467.19
489.043	487.19
489.261	469.19
489.479	472.19
489.696	473.19
489.914	469.19
490.132	478.19
490.35	486.19
490.568	490.19
490.786	489.19
491.003	484.19
491.221	497.19
491.439	515.19
491.657	517.19
491.874	498.19
492.092	519.19
492.31	533.19
492.527	526.19
492.745	526.19
492.963	519.19
493.18	515.19
493.398	537.19
493.615	524.19
493.833	543.19
494.05	527.19
494.268	532.19
494.485	510.19
494.703	542.19
494.92	525.19
495.138	542.19
495.355	537.19
495.573	552.19
495.79	547.19
496.008	545.19
496.225	547.19
496.442	550.19
496.66	542.19
496.877	553.19
497.094	571.19
497.312	540.19
497.529	554.19
497.746	566.19
497.963	561.19
498.181	595.19
498.398	590.19
498.615	597.19
498.832	613.19
499.049	603.19
499.267	625.19
499.484	627.19
499.701	627.19
499.918	640.19
500.135	673.19
500.352	684.19
500.569	686.19
500.786	689.19
501.003	680.19
501.22	694.19
501.437	674.19
501.654	670.19
501.871	659.19
502.088	651.19
