Data from 1961.PennyLincolnUp.Lamp.En5.5.200Scan.071719.P1._HRD10591_13-49-20-058.txt Node
Date: Thu Jul 18 13:49:20 EDT 2019
User: cochatt
Spectrometer: HR+D1059
Trigger mode: 1
Integration Time (sec): 1.000000E-1
Scans to average: 1
Electric dark correction enabled: true
Nonlinearity correction enabled: false
Boxcar width: 0
XAxis mode: Wavelengths
Number of Pixels in Spectrum: 2048
>>>>>Begin Spectral Data<<<<<
223.165	-26.88
223.4	-26.88
223.635	-26.88
223.869	-25.88
224.104	-12.88
224.338	-3.88
224.573	-8.88
224.808	-5.88
225.042	-9.88
225.277	-8.88
225.511	1.12
225.746	1.12
225.98	5.12
226.215	11.12
226.449	21.12
226.683	18.12
226.918	16.12
227.152	29.12
227.387	54.12
227.621	41.12
227.856	41.12
228.09	43.12
228.324	44.12
228.559	66.12
228.793	77.12
229.027	97.12
229.262	109.12
229.496	110.12
229.73	108.12
229.964	152.12
230.199	131.12
230.433	114.12
230.667	119.12
230.901	105.12
231.136	118.12
231.37	116.12
231.604	110.12
231.838	102.12
232.072	115.12
232.306	113.12
232.541	113.12
232.775	122.12
233.009	97.12
233.243	137.12
233.477	109.12
233.711	113.12
233.945	115.12
234.179	110.12
234.413	125.12
234.647	109.12
234.881	113.12
235.115	112.12
235.349	99.12
235.583	109.12
235.817	117.12
236.051	113.12
236.285	103.12
236.519	117.12
236.753	125.12
236.987	138.12
237.221	172.12
237.455	212.12
237.689	188.12
237.922	136.12
238.156	128.12
238.39	122.12
238.624	133.12
238.858	121.12
239.091	121.12
239.325	119.12
239.559	115.12
239.793	113.12
240.027	126.12
240.26	142.12
240.494	151.12
240.728	147.12
240.961	135.12
241.195	129.12
241.429	120.12
241.662	132.12
241.896	127.12
242.13	127.12
242.363	120.12
242.597	123.12
242.83	134.12
243.064	126.12
243.298	136.12
243.531	128.12
243.765	113.12
243.998	121.12
244.232	124.12
244.465	135.12
244.699	130.12
244.932	140.12
245.166	127.12
245.399	125.12
245.633	137.12
245.866	121.12
246.099	124.12
246.333	121.12
246.566	125.12
246.8	126.12
247.033	153.12
247.266	149.12
247.5	125.12
247.733	141.12
247.966	158.12
248.2	156.12
248.433	165.12
248.666	163.12
248.899	164.12
249.133	174.12
249.366	184.12
249.599	170.12
249.832	158.12
250.066	154.12
250.299	149.12
250.532	175.12
250.765	182.12
250.998	165.12
251.231	200.12
251.465	218.12
251.698	193.12
251.931	189.12
252.164	174.12
252.397	166.12
252.63	184.12
252.863	183.12
253.096	195.12
253.329	181.12
253.562	201.12
253.795	197.12
254.028	182.12
254.261	204.12
254.494	204.12
254.727	217.12
254.96	243.12
255.193	243.12
255.426	233.12
255.659	225.12
255.892	198.12
256.124	198.12
256.357	233.12
256.59	215.12
256.823	218.12
257.056	170.12
257.289	187.12
257.521	178.12
257.754	184.12
257.987	182.12
258.22	174.12
258.452	180.12
258.685	183.12
258.918	188.12
259.151	184.12
259.383	213.12
259.616	205.12
259.849	203.12
260.081	198.12
260.314	227.12
260.547	230.12
260.779	217.12
261.012	213.12
261.244	215.12
261.477	204.12
261.71	205.12
261.942	194.12
262.175	200.12
262.407	206.12
262.64	190.12
262.872	188.12
263.105	200.12
263.337	196.12
263.57	194.12
263.802	204.12
264.035	188.12
264.267	192.12
264.499	170.12
264.732	201.12
264.964	196.12
265.197	205.12
265.429	189.12
265.661	185.12
265.894	190.12
266.126	182.12
266.358	198.12
266.591	183.12
266.823	194.12
267.055	187.12
267.287	198.12
267.52	197.12
267.752	221.12
267.984	207.12
268.216	202.12
268.448	196.12
268.681	204.12
268.913	212.12
269.145	232.12
269.377	230.12
269.609	221.12
269.841	230.12
270.073	231.12
270.306	263.12
270.538	273.12
270.77	267.12
271.002	259.12
271.234	261.12
271.466	264.12
271.698	264.12
271.93	276.12
272.162	276.12
272.394	260.12
272.626	278.12
272.858	259.12
273.09	243.12
273.322	239.12
273.553	220.12
273.785	233.12
274.017	215.12
274.249	237.12
274.481	237.12
274.713	229.12
274.945	222.12
275.176	233.12
275.408	229.12
275.64	234.12
275.872	215.12
276.104	221.12
276.335	247.12
276.567	234.12
276.799	242.12
277.031	281.12
277.262	265.12
277.494	270.12
277.726	245.12
277.957	245.12
278.189	237.12
278.421	221.12
278.652	225.12
278.884	243.12
279.115	227.12
279.347	213.12
279.579	234.12
279.81	227.12
280.042	222.12
280.273	218.12
280.505	235.12
280.736	235.12
280.968	229.12
281.199	244.12
281.431	241.12
281.662	235.12
281.894	248.12
282.125	251.12
282.356	276.12
282.588	267.12
282.819	252.12
283.051	241.12
283.282	215.12
283.513	228.12
283.745	230.12
283.976	236.12
284.207	233.12
284.439	245.12
284.67	232.12
284.901	213.12
285.132	236.12
285.364	225.12
285.595	218.12
285.826	243.12
286.057	247.12
286.288	237.12
286.52	225.12
286.751	222.12
286.982	230.12
287.213	221.12
287.444	264.12
287.675	238.12
287.906	247.12
288.138	246.12
288.369	242.12
288.6	245.12
288.831	247.12
289.062	256.12
289.293	260.12
289.524	238.12
289.755	224.12
289.986	236.12
290.217	245.12
290.448	246.12
290.679	220.12
290.91	235.12
291.141	239.12
291.371	220.12
291.602	244.12
291.833	234.12
292.064	234.12
292.295	240.12
292.526	247.12
292.757	241.12
292.987	248.12
293.218	237.12
293.449	222.12
293.68	265.12
293.91	240.12
294.141	239.12
294.372	242.12
294.603	222.12
294.833	243.12
295.064	223.12
295.295	230.12
295.525	257.12
295.756	251.12
295.987	243.12
296.217	278.12
296.448	282.12
296.679	243.12
296.909	239.12
297.14	261.12
297.37	266.12
297.601	263.12
297.831	257.12
298.062	255.12
298.292	247.12
298.523	249.12
298.753	268.12
298.984	249.12
299.214	249.12
299.445	275.12
299.675	276.12
299.905	268.12
300.136	256.12
300.366	283.12
300.597	273.12
300.827	277.12
301.057	272.12
301.288	290.12
301.518	287.12
301.748	282.12
301.979	272.12
302.209	273.12
302.439	266.12
302.669	274.12
302.9	274.12
303.13	279.12
303.36	276.12
303.59	269.12
303.82	299.12
304.051	278.12
304.281	278.12
304.511	282.12
304.741	261.12
304.971	280.12
305.201	283.12
305.431	280.12
305.661	272.12
305.891	281.12
306.121	285.12
306.352	281.12
306.582	280.12
306.812	260.12
307.042	263.12
307.272	278.12
307.502	294.12
307.731	291.12
307.961	295.12
308.191	277.12
308.421	281.12
308.651	274.12
308.881	275.12
309.111	289.12
309.341	300.12
309.571	316.12
309.8	306.12
310.03	333.12
310.26	329.12
310.49	330.12
310.72	353.12
310.949	359.12
311.179	362.12
311.409	319.12
311.639	330.12
311.868	341.12
312.098	332.12
312.328	338.12
312.557	357.12
312.787	379.12
313.017	357.12
313.246	353.12
313.476	334.12
313.706	326.12
313.935	343.12
314.165	349.12
314.394	354.12
314.624	356.12
314.853	329.12
315.083	310.12
315.312	313.12
315.542	314.12
315.771	300.12
316.001	325.12
316.23	324.12
316.46	323.12
316.689	336.12
316.919	313.12
317.148	323.12
317.377	332.12
317.607	369.12
317.836	334.12
318.065	331.12
318.295	314.12
318.524	325.12
318.753	334.12
318.983	327.12
319.212	318.12
319.441	339.12
319.67	345.12
319.9	346.12
320.129	344.12
320.358	345.12
320.587	350.12
320.816	342.12
321.046	333.12
321.275	325.12
321.504	350.12
321.733	350.12
321.962	361.12
322.191	367.12
322.42	405.12
322.649	408.12
322.878	427.12
323.108	426.12
323.337	449.12
323.566	485.12
323.795	487.12
324.024	585.12
324.253	710.12
324.482	1074.12
324.71	1706.12
324.939	2341.12
325.168	1944.12
325.397	1003.12
325.626	676.12
325.855	553.12
326.084	485.12
326.313	487.12
326.542	498.12
326.77	535.12
326.999	659.12
327.228	956.12
327.457	1449.12
327.686	1669.12
327.914	1130.12
328.143	744.12
328.372	635.12
328.6	582.12
328.829	545.12
329.058	556.12
329.287	581.12
329.515	534.12
329.744	487.12
329.972	481.12
330.201	523.12
330.43	559.12
330.658	581.12
330.887	590.12
331.115	588.12
331.344	477.12
331.572	464.12
331.801	459.12
332.03	458.12
332.258	412.12
332.486	409.12
332.715	385.12
332.943	397.12
333.172	381.12
333.4	398.12
333.629	397.12
333.857	418.12
334.085	440.12
334.314	429.12
334.542	490.12
334.771	505.12
334.999	456.12
335.227	418.12
335.455	389.12
335.684	379.12
335.912	382.12
336.14	381.12
336.369	377.12
336.597	390.12
336.825	388.12
337.053	379.12
337.281	373.12
337.51	376.12
337.738	393.12
337.966	374.12
338.194	379.12
338.422	382.12
338.65	375.12
338.878	376.12
339.106	347.12
339.334	371.12
339.562	387.12
339.79	362.12
340.018	359.12
340.246	372.12
340.474	389.12
340.702	376.12
340.93	378.12
341.158	356.12
341.386	347.12
341.614	343.12
341.842	372.12
342.07	349.12
342.298	343.12
342.526	350.12
342.754	348.12
342.981	351.12
343.209	343.12
343.437	359.12
343.665	351.12
343.893	370.12
344.12	364.12
344.348	378.12
344.576	348.12
344.804	377.12
345.031	391.12
345.259	405.12
345.487	362.12
345.714	377.12
345.942	367.12
346.17	375.12
346.397	347.12
346.625	383.12
346.853	344.12
347.08	355.12
347.308	376.12
347.535	375.12
347.763	359.12
347.99	365.12
348.218	391.12
348.445	383.12
348.673	343.12
348.9	349.12
349.128	370.12
349.355	354.12
349.583	360.12
349.81	348.12
350.037	349.12
350.265	357.12
350.492	330.12
350.72	332.12
350.947	376.12
351.174	385.12
351.402	395.12
351.629	356.12
351.856	359.12
352.083	377.12
352.311	376.12
352.538	377.12
352.765	383.12
352.992	362.12
353.22	374.12
353.447	351.12
353.674	351.12
353.901	325.12
354.128	323.12
354.355	340.12
354.583	337.12
354.81	338.12
355.037	322.12
355.264	311.12
355.491	333.12
355.718	312.12
355.945	327.12
356.172	325.12
356.399	327.12
356.626	317.12
356.853	309.12
357.08	323.12
357.307	334.12
357.534	325.12
357.761	315.12
357.988	332.12
358.215	305.12
358.441	330.12
358.668	331.12
358.895	349.12
359.122	359.12
359.349	359.12
359.576	360.12
359.802	375.12
360.029	421.12
360.256	430.12
360.483	398.12
360.709	392.12
360.936	384.12
361.163	366.12
361.39	363.12
361.616	359.12
361.843	367.12
362.07	372.12
362.296	383.12
362.523	388.12
362.749	386.12
362.976	361.12
363.203	363.12
363.429	326.12
363.656	329.12
363.882	342.12
364.109	365.12
364.335	341.12
364.562	322.12
364.788	346.12
365.015	332.12
365.241	365.12
365.468	342.12
365.694	351.12
365.92	346.12
366.147	334.12
366.373	333.12
366.599	328.12
366.826	333.12
367.052	331.12
367.278	320.12
367.505	327.12
367.731	335.12
367.957	335.12
368.184	339.12
368.41	347.12
368.636	340.12
368.862	366.12
369.089	340.12
369.315	352.12
369.541	345.12
369.767	354.12
369.993	334.12
370.219	346.12
370.445	326.12
370.672	338.12
370.898	320.12
371.124	346.12
371.35	330.12
371.576	327.12
371.802	321.12
372.028	333.12
372.254	326.12
372.48	326.12
372.706	354.12
372.932	329.12
373.158	315.12
373.384	319.12
373.61	317.12
373.835	335.12
374.061	323.12
374.287	365.12
374.513	342.12
374.739	342.12
374.965	325.12
375.191	312.12
375.416	330.12
375.642	326.12
375.868	345.12
376.094	318.12
376.319	336.12
376.545	339.12
376.771	343.12
376.997	325.12
377.222	331.12
377.448	317.12
377.674	332.12
377.899	325.12
378.125	326.12
378.35	332.12
378.576	322.12
378.802	321.12
379.027	326.12
379.253	333.12
379.478	325.12
379.704	314.12
379.929	317.12
380.155	330.12
380.38	341.12
380.606	336.12
380.831	339.12
381.057	337.12
381.282	328.12
381.507	323.12
381.733	336.12
381.958	328.12
382.184	335.12
382.409	320.12
382.634	347.12
382.86	341.12
383.085	344.12
383.31	329.12
383.535	333.12
383.761	338.12
383.986	345.12
384.211	353.12
384.436	347.12
384.662	330.12
384.887	353.12
385.112	341.12
385.337	338.12
385.562	348.12
385.787	341.12
386.013	370.12
386.238	379.12
386.463	340.12
386.688	350.12
386.913	357.12
387.138	344.12
387.363	358.12
387.588	347.12
387.813	364.12
388.038	354.12
388.263	344.12
388.488	355.12
388.713	363.12
388.938	359.12
389.163	358.12
389.387	351.12
389.612	369.12
389.837	371.12
390.062	343.12
390.287	349.12
390.512	359.12
390.736	333.12
390.961	341.12
391.186	347.12
391.411	344.12
391.636	336.12
391.86	374.12
392.085	345.12
392.31	368.12
392.534	362.12
392.759	362.12
392.984	347.12
393.208	376.12
393.433	356.12
393.658	364.12
393.882	369.12
394.107	355.12
394.331	355.12
394.556	365.12
394.78	362.12
395.005	362.12
395.229	359.12
395.454	354.12
395.678	371.12
395.903	395.12
396.127	385.12
396.352	389.12
396.576	386.12
396.801	382.12
397.025	369.12
397.249	378.12
397.474	374.12
397.698	384.12
397.922	384.12
398.147	397.12
398.371	411.12
398.595	379.12
398.82	388.12
399.044	404.12
399.268	399.12
399.492	418.12
399.717	436.12
399.941	469.12
400.165	471.12
400.389	486.12
400.613	451.12
400.837	425.12
401.062	420.12
401.286	414.12
401.51	420.12
401.734	421.12
401.958	395.12
402.182	411.12
402.406	409.12
402.63	435.12
402.854	437.12
403.078	405.12
403.302	409.12
403.526	440.12
403.75	407.12
403.974	415.12
404.198	416.12
404.422	420.12
404.645	429.12
404.869	430.12
405.093	473.12
405.317	497.12
405.541	515.12
405.765	462.12
405.988	449.12
406.212	466.12
406.436	486.12
406.66	495.12
406.883	455.12
407.107	477.12
407.331	536.12
407.555	565.12
407.778	558.12
408.002	520.12
408.226	469.12
408.449	473.12
408.673	472.12
408.896	481.12
409.12	533.12
409.344	493.12
409.567	437.12
409.791	443.12
410.014	412.12
410.238	455.12
410.461	416.12
410.685	434.12
410.908	411.12
411.132	477.12
411.355	524.12
411.578	477.12
411.802	431.12
412.025	452.12
412.249	441.12
412.472	447.12
412.695	501.12
412.919	482.12
413.142	449.12
413.365	407.12
413.589	424.12
413.812	425.12
414.035	405.12
414.258	409.12
414.482	406.12
414.705	393.12
414.928	385.12
415.151	403.12
415.374	387.12
415.597	390.12
415.821	390.12
416.044	396.12
416.267	409.12
416.49	403.12
416.713	409.12
416.936	378.12
417.159	396.12
417.382	404.12
417.605	409.12
417.828	430.12
418.051	443.12
418.274	426.12
418.497	414.12
418.72	402.12
418.943	403.12
419.166	413.12
419.389	427.12
419.611	418.12
419.834	422.12
420.057	425.12
420.28	421.12
420.503	436.12
420.726	418.12
420.948	429.12
421.171	453.12
421.394	519.12
421.617	457.12
421.839	439.12
422.062	431.12
422.285	437.12
422.507	494.12
422.73	548.12
422.953	545.12
423.175	480.12
423.398	449.12
423.621	441.12
423.843	462.12
424.066	465.12
424.288	445.12
424.511	465.12
424.733	517.12
424.956	569.12
425.178	572.12
425.401	564.12
425.623	578.12
425.846	522.12
426.068	477.12
426.291	470.12
426.513	453.12
426.735	469.12
426.958	504.12
427.18	596.12
427.402	694.12
427.625	778.12
427.847	696.12
428.069	575.12
428.292	533.12
428.514	499.12
428.736	462.12
428.958	459.12
429.181	441.12
429.403	434.12
429.625	452.12
429.847	476.12
430.069	558.12
430.292	525.12
430.514	459.12
430.736	409.12
430.958	431.12
431.18	425.12
431.402	417.12
431.624	394.12
431.846	395.12
432.068	413.12
432.29	413.12
432.512	410.12
432.734	417.12
432.956	410.12
433.178	426.12
433.4	425.12
433.622	427.12
433.844	406.12
434.066	414.12
434.287	397.12
434.509	409.12
434.731	418.12
434.953	398.12
435.175	442.12
435.397	457.12
435.618	484.12
435.84	499.12
436.062	594.12
436.284	648.12
436.505	546.12
436.727	486.12
436.949	464.12
437.17	449.12
437.392	447.12
437.614	445.12
437.835	505.12
438.057	601.12
438.278	649.12
438.5	639.12
438.721	689.12
438.943	661.12
439.165	549.12
439.386	492.12
439.608	489.12
439.829	491.12
440.05	556.12
440.272	583.12
440.493	529.12
440.715	490.12
440.936	455.12
441.158	432.12
441.379	433.12
441.6	452.12
441.822	464.12
442.043	519.12
442.264	604.12
442.486	622.12
442.707	547.12
442.928	501.12
443.149	514.12
443.371	518.12
443.592	558.12
443.813	614.12
444.034	642.12
444.255	564.12
444.476	485.12
444.698	463.12
444.919	459.12
445.14	573.12
445.361	528.12
445.582	536.12
445.803	587.12
446.024	685.12
446.245	677.12
446.466	626.12
446.687	535.12
446.908	499.12
447.129	470.12
447.35	468.12
447.571	429.12
447.792	442.12
448.013	444.12
448.234	466.12
448.455	523.12
448.675	604.12
448.896	713.12
449.117	607.12
449.338	571.12
449.559	652.12
449.779	739.12
450	610.12
450.221	500.12
450.442	467.12
450.662	433.12
450.883	466.12
451.104	462.12
451.324	455.12
451.545	422.12
451.766	419.12
451.986	424.12
452.207	388.12
452.428	381.12
452.648	403.12
452.869	403.12
453.089	407.12
453.31	419.12
453.53	395.12
453.751	400.12
453.971	392.12
454.192	417.12
454.412	416.12
454.633	396.12
454.853	401.12
455.073	414.12
455.294	420.12
455.514	487.12
455.734	466.12
455.955	387.12
456.175	373.12
456.395	373.12
456.616	378.12
456.836	374.12
457.056	360.12
457.276	373.12
457.497	375.12
457.717	369.12
457.937	387.12
458.157	360.12
458.377	395.12
458.598	408.12
458.818	507.12
459.038	554.12
459.258	557.12
459.478	471.12
459.698	435.12
459.918	413.12
460.138	413.12
460.358	411.12
460.578	397.12
460.798	413.12
461.018	428.12
461.238	405.12
461.458	396.12
461.678	394.12
461.898	401.12
462.118	417.12
462.338	403.12
462.558	410.12
462.777	406.12
462.997	440.12
463.217	437.12
463.437	423.12
463.657	403.12
463.876	421.12
464.096	433.12
464.316	442.12
464.536	442.12
464.755	442.12
464.975	452.12
465.195	497.12
465.414	594.12
465.634	517.12
465.854	463.12
466.073	439.12
466.293	436.12
466.512	421.12
466.732	411.12
466.951	398.12
467.171	417.12
467.391	413.12
467.61	400.12
467.829	421.12
468.049	409.12
468.268	423.12
468.488	398.12
468.707	415.12
468.927	390.12
469.146	399.12
469.365	387.12
469.585	368.12
469.804	377.12
470.023	404.12
470.243	414.12
470.462	425.12
470.681	438.12
470.901	424.12
471.12	427.12
471.339	425.12
471.558	407.12
471.777	405.12
471.997	396.12
472.216	433.12
472.435	446.12
472.654	440.12
472.873	413.12
473.092	411.12
473.311	422.12
473.53	405.12
473.749	414.12
473.968	472.12
474.187	556.12
474.406	549.12
474.625	458.12
474.844	425.12
475.063	416.12
475.282	422.12
475.501	415.12
475.72	404.12
475.939	400.12
476.158	420.12
476.377	427.12
476.596	421.12
476.814	454.12
477.033	443.12
477.252	440.12
477.471	441.12
477.69	427.12
477.908	443.12
478.127	425.12
478.346	425.12
478.564	439.12
478.783	440.12
479.002	446.12
479.22	454.12
479.439	478.12
479.658	493.12
479.876	492.12
480.095	501.12
480.313	531.12
480.532	514.12
480.751	503.12
480.969	511.12
481.188	605.12
481.406	635.12
481.624	549.12
481.843	509.12
482.061	490.12
482.28	475.12
482.498	486.12
482.717	482.12
482.935	487.12
483.153	472.12
483.372	480.12
483.59	481.12
483.808	474.12
484.027	460.12
484.245	476.12
484.463	473.12
484.681	480.12
484.9	493.12
485.118	500.12
485.336	498.12
485.554	487.12
485.772	509.12
485.99	513.12
486.209	511.12
486.427	494.12
486.645	521.12
486.863	543.12
487.081	526.12
487.299	535.12
487.517	495.12
487.735	513.12
487.953	514.12
488.171	521.12
488.389	500.12
488.607	485.12
488.825	501.12
489.043	518.12
489.261	514.12
489.479	514.12
489.696	537.12
489.914	536.12
490.132	540.12
490.35	548.12
490.568	544.12
490.786	534.12
491.003	565.12
491.221	567.12
491.439	578.12
491.657	561.12
491.874	573.12
492.092	588.12
492.31	592.12
492.527	588.12
492.745	605.12
492.963	609.12
493.18	579.12
493.398	608.12
493.615	612.12
493.833	614.12
494.05	603.12
494.268	620.12
494.485	626.12
494.703	587.12
494.92	612.12
495.138	629.12
495.355	626.12
495.573	619.12
495.79	607.12
496.008	622.12
496.225	598.12
496.442	610.12
496.66	618.12
496.877	634.12
497.094	609.12
497.312	608.12
497.529	630.12
497.746	619.12
497.963	626.12
498.181	657.12
498.398	643.12
498.615	657.12
498.832	661.12
499.049	680.12
499.267	695.12
499.484	714.12
499.701	718.12
499.918	706.12
500.135	749.12
500.352	736.12
500.569	756.12
500.786	758.12
501.003	774.12
501.22	753.12
501.437	732.12
501.654	740.12
501.871	733.12
