Data from 1961.PennyLincolnUp.Lamp.En5.5.200Scan.071719.P1._HRD10591_13-46-32-056.txt Node
Date: Thu Jul 18 13:46:32 EDT 2019
User: cochatt
Spectrometer: HR+D1059
Trigger mode: 1
Integration Time (sec): 1.000000E-1
Scans to average: 1
Electric dark correction enabled: true
Nonlinearity correction enabled: false
Boxcar width: 0
XAxis mode: Wavelengths
Number of Pixels in Spectrum: 2048
>>>>>Begin Spectral Data<<<<<
223.165	-16.44
223.4	-16.44
223.635	-16.44
223.869	-18.44
224.104	-24.44
224.338	-20.44
224.573	-3.44
224.808	-15.44
225.042	4.56
225.277	-17.44
225.511	-5.44
225.746	7.56
225.98	3.56
226.215	14.56
226.449	6.56
226.683	12.56
226.918	31.56
227.152	40.56
227.387	49.56
227.621	14.56
227.856	39.56
228.09	39.56
228.324	46.56
228.559	56.56
228.793	50.56
229.027	88.56
229.262	86.56
229.496	91.56
229.73	100.56
229.964	113.56
230.199	96.56
230.433	94.56
230.667	82.56
230.901	102.56
231.136	100.56
231.37	106.56
231.604	110.56
231.838	104.56
232.072	95.56
232.306	100.56
232.541	92.56
232.775	88.56
233.009	98.56
233.243	109.56
233.477	89.56
233.711	94.56
233.945	102.56
234.179	106.56
234.413	99.56
234.647	92.56
234.881	92.56
235.115	93.56
235.349	102.56
235.583	104.56
235.817	117.56
236.051	111.56
236.285	108.56
236.519	101.56
236.753	94.56
236.987	97.56
237.221	131.56
237.455	150.56
237.689	145.56
237.922	118.56
238.156	126.56
238.39	101.56
238.624	117.56
238.858	100.56
239.091	103.56
239.325	105.56
239.559	114.56
239.793	108.56
240.027	103.56
240.26	120.56
240.494	144.56
240.728	112.56
240.961	114.56
241.195	118.56
241.429	99.56
241.662	98.56
241.896	104.56
242.13	115.56
242.363	101.56
242.597	107.56
242.83	110.56
243.064	102.56
243.298	112.56
243.531	109.56
243.765	108.56
243.998	101.56
244.232	124.56
244.465	110.56
244.699	124.56
244.932	119.56
245.166	114.56
245.399	126.56
245.633	112.56
245.866	121.56
246.099	128.56
246.333	128.56
246.566	114.56
246.8	119.56
247.033	102.56
247.266	120.56
247.5	116.56
247.733	137.56
247.966	148.56
248.2	118.56
248.433	121.56
248.666	136.56
248.899	153.56
249.133	137.56
249.366	146.56
249.599	149.56
249.832	136.56
250.066	137.56
250.299	143.56
250.532	128.56
250.765	137.56
250.998	160.56
251.231	162.56
251.465	165.56
251.698	148.56
251.931	159.56
252.164	158.56
252.397	162.56
252.63	142.56
252.863	147.56
253.096	145.56
253.329	174.56
253.562	165.56
253.795	157.56
254.028	160.56
254.261	158.56
254.494	158.56
254.727	177.56
254.96	189.56
255.193	178.56
255.426	185.56
255.659	159.56
255.892	174.56
256.124	170.56
256.357	171.56
256.59	167.56
256.823	144.56
257.056	168.56
257.289	163.56
257.521	164.56
257.754	140.56
257.987	152.56
258.22	160.56
258.452	154.56
258.685	160.56
258.918	169.56
259.151	158.56
259.383	163.56
259.616	167.56
259.849	166.56
260.081	181.56
260.314	175.56
260.547	168.56
260.779	189.56
261.012	169.56
261.244	158.56
261.477	176.56
261.71	167.56
261.942	160.56
262.175	162.56
262.407	175.56
262.64	158.56
262.872	161.56
263.105	160.56
263.337	164.56
263.57	169.56
263.802	149.56
264.035	144.56
264.267	153.56
264.499	156.56
264.732	159.56
264.964	157.56
265.197	151.56
265.429	146.56
265.661	158.56
265.894	150.56
266.126	156.56
266.358	161.56
266.591	172.56
266.823	169.56
267.055	152.56
267.287	156.56
267.52	159.56
267.752	150.56
267.984	174.56
268.216	160.56
268.448	172.56
268.681	165.56
268.913	182.56
269.145	170.56
269.377	188.56
269.609	176.56
269.841	192.56
270.073	186.56
270.306	183.56
270.538	180.56
270.77	198.56
271.002	212.56
271.234	208.56
271.466	218.56
271.698	222.56
271.93	212.56
272.162	205.56
272.394	212.56
272.626	205.56
272.858	208.56
273.09	191.56
273.322	202.56
273.553	166.56
273.785	180.56
274.017	189.56
274.249	188.56
274.481	187.56
274.713	189.56
274.945	181.56
275.176	189.56
275.408	200.56
275.64	182.56
275.872	170.56
276.104	187.56
276.335	170.56
276.567	209.56
276.799	198.56
277.031	202.56
277.262	224.56
277.494	212.56
277.726	208.56
277.957	189.56
278.189	199.56
278.421	183.56
278.652	191.56
278.884	180.56
279.115	200.56
279.347	190.56
279.579	209.56
279.81	202.56
280.042	196.56
280.273	180.56
280.505	168.56
280.736	213.56
280.968	164.56
281.199	182.56
281.431	179.56
281.662	187.56
281.894	196.56
282.125	194.56
282.356	192.56
282.588	200.56
282.819	209.56
283.051	193.56
283.282	181.56
283.513	192.56
283.745	184.56
283.976	205.56
284.207	186.56
284.439	192.56
284.67	178.56
284.901	203.56
285.132	185.56
285.364	199.56
285.595	192.56
285.826	181.56
286.057	202.56
286.288	189.56
286.52	199.56
286.751	188.56
286.982	209.56
287.213	194.56
287.444	195.56
287.675	194.56
287.906	196.56
288.138	218.56
288.369	209.56
288.6	207.56
288.831	215.56
289.062	194.56
289.293	195.56
289.524	190.56
289.755	212.56
289.986	186.56
290.217	210.56
290.448	211.56
290.679	199.56
290.91	191.56
291.141	207.56
291.371	194.56
291.602	194.56
291.833	183.56
292.064	205.56
292.295	214.56
292.526	202.56
292.757	204.56
292.987	213.56
293.218	201.56
293.449	204.56
293.68	209.56
293.91	212.56
294.141	186.56
294.372	201.56
294.603	208.56
294.833	194.56
295.064	186.56
295.295	207.56
295.525	202.56
295.756	212.56
295.987	216.56
296.217	229.56
296.448	218.56
296.679	228.56
296.909	201.56
297.14	207.56
297.37	231.56
297.601	211.56
297.831	213.56
298.062	216.56
298.292	211.56
298.523	203.56
298.753	202.56
298.984	213.56
299.214	218.56
299.445	207.56
299.675	212.56
299.905	206.56
300.136	216.56
300.366	218.56
300.597	213.56
300.827	226.56
301.057	213.56
301.288	231.56
301.518	216.56
301.748	228.56
301.979	224.56
302.209	213.56
302.439	234.56
302.669	226.56
302.9	228.56
303.13	221.56
303.36	212.56
303.59	224.56
303.82	217.56
304.051	224.56
304.281	210.56
304.511	226.56
304.741	232.56
304.971	225.56
305.201	229.56
305.431	228.56
305.661	210.56
305.891	208.56
306.121	233.56
306.352	238.56
306.582	240.56
306.812	228.56
307.042	232.56
307.272	214.56
307.502	242.56
307.731	223.56
307.961	222.56
308.191	229.56
308.421	225.56
308.651	238.56
308.881	224.56
309.111	252.56
309.341	240.56
309.571	234.56
309.8	243.56
310.03	263.56
310.26	257.56
310.49	238.56
310.72	276.56
310.949	256.56
311.179	270.56
311.409	275.56
311.639	275.56
311.868	253.56
312.098	244.56
312.328	248.56
312.557	262.56
312.787	278.56
313.017	270.56
313.246	270.56
313.476	276.56
313.706	264.56
313.935	265.56
314.165	259.56
314.394	261.56
314.624	266.56
314.853	261.56
315.083	261.56
315.312	254.56
315.542	237.56
315.771	245.56
316.001	258.56
316.23	250.56
316.46	263.56
316.689	264.56
316.919	254.56
317.148	269.56
317.377	260.56
317.607	259.56
317.836	266.56
318.065	278.56
318.295	246.56
318.524	255.56
318.753	257.56
318.983	250.56
319.212	257.56
319.441	261.56
319.67	277.56
319.9	254.56
320.129	272.56
320.358	268.56
320.587	256.56
320.816	269.56
321.046	277.56
321.275	274.56
321.504	266.56
321.733	257.56
321.962	274.56
322.191	307.56
322.42	305.56
322.649	300.56
322.878	328.56
323.108	304.56
323.337	319.56
323.566	318.56
323.795	368.56
324.024	408.56
324.253	483.56
324.482	692.56
324.71	998.56
324.939	1392.56
325.168	1189.56
325.397	644.56
325.626	442.56
325.855	380.56
326.084	368.56
326.313	350.56
326.542	346.56
326.77	380.56
326.999	461.56
327.228	616.56
327.457	889.56
327.686	1046.56
327.914	708.56
328.143	466.56
328.372	450.56
328.6	418.56
328.829	381.56
329.058	406.56
329.287	397.56
329.515	370.56
329.744	359.56
329.972	350.56
330.201	371.56
330.43	390.56
330.658	393.56
330.887	421.56
331.115	422.56
331.344	354.56
331.572	335.56
331.801	339.56
332.03	334.56
332.258	326.56
332.486	320.56
332.715	296.56
332.943	316.56
333.172	318.56
333.4	322.56
333.629	324.56
333.857	335.56
334.085	322.56
334.314	341.56
334.542	352.56
334.771	374.56
334.999	346.56
335.227	316.56
335.455	321.56
335.684	307.56
335.912	311.56
336.14	310.56
336.369	293.56
336.597	301.56
336.825	298.56
337.053	308.56
337.281	307.56
337.51	316.56
337.738	305.56
337.966	292.56
338.194	292.56
338.422	313.56
338.65	312.56
338.878	304.56
339.106	283.56
339.334	295.56
339.562	290.56
339.79	307.56
340.018	295.56
340.246	279.56
340.474	304.56
340.702	279.56
340.93	293.56
341.158	300.56
341.386	297.56
341.614	302.56
341.842	288.56
342.07	301.56
342.298	288.56
342.526	296.56
342.754	280.56
342.981	277.56
343.209	275.56
343.437	280.56
343.665	293.56
343.893	282.56
344.12	300.56
344.348	290.56
344.576	295.56
344.804	295.56
345.031	306.56
345.259	307.56
345.487	310.56
345.714	304.56
345.942	302.56
346.17	282.56
346.397	281.56
346.625	280.56
346.853	277.56
347.08	296.56
347.308	294.56
347.535	282.56
347.763	295.56
347.99	293.56
348.218	284.56
348.445	292.56
348.673	297.56
348.9	278.56
349.128	282.56
349.355	272.56
349.583	276.56
349.81	280.56
350.037	274.56
350.265	282.56
350.492	289.56
350.72	284.56
350.947	270.56
351.174	303.56
351.402	305.56
351.629	306.56
351.856	281.56
352.083	296.56
352.311	316.56
352.538	290.56
352.765	282.56
352.992	308.56
353.22	292.56
353.447	297.56
353.674	276.56
353.901	287.56
354.128	281.56
354.355	280.56
354.583	260.56
354.81	288.56
355.037	281.56
355.264	276.56
355.491	268.56
355.718	267.56
355.945	287.56
356.172	269.56
356.399	256.56
356.626	260.56
356.853	266.56
357.08	263.56
357.307	266.56
357.534	269.56
357.761	260.56
357.988	272.56
358.215	262.56
358.441	261.56
358.668	280.56
358.895	265.56
359.122	268.56
359.349	273.56
359.576	298.56
359.802	296.56
360.029	294.56
360.256	330.56
360.483	321.56
360.709	285.56
360.936	290.56
361.163	277.56
361.39	270.56
361.616	273.56
361.843	296.56
362.07	281.56
362.296	303.56
362.523	282.56
362.749	286.56
362.976	262.56
363.203	285.56
363.429	284.56
363.656	285.56
363.882	288.56
364.109	256.56
364.335	271.56
364.562	273.56
364.788	277.56
365.015	282.56
365.241	272.56
365.468	281.56
365.694	287.56
365.92	289.56
366.147	278.56
366.373	281.56
366.599	274.56
366.826	273.56
367.052	275.56
367.278	287.56
367.505	288.56
367.731	274.56
367.957	282.56
368.184	280.56
368.41	256.56
368.636	284.56
368.862	283.56
369.089	289.56
369.315	263.56
369.541	290.56
369.767	300.56
369.993	285.56
370.219	289.56
370.445	272.56
370.672	259.56
370.898	266.56
371.124	265.56
371.35	297.56
371.576	281.56
371.802	273.56
372.028	281.56
372.254	279.56
372.48	292.56
372.706	284.56
372.932	272.56
373.158	281.56
373.384	284.56
373.61	278.56
373.835	289.56
374.061	274.56
374.287	274.56
374.513	275.56
374.739	273.56
374.965	271.56
375.191	275.56
375.416	285.56
375.642	283.56
375.868	271.56
376.094	278.56
376.319	285.56
376.545	275.56
376.771	281.56
376.997	288.56
377.222	266.56
377.448	281.56
377.674	276.56
377.899	282.56
378.125	296.56
378.35	274.56
378.576	277.56
378.802	281.56
379.027	298.56
379.253	278.56
379.478	260.56
379.704	276.56
379.929	269.56
380.155	264.56
380.38	281.56
380.606	289.56
380.831	290.56
381.057	276.56
381.282	290.56
381.507	295.56
381.733	268.56
381.958	289.56
382.184	289.56
382.409	281.56
382.634	274.56
382.86	286.56
383.085	293.56
383.31	287.56
383.535	295.56
383.761	285.56
383.986	289.56
384.211	287.56
384.436	297.56
384.662	298.56
384.887	294.56
385.112	305.56
385.337	293.56
385.562	319.56
385.787	283.56
386.013	324.56
386.238	304.56
386.463	309.56
386.688	301.56
386.913	296.56
387.138	302.56
387.363	301.56
387.588	298.56
387.813	295.56
388.038	301.56
388.263	292.56
388.488	326.56
388.713	302.56
388.938	294.56
389.163	323.56
389.387	284.56
389.612	318.56
389.837	300.56
390.062	294.56
390.287	293.56
390.512	296.56
390.736	289.56
390.961	312.56
391.186	300.56
391.411	294.56
391.636	293.56
391.86	318.56
392.085	336.56
392.31	327.56
392.534	323.56
392.759	308.56
392.984	313.56
393.208	328.56
393.433	329.56
393.658	320.56
393.882	315.56
394.107	330.56
394.331	305.56
394.556	288.56
394.78	306.56
395.005	297.56
395.229	330.56
395.454	322.56
395.678	304.56
395.903	320.56
396.127	342.56
396.352	330.56
396.576	311.56
396.801	318.56
397.025	325.56
397.249	304.56
397.474	323.56
397.698	313.56
397.922	328.56
398.147	335.56
398.371	343.56
398.595	330.56
398.82	338.56
399.044	345.56
399.268	342.56
399.492	375.56
399.717	372.56
399.941	382.56
400.165	398.56
400.389	418.56
400.613	410.56
400.837	364.56
401.062	351.56
401.286	329.56
401.51	354.56
401.734	356.56
401.958	347.56
402.182	343.56
402.406	368.56
402.63	355.56
402.854	358.56
403.078	341.56
403.302	358.56
403.526	350.56
403.75	340.56
403.974	348.56
404.198	357.56
404.422	357.56
404.645	357.56
404.869	361.56
405.093	382.56
405.317	403.56
405.541	426.56
405.765	388.56
405.988	371.56
406.212	374.56
406.436	391.56
406.66	400.56
406.883	384.56
407.107	385.56
407.331	414.56
407.555	451.56
407.778	464.56
408.002	426.56
408.226	385.56
408.449	405.56
408.673	396.56
408.896	404.56
409.12	424.56
409.344	425.56
409.567	375.56
409.791	392.56
410.014	362.56
410.238	346.56
410.461	371.56
410.685	369.56
410.908	366.56
411.132	406.56
411.355	420.56
411.578	395.56
411.802	353.56
412.025	358.56
412.249	354.56
412.472	380.56
412.695	390.56
412.919	400.56
413.142	372.56
413.365	364.56
413.589	353.56
413.812	355.56
414.035	352.56
414.258	348.56
414.482	355.56
414.705	336.56
414.928	340.56
415.151	358.56
415.374	349.56
415.597	327.56
415.821	332.56
416.044	325.56
416.267	313.56
416.49	358.56
416.713	317.56
416.936	358.56
417.159	340.56
417.382	332.56
417.605	350.56
417.828	354.56
418.051	350.56
418.274	353.56
418.497	345.56
418.72	353.56
418.943	319.56
419.166	352.56
419.389	386.56
419.611	357.56
419.834	349.56
420.057	372.56
420.28	339.56
420.503	368.56
420.726	348.56
420.948	379.56
421.171	376.56
421.394	399.56
421.617	375.56
421.839	336.56
422.062	365.56
422.285	351.56
422.507	388.56
422.73	469.56
422.953	440.56
423.175	390.56
423.398	374.56
423.621	380.56
423.843	387.56
424.066	376.56
424.288	400.56
424.511	399.56
424.733	410.56
424.956	492.56
425.178	447.56
425.401	444.56
425.623	459.56
425.846	402.56
426.068	385.56
426.291	355.56
426.513	384.56
426.735	410.56
426.958	420.56
427.18	461.56
427.402	552.56
427.625	626.56
427.847	530.56
428.069	471.56
428.292	403.56
428.514	391.56
428.736	377.56
428.958	383.56
429.181	356.56
429.403	348.56
429.625	365.56
429.847	396.56
430.069	416.56
430.292	433.56
430.514	364.56
430.736	357.56
430.958	350.56
431.18	350.56
431.402	345.56
431.624	344.56
431.846	328.56
432.068	339.56
432.29	364.56
432.512	332.56
432.734	335.56
432.956	332.56
433.178	349.56
433.4	348.56
433.622	333.56
433.844	344.56
434.066	349.56
434.287	330.56
434.509	328.56
434.731	364.56
434.953	344.56
435.175	352.56
435.397	361.56
435.618	384.56
435.84	400.56
436.062	481.56
436.284	504.56
436.505	440.56
436.727	399.56
436.949	391.56
437.17	368.56
437.392	370.56
437.614	359.56
437.835	398.56
438.057	443.56
438.278	528.56
438.5	520.56
438.721	573.56
438.943	544.56
439.165	443.56
439.386	392.56
439.608	387.56
439.829	396.56
440.05	410.56
440.272	416.56
440.493	418.56
440.715	373.56
440.936	368.56
441.158	381.56
441.379	378.56
441.6	386.56
441.822	400.56
442.043	423.56
442.264	446.56
442.486	479.56
442.707	419.56
442.928	387.56
443.149	409.56
443.371	418.56
443.592	439.56
443.813	495.56
444.034	540.56
444.255	429.56
444.476	397.56
444.698	356.56
444.919	384.56
445.14	525.56
445.361	446.56
445.582	404.56
445.803	453.56
446.024	530.56
446.245	534.56
446.466	517.56
446.687	408.56
446.908	412.56
447.129	381.56
447.35	373.56
447.571	369.56
447.792	366.56
448.013	374.56
448.234	388.56
448.455	408.56
448.675	492.56
448.896	553.56
449.117	484.56
449.338	468.56
449.559	568.56
449.779	597.56
450	488.56
450.221	424.56
450.442	371.56
450.662	369.56
450.883	372.56
451.104	372.56
451.324	375.56
451.545	335.56
451.766	351.56
451.986	341.56
452.207	327.56
452.428	337.56
452.648	329.56
452.869	333.56
453.089	345.56
453.31	334.56
453.53	314.56
453.751	336.56
453.971	322.56
454.192	328.56
454.412	341.56
454.633	333.56
454.853	316.56
455.073	343.56
455.294	354.56
455.514	406.56
455.734	360.56
455.955	330.56
456.175	318.56
456.395	320.56
456.616	330.56
456.836	310.56
457.056	314.56
457.276	314.56
457.497	333.56
457.717	322.56
457.937	313.56
458.157	318.56
458.377	324.56
458.598	334.56
458.818	363.56
459.038	412.56
459.258	416.56
459.478	372.56
459.698	346.56
459.918	339.56
460.138	363.56
460.358	340.56
460.578	335.56
460.798	351.56
461.018	364.56
461.238	352.56
461.458	350.56
461.678	349.56
461.898	348.56
462.118	349.56
462.338	354.56
462.558	381.56
462.777	352.56
462.997	355.56
463.217	370.56
463.437	389.56
463.657	377.56
463.876	372.56
464.096	355.56
464.316	364.56
464.536	379.56
464.755	360.56
464.975	355.56
465.195	379.56
465.414	450.56
465.634	406.56
465.854	356.56
466.073	378.56
466.293	333.56
466.512	330.56
466.732	321.56
466.951	333.56
467.171	339.56
467.391	328.56
467.61	336.56
467.829	337.56
468.049	346.56
468.268	334.56
468.488	346.56
468.707	342.56
468.927	325.56
469.146	326.56
469.365	328.56
469.585	315.56
469.804	327.56
470.023	336.56
470.243	338.56
470.462	332.56
470.681	345.56
470.901	352.56
471.12	344.56
471.339	342.56
471.558	353.56
471.777	329.56
471.997	333.56
472.216	364.56
472.435	387.56
472.654	376.56
472.873	355.56
473.092	337.56
473.311	336.56
473.53	350.56
473.749	360.56
473.968	375.56
474.187	432.56
474.406	453.56
474.625	368.56
474.844	352.56
475.063	357.56
475.282	370.56
475.501	361.56
475.72	355.56
475.939	358.56
476.158	341.56
476.377	366.56
476.596	370.56
476.814	368.56
477.033	366.56
477.252	370.56
477.471	348.56
477.69	370.56
477.908	366.56
478.127	401.56
478.346	391.56
478.564	354.56
478.783	364.56
479.002	375.56
479.22	383.56
479.439	390.56
479.658	396.56
479.876	429.56
480.095	414.56
480.313	424.56
480.532	408.56
480.751	397.56
480.969	430.56
481.188	479.56
481.406	473.56
481.624	438.56
481.843	418.56
482.061	385.56
482.28	419.56
482.498	396.56
482.717	396.56
482.935	393.56
483.153	398.56
483.372	420.56
483.59	424.56
483.808	411.56
484.027	416.56
484.245	401.56
484.463	412.56
484.681	420.56
484.9	395.56
485.118	434.56
485.336	399.56
485.554	408.56
485.772	428.56
485.99	424.56
486.209	409.56
486.427	428.56
486.645	425.56
486.863	423.56
487.081	423.56
487.299	445.56
487.517	430.56
487.735	414.56
487.953	422.56
488.171	430.56
488.389	408.56
488.607	440.56
488.825	415.56
489.043	447.56
489.261	426.56
489.479	435.56
489.696	437.56
489.914	432.56
490.132	433.56
490.35	445.56
490.568	443.56
490.786	431.56
491.003	441.56
491.221	470.56
491.439	468.56
491.657	473.56
491.874	491.56
492.092	472.56
492.31	490.56
492.527	482.56
492.745	474.56
492.963	498.56
493.18	487.56
493.398	499.56
493.615	486.56
493.833	498.56
494.05	526.56
494.268	480.56
494.485	485.56
494.703	486.56
494.92	515.56
495.138	486.56
495.355	505.56
495.573	494.56
495.79	487.56
496.008	508.56
496.225	522.56
496.442	524.56
496.66	512.56
496.877	479.56
497.094	505.56
497.312	506.56
497.529	537.56
497.746	523.56
497.963	519.56
498.181	523.56
498.398	540.56
498.615	558.56
498.832	560.56
499.049	575.56
499.267	582.56
499.484	584.56
499.701	616.56
499.918	645.56
500.135	636.56
500.352	645.56
500.569	623.56
500.786	626.56
501.003	642.56
501.22	667.56
501.437	651.56
501.654	598.56
501.871	610.56
502.088	617.56
502.305	581.56
