Data from 1961.PennyLincolnUp.Lamp.En5.5.200Scan.071719.P1._HRD10591_13-46-08-058.txt Node
Date: Thu Jul 18 13:46:08 EDT 2019
User: cochatt
Spectrometer: HR+D1059
Trigger mode: 1
Integration Time (sec): 1.000000E-1
Scans to average: 1
Electric dark correction enabled: true
Nonlinearity correction enabled: false
Boxcar width: 0
XAxis mode: Wavelengths
Number of Pixels in Spectrum: 2048
>>>>>Begin Spectral Data<<<<<
223.165	-19.88
223.4	-19.88
223.635	-19.88
223.869	-13.88
224.104	-5.88
224.338	-11.88
224.573	-21.88
224.808	-27.88
225.042	-21.88
225.277	-4.88
225.511	-3.88
225.746	20.12
225.98	1.12
226.215	6.12
226.449	23.12
226.683	12.12
226.918	29.12
227.152	40.12
227.387	30.12
227.621	26.12
227.856	33.12
228.09	35.12
228.324	53.12
228.559	37.12
228.793	59.12
229.027	80.12
229.262	80.12
229.496	81.12
229.73	95.12
229.964	108.12
230.199	108.12
230.433	91.12
230.667	88.12
230.901	82.12
231.136	86.12
231.37	99.12
231.604	83.12
231.838	101.12
232.072	88.12
232.306	78.12
232.541	100.12
232.775	88.12
233.009	89.12
233.243	87.12
233.477	99.12
233.711	90.12
233.945	89.12
234.179	93.12
234.413	96.12
234.647	95.12
234.881	96.12
235.115	95.12
235.349	103.12
235.583	106.12
235.817	111.12
236.051	101.12
236.285	94.12
236.519	92.12
236.753	97.12
236.987	114.12
237.221	137.12
237.455	150.12
237.689	132.12
237.922	122.12
238.156	107.12
238.39	104.12
238.624	105.12
238.858	103.12
239.091	106.12
239.325	94.12
239.559	123.12
239.793	101.12
240.027	122.12
240.26	118.12
240.494	120.12
240.728	123.12
240.961	104.12
241.195	114.12
241.429	105.12
241.662	107.12
241.896	114.12
242.13	114.12
242.363	117.12
242.597	98.12
242.83	112.12
243.064	92.12
243.298	97.12
243.531	87.12
243.765	99.12
243.998	112.12
244.232	116.12
244.465	121.12
244.699	105.12
244.932	103.12
245.166	112.12
245.399	117.12
245.633	112.12
245.866	127.12
246.099	121.12
246.333	114.12
246.566	121.12
246.8	119.12
247.033	121.12
247.266	117.12
247.5	129.12
247.733	115.12
247.966	133.12
248.2	123.12
248.433	126.12
248.666	126.12
248.899	123.12
249.133	132.12
249.366	155.12
249.599	133.12
249.832	129.12
250.066	129.12
250.299	141.12
250.532	134.12
250.765	139.12
250.998	141.12
251.231	143.12
251.465	144.12
251.698	136.12
251.931	132.12
252.164	127.12
252.397	140.12
252.63	155.12
252.863	136.12
253.096	140.12
253.329	164.12
253.562	167.12
253.795	147.12
254.028	159.12
254.261	148.12
254.494	152.12
254.727	160.12
254.96	170.12
255.193	172.12
255.426	153.12
255.659	146.12
255.892	157.12
256.124	170.12
256.357	150.12
256.59	160.12
256.823	161.12
257.056	152.12
257.289	142.12
257.521	144.12
257.754	140.12
257.987	139.12
258.22	142.12
258.452	152.12
258.685	147.12
258.918	151.12
259.151	141.12
259.383	149.12
259.616	152.12
259.849	164.12
260.081	156.12
260.314	154.12
260.547	163.12
260.779	151.12
261.012	156.12
261.244	155.12
261.477	148.12
261.71	162.12
261.942	160.12
262.175	144.12
262.407	160.12
262.64	147.12
262.872	144.12
263.105	165.12
263.337	152.12
263.57	148.12
263.802	140.12
264.035	136.12
264.267	158.12
264.499	145.12
264.732	154.12
264.964	152.12
265.197	146.12
265.429	160.12
265.661	144.12
265.894	138.12
266.126	167.12
266.358	158.12
266.591	144.12
266.823	168.12
267.055	154.12
267.287	161.12
267.52	156.12
267.752	158.12
267.984	150.12
268.216	163.12
268.448	151.12
268.681	146.12
268.913	154.12
269.145	179.12
269.377	168.12
269.609	176.12
269.841	159.12
270.073	176.12
270.306	184.12
270.538	177.12
270.77	186.12
271.002	167.12
271.234	188.12
271.466	171.12
271.698	187.12
271.93	174.12
272.162	195.12
272.394	188.12
272.626	186.12
272.858	184.12
273.09	179.12
273.322	168.12
273.553	183.12
273.785	174.12
274.017	168.12
274.249	196.12
274.481	159.12
274.713	155.12
274.945	172.12
275.176	171.12
275.408	180.12
275.64	168.12
275.872	185.12
276.104	185.12
276.335	165.12
276.567	179.12
276.799	195.12
277.031	188.12
277.262	182.12
277.494	188.12
277.726	186.12
277.957	195.12
278.189	187.12
278.421	180.12
278.652	176.12
278.884	172.12
279.115	180.12
279.347	163.12
279.579	194.12
279.81	190.12
280.042	182.12
280.273	180.12
280.505	190.12
280.736	179.12
280.968	187.12
281.199	178.12
281.431	186.12
281.662	169.12
281.894	167.12
282.125	178.12
282.356	188.12
282.588	178.12
282.819	170.12
283.051	186.12
283.282	194.12
283.513	171.12
283.745	179.12
283.976	176.12
284.207	186.12
284.439	191.12
284.67	183.12
284.901	179.12
285.132	192.12
285.364	178.12
285.595	186.12
285.826	181.12
286.057	172.12
286.288	178.12
286.52	174.12
286.751	178.12
286.982	195.12
287.213	164.12
287.444	189.12
287.675	191.12
287.906	196.12
288.138	195.12
288.369	197.12
288.6	198.12
288.831	187.12
289.062	171.12
289.293	194.12
289.524	178.12
289.755	181.12
289.986	180.12
290.217	172.12
290.448	182.12
290.679	188.12
290.91	178.12
291.141	181.12
291.371	186.12
291.602	178.12
291.833	182.12
292.064	188.12
292.295	181.12
292.526	180.12
292.757	190.12
292.987	181.12
293.218	178.12
293.449	171.12
293.68	195.12
293.91	187.12
294.141	175.12
294.372	199.12
294.603	196.12
294.833	187.12
295.064	187.12
295.295	196.12
295.525	188.12
295.756	186.12
295.987	197.12
296.217	213.12
296.448	206.12
296.679	198.12
296.909	191.12
297.14	194.12
297.37	198.12
297.601	188.12
297.831	198.12
298.062	183.12
298.292	181.12
298.523	198.12
298.753	209.12
298.984	200.12
299.214	186.12
299.445	201.12
299.675	194.12
299.905	197.12
300.136	201.12
300.366	195.12
300.597	200.12
300.827	198.12
301.057	213.12
301.288	215.12
301.518	209.12
301.748	206.12
301.979	206.12
302.209	195.12
302.439	204.12
302.669	207.12
302.9	204.12
303.13	196.12
303.36	205.12
303.59	217.12
303.82	201.12
304.051	199.12
304.281	213.12
304.511	222.12
304.741	212.12
304.971	195.12
305.201	206.12
305.431	226.12
305.661	194.12
305.891	209.12
306.121	214.12
306.352	215.12
306.582	219.12
306.812	219.12
307.042	201.12
307.272	218.12
307.502	223.12
307.731	218.12
307.961	204.12
308.191	211.12
308.421	210.12
308.651	208.12
308.881	216.12
309.111	219.12
309.341	205.12
309.571	211.12
309.8	233.12
310.03	242.12
310.26	230.12
310.49	227.12
310.72	225.12
310.949	244.12
311.179	248.12
311.409	219.12
311.639	226.12
311.868	249.12
312.098	215.12
312.328	220.12
312.557	248.12
312.787	256.12
313.017	247.12
313.246	235.12
313.476	236.12
313.706	236.12
313.935	240.12
314.165	240.12
314.394	242.12
314.624	233.12
314.853	258.12
315.083	233.12
315.312	240.12
315.542	222.12
315.771	227.12
316.001	242.12
316.23	239.12
316.46	234.12
316.689	234.12
316.919	243.12
317.148	236.12
317.377	260.12
317.607	235.12
317.836	252.12
318.065	236.12
318.295	225.12
318.524	234.12
318.753	222.12
318.983	229.12
319.212	243.12
319.441	235.12
319.67	229.12
319.9	246.12
320.129	227.12
320.358	238.12
320.587	243.12
320.816	234.12
321.046	253.12
321.275	274.12
321.504	259.12
321.733	238.12
321.962	242.12
322.191	269.12
322.42	265.12
322.649	270.12
322.878	258.12
323.108	280.12
323.337	271.12
323.566	298.12
323.795	324.12
324.024	358.12
324.253	402.12
324.482	537.12
324.71	826.12
324.939	1148.12
325.168	974.12
325.397	521.12
325.626	382.12
325.855	331.12
326.084	311.12
326.313	307.12
326.542	297.12
326.77	332.12
326.999	393.12
327.228	501.12
327.457	726.12
327.686	864.12
327.914	585.12
328.143	414.12
328.372	363.12
328.6	348.12
328.829	314.12
329.058	339.12
329.287	328.12
329.515	312.12
329.744	297.12
329.972	282.12
330.201	286.12
330.43	311.12
330.658	323.12
330.887	345.12
331.115	346.12
331.344	299.12
331.572	291.12
331.801	305.12
332.03	278.12
332.258	279.12
332.486	283.12
332.715	288.12
332.943	288.12
333.172	276.12
333.4	277.12
333.629	276.12
333.857	280.12
334.085	287.12
334.314	316.12
334.542	320.12
334.771	330.12
334.999	305.12
335.227	274.12
335.455	294.12
335.684	280.12
335.912	279.12
336.14	268.12
336.369	280.12
336.597	297.12
336.825	283.12
337.053	269.12
337.281	277.12
337.51	275.12
337.738	268.12
337.966	258.12
338.194	266.12
338.422	280.12
338.65	276.12
338.878	268.12
339.106	255.12
339.334	265.12
339.562	287.12
339.79	258.12
340.018	261.12
340.246	279.12
340.474	276.12
340.702	269.12
340.93	272.12
341.158	268.12
341.386	263.12
341.614	270.12
341.842	275.12
342.07	269.12
342.298	255.12
342.526	265.12
342.754	242.12
342.981	255.12
343.209	258.12
343.437	267.12
343.665	264.12
343.893	264.12
344.12	289.12
344.348	279.12
344.576	266.12
344.804	290.12
345.031	290.12
345.259	281.12
345.487	274.12
345.714	267.12
345.942	258.12
346.17	265.12
346.397	242.12
346.625	290.12
346.853	276.12
347.08	260.12
347.308	262.12
347.535	270.12
347.763	270.12
347.99	273.12
348.218	274.12
348.445	261.12
348.673	259.12
348.9	263.12
349.128	275.12
349.355	252.12
349.583	248.12
349.81	259.12
350.037	256.12
350.265	254.12
350.492	255.12
350.72	228.12
350.947	246.12
351.174	272.12
351.402	255.12
351.629	276.12
351.856	263.12
352.083	259.12
352.311	261.12
352.538	241.12
352.765	268.12
352.992	274.12
353.22	266.12
353.447	262.12
353.674	243.12
353.901	259.12
354.128	263.12
354.355	257.12
354.583	243.12
354.81	267.12
355.037	240.12
355.264	259.12
355.491	268.12
355.718	265.12
355.945	244.12
356.172	258.12
356.399	272.12
356.626	255.12
356.853	257.12
357.08	247.12
357.307	270.12
357.534	234.12
357.761	251.12
357.988	246.12
358.215	265.12
358.441	247.12
358.668	267.12
358.895	243.12
359.122	285.12
359.349	263.12
359.576	263.12
359.802	278.12
360.029	273.12
360.256	283.12
360.483	284.12
360.709	270.12
360.936	266.12
361.163	252.12
361.39	279.12
361.616	263.12
361.843	263.12
362.07	268.12
362.296	278.12
362.523	273.12
362.749	273.12
362.976	255.12
363.203	266.12
363.429	269.12
363.656	269.12
363.882	243.12
364.109	249.12
364.335	270.12
364.562	265.12
364.788	254.12
365.015	262.12
365.241	261.12
365.468	270.12
365.694	283.12
365.92	262.12
366.147	257.12
366.373	264.12
366.599	259.12
366.826	238.12
367.052	259.12
367.278	255.12
367.505	257.12
367.731	262.12
367.957	244.12
368.184	242.12
368.41	253.12
368.636	261.12
368.862	269.12
369.089	256.12
369.315	276.12
369.541	259.12
369.767	266.12
369.993	278.12
370.219	247.12
370.445	255.12
370.672	261.12
370.898	276.12
371.124	254.12
371.35	259.12
371.576	272.12
371.802	264.12
372.028	254.12
372.254	260.12
372.48	250.12
372.706	242.12
372.932	249.12
373.158	251.12
373.384	262.12
373.61	260.12
373.835	265.12
374.061	278.12
374.287	273.12
374.513	261.12
374.739	276.12
374.965	260.12
375.191	250.12
375.416	250.12
375.642	274.12
375.868	259.12
376.094	267.12
376.319	259.12
376.545	263.12
376.771	268.12
376.997	264.12
377.222	269.12
377.448	284.12
377.674	263.12
377.899	270.12
378.125	263.12
378.35	266.12
378.576	266.12
378.802	258.12
379.027	266.12
379.253	256.12
379.478	272.12
379.704	269.12
379.929	265.12
380.155	274.12
380.38	278.12
380.606	268.12
380.831	268.12
381.057	269.12
381.282	276.12
381.507	271.12
381.733	271.12
381.958	273.12
382.184	281.12
382.409	282.12
382.634	283.12
382.86	272.12
383.085	289.12
383.31	297.12
383.535	280.12
383.761	277.12
383.986	292.12
384.211	290.12
384.436	279.12
384.662	306.12
384.887	283.12
385.112	282.12
385.337	294.12
385.562	283.12
385.787	304.12
386.013	299.12
386.238	291.12
386.463	290.12
386.688	290.12
386.913	287.12
387.138	313.12
387.363	287.12
387.588	296.12
387.813	298.12
388.038	288.12
388.263	313.12
388.488	303.12
388.713	280.12
388.938	293.12
389.163	299.12
389.387	292.12
389.612	284.12
389.837	292.12
390.062	282.12
390.287	266.12
390.512	287.12
390.736	282.12
390.961	290.12
391.186	279.12
391.411	289.12
391.636	288.12
391.86	295.12
392.085	303.12
392.31	299.12
392.534	302.12
392.759	298.12
392.984	312.12
393.208	311.12
393.433	336.12
393.658	336.12
393.882	307.12
394.107	293.12
394.331	294.12
394.556	291.12
394.78	287.12
395.005	297.12
395.229	285.12
395.454	299.12
395.678	299.12
395.903	313.12
396.127	310.12
396.352	306.12
396.576	294.12
396.801	325.12
397.025	327.12
397.249	335.12
397.474	304.12
397.698	322.12
397.922	308.12
398.147	324.12
398.371	306.12
398.595	318.12
398.82	342.12
399.044	331.12
399.268	339.12
399.492	362.12
399.717	342.12
399.941	376.12
400.165	384.12
400.389	401.12
400.613	360.12
400.837	339.12
401.062	323.12
401.286	339.12
401.51	335.12
401.734	311.12
401.958	318.12
402.182	338.12
402.406	328.12
402.63	337.12
402.854	327.12
403.078	321.12
403.302	339.12
403.526	330.12
403.75	324.12
403.974	336.12
404.198	315.12
404.422	346.12
404.645	330.12
404.869	341.12
405.093	344.12
405.317	372.12
405.541	393.12
405.765	372.12
405.988	367.12
406.212	353.12
406.436	374.12
406.66	373.12
406.883	360.12
407.107	354.12
407.331	406.12
407.555	442.12
407.778	409.12
408.002	392.12
408.226	392.12
408.449	366.12
408.673	360.12
408.896	392.12
409.12	414.12
409.344	402.12
409.567	347.12
409.791	343.12
410.014	329.12
410.238	332.12
410.461	332.12
410.685	329.12
410.908	342.12
411.132	359.12
411.355	388.12
411.578	377.12
411.802	349.12
412.025	352.12
412.249	346.12
412.472	347.12
412.695	358.12
412.919	365.12
413.142	343.12
413.365	322.12
413.589	335.12
413.812	323.12
414.035	314.12
414.258	316.12
414.482	308.12
414.705	328.12
414.928	335.12
415.151	322.12
415.374	306.12
415.597	329.12
415.821	320.12
416.044	333.12
416.267	347.12
416.49	305.12
416.713	308.12
416.936	333.12
417.159	310.12
417.382	317.12
417.605	345.12
417.828	319.12
418.051	322.12
418.274	339.12
418.497	317.12
418.72	329.12
418.943	333.12
419.166	324.12
419.389	316.12
419.611	333.12
419.834	326.12
420.057	330.12
420.28	328.12
420.503	330.12
420.726	329.12
420.948	339.12
421.171	350.12
421.394	361.12
421.617	341.12
421.839	326.12
422.062	313.12
422.285	343.12
422.507	379.12
422.73	416.12
422.953	410.12
423.175	371.12
423.398	331.12
423.621	337.12
423.843	350.12
424.066	363.12
424.288	346.12
424.511	371.12
424.733	383.12
424.956	454.12
425.178	432.12
425.401	422.12
425.623	427.12
425.846	362.12
426.068	362.12
426.291	353.12
426.513	325.12
426.735	355.12
426.958	360.12
427.18	427.12
427.402	504.12
427.625	537.12
427.847	463.12
428.069	403.12
428.292	377.12
428.514	363.12
428.736	336.12
428.958	337.12
429.181	314.12
429.403	332.12
429.625	332.12
429.847	356.12
430.069	386.12
430.292	385.12
430.514	352.12
430.736	340.12
430.958	343.12
431.18	324.12
431.402	346.12
431.624	322.12
431.846	311.12
432.068	327.12
432.29	304.12
432.512	313.12
432.734	338.12
432.956	323.12
433.178	322.12
433.4	355.12
433.622	329.12
433.844	346.12
434.066	315.12
434.287	314.12
434.509	330.12
434.731	334.12
434.953	332.12
435.175	328.12
435.397	347.12
435.618	353.12
435.84	378.12
436.062	432.12
436.284	451.12
436.505	394.12
436.727	354.12
436.949	331.12
437.17	343.12
437.392	332.12
437.614	347.12
437.835	366.12
438.057	406.12
438.278	467.12
438.5	450.12
438.721	519.12
438.943	480.12
439.165	405.12
439.386	364.12
439.608	353.12
439.829	359.12
440.05	377.12
440.272	388.12
440.493	379.12
440.715	336.12
440.936	338.12
441.158	341.12
441.379	343.12
441.6	340.12
441.822	333.12
442.043	375.12
442.264	432.12
442.486	435.12
442.707	377.12
442.928	367.12
443.149	359.12
443.371	372.12
443.592	410.12
443.813	455.12
444.034	479.12
444.255	418.12
444.476	377.12
444.698	356.12
444.919	361.12
445.14	467.12
445.361	395.12
445.582	401.12
445.803	402.12
446.024	442.12
446.245	449.12
446.466	442.12
446.687	394.12
446.908	356.12
447.129	332.12
447.35	334.12
447.571	330.12
447.792	339.12
448.013	354.12
448.234	355.12
448.455	368.12
448.675	448.12
448.896	494.12
449.117	426.12
449.338	422.12
449.559	472.12
449.779	518.12
450	418.12
450.221	354.12
450.442	334.12
450.662	315.12
450.883	322.12
451.104	326.12
451.324	338.12
451.545	309.12
451.766	296.12
451.986	312.12
452.207	325.12
452.428	314.12
452.648	287.12
452.869	295.12
453.089	326.12
453.31	305.12
453.53	310.12
453.751	312.12
453.971	302.12
454.192	317.12
454.412	314.12
454.633	310.12
454.853	304.12
455.073	304.12
455.294	325.12
455.514	339.12
455.734	350.12
455.955	334.12
456.175	307.12
456.395	304.12
456.616	273.12
456.836	303.12
457.056	289.12
457.276	282.12
457.497	304.12
457.717	302.12
457.937	286.12
458.157	297.12
458.377	297.12
458.598	309.12
458.818	360.12
459.038	373.12
459.258	390.12
459.478	357.12
459.698	333.12
459.918	329.12
460.138	326.12
460.358	318.12
460.578	334.12
460.798	335.12
461.018	327.12
461.238	339.12
461.458	338.12
461.678	322.12
461.898	339.12
462.118	331.12
462.338	343.12
462.558	340.12
462.777	355.12
462.997	364.12
463.217	367.12
463.437	371.12
463.657	348.12
463.876	347.12
464.096	343.12
464.316	356.12
464.536	347.12
464.755	352.12
464.975	356.12
465.195	360.12
465.414	422.12
465.634	375.12
465.854	340.12
466.073	327.12
466.293	327.12
466.512	323.12
466.732	326.12
466.951	332.12
467.171	330.12
467.391	318.12
467.61	331.12
467.829	316.12
468.049	328.12
468.268	299.12
468.488	313.12
468.707	331.12
468.927	321.12
469.146	321.12
469.365	295.12
469.585	324.12
469.804	314.12
470.023	303.12
470.243	299.12
470.462	329.12
470.681	324.12
470.901	330.12
471.12	330.12
471.339	321.12
471.558	329.12
471.777	343.12
471.997	326.12
472.216	326.12
472.435	337.12
472.654	337.12
472.873	312.12
473.092	302.12
473.311	307.12
473.53	325.12
473.749	331.12
473.968	341.12
474.187	400.12
474.406	404.12
474.625	368.12
474.844	349.12
475.063	328.12
475.282	323.12
475.501	327.12
475.72	328.12
475.939	326.12
476.158	332.12
476.377	345.12
476.596	328.12
476.814	329.12
477.033	330.12
477.252	340.12
477.471	326.12
477.69	363.12
477.908	366.12
478.127	346.12
478.346	360.12
478.564	354.12
478.783	365.12
479.002	352.12
479.22	366.12
479.439	374.12
479.658	366.12
479.876	361.12
480.095	380.12
480.313	408.12
480.532	389.12
480.751	401.12
480.969	394.12
481.188	422.12
481.406	439.12
481.624	394.12
481.843	383.12
482.061	377.12
482.28	388.12
482.498	388.12
482.717	387.12
482.935	394.12
483.153	385.12
483.372	377.12
483.59	384.12
483.808	374.12
484.027	383.12
484.245	388.12
484.463	375.12
484.681	400.12
484.9	388.12
485.118	400.12
485.336	412.12
485.554	394.12
485.772	399.12
485.99	392.12
486.209	382.12
486.427	398.12
486.645	406.12
486.863	396.12
487.081	413.12
487.299	439.12
487.517	388.12
487.735	394.12
487.953	409.12
488.171	408.12
488.389	405.12
488.607	407.12
488.825	408.12
489.043	392.12
489.261	418.12
489.479	372.12
489.696	397.12
489.914	426.12
490.132	398.12
490.35	434.12
490.568	427.12
490.786	409.12
491.003	431.12
491.221	433.12
491.439	436.12
491.657	432.12
491.874	456.12
492.092	444.12
492.31	434.12
492.527	451.12
492.745	456.12
492.963	447.12
493.18	440.12
493.398	448.12
493.615	465.12
493.833	463.12
494.05	454.12
494.268	443.12
494.485	480.12
494.703	460.12
494.92	459.12
495.138	464.12
495.355	460.12
495.573	455.12
495.79	462.12
496.008	476.12
496.225	481.12
496.442	468.12
496.66	490.12
496.877	474.12
497.094	455.12
497.312	472.12
497.529	468.12
497.746	478.12
497.963	512.12
498.181	522.12
498.398	532.12
498.615	548.12
498.832	531.12
499.049	533.12
499.267	555.12
499.484	553.12
499.701	586.12
499.918	575.12
500.135	602.12
500.352	615.12
500.569	634.12
500.786	618.12
501.003	624.12
501.22	619.12
501.437	597.12
501.654	594.12
501.871	583.12
502.088	554.12
502.305	549.12
