Data from 1961.PennyLincolnUp.Lamp.En5.5.200Scan.071719.P1._HRD10591_13-48-57-058.txt Node
Date: Thu Jul 18 13:48:57 EDT 2019
User: cochatt
Spectrometer: HR+D1059
Trigger mode: 1
Integration Time (sec): 1.000000E-1
Scans to average: 1
Electric dark correction enabled: true
Nonlinearity correction enabled: false
Boxcar width: 0
XAxis mode: Wavelengths
Number of Pixels in Spectrum: 2048
>>>>>Begin Spectral Data<<<<<
223.165	-14.19
223.4	-14.19
223.635	-14.19
223.869	-21.19
224.104	-29.19
224.338	-10.19
224.573	-10.19
224.808	0.81
225.042	-17.19
225.277	-6.19
225.511	-9.19
225.746	-5.19
225.98	-4.19
226.215	12.81
226.449	20.81
226.683	15.81
226.918	46.81
227.152	29.81
227.387	44.81
227.621	55.81
227.856	43.81
228.09	51.81
228.324	55.81
228.559	64.81
228.793	73.81
229.027	99.81
229.262	106.81
229.496	117.81
229.73	127.81
229.964	158.81
230.199	119.81
230.433	116.81
230.667	116.81
230.901	108.81
231.136	95.81
231.37	108.81
231.604	109.81
231.838	115.81
232.072	118.81
232.306	110.81
232.541	113.81
232.775	108.81
233.009	102.81
233.243	109.81
233.477	118.81
233.711	105.81
233.945	96.81
234.179	116.81
234.413	110.81
234.647	99.81
234.881	97.81
235.115	110.81
235.349	99.81
235.583	106.81
235.817	140.81
236.051	125.81
236.285	124.81
236.519	118.81
236.753	126.81
236.987	157.81
237.221	166.81
237.455	210.81
237.689	170.81
237.922	131.81
238.156	137.81
238.39	130.81
238.624	116.81
238.858	129.81
239.091	105.81
239.325	128.81
239.559	126.81
239.793	127.81
240.027	98.81
240.26	129.81
240.494	143.81
240.728	137.81
240.961	135.81
241.195	139.81
241.429	125.81
241.662	125.81
241.896	106.81
242.13	122.81
242.363	115.81
242.597	129.81
242.83	126.81
243.064	126.81
243.298	133.81
243.531	134.81
243.765	130.81
243.998	134.81
244.232	132.81
244.465	142.81
244.699	128.81
244.932	130.81
245.166	119.81
245.399	123.81
245.633	124.81
245.866	118.81
246.099	138.81
246.333	148.81
246.566	151.81
246.8	150.81
247.033	151.81
247.266	134.81
247.5	129.81
247.733	149.81
247.966	155.81
248.2	162.81
248.433	148.81
248.666	155.81
248.899	166.81
249.133	186.81
249.366	191.81
249.599	174.81
249.832	153.81
250.066	144.81
250.299	162.81
250.532	177.81
250.765	179.81
250.998	198.81
251.231	188.81
251.465	179.81
251.698	193.81
251.931	182.81
252.164	165.81
252.397	171.81
252.63	179.81
252.863	188.81
253.096	193.81
253.329	205.81
253.562	196.81
253.795	180.81
254.028	185.81
254.261	205.81
254.494	186.81
254.727	224.81
254.96	254.81
255.193	223.81
255.426	213.81
255.659	227.81
255.892	213.81
256.124	197.81
256.357	213.81
256.59	198.81
256.823	192.81
257.056	194.81
257.289	177.81
257.521	183.81
257.754	191.81
257.987	187.81
258.22	192.81
258.452	186.81
258.685	204.81
258.918	188.81
259.151	181.81
259.383	192.81
259.616	201.81
259.849	202.81
260.081	205.81
260.314	220.81
260.547	214.81
260.779	201.81
261.012	221.81
261.244	195.81
261.477	189.81
261.71	195.81
261.942	202.81
262.175	207.81
262.407	201.81
262.64	192.81
262.872	178.81
263.105	183.81
263.337	170.81
263.57	181.81
263.802	177.81
264.035	198.81
264.267	186.81
264.499	187.81
264.732	171.81
264.964	180.81
265.197	197.81
265.429	184.81
265.661	197.81
265.894	196.81
266.126	170.81
266.358	197.81
266.591	199.81
266.823	191.81
267.055	204.81
267.287	194.81
267.52	189.81
267.752	201.81
267.984	204.81
268.216	178.81
268.448	215.81
268.681	201.81
268.913	197.81
269.145	221.81
269.377	228.81
269.609	211.81
269.841	230.81
270.073	222.81
270.306	259.81
270.538	271.81
270.77	269.81
271.002	268.81
271.234	259.81
271.466	275.81
271.698	272.81
271.93	283.81
272.162	289.81
272.394	289.81
272.626	272.81
272.858	262.81
273.09	259.81
273.322	254.81
273.553	229.81
273.785	221.81
274.017	215.81
274.249	218.81
274.481	220.81
274.713	217.81
274.945	250.81
275.176	244.81
275.408	217.81
275.64	234.81
275.872	244.81
276.104	230.81
276.335	227.81
276.567	250.81
276.799	240.81
277.031	263.81
277.262	285.81
277.494	271.81
277.726	259.81
277.957	254.81
278.189	250.81
278.421	225.81
278.652	235.81
278.884	219.81
279.115	222.81
279.347	233.81
279.579	222.81
279.81	239.81
280.042	217.81
280.273	223.81
280.505	241.81
280.736	238.81
280.968	226.81
281.199	224.81
281.431	217.81
281.662	220.81
281.894	236.81
282.125	239.81
282.356	252.81
282.588	259.81
282.819	259.81
283.051	221.81
283.282	233.81
283.513	211.81
283.745	231.81
283.976	231.81
284.207	239.81
284.439	242.81
284.67	214.81
284.901	236.81
285.132	220.81
285.364	216.81
285.595	225.81
285.826	231.81
286.057	246.81
286.288	242.81
286.52	239.81
286.751	232.81
286.982	233.81
287.213	228.81
287.444	236.81
287.675	213.81
287.906	238.81
288.138	248.81
288.369	249.81
288.6	254.81
288.831	263.81
289.062	255.81
289.293	250.81
289.524	239.81
289.755	236.81
289.986	229.81
290.217	241.81
290.448	231.81
290.679	226.81
290.91	234.81
291.141	234.81
291.371	226.81
291.602	236.81
291.833	230.81
292.064	234.81
292.295	253.81
292.526	237.81
292.757	258.81
292.987	260.81
293.218	225.81
293.449	226.81
293.68	232.81
293.91	231.81
294.141	247.81
294.372	244.81
294.603	252.81
294.833	216.81
295.064	245.81
295.295	257.81
295.525	246.81
295.756	259.81
295.987	266.81
296.217	269.81
296.448	274.81
296.679	269.81
296.909	237.81
297.14	239.81
297.37	249.81
297.601	253.81
297.831	254.81
298.062	248.81
298.292	259.81
298.523	248.81
298.753	260.81
298.984	236.81
299.214	258.81
299.445	261.81
299.675	254.81
299.905	265.81
300.136	271.81
300.366	260.81
300.597	262.81
300.827	276.81
301.057	249.81
301.288	269.81
301.518	266.81
301.748	257.81
301.979	278.81
302.209	277.81
302.439	295.81
302.669	280.81
302.9	254.81
303.13	273.81
303.36	265.81
303.59	292.81
303.82	291.81
304.051	294.81
304.281	280.81
304.511	271.81
304.741	271.81
304.971	274.81
305.201	259.81
305.431	269.81
305.661	279.81
305.891	278.81
306.121	267.81
306.352	262.81
306.582	278.81
306.812	275.81
307.042	274.81
307.272	292.81
307.502	294.81
307.731	290.81
307.961	276.81
308.191	296.81
308.421	299.81
308.651	279.81
308.881	291.81
309.111	287.81
309.341	284.81
309.571	299.81
309.8	329.81
310.03	306.81
310.26	335.81
310.49	325.81
310.72	346.81
310.949	349.81
311.179	360.81
311.409	340.81
311.639	329.81
311.868	328.81
312.098	333.81
312.328	345.81
312.557	350.81
312.787	339.81
313.017	362.81
313.246	322.81
313.476	323.81
313.706	317.81
313.935	329.81
314.165	330.81
314.394	362.81
314.624	343.81
314.853	345.81
315.083	324.81
315.312	323.81
315.542	322.81
315.771	312.81
316.001	300.81
316.23	313.81
316.46	320.81
316.689	338.81
316.919	311.81
317.148	332.81
317.377	317.81
317.607	338.81
317.836	319.81
318.065	338.81
318.295	336.81
318.524	330.81
318.753	305.81
318.983	337.81
319.212	308.81
319.441	342.81
319.67	330.81
319.9	338.81
320.129	334.81
320.358	323.81
320.587	350.81
320.816	347.81
321.046	348.81
321.275	348.81
321.504	345.81
321.733	347.81
321.962	365.81
322.191	372.81
322.42	398.81
322.649	408.81
322.878	413.81
323.108	421.81
323.337	473.81
323.566	475.81
323.795	488.81
324.024	556.81
324.253	726.81
324.482	1063.81
324.71	1662.81
324.939	2335.81
325.168	1929.81
325.397	1008.81
325.626	652.81
325.855	538.81
326.084	493.81
326.313	489.81
326.542	485.81
326.77	532.81
326.999	649.81
327.228	898.81
327.457	1443.81
327.686	1689.81
327.914	1098.81
328.143	729.81
328.372	625.81
328.6	583.81
328.829	532.81
329.058	534.81
329.287	569.81
329.515	533.81
329.744	484.81
329.972	510.81
330.201	515.81
330.43	534.81
330.658	569.81
330.887	581.81
331.115	558.81
331.344	489.81
331.572	451.81
331.801	448.81
332.03	440.81
332.258	416.81
332.486	400.81
332.715	390.81
332.943	389.81
333.172	380.81
333.4	399.81
333.629	382.81
333.857	409.81
334.085	435.81
334.314	446.81
334.542	481.81
334.771	485.81
334.999	447.81
335.227	390.81
335.455	382.81
335.684	363.81
335.912	391.81
336.14	375.81
336.369	379.81
336.597	394.81
336.825	383.81
337.053	393.81
337.281	374.81
337.51	367.81
337.738	381.81
337.966	371.81
338.194	372.81
338.422	385.81
338.65	375.81
338.878	353.81
339.106	358.81
339.334	365.81
339.562	351.81
339.79	360.81
340.018	376.81
340.246	368.81
340.474	378.81
340.702	360.81
340.93	377.81
341.158	350.81
341.386	391.81
341.614	346.81
341.842	379.81
342.07	361.81
342.298	346.81
342.526	343.81
342.754	350.81
342.981	346.81
343.209	341.81
343.437	353.81
343.665	340.81
343.893	367.81
344.12	343.81
344.348	373.81
344.576	358.81
344.804	378.81
345.031	389.81
345.259	385.81
345.487	384.81
345.714	366.81
345.942	348.81
346.17	366.81
346.397	349.81
346.625	353.81
346.853	333.81
347.08	339.81
347.308	369.81
347.535	366.81
347.763	367.81
347.99	366.81
348.218	373.81
348.445	379.81
348.673	375.81
348.9	341.81
349.128	357.81
349.355	344.81
349.583	340.81
349.81	340.81
350.037	338.81
350.265	332.81
350.492	321.81
350.72	361.81
350.947	362.81
351.174	366.81
351.402	379.81
351.629	362.81
351.856	365.81
352.083	380.81
352.311	386.81
352.538	378.81
352.765	374.81
352.992	366.81
353.22	348.81
353.447	370.81
353.674	328.81
353.901	341.81
354.128	367.81
354.355	336.81
354.583	342.81
354.81	315.81
355.037	326.81
355.264	305.81
355.491	332.81
355.718	332.81
355.945	311.81
356.172	318.81
356.399	310.81
356.626	332.81
356.853	327.81
357.08	301.81
357.307	313.81
357.534	314.81
357.761	312.81
357.988	316.81
358.215	333.81
358.441	328.81
358.668	346.81
358.895	345.81
359.122	340.81
359.349	341.81
359.576	350.81
359.802	394.81
360.029	397.81
360.256	434.81
360.483	401.81
360.709	375.81
360.936	361.81
361.163	345.81
361.39	341.81
361.616	377.81
361.843	369.81
362.07	351.81
362.296	374.81
362.523	366.81
362.749	369.81
362.976	348.81
363.203	339.81
363.429	354.81
363.656	339.81
363.882	339.81
364.109	334.81
364.335	330.81
364.562	341.81
364.788	314.81
365.015	331.81
365.241	348.81
365.468	355.81
365.694	351.81
365.92	345.81
366.147	334.81
366.373	325.81
366.599	318.81
366.826	323.81
367.052	309.81
367.278	345.81
367.505	329.81
367.731	342.81
367.957	353.81
368.184	336.81
368.41	338.81
368.636	343.81
368.862	335.81
369.089	351.81
369.315	355.81
369.541	325.81
369.767	331.81
369.993	335.81
370.219	333.81
370.445	332.81
370.672	342.81
370.898	326.81
371.124	325.81
371.35	331.81
371.576	323.81
371.802	308.81
372.028	320.81
372.254	312.81
372.48	318.81
372.706	323.81
372.932	317.81
373.158	326.81
373.384	330.81
373.61	330.81
373.835	341.81
374.061	323.81
374.287	332.81
374.513	348.81
374.739	353.81
374.965	325.81
375.191	329.81
375.416	335.81
375.642	327.81
375.868	331.81
376.094	333.81
376.319	343.81
376.545	326.81
376.771	320.81
376.997	333.81
377.222	323.81
377.448	321.81
377.674	319.81
377.899	325.81
378.125	324.81
378.35	323.81
378.576	315.81
378.802	319.81
379.027	312.81
379.253	319.81
379.478	322.81
379.704	312.81
379.929	321.81
380.155	315.81
380.38	325.81
380.606	318.81
380.831	326.81
381.057	328.81
381.282	333.81
381.507	306.81
381.733	328.81
381.958	313.81
382.184	328.81
382.409	329.81
382.634	331.81
382.86	331.81
383.085	326.81
383.31	329.81
383.535	356.81
383.761	345.81
383.986	327.81
384.211	353.81
384.436	327.81
384.662	330.81
384.887	356.81
385.112	334.81
385.337	337.81
385.562	356.81
385.787	356.81
386.013	358.81
386.238	362.81
386.463	374.81
386.688	350.81
386.913	349.81
387.138	354.81
387.363	372.81
387.588	351.81
387.813	340.81
388.038	340.81
388.263	354.81
388.488	356.81
388.713	339.81
388.938	349.81
389.163	363.81
389.387	345.81
389.612	336.81
389.837	363.81
390.062	336.81
390.287	337.81
390.512	335.81
390.736	341.81
390.961	341.81
391.186	357.81
391.411	369.81
391.636	353.81
391.86	355.81
392.085	351.81
392.31	359.81
392.534	348.81
392.759	357.81
392.984	339.81
393.208	345.81
393.433	339.81
393.658	364.81
393.882	346.81
394.107	354.81
394.331	331.81
394.556	342.81
394.78	374.81
395.005	356.81
395.229	362.81
395.454	366.81
395.678	353.81
395.903	375.81
396.127	377.81
396.352	381.81
396.576	379.81
396.801	358.81
397.025	364.81
397.249	383.81
397.474	382.81
397.698	392.81
397.922	396.81
398.147	394.81
398.371	383.81
398.595	393.81
398.82	394.81
399.044	382.81
399.268	406.81
399.492	420.81
399.717	438.81
399.941	448.81
400.165	476.81
400.389	492.81
400.613	459.81
400.837	427.81
401.062	420.81
401.286	404.81
401.51	382.81
401.734	406.81
401.958	409.81
402.182	412.81
402.406	419.81
402.63	403.81
402.854	400.81
403.078	395.81
403.302	410.81
403.526	411.81
403.75	386.81
403.974	405.81
404.198	402.81
404.422	410.81
404.645	437.81
404.869	434.81
405.093	449.81
405.317	510.81
405.541	513.81
405.765	472.81
405.988	433.81
406.212	441.81
406.436	472.81
406.66	469.81
406.883	469.81
407.107	477.81
407.331	501.81
407.555	575.81
407.778	593.81
408.002	509.81
408.226	462.81
408.449	467.81
408.673	469.81
408.896	502.81
409.12	513.81
409.344	497.81
409.567	449.81
409.791	427.81
410.014	422.81
410.238	425.81
410.461	428.81
410.685	424.81
410.908	435.81
411.132	465.81
411.355	505.81
411.578	454.81
411.802	435.81
412.025	438.81
412.249	437.81
412.472	442.81
412.695	476.81
412.919	472.81
413.142	423.81
413.365	423.81
413.589	434.81
413.812	409.81
414.035	403.81
414.258	401.81
414.482	379.81
414.705	365.81
414.928	379.81
415.151	393.81
415.374	401.81
415.597	392.81
415.821	381.81
416.044	402.81
416.267	394.81
416.49	386.81
416.713	378.81
416.936	413.81
417.159	391.81
417.382	416.81
417.605	400.81
417.828	414.81
418.051	438.81
418.274	407.81
418.497	394.81
418.72	391.81
418.943	404.81
419.166	419.81
419.389	421.81
419.611	410.81
419.834	421.81
420.057	449.81
420.28	407.81
420.503	423.81
420.726	424.81
420.948	443.81
421.171	476.81
421.394	482.81
421.617	436.81
421.839	437.81
422.062	437.81
422.285	428.81
422.507	478.81
422.73	579.81
422.953	514.81
423.175	470.81
423.398	444.81
423.621	443.81
423.843	453.81
424.066	461.81
424.288	457.81
424.511	486.81
424.733	515.81
424.956	579.81
425.178	556.81
425.401	561.81
425.623	575.81
425.846	515.81
426.068	472.81
426.291	480.81
426.513	451.81
426.735	463.81
426.958	487.81
427.18	566.81
427.402	706.81
427.625	759.81
427.847	697.81
428.069	604.81
428.292	502.81
428.514	495.81
428.736	463.81
428.958	422.81
429.181	433.81
429.403	416.81
429.625	447.81
429.847	478.81
430.069	539.81
430.292	525.81
430.514	451.81
430.736	407.81
430.958	422.81
431.18	400.81
431.402	403.81
431.624	398.81
431.846	413.81
432.068	403.81
432.29	414.81
432.512	408.81
432.734	426.81
432.956	422.81
433.178	410.81
433.4	431.81
433.622	414.81
433.844	401.81
434.066	399.81
434.287	387.81
434.509	414.81
434.731	407.81
434.953	428.81
435.175	421.81
435.397	450.81
435.618	446.81
435.84	519.81
436.062	596.81
436.284	661.81
436.505	521.81
436.727	467.81
436.949	430.81
437.17	449.81
437.392	423.81
437.614	464.81
437.835	489.81
438.057	589.81
438.278	652.81
438.5	671.81
438.721	701.81
438.943	678.81
439.165	565.81
439.386	496.81
439.608	497.81
439.829	480.81
440.05	521.81
440.272	569.81
440.493	523.81
440.715	476.81
440.936	445.81
441.158	435.81
441.379	442.81
441.6	455.81
441.822	469.81
442.043	498.81
442.264	603.81
442.486	633.81
442.707	535.81
442.928	493.81
443.149	516.81
443.371	519.81
443.592	523.81
443.813	633.81
444.034	663.81
444.255	561.81
444.476	507.81
444.698	475.81
444.919	437.81
445.14	573.81
445.361	502.81
445.582	505.81
445.803	598.81
446.024	679.81
446.245	677.81
446.466	597.81
446.687	498.81
446.908	487.81
447.129	449.81
447.35	441.81
447.571	442.81
447.792	443.81
448.013	450.81
448.234	466.81
448.455	523.81
448.675	588.81
448.896	676.81
449.117	595.81
449.338	565.81
449.559	653.81
449.779	699.81
450	595.81
450.221	487.81
450.442	458.81
450.662	427.81
450.883	452.81
451.104	440.81
451.324	439.81
451.545	430.81
451.766	407.81
451.986	406.81
452.207	380.81
452.428	401.81
452.648	376.81
452.869	408.81
453.089	413.81
453.31	413.81
453.53	413.81
453.751	378.81
453.971	396.81
454.192	437.81
454.412	419.81
454.633	405.81
454.853	409.81
455.073	380.81
455.294	428.81
455.514	497.81
455.734	452.81
455.955	403.81
456.175	370.81
456.395	385.81
456.616	362.81
456.836	373.81
457.056	376.81
457.276	364.81
457.497	361.81
457.717	381.81
457.937	374.81
458.157	391.81
458.377	386.81
458.598	411.81
458.818	470.81
459.038	541.81
459.258	581.81
459.478	467.81
459.698	428.81
459.918	408.81
460.138	404.81
460.358	403.81
460.578	399.81
460.798	404.81
461.018	391.81
461.238	393.81
461.458	395.81
461.678	399.81
461.898	377.81
462.118	400.81
462.338	428.81
462.558	403.81
462.777	424.81
462.997	436.81
463.217	435.81
463.437	426.81
463.657	427.81
463.876	429.81
464.096	423.81
464.316	411.81
464.536	436.81
464.755	441.81
464.975	455.81
465.195	496.81
465.414	587.81
465.634	505.81
465.854	452.81
466.073	437.81
466.293	427.81
466.512	424.81
466.732	392.81
466.951	405.81
467.171	399.81
467.391	409.81
467.61	408.81
467.829	413.81
468.049	412.81
468.268	430.81
468.488	412.81
468.707	411.81
468.927	395.81
469.146	405.81
469.365	381.81
469.585	399.81
469.804	387.81
470.023	405.81
470.243	393.81
470.462	415.81
470.681	439.81
470.901	420.81
471.12	398.81
471.339	421.81
471.558	417.81
471.777	405.81
471.997	398.81
472.216	405.81
472.435	455.81
472.654	416.81
472.873	428.81
473.092	399.81
473.311	419.81
473.53	411.81
473.749	421.81
473.968	469.81
474.187	546.81
474.406	558.81
474.625	481.81
474.844	441.81
475.063	409.81
475.282	429.81
475.501	406.81
475.72	413.81
475.939	412.81
476.158	420.81
476.377	411.81
476.596	419.81
476.814	428.81
477.033	434.81
477.252	433.81
477.471	434.81
477.69	442.81
477.908	413.81
478.127	426.81
478.346	429.81
478.564	433.81
478.783	443.81
479.002	439.81
479.22	464.81
479.439	467.81
479.658	491.81
479.876	508.81
480.095	496.81
480.313	501.81
480.532	498.81
480.751	481.81
480.969	518.81
481.188	569.81
481.406	589.81
481.624	534.81
481.843	502.81
482.061	480.81
482.28	472.81
482.498	481.81
482.717	466.81
482.935	477.81
483.153	472.81
483.372	485.81
483.59	457.81
483.808	472.81
484.027	474.81
484.245	475.81
484.463	472.81
484.681	485.81
484.9	479.81
485.118	486.81
485.336	476.81
485.554	499.81
485.772	514.81
485.99	488.81
486.209	511.81
486.427	503.81
486.645	496.81
486.863	532.81
487.081	532.81
487.299	523.81
487.517	510.81
487.735	534.81
487.953	507.81
488.171	487.81
488.389	509.81
488.607	515.81
488.825	504.81
489.043	513.81
489.261	515.81
489.479	508.81
489.696	538.81
489.914	538.81
490.132	510.81
490.35	528.81
490.568	538.81
490.786	548.81
491.003	552.81
491.221	552.81
491.439	575.81
491.657	565.81
491.874	567.81
492.092	571.81
492.31	587.81
492.527	557.81
492.745	590.81
492.963	594.81
493.18	620.81
493.398	599.81
493.615	585.81
493.833	610.81
494.05	610.81
494.268	604.81
494.485	605.81
494.703	594.81
494.92	599.81
495.138	610.81
495.355	606.81
495.573	623.81
495.79	590.81
496.008	597.81
496.225	610.81
496.442	604.81
496.66	608.81
496.877	621.81
497.094	630.81
497.312	610.81
497.529	615.81
497.746	629.81
497.963	629.81
498.181	635.81
498.398	641.81
498.615	654.81
498.832	667.81
499.049	674.81
499.267	677.81
499.484	705.81
499.701	705.81
499.918	729.81
500.135	744.81
500.352	730.81
500.569	737.81
500.786	767.81
501.003	753.81
501.22	735.81
501.437	725.81
501.654	734.81
501.871	727.81
