Data from 1961.PennyLincolnUp.Lamp.En5.5.200Scan.071719.P1._HRD10591_13-47-25-063.txt Node
Date: Thu Jul 18 13:47:25 EDT 2019
User: cochatt
Spectrometer: HR+D1059
Trigger mode: 1
Integration Time (sec): 1.000000E-1
Scans to average: 1
Electric dark correction enabled: true
Nonlinearity correction enabled: false
Boxcar width: 0
XAxis mode: Wavelengths
Number of Pixels in Spectrum: 2048
>>>>>Begin Spectral Data<<<<<
223.165	-14.06
223.4	-14.06
223.635	-14.06
223.869	-27.06
224.104	-17.06
224.338	-13.06
224.573	-10.06
224.808	-1.06
225.042	-4.06
225.277	-20.06
225.511	-3.06
225.746	-20.06
225.98	6.94
226.215	16.94
226.449	5.94
226.683	19.94
226.918	26.94
227.152	52.94
227.387	35.94
227.621	36.94
227.856	52.94
228.09	46.94
228.324	40.94
228.559	40.94
228.793	70.94
229.027	85.94
229.262	102.94
229.496	115.94
229.73	119.94
229.964	150.94
230.199	113.94
230.433	96.94
230.667	103.94
230.901	105.94
231.136	108.94
231.37	120.94
231.604	99.94
231.838	100.94
232.072	121.94
232.306	110.94
232.541	107.94
232.775	107.94
233.009	99.94
233.243	93.94
233.477	102.94
233.711	106.94
233.945	105.94
234.179	114.94
234.413	113.94
234.647	100.94
234.881	111.94
235.115	114.94
235.349	98.94
235.583	111.94
235.817	110.94
236.051	118.94
236.285	99.94
236.519	110.94
236.753	107.94
236.987	128.94
237.221	150.94
237.455	204.94
237.689	175.94
237.922	141.94
238.156	118.94
238.39	111.94
238.624	112.94
238.858	99.94
239.091	112.94
239.325	116.94
239.559	118.94
239.793	122.94
240.027	118.94
240.26	124.94
240.494	135.94
240.728	127.94
240.961	135.94
241.195	134.94
241.429	110.94
241.662	112.94
241.896	108.94
242.13	114.94
242.363	119.94
242.597	138.94
242.83	134.94
243.064	127.94
243.298	126.94
243.531	128.94
243.765	127.94
243.998	126.94
244.232	127.94
244.465	116.94
244.699	131.94
244.932	124.94
245.166	127.94
245.399	125.94
245.633	128.94
245.866	136.94
246.099	130.94
246.333	126.94
246.566	132.94
246.8	121.94
247.033	128.94
247.266	131.94
247.5	140.94
247.733	145.94
247.966	139.94
248.2	140.94
248.433	146.94
248.666	144.94
248.899	158.94
249.133	174.94
249.366	169.94
249.599	165.94
249.832	155.94
250.066	146.94
250.299	154.94
250.532	170.94
250.765	166.94
250.998	187.94
251.231	177.94
251.465	187.94
251.698	184.94
251.931	163.94
252.164	169.94
252.397	169.94
252.63	164.94
252.863	160.94
253.096	199.94
253.329	192.94
253.562	186.94
253.795	186.94
254.028	184.94
254.261	204.94
254.494	190.94
254.727	205.94
254.96	223.94
255.193	220.94
255.426	204.94
255.659	186.94
255.892	206.94
256.124	191.94
256.357	198.94
256.59	195.94
256.823	169.94
257.056	171.94
257.289	186.94
257.521	181.94
257.754	170.94
257.987	176.94
258.22	182.94
258.452	156.94
258.685	170.94
258.918	161.94
259.151	194.94
259.383	187.94
259.616	180.94
259.849	187.94
260.081	187.94
260.314	204.94
260.547	223.94
260.779	195.94
261.012	214.94
261.244	201.94
261.477	169.94
261.71	193.94
261.942	178.94
262.175	193.94
262.407	194.94
262.64	182.94
262.872	180.94
263.105	165.94
263.337	174.94
263.57	185.94
263.802	184.94
264.035	173.94
264.267	170.94
264.499	182.94
264.732	187.94
264.964	178.94
265.197	178.94
265.429	176.94
265.661	172.94
265.894	169.94
266.126	183.94
266.358	184.94
266.591	182.94
266.823	170.94
267.055	178.94
267.287	195.94
267.52	199.94
267.752	194.94
267.984	195.94
268.216	187.94
268.448	190.94
268.681	187.94
268.913	209.94
269.145	208.94
269.377	221.94
269.609	212.94
269.841	201.94
270.073	230.94
270.306	245.94
270.538	263.94
270.77	255.94
271.002	235.94
271.234	238.94
271.466	228.94
271.698	268.94
271.93	268.94
272.162	253.94
272.394	257.94
272.626	261.94
272.858	236.94
273.09	243.94
273.322	215.94
273.553	189.94
273.785	232.94
274.017	219.94
274.249	223.94
274.481	228.94
274.713	227.94
274.945	210.94
275.176	207.94
275.408	210.94
275.64	217.94
275.872	210.94
276.104	214.94
276.335	214.94
276.567	219.94
276.799	236.94
277.031	272.94
277.262	264.94
277.494	260.94
277.726	235.94
277.957	231.94
278.189	230.94
278.421	224.94
278.652	215.94
278.884	213.94
279.115	210.94
279.347	204.94
279.579	210.94
279.81	222.94
280.042	223.94
280.273	213.94
280.505	222.94
280.736	231.94
280.968	210.94
281.199	214.94
281.431	216.94
281.662	210.94
281.894	225.94
282.125	222.94
282.356	242.94
282.588	244.94
282.819	266.94
283.051	234.94
283.282	212.94
283.513	210.94
283.745	207.94
283.976	213.94
284.207	217.94
284.439	227.94
284.67	228.94
284.901	218.94
285.132	230.94
285.364	227.94
285.595	218.94
285.826	217.94
286.057	210.94
286.288	221.94
286.52	237.94
286.751	215.94
286.982	220.94
287.213	224.94
287.444	224.94
287.675	223.94
287.906	233.94
288.138	251.94
288.369	238.94
288.6	233.94
288.831	252.94
289.062	233.94
289.293	243.94
289.524	235.94
289.755	213.94
289.986	231.94
290.217	235.94
290.448	224.94
290.679	248.94
290.91	226.94
291.141	221.94
291.371	238.94
291.602	232.94
291.833	230.94
292.064	238.94
292.295	235.94
292.526	216.94
292.757	219.94
292.987	232.94
293.218	233.94
293.449	239.94
293.68	240.94
293.91	220.94
294.141	227.94
294.372	222.94
294.603	225.94
294.833	214.94
295.064	222.94
295.295	229.94
295.525	231.94
295.756	239.94
295.987	232.94
296.217	276.94
296.448	280.94
296.679	246.94
296.909	244.94
297.14	234.94
297.37	237.94
297.601	238.94
297.831	263.94
298.062	244.94
298.292	252.94
298.523	238.94
298.753	240.94
298.984	243.94
299.214	250.94
299.445	243.94
299.675	256.94
299.905	246.94
300.136	243.94
300.366	253.94
300.597	253.94
300.827	267.94
301.057	246.94
301.288	253.94
301.518	267.94
301.748	254.94
301.979	256.94
302.209	267.94
302.439	257.94
302.669	240.94
302.9	263.94
303.13	270.94
303.36	242.94
303.59	254.94
303.82	270.94
304.051	272.94
304.281	274.94
304.511	251.94
304.741	268.94
304.971	265.94
305.201	255.94
305.431	254.94
305.661	270.94
305.891	282.94
306.121	257.94
306.352	272.94
306.582	279.94
306.812	250.94
307.042	261.94
307.272	287.94
307.502	282.94
307.731	270.94
307.961	267.94
308.191	250.94
308.421	281.94
308.651	289.94
308.881	273.94
309.111	270.94
309.341	283.94
309.571	295.94
309.8	307.94
310.03	299.94
310.26	307.94
310.49	324.94
310.72	315.94
310.949	324.94
311.179	332.94
311.409	323.94
311.639	290.94
311.868	333.94
312.098	298.94
312.328	309.94
312.557	332.94
312.787	333.94
313.017	344.94
313.246	314.94
313.476	329.94
313.706	298.94
313.935	307.94
314.165	322.94
314.394	333.94
314.624	339.94
314.853	321.94
315.083	291.94
315.312	297.94
315.542	294.94
315.771	290.94
316.001	306.94
316.23	311.94
316.46	323.94
316.689	296.94
316.919	310.94
317.148	326.94
317.377	325.94
317.607	321.94
317.836	315.94
318.065	316.94
318.295	325.94
318.524	303.94
318.753	297.94
318.983	308.94
319.212	319.94
319.441	320.94
319.67	332.94
319.9	313.94
320.129	310.94
320.358	312.94
320.587	327.94
320.816	341.94
321.046	332.94
321.275	342.94
321.504	335.94
321.733	329.94
321.962	327.94
322.191	344.94
322.42	375.94
322.649	354.94
322.878	397.94
323.108	378.94
323.337	414.94
323.566	467.94
323.795	474.94
324.024	506.94
324.253	656.94
324.482	971.94
324.71	1503.94
324.939	2074.94
325.168	1746.94
325.397	915.94
325.626	615.94
325.855	497.94
326.084	438.94
326.313	431.94
326.542	458.94
326.77	510.94
326.999	611.94
327.228	859.94
327.457	1310.94
327.686	1536.94
327.914	1014.94
328.143	675.94
328.372	580.94
328.6	526.94
328.829	514.94
329.058	514.94
329.287	516.94
329.515	471.94
329.744	448.94
329.972	440.94
330.201	451.94
330.43	504.94
330.658	535.94
330.887	549.94
331.115	524.94
331.344	450.94
331.572	428.94
331.801	420.94
332.03	391.94
332.258	384.94
332.486	398.94
332.715	366.94
332.943	376.94
333.172	368.94
333.4	368.94
333.629	362.94
333.857	393.94
334.085	398.94
334.314	415.94
334.542	458.94
334.771	462.94
334.999	432.94
335.227	385.94
335.455	401.94
335.684	376.94
335.912	376.94
336.14	356.94
336.369	364.94
336.597	383.94
336.825	378.94
337.053	353.94
337.281	354.94
337.51	336.94
337.738	361.94
337.966	351.94
338.194	351.94
338.422	359.94
338.65	371.94
338.878	355.94
339.106	359.94
339.334	358.94
339.562	340.94
339.79	333.94
340.018	352.94
340.246	351.94
340.474	359.94
340.702	360.94
340.93	333.94
341.158	330.94
341.386	351.94
341.614	347.94
341.842	357.94
342.07	355.94
342.298	327.94
342.526	353.94
342.754	326.94
342.981	346.94
343.209	340.94
343.437	362.94
343.665	342.94
343.893	340.94
344.12	357.94
344.348	352.94
344.576	349.94
344.804	371.94
345.031	368.94
345.259	374.94
345.487	356.94
345.714	338.94
345.942	339.94
346.17	347.94
346.397	340.94
346.625	340.94
346.853	331.94
347.08	346.94
347.308	321.94
347.535	327.94
347.763	344.94
347.99	364.94
348.218	359.94
348.445	367.94
348.673	356.94
348.9	330.94
349.128	323.94
349.355	316.94
349.583	333.94
349.81	315.94
350.037	336.94
350.265	331.94
350.492	336.94
350.72	345.94
350.947	343.94
351.174	344.94
351.402	351.94
351.629	349.94
351.856	357.94
352.083	352.94
352.311	359.94
352.538	360.94
352.765	370.94
352.992	342.94
353.22	329.94
353.447	336.94
353.674	349.94
353.901	313.94
354.128	333.94
354.355	318.94
354.583	318.94
354.81	320.94
355.037	316.94
355.264	314.94
355.491	312.94
355.718	307.94
355.945	302.94
356.172	305.94
356.399	323.94
356.626	306.94
356.853	309.94
357.08	319.94
357.307	294.94
357.534	323.94
357.761	318.94
357.988	305.94
358.215	300.94
358.441	304.94
358.668	316.94
358.895	312.94
359.122	331.94
359.349	326.94
359.576	349.94
359.802	362.94
360.029	377.94
360.256	384.94
360.483	396.94
360.709	350.94
360.936	344.94
361.163	325.94
361.39	344.94
361.616	346.94
361.843	356.94
362.07	362.94
362.296	352.94
362.523	343.94
362.749	354.94
362.976	336.94
363.203	320.94
363.429	348.94
363.656	354.94
363.882	329.94
364.109	323.94
364.335	302.94
364.562	330.94
364.788	332.94
365.015	318.94
365.241	314.94
365.468	339.94
365.694	343.94
365.92	345.94
366.147	327.94
366.373	319.94
366.599	335.94
366.826	319.94
367.052	308.94
367.278	335.94
367.505	317.94
367.731	324.94
367.957	322.94
368.184	326.94
368.41	320.94
368.636	346.94
368.862	335.94
369.089	323.94
369.315	329.94
369.541	320.94
369.767	321.94
369.993	323.94
370.219	323.94
370.445	309.94
370.672	327.94
370.898	314.94
371.124	304.94
371.35	323.94
371.576	319.94
371.802	340.94
372.028	302.94
372.254	315.94
372.48	332.94
372.706	338.94
372.932	320.94
373.158	327.94
373.384	305.94
373.61	323.94
373.835	312.94
374.061	325.94
374.287	328.94
374.513	308.94
374.739	320.94
374.965	318.94
375.191	319.94
375.416	340.94
375.642	318.94
375.868	333.94
376.094	317.94
376.319	305.94
376.545	308.94
376.771	322.94
376.997	303.94
377.222	306.94
377.448	310.94
377.674	303.94
377.899	321.94
378.125	313.94
378.35	307.94
378.576	303.94
378.802	314.94
379.027	322.94
379.253	313.94
379.478	314.94
379.704	310.94
379.929	304.94
380.155	327.94
380.38	318.94
380.606	321.94
380.831	316.94
381.057	322.94
381.282	328.94
381.507	295.94
381.733	337.94
381.958	306.94
382.184	299.94
382.409	327.94
382.634	312.94
382.86	323.94
383.085	319.94
383.31	344.94
383.535	347.94
383.761	324.94
383.986	326.94
384.211	319.94
384.436	324.94
384.662	344.94
384.887	335.94
385.112	318.94
385.337	323.94
385.562	338.94
385.787	334.94
386.013	343.94
386.238	363.94
386.463	360.94
386.688	347.94
386.913	332.94
387.138	334.94
387.363	334.94
387.588	328.94
387.813	339.94
388.038	342.94
388.263	351.94
388.488	337.94
388.713	339.94
388.938	350.94
389.163	341.94
389.387	358.94
389.612	328.94
389.837	350.94
390.062	335.94
390.287	332.94
390.512	352.94
390.736	318.94
390.961	370.94
391.186	326.94
391.411	343.94
391.636	350.94
391.86	371.94
392.085	350.94
392.31	355.94
392.534	342.94
392.759	356.94
392.984	332.94
393.208	337.94
393.433	354.94
393.658	347.94
393.882	326.94
394.107	353.94
394.331	341.94
394.556	320.94
394.78	346.94
395.005	347.94
395.229	330.94
395.454	356.94
395.678	345.94
395.903	354.94
396.127	368.94
396.352	368.94
396.576	357.94
396.801	372.94
397.025	359.94
397.249	360.94
397.474	367.94
397.698	376.94
397.922	379.94
398.147	381.94
398.371	392.94
398.595	395.94
398.82	384.94
399.044	384.94
399.268	379.94
399.492	406.94
399.717	422.94
399.941	456.94
400.165	460.94
400.389	488.94
400.613	453.94
400.837	421.94
401.062	415.94
401.286	398.94
401.51	392.94
401.734	400.94
401.958	395.94
402.182	402.94
402.406	412.94
402.63	402.94
402.854	395.94
403.078	387.94
403.302	409.94
403.526	399.94
403.75	424.94
403.974	411.94
404.198	394.94
404.422	420.94
404.645	388.94
404.869	407.94
405.093	432.94
405.317	459.94
405.541	475.94
405.765	471.94
405.988	426.94
406.212	440.94
406.436	476.94
406.66	474.94
406.883	444.94
407.107	460.94
407.331	481.94
407.555	557.94
407.778	544.94
408.002	501.94
408.226	453.94
408.449	420.94
408.673	441.94
408.896	462.94
409.12	484.94
409.344	491.94
409.567	437.94
409.791	404.94
410.014	410.94
410.238	411.94
410.461	418.94
410.685	430.94
410.908	442.94
411.132	436.94
411.355	476.94
411.578	468.94
411.802	415.94
412.025	402.94
412.249	438.94
412.472	434.94
412.695	452.94
412.919	479.94
413.142	404.94
413.365	410.94
413.589	411.94
413.812	394.94
414.035	377.94
414.258	393.94
414.482	402.94
414.705	404.94
414.928	379.94
415.151	394.94
415.374	391.94
415.597	375.94
415.821	380.94
416.044	384.94
416.267	387.94
416.49	385.94
416.713	392.94
416.936	381.94
417.159	371.94
417.382	396.94
417.605	406.94
417.828	400.94
418.051	402.94
418.274	417.94
418.497	390.94
418.72	400.94
418.943	377.94
419.166	394.94
419.389	416.94
419.611	415.94
419.834	401.94
420.057	395.94
420.28	405.94
420.503	394.94
420.726	411.94
420.948	404.94
421.171	454.94
421.394	471.94
421.617	434.94
421.839	407.94
422.062	402.94
422.285	406.94
422.507	447.94
422.73	494.94
422.953	498.94
423.175	449.94
423.398	397.94
423.621	434.94
423.843	410.94
424.066	418.94
424.288	440.94
424.511	451.94
424.733	504.94
424.956	538.94
425.178	548.94
425.401	550.94
425.623	546.94
425.846	482.94
426.068	471.94
426.291	433.94
426.513	460.94
426.735	469.94
426.958	487.94
427.18	570.94
427.402	656.94
427.625	724.94
427.847	656.94
428.069	569.94
428.292	473.94
428.514	475.94
428.736	442.94
428.958	444.94
429.181	411.94
429.403	423.94
429.625	409.94
429.847	457.94
430.069	504.94
430.292	516.94
430.514	440.94
430.736	420.94
430.958	395.94
431.18	401.94
431.402	404.94
431.624	402.94
431.846	375.94
432.068	384.94
432.29	404.94
432.512	384.94
432.734	388.94
432.956	387.94
433.178	396.94
433.4	392.94
433.622	424.94
433.844	396.94
434.066	394.94
434.287	390.94
434.509	388.94
434.731	398.94
434.953	403.94
435.175	420.94
435.397	425.94
435.618	450.94
435.84	474.94
436.062	543.94
436.284	632.94
436.505	536.94
436.727	458.94
436.949	440.94
437.17	437.94
437.392	414.94
437.614	444.94
437.835	468.94
438.057	568.94
438.278	638.94
438.5	630.94
438.721	680.94
438.943	647.94
439.165	502.94
439.386	487.94
439.608	478.94
439.829	466.94
440.05	474.94
440.272	525.94
440.493	474.94
440.715	456.94
440.936	439.94
441.158	437.94
441.379	424.94
441.6	441.94
441.822	452.94
442.043	495.94
442.264	543.94
442.486	588.94
442.707	496.94
442.928	475.94
443.149	454.94
443.371	476.94
443.592	542.94
443.813	585.94
444.034	625.94
444.255	520.94
444.476	447.94
444.698	450.94
444.919	447.94
445.14	535.94
445.361	499.94
445.582	500.94
445.803	552.94
446.024	642.94
446.245	610.94
446.466	602.94
446.687	465.94
446.908	452.94
447.129	446.94
447.35	427.94
447.571	409.94
447.792	420.94
448.013	433.94
448.234	441.94
448.455	485.94
448.675	563.94
448.896	651.94
449.117	563.94
449.338	523.94
449.559	643.94
449.779	717.94
450	561.94
450.221	471.94
450.442	434.94
450.662	409.94
450.883	412.94
451.104	434.94
451.324	440.94
451.545	420.94
451.766	408.94
451.986	385.94
452.207	374.94
452.428	395.94
452.648	375.94
452.869	393.94
453.089	382.94
453.31	400.94
453.53	384.94
453.751	396.94
453.971	393.94
454.192	416.94
454.412	373.94
454.633	382.94
454.853	380.94
455.073	369.94
455.294	415.94
455.514	461.94
455.734	436.94
455.955	402.94
456.175	366.94
456.395	364.94
456.616	362.94
456.836	367.94
457.056	340.94
457.276	366.94
457.497	342.94
457.717	359.94
457.937	357.94
458.157	363.94
458.377	354.94
458.598	394.94
458.818	444.94
459.038	500.94
459.258	498.94
459.478	424.94
459.698	402.94
459.918	398.94
460.138	380.94
460.358	394.94
460.578	399.94
460.798	387.94
461.018	408.94
461.238	398.94
461.458	396.94
461.678	382.94
461.898	387.94
462.118	396.94
462.338	389.94
462.558	418.94
462.777	409.94
462.997	412.94
463.217	412.94
463.437	424.94
463.657	399.94
463.876	396.94
464.096	417.94
464.316	410.94
464.536	396.94
464.755	418.94
464.975	430.94
465.195	481.94
465.414	572.94
465.634	489.94
465.854	448.94
466.073	393.94
466.293	380.94
466.512	397.94
466.732	397.94
466.951	373.94
467.171	394.94
467.391	372.94
467.61	396.94
467.829	396.94
468.049	404.94
468.268	390.94
468.488	395.94
468.707	386.94
468.927	382.94
469.146	374.94
469.365	378.94
469.585	386.94
469.804	379.94
470.023	402.94
470.243	402.94
470.462	396.94
470.681	401.94
470.901	426.94
471.12	409.94
471.339	387.94
471.558	396.94
471.777	399.94
471.997	374.94
472.216	388.94
472.435	456.94
472.654	417.94
472.873	393.94
473.092	405.94
473.311	400.94
473.53	405.94
473.749	391.94
473.968	443.94
474.187	523.94
474.406	544.94
474.625	468.94
474.844	394.94
475.063	427.94
475.282	408.94
475.501	404.94
475.72	397.94
475.939	408.94
476.158	414.94
476.377	405.94
476.596	408.94
476.814	442.94
477.033	435.94
477.252	418.94
477.471	400.94
477.69	433.94
477.908	427.94
478.127	442.94
478.346	424.94
478.564	427.94
478.783	432.94
479.002	439.94
479.22	432.94
479.439	453.94
479.658	464.94
479.876	465.94
480.095	464.94
480.313	495.94
480.532	459.94
480.751	471.94
480.969	458.94
481.188	556.94
481.406	596.94
481.624	524.94
481.843	478.94
482.061	474.94
482.28	467.94
482.498	454.94
482.717	451.94
482.935	456.94
483.153	452.94
483.372	457.94
483.59	486.94
483.808	466.94
484.027	438.94
484.245	476.94
484.463	472.94
484.681	450.94
484.9	484.94
485.118	471.94
485.336	470.94
485.554	444.94
485.772	491.94
485.99	452.94
486.209	495.94
486.427	480.94
486.645	469.94
486.863	517.94
487.081	523.94
487.299	517.94
487.517	500.94
487.735	487.94
487.953	500.94
488.171	494.94
488.389	493.94
488.607	480.94
488.825	495.94
489.043	499.94
489.261	474.94
489.479	494.94
489.696	512.94
489.914	496.94
490.132	497.94
490.35	530.94
490.568	514.94
490.786	518.94
491.003	537.94
491.221	528.94
491.439	544.94
491.657	566.94
491.874	565.94
492.092	551.94
492.31	562.94
492.527	572.94
492.745	577.94
492.963	555.94
493.18	562.94
493.398	556.94
493.615	565.94
493.833	551.94
494.05	576.94
494.268	585.94
494.485	583.94
494.703	586.94
494.92	566.94
495.138	592.94
495.355	585.94
495.573	613.94
495.79	591.94
496.008	594.94
496.225	577.94
496.442	593.94
496.66	593.94
496.877	587.94
497.094	596.94
497.312	602.94
497.529	565.94
497.746	606.94
497.963	622.94
498.181	622.94
498.398	614.94
498.615	632.94
498.832	648.94
499.049	651.94
499.267	657.94
499.484	694.94
499.701	699.94
499.918	714.94
500.135	708.94
500.352	726.94
500.569	710.94
500.786	744.94
501.003	737.94
501.22	723.94
501.437	707.94
501.654	711.94
501.871	716.94
502.088	711.94
