Data from 1961.PennyLincolnUp.Lamp.En5.5.200Scan.071719.P1._HRD10591_13-47-04-056.txt Node
Date: Thu Jul 18 13:47:04 EDT 2019
User: cochatt
Spectrometer: HR+D1059
Trigger mode: 1
Integration Time (sec): 1.000000E-1
Scans to average: 1
Electric dark correction enabled: true
Nonlinearity correction enabled: false
Boxcar width: 0
XAxis mode: Wavelengths
Number of Pixels in Spectrum: 2048
>>>>>Begin Spectral Data<<<<<
223.165	-6.06
223.4	-6.06
223.635	-6.06
223.869	-9.06
224.104	-19.06
224.338	-21.06
224.573	-22.06
224.808	-25.06
225.042	-0.06
225.277	5.94
225.511	-8.06
225.746	-3.06
225.98	1.94
226.215	1.94
226.449	12.94
226.683	28.94
226.918	25.94
227.152	35.94
227.387	26.94
227.621	50.94
227.856	45.94
228.09	56.94
228.324	58.94
228.559	46.94
228.793	65.94
229.027	88.94
229.262	91.94
229.496	108.94
229.73	111.94
229.964	128.94
230.199	112.94
230.433	97.94
230.667	102.94
230.901	91.94
231.136	108.94
231.37	107.94
231.604	102.94
231.838	94.94
232.072	110.94
232.306	114.94
232.541	97.94
232.775	114.94
233.009	102.94
233.243	98.94
233.477	101.94
233.711	110.94
233.945	101.94
234.179	99.94
234.413	102.94
234.647	107.94
234.881	103.94
235.115	106.94
235.349	93.94
235.583	110.94
235.817	113.94
236.051	122.94
236.285	129.94
236.519	115.94
236.753	116.94
236.987	121.94
237.221	167.94
237.455	186.94
237.689	179.94
237.922	144.94
238.156	143.94
238.39	115.94
238.624	108.94
238.858	114.94
239.091	115.94
239.325	109.94
239.559	105.94
239.793	124.94
240.027	122.94
240.26	131.94
240.494	144.94
240.728	143.94
240.961	134.94
241.195	124.94
241.429	122.94
241.662	112.94
241.896	116.94
242.13	105.94
242.363	123.94
242.597	105.94
242.83	120.94
243.064	132.94
243.298	125.94
243.531	113.94
243.765	115.94
243.998	121.94
244.232	124.94
244.465	116.94
244.699	109.94
244.932	123.94
245.166	118.94
245.399	132.94
245.633	126.94
245.866	136.94
246.099	125.94
246.333	126.94
246.566	124.94
246.8	125.94
247.033	137.94
247.266	129.94
247.5	128.94
247.733	125.94
247.966	147.94
248.2	148.94
248.433	163.94
248.666	143.94
248.899	162.94
249.133	176.94
249.366	182.94
249.599	170.94
249.832	162.94
250.066	165.94
250.299	156.94
250.532	176.94
250.765	172.94
250.998	182.94
251.231	188.94
251.465	195.94
251.698	173.94
251.931	153.94
252.164	160.94
252.397	135.94
252.63	163.94
252.863	157.94
253.096	176.94
253.329	188.94
253.562	195.94
253.795	162.94
254.028	174.94
254.261	181.94
254.494	186.94
254.727	197.94
254.96	220.94
255.193	228.94
255.426	196.94
255.659	191.94
255.892	186.94
256.124	187.94
256.357	188.94
256.59	172.94
256.823	164.94
257.056	184.94
257.289	175.94
257.521	191.94
257.754	172.94
257.987	176.94
258.22	150.94
258.452	169.94
258.685	165.94
258.918	185.94
259.151	181.94
259.383	162.94
259.616	168.94
259.849	189.94
260.081	194.94
260.314	204.94
260.547	192.94
260.779	187.94
261.012	186.94
261.244	188.94
261.477	191.94
261.71	172.94
261.942	189.94
262.175	201.94
262.407	193.94
262.64	192.94
262.872	173.94
263.105	181.94
263.337	188.94
263.57	159.94
263.802	186.94
264.035	187.94
264.267	164.94
264.499	182.94
264.732	168.94
264.964	165.94
265.197	166.94
265.429	171.94
265.661	170.94
265.894	160.94
266.126	171.94
266.358	185.94
266.591	157.94
266.823	161.94
267.055	182.94
267.287	176.94
267.52	185.94
267.752	183.94
267.984	200.94
268.216	180.94
268.448	183.94
268.681	205.94
268.913	194.94
269.145	211.94
269.377	217.94
269.609	211.94
269.841	218.94
270.073	214.94
270.306	216.94
270.538	238.94
270.77	233.94
271.002	226.94
271.234	230.94
271.466	238.94
271.698	251.94
271.93	238.94
272.162	248.94
272.394	237.94
272.626	241.94
272.858	220.94
273.09	212.94
273.322	204.94
273.553	207.94
273.785	209.94
274.017	220.94
274.249	188.94
274.481	181.94
274.713	209.94
274.945	226.94
275.176	210.94
275.408	210.94
275.64	208.94
275.872	211.94
276.104	215.94
276.335	211.94
276.567	193.94
276.799	215.94
277.031	254.94
277.262	248.94
277.494	258.94
277.726	235.94
277.957	220.94
278.189	222.94
278.421	218.94
278.652	218.94
278.884	219.94
279.115	214.94
279.347	220.94
279.579	225.94
279.81	226.94
280.042	204.94
280.273	211.94
280.505	225.94
280.736	182.94
280.968	190.94
281.199	210.94
281.431	217.94
281.662	208.94
281.894	217.94
282.125	240.94
282.356	230.94
282.588	255.94
282.819	242.94
283.051	205.94
283.282	212.94
283.513	213.94
283.745	222.94
283.976	218.94
284.207	211.94
284.439	214.94
284.67	224.94
284.901	227.94
285.132	188.94
285.364	220.94
285.595	233.94
285.826	227.94
286.057	202.94
286.288	205.94
286.52	228.94
286.751	211.94
286.982	218.94
287.213	208.94
287.444	196.94
287.675	240.94
287.906	235.94
288.138	251.94
288.369	222.94
288.6	222.94
288.831	223.94
289.062	218.94
289.293	226.94
289.524	238.94
289.755	240.94
289.986	231.94
290.217	204.94
290.448	226.94
290.679	215.94
290.91	231.94
291.141	226.94
291.371	215.94
291.602	213.94
291.833	208.94
292.064	228.94
292.295	219.94
292.526	217.94
292.757	223.94
292.987	229.94
293.218	234.94
293.449	223.94
293.68	193.94
293.91	228.94
294.141	211.94
294.372	225.94
294.603	225.94
294.833	208.94
295.064	232.94
295.295	242.94
295.525	221.94
295.756	238.94
295.987	233.94
296.217	241.94
296.448	264.94
296.679	256.94
296.909	227.94
297.14	227.94
297.37	220.94
297.601	244.94
297.831	241.94
298.062	237.94
298.292	245.94
298.523	246.94
298.753	231.94
298.984	250.94
299.214	238.94
299.445	242.94
299.675	250.94
299.905	254.94
300.136	253.94
300.366	242.94
300.597	252.94
300.827	256.94
301.057	252.94
301.288	263.94
301.518	251.94
301.748	238.94
301.979	259.94
302.209	247.94
302.439	266.94
302.669	238.94
302.9	254.94
303.13	247.94
303.36	253.94
303.59	260.94
303.82	276.94
304.051	261.94
304.281	246.94
304.511	244.94
304.741	256.94
304.971	234.94
305.201	264.94
305.431	258.94
305.661	242.94
305.891	252.94
306.121	244.94
306.352	249.94
306.582	264.94
306.812	251.94
307.042	270.94
307.272	255.94
307.502	249.94
307.731	270.94
307.961	251.94
308.191	262.94
308.421	262.94
308.651	253.94
308.881	265.94
309.111	282.94
309.341	269.94
309.571	280.94
309.8	281.94
310.03	294.94
310.26	300.94
310.49	278.94
310.72	294.94
310.949	315.94
311.179	321.94
311.409	296.94
311.639	285.94
311.868	284.94
312.098	310.94
312.328	312.94
312.557	324.94
312.787	320.94
313.017	322.94
313.246	305.94
313.476	278.94
313.706	298.94
313.935	307.94
314.165	300.94
314.394	306.94
314.624	301.94
314.853	297.94
315.083	273.94
315.312	301.94
315.542	317.94
315.771	289.94
316.001	288.94
316.23	298.94
316.46	298.94
316.689	294.94
316.919	299.94
317.148	294.94
317.377	304.94
317.607	308.94
317.836	289.94
318.065	319.94
318.295	298.94
318.524	298.94
318.753	293.94
318.983	290.94
319.212	286.94
319.441	308.94
319.67	306.94
319.9	304.94
320.129	283.94
320.358	292.94
320.587	320.94
320.816	304.94
321.046	320.94
321.275	323.94
321.504	312.94
321.733	313.94
321.962	331.94
322.191	338.94
322.42	356.94
322.649	372.94
322.878	379.94
323.108	359.94
323.337	388.94
323.566	413.94
323.795	450.94
324.024	466.94
324.253	598.94
324.482	890.94
324.71	1350.94
324.939	1861.94
325.168	1587.94
325.397	838.94
325.626	555.94
325.855	479.94
326.084	448.94
326.313	418.94
326.542	429.94
326.77	466.94
326.999	578.94
327.228	789.94
327.457	1169.94
327.686	1379.94
327.914	939.94
328.143	615.94
328.372	538.94
328.6	499.94
328.829	460.94
329.058	473.94
329.287	489.94
329.515	461.94
329.744	426.94
329.972	426.94
330.201	445.94
330.43	466.94
330.658	504.94
330.887	511.94
331.115	489.94
331.344	413.94
331.572	398.94
331.801	391.94
332.03	374.94
332.258	371.94
332.486	354.94
332.715	349.94
332.943	344.94
333.172	334.94
333.4	365.94
333.629	378.94
333.857	374.94
334.085	369.94
334.314	384.94
334.542	429.94
334.771	444.94
334.999	395.94
335.227	351.94
335.455	364.94
335.684	349.94
335.912	333.94
336.14	340.94
336.369	337.94
336.597	344.94
336.825	362.94
337.053	359.94
337.281	361.94
337.51	325.94
337.738	329.94
337.966	375.94
338.194	337.94
338.422	359.94
338.65	337.94
338.878	345.94
339.106	321.94
339.334	334.94
339.562	322.94
339.79	310.94
340.018	341.94
340.246	336.94
340.474	330.94
340.702	331.94
340.93	341.94
341.158	348.94
341.386	344.94
341.614	334.94
341.842	329.94
342.07	333.94
342.298	331.94
342.526	317.94
342.754	321.94
342.981	322.94
343.209	329.94
343.437	333.94
343.665	316.94
343.893	336.94
344.12	325.94
344.348	330.94
344.576	341.94
344.804	343.94
345.031	360.94
345.259	365.94
345.487	352.94
345.714	347.94
345.942	340.94
346.17	332.94
346.397	313.94
346.625	327.94
346.853	325.94
347.08	329.94
347.308	339.94
347.535	336.94
347.763	340.94
347.99	330.94
348.218	332.94
348.445	338.94
348.673	338.94
348.9	348.94
349.128	328.94
349.355	314.94
349.583	296.94
349.81	327.94
350.037	314.94
350.265	334.94
350.492	299.94
350.72	309.94
350.947	322.94
351.174	330.94
351.402	334.94
351.629	322.94
351.856	327.94
352.083	348.94
352.311	350.94
352.538	346.94
352.765	349.94
352.992	341.94
353.22	311.94
353.447	317.94
353.674	333.94
353.901	300.94
354.128	322.94
354.355	315.94
354.583	314.94
354.81	322.94
355.037	308.94
355.264	297.94
355.491	308.94
355.718	291.94
355.945	312.94
356.172	290.94
356.399	286.94
356.626	314.94
356.853	316.94
357.08	306.94
357.307	311.94
357.534	302.94
357.761	296.94
357.988	288.94
358.215	306.94
358.441	296.94
358.668	299.94
358.895	315.94
359.122	298.94
359.349	309.94
359.576	345.94
359.802	341.94
360.029	357.94
360.256	395.94
360.483	343.94
360.709	335.94
360.936	350.94
361.163	334.94
361.39	340.94
361.616	333.94
361.843	325.94
362.07	325.94
362.296	330.94
362.523	331.94
362.749	309.94
362.976	316.94
363.203	323.94
363.429	309.94
363.656	307.94
363.882	305.94
364.109	309.94
364.335	315.94
364.562	302.94
364.788	322.94
365.015	330.94
365.241	331.94
365.468	326.94
365.694	324.94
365.92	328.94
366.147	312.94
366.373	325.94
366.599	310.94
366.826	314.94
367.052	315.94
367.278	308.94
367.505	326.94
367.731	310.94
367.957	307.94
368.184	326.94
368.41	326.94
368.636	323.94
368.862	314.94
369.089	307.94
369.315	318.94
369.541	309.94
369.767	317.94
369.993	318.94
370.219	316.94
370.445	300.94
370.672	304.94
370.898	292.94
371.124	294.94
371.35	315.94
371.576	333.94
371.802	300.94
372.028	309.94
372.254	312.94
372.48	320.94
372.706	325.94
372.932	301.94
373.158	287.94
373.384	314.94
373.61	321.94
373.835	305.94
374.061	301.94
374.287	310.94
374.513	317.94
374.739	316.94
374.965	322.94
375.191	320.94
375.416	297.94
375.642	294.94
375.868	308.94
376.094	315.94
376.319	326.94
376.545	292.94
376.771	304.94
376.997	304.94
377.222	309.94
377.448	302.94
377.674	288.94
377.899	300.94
378.125	285.94
378.35	301.94
378.576	298.94
378.802	315.94
379.027	292.94
379.253	297.94
379.478	290.94
379.704	308.94
379.929	284.94
380.155	305.94
380.38	321.94
380.606	320.94
380.831	305.94
381.057	315.94
381.282	313.94
381.507	296.94
381.733	304.94
381.958	315.94
382.184	315.94
382.409	317.94
382.634	307.94
382.86	301.94
383.085	304.94
383.31	306.94
383.535	327.94
383.761	304.94
383.986	316.94
384.211	300.94
384.436	334.94
384.662	302.94
384.887	318.94
385.112	310.94
385.337	303.94
385.562	316.94
385.787	339.94
386.013	350.94
386.238	326.94
386.463	336.94
386.688	317.94
386.913	329.94
387.138	306.94
387.363	325.94
387.588	330.94
387.813	345.94
388.038	324.94
388.263	342.94
388.488	321.94
388.713	335.94
388.938	347.94
389.163	348.94
389.387	326.94
389.612	318.94
389.837	314.94
390.062	332.94
390.287	317.94
390.512	310.94
390.736	334.94
390.961	325.94
391.186	312.94
391.411	305.94
391.636	354.94
391.86	321.94
392.085	331.94
392.31	347.94
392.534	340.94
392.759	335.94
392.984	337.94
393.208	337.94
393.433	340.94
393.658	329.94
393.882	334.94
394.107	335.94
394.331	358.94
394.556	331.94
394.78	329.94
395.005	313.94
395.229	333.94
395.454	341.94
395.678	352.94
395.903	352.94
396.127	373.94
396.352	380.94
396.576	353.94
396.801	351.94
397.025	365.94
397.249	363.94
397.474	346.94
397.698	354.94
397.922	384.94
398.147	364.94
398.371	365.94
398.595	364.94
398.82	372.94
399.044	385.94
399.268	395.94
399.492	398.94
399.717	415.94
399.941	418.94
400.165	458.94
400.389	446.94
400.613	424.94
400.837	407.94
401.062	377.94
401.286	393.94
401.51	385.94
401.734	379.94
401.958	370.94
402.182	380.94
402.406	400.94
402.63	364.94
402.854	388.94
403.078	384.94
403.302	373.94
403.526	405.94
403.75	396.94
403.974	388.94
404.198	376.94
404.422	395.94
404.645	391.94
404.869	409.94
405.093	425.94
405.317	465.94
405.541	460.94
405.765	427.94
405.988	408.94
406.212	413.94
406.436	440.94
406.66	435.94
406.883	416.94
407.107	416.94
407.331	463.94
407.555	524.94
407.778	492.94
408.002	463.94
408.226	462.94
408.449	426.94
408.673	429.94
408.896	462.94
409.12	520.94
409.344	464.94
409.567	416.94
409.791	408.94
410.014	399.94
410.238	402.94
410.461	414.94
410.685	399.94
410.908	401.94
411.132	429.94
411.355	452.94
411.578	420.94
411.802	396.94
412.025	402.94
412.249	408.94
412.472	428.94
412.695	440.94
412.919	439.94
413.142	432.94
413.365	399.94
413.589	409.94
413.812	369.94
414.035	387.94
414.258	378.94
414.482	370.94
414.705	347.94
414.928	380.94
415.151	357.94
415.374	364.94
415.597	347.94
415.821	373.94
416.044	347.94
416.267	382.94
416.49	370.94
416.713	395.94
416.936	371.94
417.159	361.94
417.382	363.94
417.605	370.94
417.828	396.94
418.051	398.94
418.274	392.94
418.497	365.94
418.72	378.94
418.943	372.94
419.166	389.94
419.389	402.94
419.611	382.94
419.834	376.94
420.057	393.94
420.28	397.94
420.503	386.94
420.726	397.94
420.948	395.94
421.171	442.94
421.394	460.94
421.617	410.94
421.839	402.94
422.062	398.94
422.285	392.94
422.507	441.94
422.73	529.94
422.953	481.94
423.175	424.94
423.398	403.94
423.621	386.94
423.843	433.94
424.066	426.94
424.288	444.94
424.511	441.94
424.733	461.94
424.956	540.94
425.178	528.94
425.401	519.94
425.623	526.94
425.846	468.94
426.068	438.94
426.291	428.94
426.513	419.94
426.735	439.94
426.958	465.94
427.18	545.94
427.402	633.94
427.625	692.94
427.847	615.94
428.069	539.94
428.292	464.94
428.514	425.94
428.736	412.94
428.958	413.94
429.181	379.94
429.403	398.94
429.625	409.94
429.847	447.94
430.069	470.94
430.292	480.94
430.514	412.94
430.736	410.94
430.958	397.94
431.18	394.94
431.402	368.94
431.624	368.94
431.846	374.94
432.068	362.94
432.29	380.94
432.512	392.94
432.734	374.94
432.956	376.94
433.178	386.94
433.4	389.94
433.622	385.94
433.844	387.94
434.066	380.94
434.287	388.94
434.509	393.94
434.731	376.94
434.953	399.94
435.175	380.94
435.397	422.94
435.618	434.94
435.84	450.94
436.062	529.94
436.284	581.94
436.505	482.94
436.727	441.94
436.949	406.94
437.17	419.94
437.392	387.94
437.614	417.94
437.835	459.94
438.057	535.94
438.278	591.94
438.5	602.94
438.721	636.94
438.943	605.94
439.165	512.94
439.386	476.94
439.608	452.94
439.829	438.94
440.05	477.94
440.272	501.94
440.493	466.94
440.715	432.94
440.936	437.94
441.158	414.94
441.379	392.94
441.6	411.94
441.822	438.94
442.043	472.94
442.264	518.94
442.486	548.94
442.707	490.94
442.928	450.94
443.149	454.94
443.371	472.94
443.592	502.94
443.813	544.94
444.034	612.94
444.255	483.94
444.476	427.94
444.698	433.94
444.919	433.94
445.14	492.94
445.361	472.94
445.582	490.94
445.803	512.94
446.024	593.94
446.245	601.94
446.466	546.94
446.687	472.94
446.908	452.94
447.129	406.94
447.35	398.94
447.571	381.94
447.792	398.94
448.013	398.94
448.234	417.94
448.455	467.94
448.675	537.94
448.896	638.94
449.117	545.94
449.338	502.94
449.559	596.94
449.779	654.94
450	526.94
450.221	446.94
450.442	415.94
450.662	420.94
450.883	418.94
451.104	429.94
451.324	393.94
451.545	390.94
451.766	382.94
451.986	374.94
452.207	380.94
452.428	348.94
452.648	356.94
452.869	373.94
453.089	370.94
453.31	386.94
453.53	373.94
453.751	364.94
453.971	354.94
454.192	389.94
454.412	390.94
454.633	363.94
454.853	363.94
455.073	385.94
455.294	390.94
455.514	432.94
455.734	426.94
455.955	357.94
456.175	360.94
456.395	352.94
456.616	335.94
456.836	353.94
457.056	353.94
457.276	334.94
457.497	353.94
457.717	338.94
457.937	353.94
458.157	352.94
458.377	363.94
458.598	377.94
458.818	416.94
459.038	499.94
459.258	493.94
459.478	438.94
459.698	404.94
459.918	394.94
460.138	377.94
460.358	364.94
460.578	372.94
460.798	390.94
461.018	391.94
461.238	363.94
461.458	351.94
461.678	370.94
461.898	375.94
462.118	373.94
462.338	375.94
462.558	374.94
462.777	397.94
462.997	394.94
463.217	392.94
463.437	413.94
463.657	397.94
463.876	427.94
464.096	411.94
464.316	395.94
464.536	415.94
464.755	415.94
464.975	428.94
465.195	461.94
465.414	516.94
465.634	462.94
465.854	430.94
466.073	409.94
466.293	391.94
466.512	383.94
466.732	393.94
466.951	373.94
467.171	375.94
467.391	380.94
467.61	370.94
467.829	374.94
468.049	392.94
468.268	390.94
468.488	373.94
468.707	374.94
468.927	374.94
469.146	372.94
469.365	375.94
469.585	352.94
469.804	369.94
470.023	374.94
470.243	371.94
470.462	387.94
470.681	401.94
470.901	393.94
471.12	360.94
471.339	368.94
471.558	382.94
471.777	385.94
471.997	373.94
472.216	381.94
472.435	435.94
472.654	425.94
472.873	377.94
473.092	396.94
473.311	384.94
473.53	372.94
473.749	384.94
473.968	419.94
474.187	505.94
474.406	512.94
474.625	434.94
474.844	412.94
475.063	389.94
475.282	384.94
475.501	382.94
475.72	394.94
475.939	385.94
476.158	390.94
476.377	380.94
476.596	389.94
476.814	396.94
477.033	402.94
477.252	405.94
477.471	405.94
477.69	402.94
477.908	398.94
478.127	405.94
478.346	409.94
478.564	437.94
478.783	408.94
479.002	412.94
479.22	429.94
479.439	421.94
479.658	465.94
479.876	452.94
480.095	446.94
480.313	474.94
480.532	460.94
480.751	467.94
480.969	472.94
481.188	542.94
481.406	564.94
481.624	501.94
481.843	460.94
482.061	435.94
482.28	452.94
482.498	439.94
482.717	450.94
482.935	444.94
483.153	423.94
483.372	438.94
483.59	438.94
483.808	449.94
484.027	457.94
484.245	433.94
484.463	453.94
484.681	460.94
484.9	445.94
485.118	462.94
485.336	427.94
485.554	435.94
485.772	466.94
485.99	429.94
486.209	459.94
486.427	457.94
486.645	457.94
486.863	467.94
487.081	453.94
487.299	482.94
487.517	492.94
487.735	452.94
487.953	480.94
488.171	469.94
488.389	473.94
488.607	470.94
488.825	489.94
489.043	476.94
489.261	466.94
489.479	493.94
489.696	482.94
489.914	461.94
490.132	491.94
490.35	506.94
490.568	490.94
490.786	496.94
491.003	500.94
491.221	517.94
491.439	512.94
491.657	526.94
491.874	519.94
492.092	533.94
492.31	546.94
492.527	549.94
492.745	522.94
492.963	530.94
493.18	527.94
493.398	552.94
493.615	522.94
493.833	542.94
494.05	555.94
494.268	558.94
494.485	554.94
494.703	539.94
494.92	570.94
495.138	538.94
495.355	551.94
495.573	545.94
495.79	560.94
496.008	558.94
496.225	566.94
496.442	555.94
496.66	544.94
496.877	574.94
497.094	568.94
497.312	577.94
497.529	579.94
497.746	571.94
497.963	584.94
498.181	603.94
498.398	596.94
498.615	598.94
498.832	614.94
499.049	622.94
499.267	636.94
499.484	652.94
499.701	658.94
499.918	667.94
500.135	715.94
500.352	701.94
500.569	711.94
500.786	710.94
501.003	690.94
501.22	692.94
501.437	667.94
501.654	669.94
501.871	694.94
502.088	670.94
