Data from 1961.PennyLincolnUp.Lamp.En5.5.200Scan.071719.P1._HRD10591_13-48-07-058.txt Node
Date: Thu Jul 18 13:48:07 EDT 2019
User: cochatt
Spectrometer: HR+D1059
Trigger mode: 1
Integration Time (sec): 1.000000E-1
Scans to average: 1
Electric dark correction enabled: true
Nonlinearity correction enabled: false
Boxcar width: 0
XAxis mode: Wavelengths
Number of Pixels in Spectrum: 2048
>>>>>Begin Spectral Data<<<<<
223.165	-14.31
223.4	-14.31
223.635	-14.31
223.869	-12.31
224.104	-28.31
224.338	-14.31
224.573	-23.31
224.808	-16.31
225.042	-8.31
225.277	-2.31
225.511	-0.31
225.746	10.69
225.98	9.69
226.215	-3.31
226.449	8.69
226.683	16.69
226.918	34.69
227.152	42.69
227.387	18.69
227.621	29.69
227.856	45.69
228.09	42.69
228.324	47.69
228.559	43.69
228.793	60.69
229.027	101.69
229.262	118.69
229.496	106.69
229.73	120.69
229.964	133.69
230.199	133.69
230.433	114.69
230.667	89.69
230.901	97.69
231.136	113.69
231.37	112.69
231.604	101.69
231.838	111.69
232.072	106.69
232.306	111.69
232.541	97.69
232.775	109.69
233.009	99.69
233.243	95.69
233.477	99.69
233.711	111.69
233.945	112.69
234.179	111.69
234.413	111.69
234.647	105.69
234.881	116.69
235.115	109.69
235.349	103.69
235.583	95.69
235.817	105.69
236.051	128.69
236.285	132.69
236.519	112.69
236.753	116.69
236.987	142.69
237.221	170.69
237.455	212.69
237.689	167.69
237.922	134.69
238.156	117.69
238.39	115.69
238.624	122.69
238.858	119.69
239.091	120.69
239.325	108.69
239.559	120.69
239.793	104.69
240.027	123.69
240.26	125.69
240.494	150.69
240.728	147.69
240.961	137.69
241.195	113.69
241.429	124.69
241.662	133.69
241.896	113.69
242.13	127.69
242.363	117.69
242.597	128.69
242.83	125.69
243.064	109.69
243.298	115.69
243.531	121.69
243.765	144.69
243.998	142.69
244.232	128.69
244.465	128.69
244.699	137.69
244.932	126.69
245.166	127.69
245.399	137.69
245.633	127.69
245.866	140.69
246.099	135.69
246.333	149.69
246.566	149.69
246.8	125.69
247.033	125.69
247.266	142.69
247.5	135.69
247.733	140.69
247.966	158.69
248.2	142.69
248.433	148.69
248.666	154.69
248.899	140.69
249.133	170.69
249.366	188.69
249.599	181.69
249.832	154.69
250.066	164.69
250.299	162.69
250.532	180.69
250.765	182.69
250.998	197.69
251.231	203.69
251.465	186.69
251.698	183.69
251.931	177.69
252.164	160.69
252.397	173.69
252.63	165.69
252.863	161.69
253.096	180.69
253.329	197.69
253.562	215.69
253.795	182.69
254.028	189.69
254.261	196.69
254.494	197.69
254.727	199.69
254.96	241.69
255.193	223.69
255.426	203.69
255.659	202.69
255.892	206.69
256.124	197.69
256.357	210.69
256.59	200.69
256.823	204.69
257.056	187.69
257.289	197.69
257.521	188.69
257.754	190.69
257.987	169.69
258.22	179.69
258.452	186.69
258.685	177.69
258.918	181.69
259.151	171.69
259.383	199.69
259.616	181.69
259.849	199.69
260.081	205.69
260.314	209.69
260.547	211.69
260.779	223.69
261.012	192.69
261.244	196.69
261.477	183.69
261.71	191.69
261.942	204.69
262.175	210.69
262.407	186.69
262.64	193.69
262.872	175.69
263.105	191.69
263.337	180.69
263.57	180.69
263.802	169.69
264.035	202.69
264.267	187.69
264.499	199.69
264.732	184.69
264.964	185.69
265.197	188.69
265.429	186.69
265.661	183.69
265.894	188.69
266.126	184.69
266.358	205.69
266.591	170.69
266.823	189.69
267.055	189.69
267.287	198.69
267.52	205.69
267.752	211.69
267.984	183.69
268.216	195.69
268.448	217.69
268.681	210.69
268.913	208.69
269.145	219.69
269.377	227.69
269.609	233.69
269.841	230.69
270.073	227.69
270.306	240.69
270.538	259.69
270.77	271.69
271.002	261.69
271.234	259.69
271.466	242.69
271.698	249.69
271.93	283.69
272.162	269.69
272.394	277.69
272.626	271.69
272.858	239.69
273.09	217.69
273.322	235.69
273.553	221.69
273.785	216.69
274.017	232.69
274.249	235.69
274.481	230.69
274.713	226.69
274.945	231.69
275.176	211.69
275.408	224.69
275.64	240.69
275.872	219.69
276.104	216.69
276.335	216.69
276.567	231.69
276.799	225.69
277.031	267.69
277.262	276.69
277.494	265.69
277.726	236.69
277.957	243.69
278.189	226.69
278.421	226.69
278.652	237.69
278.884	217.69
279.115	234.69
279.347	223.69
279.579	228.69
279.81	228.69
280.042	221.69
280.273	205.69
280.505	213.69
280.736	242.69
280.968	203.69
281.199	200.69
281.431	227.69
281.662	232.69
281.894	223.69
282.125	239.69
282.356	239.69
282.588	263.69
282.819	274.69
283.051	240.69
283.282	224.69
283.513	234.69
283.745	226.69
283.976	233.69
284.207	239.69
284.439	232.69
284.67	230.69
284.901	227.69
285.132	239.69
285.364	232.69
285.595	227.69
285.826	222.69
286.057	227.69
286.288	258.69
286.52	235.69
286.751	244.69
286.982	222.69
287.213	235.69
287.444	224.69
287.675	244.69
287.906	242.69
288.138	231.69
288.369	243.69
288.6	234.69
288.831	243.69
289.062	236.69
289.293	219.69
289.524	245.69
289.755	259.69
289.986	235.69
290.217	248.69
290.448	242.69
290.679	240.69
290.91	229.69
291.141	234.69
291.371	221.69
291.602	246.69
291.833	235.69
292.064	241.69
292.295	242.69
292.526	247.69
292.757	228.69
292.987	235.69
293.218	233.69
293.449	237.69
293.68	245.69
293.91	240.69
294.141	253.69
294.372	236.69
294.603	250.69
294.833	236.69
295.064	257.69
295.295	233.69
295.525	240.69
295.756	231.69
295.987	259.69
296.217	282.69
296.448	289.69
296.679	261.69
296.909	229.69
297.14	231.69
297.37	258.69
297.601	263.69
297.831	241.69
298.062	243.69
298.292	257.69
298.523	261.69
298.753	229.69
298.984	253.69
299.214	257.69
299.445	232.69
299.675	255.69
299.905	259.69
300.136	260.69
300.366	275.69
300.597	256.69
300.827	260.69
301.057	273.69
301.288	272.69
301.518	261.69
301.748	271.69
301.979	259.69
302.209	278.69
302.439	269.69
302.669	259.69
302.9	266.69
303.13	265.69
303.36	285.69
303.59	278.69
303.82	286.69
304.051	289.69
304.281	272.69
304.511	269.69
304.741	270.69
304.971	236.69
305.201	276.69
305.431	264.69
305.661	280.69
305.891	251.69
306.121	278.69
306.352	287.69
306.582	280.69
306.812	268.69
307.042	264.69
307.272	269.69
307.502	292.69
307.731	284.69
307.961	270.69
308.191	267.69
308.421	276.69
308.651	269.69
308.881	290.69
309.111	295.69
309.341	289.69
309.571	301.69
309.8	308.69
310.03	298.69
310.26	321.69
310.49	292.69
310.72	328.69
310.949	348.69
311.179	331.69
311.409	339.69
311.639	328.69
311.868	331.69
312.098	312.69
312.328	321.69
312.557	343.69
312.787	371.69
313.017	347.69
313.246	328.69
313.476	316.69
313.706	334.69
313.935	329.69
314.165	338.69
314.394	342.69
314.624	330.69
314.853	327.69
315.083	308.69
315.312	309.69
315.542	318.69
315.771	328.69
316.001	328.69
316.23	327.69
316.46	311.69
316.689	314.69
316.919	321.69
317.148	338.69
317.377	339.69
317.607	332.69
317.836	325.69
318.065	318.69
318.295	312.69
318.524	313.69
318.753	324.69
318.983	301.69
319.212	319.69
319.441	345.69
319.67	341.69
319.9	311.69
320.129	308.69
320.358	328.69
320.587	331.69
320.816	329.69
321.046	364.69
321.275	341.69
321.504	347.69
321.733	358.69
321.962	354.69
322.191	364.69
322.42	376.69
322.649	379.69
322.878	417.69
323.108	417.69
323.337	445.69
323.566	458.69
323.795	492.69
324.024	536.69
324.253	708.69
324.482	1042.69
324.71	1595.69
324.939	2209.69
325.168	1866.69
325.397	975.69
325.626	641.69
325.855	526.69
326.084	477.69
326.313	466.69
326.542	467.69
326.77	529.69
326.999	637.69
327.228	924.69
327.457	1412.69
327.686	1606.69
327.914	1086.69
328.143	719.69
328.372	610.69
328.6	568.69
328.829	532.69
329.058	543.69
329.287	537.69
329.515	483.69
329.744	460.69
329.972	475.69
330.201	474.69
330.43	517.69
330.658	543.69
330.887	598.69
331.115	547.69
331.344	473.69
331.572	411.69
331.801	421.69
332.03	424.69
332.258	398.69
332.486	396.69
332.715	403.69
332.943	383.69
333.172	382.69
333.4	380.69
333.629	381.69
333.857	420.69
334.085	443.69
334.314	446.69
334.542	470.69
334.771	484.69
334.999	437.69
335.227	410.69
335.455	393.69
335.684	375.69
335.912	357.69
336.14	355.69
336.369	383.69
336.597	387.69
336.825	375.69
337.053	363.69
337.281	352.69
337.51	363.69
337.738	361.69
337.966	363.69
338.194	350.69
338.422	365.69
338.65	379.69
338.878	352.69
339.106	341.69
339.334	352.69
339.562	361.69
339.79	368.69
340.018	345.69
340.246	344.69
340.474	383.69
340.702	341.69
340.93	357.69
341.158	361.69
341.386	356.69
341.614	352.69
341.842	363.69
342.07	353.69
342.298	358.69
342.526	370.69
342.754	343.69
342.981	339.69
343.209	348.69
343.437	355.69
343.665	339.69
343.893	367.69
344.12	373.69
344.348	365.69
344.576	367.69
344.804	365.69
345.031	375.69
345.259	394.69
345.487	348.69
345.714	372.69
345.942	380.69
346.17	348.69
346.397	368.69
346.625	349.69
346.853	362.69
347.08	362.69
347.308	346.69
347.535	351.69
347.763	392.69
347.99	353.69
348.218	384.69
348.445	373.69
348.673	375.69
348.9	373.69
349.128	361.69
349.355	309.69
349.583	340.69
349.81	348.69
350.037	315.69
350.265	339.69
350.492	347.69
350.72	342.69
350.947	327.69
351.174	361.69
351.402	379.69
351.629	352.69
351.856	367.69
352.083	367.69
352.311	384.69
352.538	376.69
352.765	381.69
352.992	367.69
353.22	336.69
353.447	359.69
353.674	356.69
353.901	354.69
354.128	340.69
354.355	333.69
354.583	338.69
354.81	323.69
355.037	331.69
355.264	323.69
355.491	312.69
355.718	308.69
355.945	304.69
356.172	309.69
356.399	332.69
356.626	304.69
356.853	322.69
357.08	291.69
357.307	329.69
357.534	296.69
357.761	307.69
357.988	321.69
358.215	327.69
358.441	318.69
358.668	321.69
358.895	343.69
359.122	365.69
359.349	342.69
359.576	354.69
359.802	360.69
360.029	395.69
360.256	409.69
360.483	400.69
360.709	363.69
360.936	363.69
361.163	340.69
361.39	341.69
361.616	357.69
361.843	357.69
362.07	351.69
362.296	357.69
362.523	337.69
362.749	358.69
362.976	344.69
363.203	348.69
363.429	339.69
363.656	344.69
363.882	331.69
364.109	343.69
364.335	343.69
364.562	339.69
364.788	319.69
365.015	308.69
365.241	332.69
365.468	358.69
365.694	343.69
365.92	348.69
366.147	332.69
366.373	329.69
366.599	345.69
366.826	338.69
367.052	320.69
367.278	331.69
367.505	327.69
367.731	323.69
367.957	351.69
368.184	328.69
368.41	325.69
368.636	334.69
368.862	340.69
369.089	330.69
369.315	325.69
369.541	316.69
369.767	328.69
369.993	321.69
370.219	321.69
370.445	316.69
370.672	341.69
370.898	321.69
371.124	322.69
371.35	327.69
371.576	332.69
371.802	313.69
372.028	313.69
372.254	315.69
372.48	307.69
372.706	305.69
372.932	318.69
373.158	335.69
373.384	328.69
373.61	307.69
373.835	342.69
374.061	318.69
374.287	339.69
374.513	331.69
374.739	342.69
374.965	339.69
375.191	328.69
375.416	315.69
375.642	329.69
375.868	336.69
376.094	307.69
376.319	339.69
376.545	323.69
376.771	329.69
376.997	329.69
377.222	337.69
377.448	328.69
377.674	342.69
377.899	331.69
378.125	328.69
378.35	320.69
378.576	319.69
378.802	330.69
379.027	330.69
379.253	323.69
379.478	310.69
379.704	312.69
379.929	323.69
380.155	313.69
380.38	323.69
380.606	319.69
380.831	316.69
381.057	352.69
381.282	317.69
381.507	315.69
381.733	323.69
381.958	310.69
382.184	326.69
382.409	323.69
382.634	328.69
382.86	340.69
383.085	347.69
383.31	338.69
383.535	333.69
383.761	342.69
383.986	359.69
384.211	355.69
384.436	349.69
384.662	348.69
384.887	375.69
385.112	339.69
385.337	344.69
385.562	352.69
385.787	347.69
386.013	367.69
386.238	360.69
386.463	352.69
386.688	367.69
386.913	341.69
387.138	349.69
387.363	351.69
387.588	349.69
387.813	357.69
388.038	353.69
388.263	348.69
388.488	357.69
388.713	362.69
388.938	374.69
389.163	345.69
389.387	353.69
389.612	317.69
389.837	346.69
390.062	343.69
390.287	345.69
390.512	342.69
390.736	361.69
390.961	354.69
391.186	348.69
391.411	357.69
391.636	354.69
391.86	341.69
392.085	354.69
392.31	357.69
392.534	363.69
392.759	352.69
392.984	340.69
393.208	367.69
393.433	357.69
393.658	352.69
393.882	385.69
394.107	339.69
394.331	346.69
394.556	356.69
394.78	355.69
395.005	346.69
395.229	343.69
395.454	353.69
395.678	375.69
395.903	367.69
396.127	404.69
396.352	409.69
396.576	370.69
396.801	368.69
397.025	361.69
397.249	364.69
397.474	382.69
397.698	375.69
397.922	366.69
398.147	389.69
398.371	407.69
398.595	383.69
398.82	391.69
399.044	388.69
399.268	402.69
399.492	438.69
399.717	435.69
399.941	441.69
400.165	456.69
400.389	500.69
400.613	465.69
400.837	409.69
401.062	413.69
401.286	376.69
401.51	408.69
401.734	392.69
401.958	397.69
402.182	410.69
402.406	397.69
402.63	426.69
402.854	401.69
403.078	421.69
403.302	418.69
403.526	418.69
403.75	412.69
403.974	413.69
404.198	411.69
404.422	428.69
404.645	426.69
404.869	428.69
405.093	454.69
405.317	495.69
405.541	508.69
405.765	451.69
405.988	439.69
406.212	463.69
406.436	472.69
406.66	511.69
406.883	469.69
407.107	476.69
407.331	503.69
407.555	559.69
407.778	552.69
408.002	504.69
408.226	484.69
408.449	449.69
408.673	458.69
408.896	492.69
409.12	524.69
409.344	493.69
409.567	427.69
409.791	456.69
410.014	440.69
410.238	441.69
410.461	430.69
410.685	429.69
410.908	449.69
411.132	462.69
411.355	507.69
411.578	465.69
411.802	443.69
412.025	448.69
412.249	424.69
412.472	450.69
412.695	468.69
412.919	453.69
413.142	425.69
413.365	408.69
413.589	406.69
413.812	390.69
414.035	407.69
414.258	409.69
414.482	391.69
414.705	401.69
414.928	390.69
415.151	379.69
415.374	391.69
415.597	391.69
415.821	402.69
416.044	397.69
416.267	403.69
416.49	394.69
416.713	401.69
416.936	393.69
417.159	397.69
417.382	405.69
417.605	394.69
417.828	391.69
418.051	421.69
418.274	420.69
418.497	401.69
418.72	390.69
418.943	403.69
419.166	401.69
419.389	417.69
419.611	420.69
419.834	427.69
420.057	418.69
420.28	410.69
420.503	414.69
420.726	408.69
420.948	429.69
421.171	484.69
421.394	486.69
421.617	442.69
421.839	411.69
422.062	412.69
422.285	449.69
422.507	465.69
422.73	529.69
422.953	537.69
423.175	464.69
423.398	464.69
423.621	418.69
423.843	437.69
424.066	446.69
424.288	442.69
424.511	473.69
424.733	527.69
424.956	575.69
425.178	555.69
425.401	560.69
425.623	576.69
425.846	490.69
426.068	468.69
426.291	461.69
426.513	461.69
426.735	473.69
426.958	501.69
427.18	550.69
427.402	701.69
427.625	755.69
427.847	699.69
428.069	580.69
428.292	511.69
428.514	465.69
428.736	441.69
428.958	431.69
429.181	432.69
429.403	437.69
429.625	410.69
429.847	444.69
430.069	523.69
430.292	538.69
430.514	443.69
430.736	413.69
430.958	404.69
431.18	396.69
431.402	389.69
431.624	399.69
431.846	377.69
432.068	395.69
432.29	425.69
432.512	397.69
432.734	426.69
432.956	407.69
433.178	420.69
433.4	416.69
433.622	392.69
433.844	398.69
434.066	400.69
434.287	421.69
434.509	397.69
434.731	410.69
434.953	420.69
435.175	434.69
435.397	444.69
435.618	472.69
435.84	498.69
436.062	578.69
436.284	636.69
436.505	531.69
436.727	471.69
436.949	445.69
437.17	444.69
437.392	429.69
437.614	447.69
437.835	481.69
438.057	585.69
438.278	636.69
438.5	639.69
438.721	720.69
438.943	653.69
439.165	521.69
439.386	495.69
439.608	517.69
439.829	489.69
440.05	508.69
440.272	558.69
440.493	531.69
440.715	455.69
440.936	447.69
441.158	450.69
441.379	438.69
441.6	431.69
441.822	453.69
442.043	500.69
442.264	553.69
442.486	595.69
442.707	497.69
442.928	490.69
443.149	463.69
443.371	508.69
443.592	531.69
443.813	627.69
444.034	657.69
444.255	541.69
444.476	481.69
444.698	466.69
444.919	450.69
445.14	555.69
445.361	521.69
445.582	511.69
445.803	547.69
446.024	665.69
446.245	654.69
446.466	611.69
446.687	513.69
446.908	476.69
447.129	450.69
447.35	444.69
447.571	431.69
447.792	415.69
448.013	447.69
448.234	479.69
448.455	495.69
448.675	607.69
448.896	672.69
449.117	606.69
449.338	557.69
449.559	647.69
449.779	695.69
450	593.69
450.221	495.69
450.442	440.69
450.662	440.69
450.883	449.69
451.104	462.69
451.324	452.69
451.545	422.69
451.766	402.69
451.986	394.69
452.207	408.69
452.428	377.69
452.648	381.69
452.869	401.69
453.089	392.69
453.31	405.69
453.53	398.69
453.751	389.69
453.971	401.69
454.192	427.69
454.412	411.69
454.633	392.69
454.853	405.69
455.073	398.69
455.294	426.69
455.514	481.69
455.734	452.69
455.955	403.69
456.175	361.69
456.395	360.69
456.616	345.69
456.836	359.69
457.056	363.69
457.276	351.69
457.497	363.69
457.717	351.69
457.937	367.69
458.157	349.69
458.377	390.69
458.598	405.69
458.818	461.69
459.038	546.69
459.258	555.69
459.478	481.69
459.698	429.69
459.918	428.69
460.138	383.69
460.358	393.69
460.578	397.69
460.798	405.69
461.018	418.69
461.238	399.69
461.458	401.69
461.678	393.69
461.898	413.69
462.118	387.69
462.338	408.69
462.558	426.69
462.777	431.69
462.997	409.69
463.217	403.69
463.437	464.69
463.657	427.69
463.876	418.69
464.096	424.69
464.316	425.69
464.536	420.69
464.755	447.69
464.975	442.69
465.195	485.69
465.414	578.69
465.634	507.69
465.854	435.69
466.073	422.69
466.293	424.69
466.512	409.69
466.732	417.69
466.951	385.69
467.171	391.69
467.391	404.69
467.61	407.69
467.829	409.69
468.049	416.69
468.268	399.69
468.488	381.69
468.707	382.69
468.927	364.69
469.146	393.69
469.365	380.69
469.585	394.69
469.804	399.69
470.023	414.69
470.243	400.69
470.462	417.69
470.681	436.69
470.901	407.69
471.12	399.69
471.339	395.69
471.558	410.69
471.777	397.69
471.997	404.69
472.216	409.69
472.435	449.69
472.654	430.69
472.873	418.69
473.092	400.69
473.311	423.69
473.53	405.69
473.749	411.69
473.968	475.69
474.187	556.69
474.406	553.69
474.625	473.69
474.844	411.69
475.063	404.69
475.282	413.69
475.501	405.69
475.72	413.69
475.939	433.69
476.158	409.69
476.377	401.69
476.596	415.69
476.814	412.69
477.033	427.69
477.252	432.69
477.471	415.69
477.69	429.69
477.908	452.69
478.127	425.69
478.346	417.69
478.564	442.69
478.783	446.69
479.002	442.69
479.22	449.69
479.439	475.69
479.658	484.69
479.876	494.69
480.095	476.69
480.313	519.69
480.532	503.69
480.751	490.69
480.969	492.69
481.188	588.69
481.406	631.69
481.624	541.69
481.843	497.69
482.061	489.69
482.28	484.69
482.498	483.69
482.717	476.69
482.935	474.69
483.153	470.69
483.372	477.69
483.59	485.69
483.808	487.69
484.027	474.69
484.245	500.69
484.463	458.69
484.681	464.69
484.9	482.69
485.118	495.69
485.336	493.69
485.554	500.69
485.772	485.69
485.99	506.69
486.209	486.69
486.427	492.69
486.645	488.69
486.863	509.69
487.081	550.69
487.299	519.69
487.517	519.69
487.735	490.69
487.953	500.69
488.171	522.69
488.389	515.69
488.607	492.69
488.825	507.69
489.043	503.69
489.261	497.69
489.479	518.69
489.696	514.69
489.914	520.69
490.132	535.69
490.35	540.69
490.568	525.69
490.786	529.69
491.003	553.69
491.221	570.69
491.439	563.69
491.657	578.69
491.874	553.69
492.092	581.69
492.31	577.69
492.527	585.69
492.745	584.69
492.963	580.69
493.18	609.69
493.398	584.69
493.615	596.69
493.833	610.69
494.05	600.69
494.268	611.69
494.485	575.69
494.703	582.69
494.92	605.69
495.138	583.69
495.355	594.69
495.573	591.69
495.79	607.69
496.008	607.69
496.225	596.69
496.442	585.69
496.66	610.69
496.877	615.69
497.094	610.69
497.312	609.69
497.529	624.69
497.746	603.69
497.963	641.69
498.181	629.69
498.398	646.69
498.615	656.69
498.832	652.69
499.049	669.69
499.267	670.69
499.484	651.69
499.701	715.69
499.918	711.69
500.135	728.69
500.352	759.69
500.569	763.69
500.786	790.69
501.003	736.69
501.22	752.69
501.437	719.69
501.654	756.69
501.871	740.69
502.088	708.69
