Data from 1961.PennyLincolnUp.Lamp.En5.5.200Scan.071719.P1._HRD10591_13-46-33-059.txt Node
Date: Thu Jul 18 13:46:33 EDT 2019
User: cochatt
Spectrometer: HR+D1059
Trigger mode: 1
Integration Time (sec): 1.000000E-1
Scans to average: 1
Electric dark correction enabled: true
Nonlinearity correction enabled: false
Boxcar width: 0
XAxis mode: Wavelengths
Number of Pixels in Spectrum: 2048
>>>>>Begin Spectral Data<<<<<
223.165	-14.5
223.4	-14.5
223.635	-14.5
223.869	-19.5
224.104	-26.5
224.338	-11.5
224.573	-10.5
224.808	-12.5
225.042	-20.5
225.277	3.5
225.511	3.5
225.746	6.5
225.98	23.5
226.215	-6.5
226.449	12.5
226.683	19.5
226.918	22.5
227.152	30.5
227.387	32.5
227.621	33.5
227.856	48.5
228.09	45.5
228.324	46.5
228.559	46.5
228.793	49.5
229.027	84.5
229.262	80.5
229.496	78.5
229.73	115.5
229.964	119.5
230.199	108.5
230.433	86.5
230.667	86.5
230.901	100.5
231.136	99.5
231.37	114.5
231.604	100.5
231.838	85.5
232.072	99.5
232.306	92.5
232.541	96.5
232.775	109.5
233.009	108.5
233.243	99.5
233.477	98.5
233.711	94.5
233.945	88.5
234.179	105.5
234.413	98.5
234.647	103.5
234.881	112.5
235.115	108.5
235.349	103.5
235.583	92.5
235.817	107.5
236.051	103.5
236.285	101.5
236.519	94.5
236.753	96.5
236.987	117.5
237.221	135.5
237.455	163.5
237.689	156.5
237.922	111.5
238.156	94.5
238.39	89.5
238.624	93.5
238.858	103.5
239.091	94.5
239.325	105.5
239.559	102.5
239.793	111.5
240.027	113.5
240.26	120.5
240.494	124.5
240.728	113.5
240.961	108.5
241.195	97.5
241.429	117.5
241.662	121.5
241.896	121.5
242.13	112.5
242.363	104.5
242.597	114.5
242.83	120.5
243.064	108.5
243.298	109.5
243.531	115.5
243.765	119.5
243.998	117.5
244.232	117.5
244.465	125.5
244.699	114.5
244.932	107.5
245.166	104.5
245.399	100.5
245.633	105.5
245.866	101.5
246.099	112.5
246.333	131.5
246.566	112.5
246.8	116.5
247.033	118.5
247.266	133.5
247.5	110.5
247.733	131.5
247.966	129.5
248.2	148.5
248.433	120.5
248.666	130.5
248.899	155.5
249.133	140.5
249.366	163.5
249.599	145.5
249.832	136.5
250.066	152.5
250.299	132.5
250.532	142.5
250.765	143.5
250.998	164.5
251.231	169.5
251.465	149.5
251.698	149.5
251.931	146.5
252.164	147.5
252.397	151.5
252.63	152.5
252.863	171.5
253.096	150.5
253.329	170.5
253.562	163.5
253.795	153.5
254.028	154.5
254.261	160.5
254.494	147.5
254.727	189.5
254.96	185.5
255.193	179.5
255.426	180.5
255.659	183.5
255.892	173.5
256.124	169.5
256.357	168.5
256.59	154.5
256.823	155.5
257.056	157.5
257.289	143.5
257.521	151.5
257.754	159.5
257.987	148.5
258.22	155.5
258.452	150.5
258.685	153.5
258.918	159.5
259.151	153.5
259.383	144.5
259.616	152.5
259.849	164.5
260.081	167.5
260.314	175.5
260.547	173.5
260.779	161.5
261.012	179.5
261.244	175.5
261.477	172.5
261.71	166.5
261.942	169.5
262.175	173.5
262.407	174.5
262.64	159.5
262.872	167.5
263.105	159.5
263.337	156.5
263.57	159.5
263.802	155.5
264.035	157.5
264.267	159.5
264.499	161.5
264.732	159.5
264.964	145.5
265.197	165.5
265.429	160.5
265.661	164.5
265.894	162.5
266.126	160.5
266.358	151.5
266.591	151.5
266.823	152.5
267.055	164.5
267.287	157.5
267.52	154.5
267.752	160.5
267.984	143.5
268.216	166.5
268.448	182.5
268.681	166.5
268.913	187.5
269.145	183.5
269.377	190.5
269.609	187.5
269.841	196.5
270.073	165.5
270.306	198.5
270.538	221.5
270.77	217.5
271.002	188.5
271.234	213.5
271.466	200.5
271.698	195.5
271.93	215.5
272.162	197.5
272.394	210.5
272.626	211.5
272.858	195.5
273.09	183.5
273.322	164.5
273.553	183.5
273.785	186.5
274.017	181.5
274.249	191.5
274.481	189.5
274.713	191.5
274.945	185.5
275.176	191.5
275.408	188.5
275.64	190.5
275.872	185.5
276.104	191.5
276.335	172.5
276.567	187.5
276.799	205.5
277.031	225.5
277.262	222.5
277.494	217.5
277.726	211.5
277.957	202.5
278.189	196.5
278.421	179.5
278.652	171.5
278.884	186.5
279.115	196.5
279.347	177.5
279.579	186.5
279.81	197.5
280.042	196.5
280.273	204.5
280.505	191.5
280.736	184.5
280.968	197.5
281.199	192.5
281.431	187.5
281.662	170.5
281.894	187.5
282.125	200.5
282.356	202.5
282.588	208.5
282.819	223.5
283.051	207.5
283.282	189.5
283.513	195.5
283.745	201.5
283.976	191.5
284.207	196.5
284.439	195.5
284.67	191.5
284.901	192.5
285.132	207.5
285.364	189.5
285.595	203.5
285.826	201.5
286.057	194.5
286.288	195.5
286.52	209.5
286.751	201.5
286.982	195.5
287.213	184.5
287.444	207.5
287.675	202.5
287.906	200.5
288.138	196.5
288.369	206.5
288.6	212.5
288.831	212.5
289.062	192.5
289.293	198.5
289.524	207.5
289.755	186.5
289.986	189.5
290.217	205.5
290.448	201.5
290.679	209.5
290.91	199.5
291.141	200.5
291.371	197.5
291.602	207.5
291.833	199.5
292.064	200.5
292.295	196.5
292.526	212.5
292.757	224.5
292.987	221.5
293.218	209.5
293.449	211.5
293.68	197.5
293.91	189.5
294.141	191.5
294.372	196.5
294.603	191.5
294.833	216.5
295.064	211.5
295.295	203.5
295.525	209.5
295.756	207.5
295.987	209.5
296.217	214.5
296.448	200.5
296.679	207.5
296.909	200.5
297.14	222.5
297.37	206.5
297.601	206.5
297.831	217.5
298.062	195.5
298.292	209.5
298.523	189.5
298.753	217.5
298.984	210.5
299.214	213.5
299.445	216.5
299.675	201.5
299.905	220.5
300.136	220.5
300.366	205.5
300.597	212.5
300.827	208.5
301.057	211.5
301.288	220.5
301.518	222.5
301.748	232.5
301.979	207.5
302.209	228.5
302.439	213.5
302.669	207.5
302.9	211.5
303.13	209.5
303.36	229.5
303.59	243.5
303.82	231.5
304.051	239.5
304.281	237.5
304.511	215.5
304.741	220.5
304.971	235.5
305.201	222.5
305.431	230.5
305.661	203.5
305.891	223.5
306.121	223.5
306.352	215.5
306.582	235.5
306.812	235.5
307.042	214.5
307.272	225.5
307.502	229.5
307.731	223.5
307.961	217.5
308.191	221.5
308.421	230.5
308.651	232.5
308.881	245.5
309.111	241.5
309.341	234.5
309.571	230.5
309.8	227.5
310.03	249.5
310.26	247.5
310.49	243.5
310.72	260.5
310.949	277.5
311.179	264.5
311.409	259.5
311.639	258.5
311.868	254.5
312.098	243.5
312.328	253.5
312.557	286.5
312.787	275.5
313.017	278.5
313.246	256.5
313.476	265.5
313.706	265.5
313.935	261.5
314.165	264.5
314.394	280.5
314.624	262.5
314.853	247.5
315.083	262.5
315.312	274.5
315.542	264.5
315.771	257.5
316.001	259.5
316.23	255.5
316.46	256.5
316.689	259.5
316.919	272.5
317.148	259.5
317.377	274.5
317.607	265.5
317.836	256.5
318.065	263.5
318.295	256.5
318.524	263.5
318.753	267.5
318.983	253.5
319.212	266.5
319.441	241.5
319.67	249.5
319.9	252.5
320.129	271.5
320.358	269.5
320.587	268.5
320.816	268.5
321.046	265.5
321.275	288.5
321.504	277.5
321.733	283.5
321.962	285.5
322.191	273.5
322.42	301.5
322.649	299.5
322.878	326.5
323.108	326.5
323.337	354.5
323.566	336.5
323.795	361.5
324.024	398.5
324.253	461.5
324.482	685.5
324.71	1025.5
324.939	1439.5
325.168	1225.5
325.397	640.5
325.626	457.5
325.855	373.5
326.084	361.5
326.313	364.5
326.542	347.5
326.77	375.5
326.999	459.5
327.228	654.5
327.457	911.5
327.686	1089.5
327.914	738.5
328.143	484.5
328.372	441.5
328.6	411.5
328.829	377.5
329.058	387.5
329.287	385.5
329.515	386.5
329.744	341.5
329.972	355.5
330.201	367.5
330.43	391.5
330.658	403.5
330.887	433.5
331.115	419.5
331.344	374.5
331.572	331.5
331.801	331.5
332.03	329.5
332.258	339.5
332.486	324.5
332.715	302.5
332.943	298.5
333.172	315.5
333.4	321.5
333.629	307.5
333.857	338.5
334.085	335.5
334.314	343.5
334.542	382.5
334.771	379.5
334.999	342.5
335.227	310.5
335.455	287.5
335.684	297.5
335.912	304.5
336.14	309.5
336.369	307.5
336.597	307.5
336.825	293.5
337.053	299.5
337.281	290.5
337.51	291.5
337.738	315.5
337.966	310.5
338.194	316.5
338.422	295.5
338.65	304.5
338.878	296.5
339.106	296.5
339.334	296.5
339.562	305.5
339.79	309.5
340.018	284.5
340.246	280.5
340.474	301.5
340.702	288.5
340.93	279.5
341.158	301.5
341.386	296.5
341.614	295.5
341.842	305.5
342.07	311.5
342.298	283.5
342.526	281.5
342.754	281.5
342.981	269.5
343.209	281.5
343.437	287.5
343.665	286.5
343.893	287.5
344.12	285.5
344.348	301.5
344.576	275.5
344.804	300.5
345.031	311.5
345.259	306.5
345.487	299.5
345.714	321.5
345.942	300.5
346.17	305.5
346.397	296.5
346.625	287.5
346.853	281.5
347.08	278.5
347.308	293.5
347.535	303.5
347.763	301.5
347.99	294.5
348.218	295.5
348.445	300.5
348.673	289.5
348.9	293.5
349.128	299.5
349.355	279.5
349.583	271.5
349.81	292.5
350.037	282.5
350.265	277.5
350.492	287.5
350.72	301.5
350.947	301.5
351.174	297.5
351.402	296.5
351.629	305.5
351.856	288.5
352.083	294.5
352.311	314.5
352.538	279.5
352.765	301.5
352.992	282.5
353.22	284.5
353.447	288.5
353.674	289.5
353.901	275.5
354.128	275.5
354.355	251.5
354.583	283.5
354.81	280.5
355.037	255.5
355.264	267.5
355.491	271.5
355.718	267.5
355.945	278.5
356.172	271.5
356.399	244.5
356.626	271.5
356.853	265.5
357.08	266.5
357.307	266.5
357.534	265.5
357.761	277.5
357.988	290.5
358.215	283.5
358.441	277.5
358.668	276.5
358.895	284.5
359.122	263.5
359.349	278.5
359.576	299.5
359.802	304.5
360.029	328.5
360.256	320.5
360.483	317.5
360.709	311.5
360.936	278.5
361.163	291.5
361.39	307.5
361.616	274.5
361.843	269.5
362.07	294.5
362.296	287.5
362.523	304.5
362.749	287.5
362.976	282.5
363.203	292.5
363.429	276.5
363.656	283.5
363.882	276.5
364.109	279.5
364.335	288.5
364.562	283.5
364.788	281.5
365.015	280.5
365.241	274.5
365.468	267.5
365.694	287.5
365.92	293.5
366.147	264.5
366.373	281.5
366.599	277.5
366.826	271.5
367.052	282.5
367.278	296.5
367.505	271.5
367.731	284.5
367.957	283.5
368.184	270.5
368.41	276.5
368.636	295.5
368.862	273.5
369.089	286.5
369.315	296.5
369.541	281.5
369.767	292.5
369.993	288.5
370.219	294.5
370.445	274.5
370.672	282.5
370.898	267.5
371.124	271.5
371.35	279.5
371.576	286.5
371.802	287.5
372.028	276.5
372.254	287.5
372.48	280.5
372.706	281.5
372.932	278.5
373.158	286.5
373.384	262.5
373.61	266.5
373.835	280.5
374.061	275.5
374.287	295.5
374.513	273.5
374.739	280.5
374.965	283.5
375.191	278.5
375.416	283.5
375.642	292.5
375.868	286.5
376.094	288.5
376.319	278.5
376.545	275.5
376.771	277.5
376.997	288.5
377.222	267.5
377.448	288.5
377.674	267.5
377.899	251.5
378.125	291.5
378.35	296.5
378.576	283.5
378.802	284.5
379.027	286.5
379.253	280.5
379.478	283.5
379.704	271.5
379.929	272.5
380.155	268.5
380.38	283.5
380.606	294.5
380.831	291.5
381.057	288.5
381.282	268.5
381.507	280.5
381.733	278.5
381.958	286.5
382.184	280.5
382.409	293.5
382.634	280.5
382.86	285.5
383.085	287.5
383.31	283.5
383.535	281.5
383.761	267.5
383.986	293.5
384.211	282.5
384.436	298.5
384.662	286.5
384.887	304.5
385.112	309.5
385.337	295.5
385.562	309.5
385.787	287.5
386.013	319.5
386.238	307.5
386.463	299.5
386.688	315.5
386.913	309.5
387.138	303.5
387.363	311.5
387.588	317.5
387.813	305.5
388.038	292.5
388.263	300.5
388.488	303.5
388.713	312.5
388.938	296.5
389.163	317.5
389.387	303.5
389.612	299.5
389.837	317.5
390.062	304.5
390.287	300.5
390.512	299.5
390.736	301.5
390.961	315.5
391.186	307.5
391.411	300.5
391.636	313.5
391.86	324.5
392.085	307.5
392.31	309.5
392.534	301.5
392.759	302.5
392.984	303.5
393.208	304.5
393.433	328.5
393.658	329.5
393.882	312.5
394.107	308.5
394.331	331.5
394.556	313.5
394.78	287.5
395.005	318.5
395.229	317.5
395.454	334.5
395.678	336.5
395.903	329.5
396.127	333.5
396.352	352.5
396.576	326.5
396.801	323.5
397.025	328.5
397.249	330.5
397.474	313.5
397.698	315.5
397.922	331.5
398.147	326.5
398.371	350.5
398.595	345.5
398.82	340.5
399.044	343.5
399.268	336.5
399.492	355.5
399.717	367.5
399.941	405.5
400.165	412.5
400.389	406.5
400.613	373.5
400.837	367.5
401.062	359.5
401.286	354.5
401.51	340.5
401.734	364.5
401.958	357.5
402.182	343.5
402.406	369.5
402.63	367.5
402.854	369.5
403.078	352.5
403.302	347.5
403.526	363.5
403.75	348.5
403.974	355.5
404.198	339.5
404.422	352.5
404.645	357.5
404.869	390.5
405.093	392.5
405.317	414.5
405.541	424.5
405.765	387.5
405.988	368.5
406.212	382.5
406.436	391.5
406.66	399.5
406.883	377.5
407.107	405.5
407.331	418.5
407.555	458.5
407.778	448.5
408.002	433.5
408.226	402.5
408.449	384.5
408.673	399.5
408.896	411.5
409.12	422.5
409.344	433.5
409.567	397.5
409.791	364.5
410.014	357.5
410.238	365.5
410.461	371.5
410.685	374.5
410.908	369.5
411.132	391.5
411.355	411.5
411.578	386.5
411.802	383.5
412.025	356.5
412.249	373.5
412.472	395.5
412.695	388.5
412.919	390.5
413.142	364.5
413.365	361.5
413.589	363.5
413.812	342.5
414.035	356.5
414.258	348.5
414.482	364.5
414.705	363.5
414.928	350.5
415.151	345.5
415.374	348.5
415.597	362.5
415.821	343.5
416.044	336.5
416.267	335.5
416.49	336.5
416.713	343.5
416.936	345.5
417.159	337.5
417.382	345.5
417.605	355.5
417.828	357.5
418.051	337.5
418.274	371.5
418.497	334.5
418.72	348.5
418.943	324.5
419.166	354.5
419.389	364.5
419.611	365.5
419.834	361.5
420.057	362.5
420.28	391.5
420.503	359.5
420.726	361.5
420.948	358.5
421.171	389.5
421.394	403.5
421.617	364.5
421.839	380.5
422.062	368.5
422.285	382.5
422.507	391.5
422.73	455.5
422.953	417.5
423.175	385.5
423.398	372.5
423.621	375.5
423.843	376.5
424.066	388.5
424.288	361.5
424.511	393.5
424.733	423.5
424.956	491.5
425.178	477.5
425.401	448.5
425.623	470.5
425.846	425.5
426.068	384.5
426.291	384.5
426.513	382.5
426.735	392.5
426.958	417.5
427.18	467.5
427.402	572.5
427.625	597.5
427.847	516.5
428.069	466.5
428.292	439.5
428.514	392.5
428.736	376.5
428.958	355.5
429.181	346.5
429.403	351.5
429.625	366.5
429.847	417.5
430.069	440.5
430.292	421.5
430.514	363.5
430.736	356.5
430.958	338.5
431.18	348.5
431.402	355.5
431.624	335.5
431.846	345.5
432.068	345.5
432.29	324.5
432.512	326.5
432.734	337.5
432.956	351.5
433.178	342.5
433.4	341.5
433.622	336.5
433.844	335.5
434.066	337.5
434.287	336.5
434.509	338.5
434.731	363.5
434.953	347.5
435.175	358.5
435.397	389.5
435.618	409.5
435.84	439.5
436.062	495.5
436.284	524.5
436.505	435.5
436.727	401.5
436.949	365.5
437.17	367.5
437.392	375.5
437.614	357.5
437.835	416.5
438.057	469.5
438.278	511.5
438.5	507.5
438.721	560.5
438.943	547.5
439.165	456.5
439.386	381.5
439.608	381.5
439.829	391.5
440.05	429.5
440.272	431.5
440.493	429.5
440.715	377.5
440.936	375.5
441.158	377.5
441.379	381.5
441.6	373.5
441.822	366.5
442.043	402.5
442.264	473.5
442.486	497.5
442.707	416.5
442.928	405.5
443.149	418.5
443.371	442.5
443.592	442.5
443.813	488.5
444.034	540.5
444.255	463.5
444.476	417.5
444.698	393.5
444.919	389.5
445.14	530.5
445.361	466.5
445.582	414.5
445.803	469.5
446.024	535.5
446.245	530.5
446.466	494.5
446.687	401.5
446.908	393.5
447.129	378.5
447.35	369.5
447.571	367.5
447.792	366.5
448.013	366.5
448.234	380.5
448.455	394.5
448.675	501.5
448.896	547.5
449.117	477.5
449.338	465.5
449.559	543.5
449.779	584.5
450	483.5
450.221	399.5
450.442	364.5
450.662	337.5
450.883	357.5
451.104	367.5
451.324	367.5
451.545	350.5
451.766	331.5
451.986	325.5
452.207	327.5
452.428	327.5
452.648	336.5
452.869	336.5
453.089	302.5
453.31	338.5
453.53	347.5
453.751	329.5
453.971	352.5
454.192	345.5
454.412	321.5
454.633	317.5
454.853	356.5
455.073	346.5
455.294	347.5
455.514	403.5
455.734	383.5
455.955	321.5
456.175	301.5
456.395	303.5
456.616	296.5
456.836	315.5
457.056	327.5
457.276	307.5
457.497	314.5
457.717	318.5
457.937	314.5
458.157	341.5
458.377	329.5
458.598	349.5
458.818	369.5
459.038	437.5
459.258	405.5
459.478	379.5
459.698	360.5
459.918	351.5
460.138	339.5
460.358	344.5
460.578	331.5
460.798	348.5
461.018	344.5
461.238	351.5
461.458	366.5
461.678	339.5
461.898	346.5
462.118	350.5
462.338	354.5
462.558	357.5
462.777	357.5
462.997	352.5
463.217	369.5
463.437	376.5
463.657	372.5
463.876	361.5
464.096	371.5
464.316	369.5
464.536	377.5
464.755	367.5
464.975	380.5
465.195	409.5
465.414	457.5
465.634	406.5
465.854	383.5
466.073	364.5
466.293	352.5
466.512	311.5
466.732	342.5
466.951	337.5
467.171	338.5
467.391	355.5
467.61	356.5
467.829	357.5
468.049	337.5
468.268	345.5
468.488	318.5
468.707	339.5
468.927	327.5
469.146	334.5
469.365	335.5
469.585	347.5
469.804	342.5
470.023	342.5
470.243	328.5
470.462	350.5
470.681	348.5
470.901	355.5
471.12	342.5
471.339	357.5
471.558	360.5
471.777	340.5
471.997	315.5
472.216	357.5
472.435	407.5
472.654	369.5
472.873	369.5
473.092	365.5
473.311	328.5
473.53	335.5
473.749	339.5
473.968	369.5
474.187	440.5
474.406	437.5
474.625	386.5
474.844	376.5
475.063	353.5
475.282	340.5
475.501	344.5
475.72	351.5
475.939	350.5
476.158	358.5
476.377	375.5
476.596	348.5
476.814	364.5
477.033	371.5
477.252	367.5
477.471	371.5
477.69	367.5
477.908	367.5
478.127	370.5
478.346	363.5
478.564	389.5
478.783	377.5
479.002	384.5
479.22	406.5
479.439	391.5
479.658	405.5
479.876	410.5
480.095	393.5
480.313	420.5
480.532	405.5
480.751	390.5
480.969	419.5
481.188	462.5
481.406	499.5
481.624	450.5
481.843	422.5
482.061	413.5
482.28	410.5
482.498	429.5
482.717	395.5
482.935	404.5
483.153	425.5
483.372	396.5
483.59	387.5
483.808	400.5
484.027	392.5
484.245	394.5
484.463	411.5
484.681	414.5
484.9	408.5
485.118	402.5
485.336	409.5
485.554	424.5
485.772	408.5
485.99	428.5
486.209	429.5
486.427	425.5
486.645	420.5
486.863	424.5
487.081	429.5
487.299	429.5
487.517	440.5
487.735	438.5
487.953	424.5
488.171	438.5
488.389	426.5
488.607	439.5
488.825	439.5
489.043	437.5
489.261	424.5
489.479	456.5
489.696	438.5
489.914	443.5
490.132	436.5
490.35	457.5
490.568	446.5
490.786	460.5
491.003	454.5
491.221	454.5
491.439	483.5
491.657	470.5
491.874	499.5
492.092	486.5
492.31	484.5
492.527	486.5
492.745	499.5
492.963	489.5
493.18	487.5
493.398	495.5
493.615	509.5
493.833	501.5
494.05	496.5
494.268	482.5
494.485	488.5
494.703	497.5
494.92	469.5
495.138	515.5
495.355	479.5
495.573	497.5
495.79	509.5
496.008	533.5
496.225	511.5
496.442	525.5
496.66	498.5
496.877	492.5
497.094	503.5
497.312	529.5
497.529	521.5
497.746	533.5
497.963	557.5
498.181	534.5
498.398	556.5
498.615	561.5
498.832	566.5
499.049	574.5
499.267	564.5
499.484	588.5
499.701	593.5
499.918	621.5
500.135	633.5
500.352	639.5
500.569	660.5
500.786	643.5
501.003	664.5
501.22	642.5
501.437	633.5
501.654	646.5
501.871	630.5
502.088	607.5
502.305	565.5
502.522	573.5
502.739	561.5
502.956	525.5
503.172	538.5
503.389	557.5
503.606	531.5
503.823	548.5
504.04	502.5
504.256	512.5
504.473	525.5
504.69	524.5
504.907	502.5
505.123	495.5
505.34	476.5
505.557	523.5
505.773	497.5
505.99	491.5
506.207	498.5
506.423	490.5
506.64	509.5
506.856	468.5
507.073	482.5
507.289	486.5
507.506	488.5
507.722	483.5
507.939	484.5
508.155	480.5
508.372	472.5
508.588	476.5
508.805	469.5
509.021	473.5
509.238	462.5
509.454	452.5
509.67	484.5
509.887	463.5
510.103	437.5
510.319	476.5
510.536	558.5
510.752	836.5
510.968	683.5
511.184	465.5
511.401	455.5
511.617	451.5
511.833	438.5
512.049	472.5
512.265	449.5
512.481	435.5
512.698	454.5
512.914	430.5
513.13	433.5
513.346	443.5
513.562	452.5
513.778	439.5
513.994	462.5
514.21	470.5
514.426	481.5
514.642	505.5
514.858	510.5
515.074	543.5
515.29	635.5
515.506	876.5
515.721	744.5
515.937	518.5
516.153	497.5
516.369	477.5
516.585	469.5
516.801	450.5
517.016	460.5
517.232	436.5
517.448	437.5
517.664	473.5
517.879	434.5
518.095	449.5
518.311	448.5
518.527	450.5
518.742	433.5
518.958	427.5
519.173	448.5
519.389	447.5
519.605	435.5
519.82	436.5
520.036	448.5
520.251	462.5
