Data from 1961.PennyLincolnUp.Lamp.En5.5.200Scan.071719.P1._HRD10591_13-46-21-058.txt Node
Date: Thu Jul 18 13:46:21 EDT 2019
User: cochatt
Spectrometer: HR+D1059
Trigger mode: 1
Integration Time (sec): 1.000000E-1
Scans to average: 1
Electric dark correction enabled: true
Nonlinearity correction enabled: false
Boxcar width: 0
XAxis mode: Wavelengths
Number of Pixels in Spectrum: 2048
>>>>>Begin Spectral Data<<<<<
223.165	-13.25
223.4	-13.25
223.635	-13.25
223.869	-24.25
224.104	-18.25
224.338	1.75
224.573	-7.25
224.808	-15.25
225.042	-6.25
225.277	-14.25
225.511	-0.25
225.746	-2.25
225.98	10.75
226.215	8.75
226.449	6.75
226.683	11.75
226.918	23.75
227.152	37.75
227.387	37.75
227.621	38.75
227.856	49.75
228.09	51.75
228.324	46.75
228.559	49.75
228.793	60.75
229.027	92.75
229.262	86.75
229.496	87.75
229.73	115.75
229.964	114.75
230.199	111.75
230.433	94.75
230.667	97.75
230.901	90.75
231.136	94.75
231.37	83.75
231.604	98.75
231.838	85.75
232.072	101.75
232.306	100.75
232.541	89.75
232.775	93.75
233.009	106.75
233.243	110.75
233.477	97.75
233.711	100.75
233.945	109.75
234.179	94.75
234.413	110.75
234.647	98.75
234.881	102.75
235.115	107.75
235.349	102.75
235.583	101.75
235.817	106.75
236.051	102.75
236.285	98.75
236.519	95.75
236.753	102.75
236.987	132.75
237.221	125.75
237.455	151.75
237.689	129.75
237.922	107.75
238.156	117.75
238.39	104.75
238.624	103.75
238.858	114.75
239.091	114.75
239.325	99.75
239.559	104.75
239.793	121.75
240.027	102.75
240.26	111.75
240.494	121.75
240.728	121.75
240.961	122.75
241.195	109.75
241.429	112.75
241.662	107.75
241.896	126.75
242.13	117.75
242.363	100.75
242.597	116.75
242.83	116.75
243.064	131.75
243.298	117.75
243.531	101.75
243.765	102.75
243.998	104.75
244.232	122.75
244.465	112.75
244.699	106.75
244.932	107.75
245.166	115.75
245.399	109.75
245.633	112.75
245.866	127.75
246.099	135.75
246.333	118.75
246.566	133.75
246.8	112.75
247.033	129.75
247.266	107.75
247.5	118.75
247.733	124.75
247.966	122.75
248.2	118.75
248.433	143.75
248.666	123.75
248.899	129.75
249.133	144.75
249.366	147.75
249.599	147.75
249.832	128.75
250.066	152.75
250.299	129.75
250.532	152.75
250.765	144.75
250.998	164.75
251.231	154.75
251.465	149.75
251.698	159.75
251.931	156.75
252.164	136.75
252.397	137.75
252.63	155.75
252.863	145.75
253.096	149.75
253.329	166.75
253.562	161.75
253.795	154.75
254.028	150.75
254.261	151.75
254.494	169.75
254.727	181.75
254.96	174.75
255.193	184.75
255.426	185.75
255.659	163.75
255.892	164.75
256.124	163.75
256.357	170.75
256.59	168.75
256.823	160.75
257.056	169.75
257.289	155.75
257.521	152.75
257.754	161.75
257.987	167.75
258.22	163.75
258.452	150.75
258.685	145.75
258.918	167.75
259.151	161.75
259.383	163.75
259.616	154.75
259.849	163.75
260.081	168.75
260.314	170.75
260.547	169.75
260.779	165.75
261.012	162.75
261.244	154.75
261.477	151.75
261.71	146.75
261.942	163.75
262.175	169.75
262.407	150.75
262.64	161.75
262.872	149.75
263.105	148.75
263.337	160.75
263.57	156.75
263.802	145.75
264.035	153.75
264.267	142.75
264.499	173.75
264.732	156.75
264.964	178.75
265.197	153.75
265.429	148.75
265.661	157.75
265.894	130.75
266.126	155.75
266.358	161.75
266.591	153.75
266.823	147.75
267.055	155.75
267.287	162.75
267.52	155.75
267.752	155.75
267.984	150.75
268.216	150.75
268.448	153.75
268.681	180.75
268.913	187.75
269.145	177.75
269.377	184.75
269.609	181.75
269.841	175.75
270.073	181.75
270.306	175.75
270.538	195.75
270.77	206.75
271.002	183.75
271.234	184.75
271.466	213.75
271.698	189.75
271.93	206.75
272.162	214.75
272.394	183.75
272.626	183.75
272.858	185.75
273.09	183.75
273.322	200.75
273.553	186.75
273.785	193.75
274.017	185.75
274.249	183.75
274.481	173.75
274.713	184.75
274.945	197.75
275.176	193.75
275.408	179.75
275.64	187.75
275.872	178.75
276.104	185.75
276.335	178.75
276.567	189.75
276.799	199.75
277.031	214.75
277.262	209.75
277.494	209.75
277.726	227.75
277.957	185.75
278.189	205.75
278.421	182.75
278.652	189.75
278.884	175.75
279.115	188.75
279.347	203.75
279.579	202.75
279.81	193.75
280.042	182.75
280.273	183.75
280.505	178.75
280.736	185.75
280.968	181.75
281.199	196.75
281.431	193.75
281.662	177.75
281.894	203.75
282.125	206.75
282.356	207.75
282.588	207.75
282.819	214.75
283.051	194.75
283.282	194.75
283.513	169.75
283.745	193.75
283.976	209.75
284.207	208.75
284.439	201.75
284.67	202.75
284.901	191.75
285.132	189.75
285.364	171.75
285.595	189.75
285.826	187.75
286.057	197.75
286.288	201.75
286.52	199.75
286.751	210.75
286.982	201.75
287.213	178.75
287.444	196.75
287.675	190.75
287.906	203.75
288.138	199.75
288.369	193.75
288.6	198.75
288.831	190.75
289.062	205.75
289.293	198.75
289.524	194.75
289.755	203.75
289.986	199.75
290.217	187.75
290.448	214.75
290.679	212.75
290.91	201.75
291.141	189.75
291.371	201.75
291.602	186.75
291.833	178.75
292.064	185.75
292.295	205.75
292.526	189.75
292.757	179.75
292.987	186.75
293.218	192.75
293.449	214.75
293.68	204.75
293.91	197.75
294.141	191.75
294.372	183.75
294.603	211.75
294.833	191.75
295.064	210.75
295.295	209.75
295.525	213.75
295.756	225.75
295.987	223.75
296.217	214.75
296.448	235.75
296.679	212.75
296.909	207.75
297.14	209.75
297.37	202.75
297.601	217.75
297.831	207.75
298.062	198.75
298.292	223.75
298.523	218.75
298.753	201.75
298.984	195.75
299.214	215.75
299.445	195.75
299.675	205.75
299.905	206.75
300.136	192.75
300.366	186.75
300.597	223.75
300.827	195.75
301.057	232.75
301.288	207.75
301.518	207.75
301.748	207.75
301.979	218.75
302.209	215.75
302.439	230.75
302.669	220.75
302.9	226.75
303.13	213.75
303.36	228.75
303.59	230.75
303.82	235.75
304.051	204.75
304.281	223.75
304.511	218.75
304.741	221.75
304.971	214.75
305.201	229.75
305.431	212.75
305.661	218.75
305.891	215.75
306.121	223.75
306.352	235.75
306.582	233.75
306.812	213.75
307.042	231.75
307.272	222.75
307.502	213.75
307.731	247.75
307.961	213.75
308.191	234.75
308.421	237.75
308.651	221.75
308.881	239.75
309.111	248.75
309.341	239.75
309.571	229.75
309.8	245.75
310.03	233.75
310.26	234.75
310.49	249.75
310.72	246.75
310.949	249.75
311.179	275.75
311.409	247.75
311.639	250.75
311.868	254.75
312.098	258.75
312.328	265.75
312.557	260.75
312.787	269.75
313.017	274.75
313.246	259.75
313.476	254.75
313.706	252.75
313.935	255.75
314.165	259.75
314.394	257.75
314.624	264.75
314.853	262.75
315.083	251.75
315.312	271.75
315.542	237.75
315.771	259.75
316.001	242.75
316.23	238.75
316.46	254.75
316.689	243.75
316.919	262.75
317.148	242.75
317.377	273.75
317.607	254.75
317.836	257.75
318.065	259.75
318.295	263.75
318.524	246.75
318.753	251.75
318.983	247.75
319.212	237.75
319.441	263.75
319.67	270.75
319.9	261.75
320.129	257.75
320.358	248.75
320.587	266.75
320.816	270.75
321.046	259.75
321.275	269.75
321.504	268.75
321.733	272.75
321.962	257.75
322.191	291.75
322.42	294.75
322.649	297.75
322.878	303.75
323.108	313.75
323.337	318.75
323.566	309.75
323.795	351.75
324.024	352.75
324.253	427.75
324.482	597.75
324.71	908.75
324.939	1251.75
325.168	1075.75
325.397	567.75
325.626	415.75
325.855	369.75
326.084	325.75
326.313	317.75
326.542	332.75
326.77	353.75
326.999	419.75
327.228	563.75
327.457	810.75
327.686	935.75
327.914	622.75
328.143	451.75
328.372	365.75
328.6	361.75
328.829	358.75
329.058	357.75
329.287	354.75
329.515	350.75
329.744	331.75
329.972	330.75
330.201	326.75
330.43	359.75
330.658	381.75
330.887	371.75
331.115	366.75
331.344	323.75
331.572	312.75
331.801	327.75
332.03	305.75
332.258	295.75
332.486	282.75
332.715	311.75
332.943	311.75
333.172	301.75
333.4	284.75
333.629	303.75
333.857	291.75
334.085	315.75
334.314	330.75
334.542	345.75
334.771	337.75
334.999	337.75
335.227	324.75
335.455	309.75
335.684	306.75
335.912	301.75
336.14	293.75
336.369	298.75
336.597	297.75
336.825	314.75
337.053	290.75
337.281	295.75
337.51	294.75
337.738	295.75
337.966	289.75
338.194	283.75
338.422	303.75
338.65	301.75
338.878	293.75
339.106	278.75
339.334	301.75
339.562	283.75
339.79	284.75
340.018	288.75
340.246	296.75
340.474	276.75
340.702	306.75
340.93	283.75
341.158	292.75
341.386	277.75
341.614	294.75
341.842	280.75
342.07	281.75
342.298	308.75
342.526	299.75
342.754	291.75
342.981	291.75
343.209	279.75
343.437	290.75
343.665	294.75
343.893	298.75
344.12	294.75
344.348	282.75
344.576	298.75
344.804	278.75
345.031	299.75
345.259	322.75
345.487	297.75
345.714	300.75
345.942	294.75
346.17	274.75
346.397	277.75
346.625	305.75
346.853	282.75
347.08	278.75
347.308	281.75
347.535	292.75
347.763	282.75
347.99	285.75
348.218	280.75
348.445	295.75
348.673	286.75
348.9	276.75
349.128	275.75
349.355	272.75
349.583	281.75
349.81	260.75
350.037	282.75
350.265	275.75
350.492	261.75
350.72	277.75
350.947	296.75
351.174	267.75
351.402	281.75
351.629	279.75
351.856	289.75
352.083	289.75
352.311	303.75
352.538	267.75
352.765	288.75
352.992	285.75
353.22	289.75
353.447	263.75
353.674	282.75
353.901	287.75
354.128	281.75
354.355	277.75
354.583	280.75
354.81	273.75
355.037	285.75
355.264	275.75
355.491	255.75
355.718	250.75
355.945	275.75
356.172	269.75
356.399	281.75
356.626	269.75
356.853	258.75
357.08	263.75
357.307	282.75
357.534	266.75
357.761	273.75
357.988	275.75
358.215	278.75
358.441	290.75
358.668	258.75
358.895	276.75
359.122	272.75
359.349	282.75
359.576	306.75
359.802	290.75
360.029	315.75
360.256	309.75
360.483	288.75
360.709	294.75
360.936	274.75
361.163	289.75
361.39	286.75
361.616	276.75
361.843	301.75
362.07	285.75
362.296	288.75
362.523	268.75
362.749	281.75
362.976	303.75
363.203	298.75
363.429	269.75
363.656	278.75
363.882	282.75
364.109	276.75
364.335	275.75
364.562	265.75
364.788	288.75
365.015	276.75
365.241	289.75
365.468	282.75
365.694	270.75
365.92	272.75
366.147	277.75
366.373	289.75
366.599	286.75
366.826	263.75
367.052	278.75
367.278	267.75
367.505	266.75
367.731	296.75
367.957	273.75
368.184	280.75
368.41	287.75
368.636	294.75
368.862	285.75
369.089	267.75
369.315	277.75
369.541	281.75
369.767	279.75
369.993	303.75
370.219	287.75
370.445	275.75
370.672	284.75
370.898	295.75
371.124	291.75
371.35	277.75
371.576	298.75
371.802	284.75
372.028	278.75
372.254	271.75
372.48	258.75
372.706	296.75
372.932	273.75
373.158	272.75
373.384	301.75
373.61	283.75
373.835	275.75
374.061	265.75
374.287	303.75
374.513	278.75
374.739	275.75
374.965	292.75
375.191	282.75
375.416	290.75
375.642	311.75
375.868	303.75
376.094	281.75
376.319	275.75
376.545	267.75
376.771	279.75
376.997	292.75
377.222	273.75
377.448	290.75
377.674	275.75
377.899	289.75
378.125	286.75
378.35	277.75
378.576	277.75
378.802	263.75
379.027	291.75
379.253	265.75
379.478	283.75
379.704	284.75
379.929	286.75
380.155	274.75
380.38	283.75
380.606	298.75
380.831	292.75
381.057	298.75
381.282	278.75
381.507	270.75
381.733	287.75
381.958	273.75
382.184	279.75
382.409	289.75
382.634	295.75
382.86	288.75
383.085	256.75
383.31	279.75
383.535	303.75
383.761	294.75
383.986	286.75
384.211	303.75
384.436	289.75
384.662	286.75
384.887	312.75
385.112	306.75
385.337	302.75
385.562	308.75
385.787	328.75
386.013	315.75
386.238	317.75
386.463	306.75
386.688	309.75
386.913	294.75
387.138	312.75
387.363	310.75
387.588	305.75
387.813	296.75
388.038	306.75
388.263	304.75
388.488	321.75
388.713	309.75
388.938	314.75
389.163	303.75
389.387	323.75
389.612	318.75
389.837	306.75
390.062	298.75
390.287	297.75
390.512	298.75
390.736	310.75
390.961	303.75
391.186	312.75
391.411	307.75
391.636	316.75
391.86	312.75
392.085	296.75
392.31	305.75
392.534	318.75
392.759	313.75
392.984	327.75
393.208	322.75
393.433	322.75
393.658	315.75
393.882	318.75
394.107	304.75
394.331	325.75
394.556	296.75
394.78	309.75
395.005	303.75
395.229	311.75
395.454	320.75
395.678	324.75
395.903	331.75
396.127	331.75
396.352	342.75
396.576	331.75
396.801	337.75
397.025	317.75
397.249	313.75
397.474	315.75
397.698	325.75
397.922	350.75
398.147	345.75
398.371	334.75
398.595	344.75
398.82	348.75
399.044	363.75
399.268	354.75
399.492	357.75
399.717	381.75
399.941	409.75
400.165	412.75
400.389	424.75
400.613	407.75
400.837	365.75
401.062	361.75
401.286	347.75
401.51	352.75
401.734	351.75
401.958	340.75
402.182	349.75
402.406	343.75
402.63	357.75
402.854	371.75
403.078	338.75
403.302	346.75
403.526	360.75
403.75	352.75
403.974	362.75
404.198	349.75
404.422	358.75
404.645	362.75
404.869	385.75
405.093	377.75
405.317	416.75
405.541	419.75
405.765	391.75
405.988	365.75
406.212	383.75
406.436	399.75
406.66	393.75
406.883	385.75
407.107	415.75
407.331	437.75
407.555	456.75
407.778	461.75
408.002	424.75
408.226	399.75
408.449	392.75
408.673	404.75
408.896	411.75
409.12	432.75
409.344	429.75
409.567	355.75
409.791	371.75
410.014	371.75
410.238	374.75
410.461	377.75
410.685	377.75
410.908	388.75
411.132	409.75
411.355	421.75
411.578	393.75
411.802	375.75
412.025	373.75
412.249	355.75
412.472	383.75
412.695	395.75
412.919	401.75
413.142	394.75
413.365	357.75
413.589	357.75
413.812	350.75
414.035	345.75
414.258	347.75
414.482	359.75
414.705	343.75
414.928	336.75
415.151	329.75
415.374	328.75
415.597	337.75
415.821	349.75
416.044	345.75
416.267	349.75
416.49	343.75
416.713	349.75
416.936	344.75
417.159	333.75
417.382	347.75
417.605	358.75
417.828	353.75
418.051	363.75
418.274	362.75
418.497	334.75
418.72	351.75
418.943	349.75
419.166	352.75
419.389	367.75
419.611	358.75
419.834	346.75
420.057	327.75
420.28	366.75
420.503	350.75
420.726	360.75
420.948	354.75
421.171	384.75
421.394	405.75
421.617	347.75
421.839	346.75
422.062	367.75
422.285	375.75
422.507	398.75
422.73	426.75
422.953	426.75
423.175	363.75
423.398	373.75
423.621	352.75
423.843	377.75
424.066	387.75
424.288	387.75
424.511	393.75
424.733	406.75
424.956	473.75
425.178	472.75
425.401	435.75
425.623	458.75
425.846	410.75
426.068	386.75
426.291	360.75
426.513	387.75
426.735	375.75
426.958	409.75
427.18	474.75
427.402	545.75
427.625	586.75
427.847	519.75
428.069	455.75
428.292	415.75
428.514	384.75
428.736	381.75
428.958	375.75
429.181	360.75
429.403	345.75
429.625	361.75
429.847	391.75
430.069	436.75
430.292	418.75
430.514	359.75
430.736	351.75
430.958	334.75
431.18	353.75
431.402	338.75
431.624	344.75
431.846	350.75
432.068	335.75
432.29	347.75
432.512	330.75
432.734	362.75
432.956	358.75
433.178	361.75
433.4	349.75
433.622	350.75
433.844	345.75
434.066	341.75
434.287	334.75
434.509	348.75
434.731	336.75
434.953	339.75
435.175	367.75
435.397	366.75
435.618	378.75
435.84	409.75
436.062	480.75
436.284	515.75
436.505	421.75
436.727	405.75
436.949	368.75
437.17	379.75
437.392	354.75
437.614	357.75
437.835	391.75
438.057	439.75
438.278	505.75
438.5	513.75
438.721	547.75
438.943	555.75
439.165	427.75
439.386	386.75
439.608	407.75
439.829	382.75
440.05	403.75
440.272	437.75
440.493	414.75
440.715	379.75
440.936	379.75
441.158	361.75
441.379	369.75
441.6	367.75
441.822	374.75
442.043	406.75
442.264	450.75
442.486	475.75
442.707	431.75
442.928	406.75
443.149	390.75
443.371	423.75
443.592	432.75
443.813	484.75
444.034	517.75
444.255	458.75
444.476	409.75
444.698	392.75
444.919	373.75
445.14	502.75
445.361	453.75
445.582	400.75
445.803	434.75
446.024	489.75
446.245	527.75
446.466	464.75
446.687	410.75
446.908	355.75
447.129	383.75
447.35	355.75
447.571	353.75
447.792	376.75
448.013	375.75
448.234	367.75
448.455	418.75
448.675	469.75
448.896	547.75
449.117	474.75
449.338	472.75
449.559	535.75
449.779	567.75
450	466.75
450.221	367.75
450.442	357.75
450.662	350.75
450.883	355.75
451.104	359.75
451.324	340.75
451.545	352.75
451.766	347.75
451.986	325.75
452.207	333.75
452.428	326.75
452.648	326.75
452.869	322.75
453.089	340.75
453.31	330.75
453.53	325.75
453.751	330.75
453.971	326.75
454.192	359.75
454.412	323.75
454.633	306.75
454.853	310.75
455.073	313.75
455.294	330.75
455.514	373.75
455.734	371.75
455.955	321.75
456.175	321.75
456.395	325.75
456.616	325.75
456.836	324.75
457.056	304.75
457.276	285.75
457.497	332.75
457.717	303.75
457.937	310.75
458.157	318.75
458.377	319.75
458.598	345.75
458.818	357.75
459.038	407.75
459.258	425.75
459.478	373.75
459.698	354.75
459.918	345.75
460.138	347.75
460.358	342.75
460.578	351.75
460.798	341.75
461.018	347.75
461.238	364.75
461.458	353.75
461.678	356.75
461.898	371.75
462.118	341.75
462.338	375.75
462.558	370.75
462.777	387.75
462.997	387.75
463.217	374.75
463.437	389.75
463.657	380.75
463.876	377.75
464.096	379.75
464.316	368.75
464.536	370.75
464.755	386.75
464.975	378.75
465.195	390.75
465.414	423.75
465.634	378.75
465.854	379.75
466.073	359.75
466.293	339.75
466.512	335.75
466.732	322.75
466.951	338.75
467.171	336.75
467.391	339.75
467.61	360.75
467.829	346.75
468.049	334.75
468.268	354.75
468.488	327.75
468.707	334.75
468.927	339.75
469.146	333.75
469.365	336.75
469.585	342.75
469.804	333.75
470.023	349.75
470.243	341.75
470.462	341.75
470.681	350.75
470.901	336.75
471.12	339.75
471.339	339.75
471.558	354.75
471.777	337.75
471.997	322.75
472.216	339.75
472.435	354.75
472.654	341.75
472.873	331.75
473.092	344.75
473.311	350.75
473.53	337.75
473.749	360.75
473.968	374.75
474.187	426.75
474.406	443.75
474.625	384.75
474.844	353.75
475.063	362.75
475.282	347.75
475.501	356.75
475.72	368.75
475.939	347.75
476.158	343.75
476.377	359.75
476.596	337.75
476.814	344.75
477.033	355.75
477.252	358.75
477.471	381.75
477.69	369.75
477.908	381.75
478.127	372.75
478.346	389.75
478.564	373.75
478.783	390.75
479.002	390.75
479.22	396.75
479.439	397.75
479.658	378.75
479.876	410.75
480.095	420.75
480.313	415.75
480.532	428.75
480.751	415.75
480.969	394.75
481.188	432.75
481.406	478.75
481.624	436.75
481.843	418.75
482.061	414.75
482.28	403.75
482.498	401.75
482.717	399.75
482.935	423.75
483.153	382.75
483.372	404.75
483.59	392.75
483.808	402.75
484.027	408.75
484.245	410.75
484.463	394.75
484.681	402.75
484.9	406.75
485.118	421.75
485.336	435.75
485.554	401.75
485.772	405.75
485.99	404.75
486.209	419.75
486.427	428.75
486.645	425.75
486.863	423.75
487.081	422.75
487.299	422.75
487.517	431.75
487.735	421.75
487.953	420.75
488.171	436.75
488.389	432.75
488.607	418.75
488.825	405.75
489.043	423.75
489.261	445.75
489.479	432.75
489.696	446.75
489.914	451.75
490.132	420.75
490.35	447.75
490.568	452.75
490.786	429.75
491.003	460.75
491.221	455.75
491.439	463.75
491.657	472.75
491.874	478.75
492.092	487.75
492.31	471.75
492.527	489.75
492.745	483.75
492.963	465.75
493.18	480.75
493.398	483.75
493.615	497.75
493.833	478.75
494.05	487.75
494.268	501.75
494.485	484.75
494.703	480.75
494.92	484.75
495.138	493.75
495.355	497.75
495.573	501.75
495.79	505.75
496.008	499.75
496.225	507.75
496.442	515.75
496.66	496.75
496.877	499.75
497.094	489.75
497.312	493.75
497.529	510.75
497.746	523.75
497.963	529.75
498.181	537.75
498.398	549.75
498.615	514.75
498.832	557.75
499.049	586.75
499.267	576.75
499.484	594.75
499.701	623.75
499.918	629.75
500.135	643.75
500.352	643.75
500.569	654.75
500.786	675.75
501.003	673.75
501.22	649.75
501.437	638.75
501.654	602.75
501.871	636.75
502.088	602.75
502.305	581.75
