Data from 1961.PennyLincolnUp.Lamp.En5.5.200Scan.071719.P1._HRD10591_13-47-18-057.txt Node
Date: Thu Jul 18 13:47:18 EDT 2019
User: cochatt
Spectrometer: HR+D1059
Trigger mode: 1
Integration Time (sec): 1.000000E-1
Scans to average: 1
Electric dark correction enabled: true
Nonlinearity correction enabled: false
Boxcar width: 0
XAxis mode: Wavelengths
Number of Pixels in Spectrum: 2048
>>>>>Begin Spectral Data<<<<<
223.165	-24.88
223.4	-24.88
223.635	-24.88
223.869	-27.88
224.104	-26.88
224.338	-16.88
224.573	-6.88
224.808	-8.88
225.042	-11.88
225.277	-1.88
225.511	13.12
225.746	15.12
225.98	-8.88
226.215	3.12
226.449	17.12
226.683	22.12
226.918	24.12
227.152	40.12
227.387	38.12
227.621	32.12
227.856	36.12
228.09	54.12
228.324	56.12
228.559	52.12
228.793	73.12
229.027	87.12
229.262	102.12
229.496	94.12
229.73	107.12
229.964	123.12
230.199	108.12
230.433	97.12
230.667	89.12
230.901	93.12
231.136	98.12
231.37	100.12
231.604	88.12
231.838	105.12
232.072	114.12
232.306	98.12
232.541	110.12
232.775	101.12
233.009	105.12
233.243	104.12
233.477	108.12
233.711	115.12
233.945	105.12
234.179	100.12
234.413	95.12
234.647	99.12
234.881	100.12
235.115	108.12
235.349	117.12
235.583	109.12
235.817	111.12
236.051	125.12
236.285	116.12
236.519	111.12
236.753	119.12
236.987	117.12
237.221	153.12
237.455	194.12
237.689	157.12
237.922	127.12
238.156	108.12
238.39	107.12
238.624	121.12
238.858	109.12
239.091	120.12
239.325	109.12
239.559	96.12
239.793	115.12
240.027	109.12
240.26	123.12
240.494	122.12
240.728	138.12
240.961	132.12
241.195	118.12
241.429	128.12
241.662	129.12
241.896	132.12
242.13	112.12
242.363	113.12
242.597	122.12
242.83	117.12
243.064	137.12
243.298	123.12
243.531	109.12
243.765	112.12
243.998	111.12
244.232	118.12
244.465	118.12
244.699	129.12
244.932	117.12
245.166	125.12
245.399	116.12
245.633	118.12
245.866	121.12
246.099	123.12
246.333	126.12
246.566	121.12
246.8	135.12
247.033	129.12
247.266	141.12
247.5	146.12
247.733	132.12
247.966	133.12
248.2	145.12
248.433	140.12
248.666	156.12
248.899	170.12
249.133	170.12
249.366	171.12
249.599	176.12
249.832	162.12
250.066	149.12
250.299	142.12
250.532	164.12
250.765	172.12
250.998	173.12
251.231	183.12
251.465	167.12
251.698	171.12
251.931	168.12
252.164	162.12
252.397	162.12
252.63	168.12
252.863	168.12
253.096	168.12
253.329	184.12
253.562	165.12
253.795	187.12
254.028	164.12
254.261	181.12
254.494	183.12
254.727	194.12
254.96	218.12
255.193	202.12
255.426	205.12
255.659	183.12
255.892	193.12
256.124	198.12
256.357	193.12
256.59	188.12
256.823	187.12
257.056	167.12
257.289	169.12
257.521	170.12
257.754	170.12
257.987	174.12
258.22	172.12
258.452	171.12
258.685	183.12
258.918	166.12
259.151	172.12
259.383	195.12
259.616	177.12
259.849	193.12
260.081	186.12
260.314	202.12
260.547	207.12
260.779	192.12
261.012	197.12
261.244	183.12
261.477	195.12
261.71	187.12
261.942	190.12
262.175	185.12
262.407	175.12
262.64	170.12
262.872	172.12
263.105	169.12
263.337	176.12
263.57	187.12
263.802	168.12
264.035	181.12
264.267	159.12
264.499	172.12
264.732	165.12
264.964	177.12
265.197	159.12
265.429	167.12
265.661	184.12
265.894	171.12
266.126	188.12
266.358	179.12
266.591	188.12
266.823	177.12
267.055	177.12
267.287	192.12
267.52	176.12
267.752	184.12
267.984	181.12
268.216	184.12
268.448	200.12
268.681	198.12
268.913	197.12
269.145	203.12
269.377	212.12
269.609	215.12
269.841	215.12
270.073	210.12
270.306	235.12
270.538	227.12
270.77	239.12
271.002	228.12
271.234	232.12
271.466	219.12
271.698	243.12
271.93	254.12
272.162	238.12
272.394	243.12
272.626	241.12
272.858	238.12
273.09	217.12
273.322	235.12
273.553	203.12
273.785	205.12
274.017	210.12
274.249	214.12
274.481	221.12
274.713	228.12
274.945	212.12
275.176	210.12
275.408	216.12
275.64	213.12
275.872	225.12
276.104	208.12
276.335	205.12
276.567	205.12
276.799	228.12
277.031	238.12
277.262	261.12
277.494	267.12
277.726	232.12
277.957	228.12
278.189	223.12
278.421	228.12
278.652	223.12
278.884	213.12
279.115	208.12
279.347	204.12
279.579	212.12
279.81	208.12
280.042	218.12
280.273	210.12
280.505	217.12
280.736	201.12
280.968	220.12
281.199	208.12
281.431	212.12
281.662	213.12
281.894	208.12
282.125	196.12
282.356	215.12
282.588	251.12
282.819	240.12
283.051	229.12
283.282	213.12
283.513	225.12
283.745	226.12
283.976	208.12
284.207	206.12
284.439	234.12
284.67	224.12
284.901	234.12
285.132	202.12
285.364	211.12
285.595	218.12
285.826	212.12
286.057	215.12
286.288	225.12
286.52	204.12
286.751	200.12
286.982	240.12
287.213	218.12
287.444	225.12
287.675	230.12
287.906	235.12
288.138	243.12
288.369	241.12
288.6	243.12
288.831	242.12
289.062	228.12
289.293	213.12
289.524	218.12
289.755	227.12
289.986	239.12
290.217	214.12
290.448	216.12
290.679	237.12
290.91	216.12
291.141	227.12
291.371	211.12
291.602	221.12
291.833	219.12
292.064	226.12
292.295	225.12
292.526	215.12
292.757	227.12
292.987	226.12
293.218	251.12
293.449	243.12
293.68	253.12
293.91	225.12
294.141	212.12
294.372	215.12
294.603	222.12
294.833	213.12
295.064	216.12
295.295	235.12
295.525	218.12
295.756	235.12
295.987	242.12
296.217	245.12
296.448	268.12
296.679	227.12
296.909	227.12
297.14	229.12
297.37	226.12
297.601	238.12
297.831	239.12
298.062	228.12
298.292	237.12
298.523	251.12
298.753	227.12
298.984	217.12
299.214	226.12
299.445	237.12
299.675	241.12
299.905	259.12
300.136	244.12
300.366	262.12
300.597	229.12
300.827	239.12
301.057	249.12
301.288	276.12
301.518	231.12
301.748	243.12
301.979	237.12
302.209	256.12
302.439	239.12
302.669	249.12
302.9	261.12
303.13	257.12
303.36	241.12
303.59	242.12
303.82	247.12
304.051	273.12
304.281	241.12
304.511	257.12
304.741	269.12
304.971	267.12
305.201	282.12
305.431	249.12
305.661	250.12
305.891	266.12
306.121	257.12
306.352	265.12
306.582	250.12
306.812	269.12
307.042	268.12
307.272	261.12
307.502	266.12
307.731	275.12
307.961	257.12
308.191	260.12
308.421	274.12
308.651	253.12
308.881	267.12
309.111	287.12
309.341	281.12
309.571	278.12
309.8	296.12
310.03	291.12
310.26	303.12
310.49	300.12
310.72	313.12
310.949	334.12
311.179	318.12
311.409	323.12
311.639	309.12
311.868	299.12
312.098	308.12
312.328	315.12
312.557	338.12
312.787	334.12
313.017	330.12
313.246	319.12
313.476	297.12
313.706	309.12
313.935	307.12
314.165	314.12
314.394	325.12
314.624	317.12
314.853	317.12
315.083	302.12
315.312	303.12
315.542	300.12
315.771	277.12
316.001	284.12
316.23	309.12
316.46	297.12
316.689	291.12
316.919	291.12
317.148	310.12
317.377	323.12
317.607	317.12
317.836	321.12
318.065	294.12
318.295	277.12
318.524	326.12
318.753	302.12
318.983	280.12
319.212	298.12
319.441	303.12
319.67	309.12
319.9	320.12
320.129	308.12
320.358	296.12
320.587	311.12
320.816	312.12
321.046	328.12
321.275	329.12
321.504	319.12
321.733	341.12
321.962	316.12
322.191	337.12
322.42	356.12
322.649	361.12
322.878	382.12
323.108	372.12
323.337	405.12
323.566	424.12
323.795	473.12
324.024	470.12
324.253	644.12
324.482	941.12
324.71	1397.12
324.939	1983.12
325.168	1683.12
325.397	877.12
325.626	608.12
325.855	477.12
326.084	446.12
326.313	441.12
326.542	443.12
326.77	479.12
326.999	579.12
327.228	798.12
327.457	1254.12
327.686	1450.12
327.914	974.12
328.143	641.12
328.372	550.12
328.6	487.12
328.829	485.12
329.058	510.12
329.287	533.12
329.515	465.12
329.744	445.12
329.972	436.12
330.201	450.12
330.43	485.12
330.658	509.12
330.887	524.12
331.115	507.12
331.344	436.12
331.572	408.12
331.801	415.12
332.03	393.12
332.258	402.12
332.486	357.12
332.715	353.12
332.943	377.12
333.172	376.12
333.4	355.12
333.629	367.12
333.857	385.12
334.085	387.12
334.314	414.12
334.542	436.12
334.771	487.12
334.999	407.12
335.227	390.12
335.455	376.12
335.684	362.12
335.912	359.12
336.14	341.12
336.369	359.12
336.597	370.12
336.825	366.12
337.053	359.12
337.281	355.12
337.51	351.12
337.738	351.12
337.966	339.12
338.194	342.12
338.422	348.12
338.65	339.12
338.878	345.12
339.106	339.12
339.334	345.12
339.562	324.12
339.79	330.12
340.018	326.12
340.246	333.12
340.474	345.12
340.702	334.12
340.93	332.12
341.158	337.12
341.386	345.12
341.614	334.12
341.842	339.12
342.07	329.12
342.298	324.12
342.526	329.12
342.754	326.12
342.981	320.12
343.209	322.12
343.437	316.12
343.665	327.12
343.893	348.12
344.12	343.12
344.348	329.12
344.576	333.12
344.804	361.12
345.031	356.12
345.259	356.12
345.487	359.12
345.714	342.12
345.942	321.12
346.17	336.12
346.397	325.12
346.625	342.12
346.853	340.12
347.08	321.12
347.308	333.12
347.535	351.12
347.763	343.12
347.99	340.12
348.218	332.12
348.445	362.12
348.673	348.12
348.9	331.12
349.128	324.12
349.355	329.12
349.583	331.12
349.81	328.12
350.037	325.12
350.265	319.12
350.492	327.12
350.72	314.12
350.947	307.12
351.174	328.12
351.402	342.12
351.629	331.12
351.856	337.12
352.083	331.12
352.311	349.12
352.538	359.12
352.765	349.12
352.992	350.12
353.22	337.12
353.447	336.12
353.674	309.12
353.901	319.12
354.128	311.12
354.355	315.12
354.583	294.12
354.81	309.12
355.037	311.12
355.264	307.12
355.491	315.12
355.718	286.12
355.945	306.12
356.172	283.12
356.399	297.12
356.626	297.12
356.853	309.12
357.08	321.12
357.307	289.12
357.534	298.12
357.761	313.12
357.988	303.12
358.215	313.12
358.441	314.12
358.668	302.12
358.895	327.12
359.122	328.12
359.349	314.12
359.576	331.12
359.802	344.12
360.029	355.12
360.256	385.12
360.483	363.12
360.709	339.12
360.936	316.12
361.163	339.12
361.39	328.12
361.616	300.12
361.843	327.12
362.07	332.12
362.296	345.12
362.523	345.12
362.749	333.12
362.976	329.12
363.203	315.12
363.429	324.12
363.656	340.12
363.882	315.12
364.109	310.12
364.335	321.12
364.562	306.12
364.788	314.12
365.015	295.12
365.241	316.12
365.468	320.12
365.694	320.12
365.92	319.12
366.147	335.12
366.373	307.12
366.599	285.12
366.826	311.12
367.052	313.12
367.278	317.12
367.505	323.12
367.731	308.12
367.957	300.12
368.184	315.12
368.41	299.12
368.636	321.12
368.862	327.12
369.089	305.12
369.315	309.12
369.541	298.12
369.767	307.12
369.993	314.12
370.219	327.12
370.445	312.12
370.672	310.12
370.898	311.12
371.124	308.12
371.35	309.12
371.576	324.12
371.802	311.12
372.028	281.12
372.254	309.12
372.48	315.12
372.706	313.12
372.932	305.12
373.158	306.12
373.384	313.12
373.61	319.12
373.835	327.12
374.061	319.12
374.287	327.12
374.513	311.12
374.739	311.12
374.965	332.12
375.191	328.12
375.416	319.12
375.642	295.12
375.868	288.12
376.094	315.12
376.319	311.12
376.545	306.12
376.771	303.12
376.997	307.12
377.222	316.12
377.448	323.12
377.674	314.12
377.899	294.12
378.125	311.12
378.35	308.12
378.576	305.12
378.802	304.12
379.027	296.12
379.253	323.12
379.478	296.12
379.704	307.12
379.929	317.12
380.155	304.12
380.38	303.12
380.606	333.12
380.831	316.12
381.057	325.12
381.282	317.12
381.507	305.12
381.733	319.12
381.958	332.12
382.184	306.12
382.409	315.12
382.634	325.12
382.86	331.12
383.085	342.12
383.31	300.12
383.535	306.12
383.761	315.12
383.986	324.12
384.211	330.12
384.436	324.12
384.662	317.12
384.887	340.12
385.112	335.12
385.337	338.12
385.562	334.12
385.787	343.12
386.013	344.12
386.238	344.12
386.463	347.12
386.688	342.12
386.913	330.12
387.138	321.12
387.363	340.12
387.588	332.12
387.813	323.12
388.038	332.12
388.263	346.12
388.488	330.12
388.713	327.12
388.938	324.12
389.163	340.12
389.387	327.12
389.612	348.12
389.837	349.12
390.062	317.12
390.287	327.12
390.512	332.12
390.736	333.12
390.961	339.12
391.186	330.12
391.411	348.12
391.636	339.12
391.86	330.12
392.085	343.12
392.31	347.12
392.534	328.12
392.759	331.12
392.984	350.12
393.208	348.12
393.433	346.12
393.658	352.12
393.882	336.12
394.107	341.12
394.331	355.12
394.556	326.12
394.78	327.12
395.005	356.12
395.229	331.12
395.454	332.12
395.678	339.12
395.903	357.12
396.127	366.12
396.352	375.12
396.576	363.12
396.801	339.12
397.025	352.12
397.249	357.12
397.474	371.12
397.698	334.12
397.922	375.12
398.147	373.12
398.371	376.12
398.595	389.12
398.82	364.12
399.044	371.12
399.268	364.12
399.492	387.12
399.717	412.12
399.941	421.12
400.165	464.12
400.389	461.12
400.613	433.12
400.837	403.12
401.062	387.12
401.286	376.12
401.51	391.12
401.734	379.12
401.958	378.12
402.182	379.12
402.406	382.12
402.63	386.12
402.854	391.12
403.078	400.12
403.302	419.12
403.526	408.12
403.75	395.12
403.974	417.12
404.198	383.12
404.422	404.12
404.645	385.12
404.869	413.12
405.093	422.12
405.317	467.12
405.541	476.12
405.765	435.12
405.988	441.12
406.212	419.12
406.436	431.12
406.66	453.12
406.883	432.12
407.107	456.12
407.331	469.12
407.555	533.12
407.778	521.12
408.002	477.12
408.226	445.12
408.449	456.12
408.673	457.12
408.896	475.12
409.12	484.12
409.344	456.12
409.567	425.12
409.791	414.12
410.014	383.12
410.238	398.12
410.461	391.12
410.685	417.12
410.908	427.12
411.132	452.12
411.355	465.12
411.578	449.12
411.802	417.12
412.025	404.12
412.249	435.12
412.472	438.12
412.695	451.12
412.919	451.12
413.142	400.12
413.365	403.12
413.589	384.12
413.812	387.12
414.035	377.12
414.258	389.12
414.482	379.12
414.705	397.12
414.928	384.12
415.151	379.12
415.374	382.12
415.597	373.12
415.821	362.12
416.044	360.12
416.267	395.12
416.49	388.12
416.713	381.12
416.936	387.12
417.159	357.12
417.382	394.12
417.605	392.12
417.828	396.12
418.051	382.12
418.274	384.12
418.497	382.12
418.72	381.12
418.943	387.12
419.166	389.12
419.389	421.12
419.611	398.12
419.834	383.12
420.057	391.12
420.28	415.12
420.503	406.12
420.726	393.12
420.948	394.12
421.171	461.12
421.394	469.12
421.617	416.12
421.839	394.12
422.062	394.12
422.285	405.12
422.507	443.12
422.73	517.12
422.953	471.12
423.175	435.12
423.398	397.12
423.621	423.12
423.843	440.12
424.066	425.12
424.288	428.12
424.511	453.12
424.733	471.12
424.956	540.12
425.178	527.12
425.401	533.12
425.623	534.12
425.846	455.12
426.068	422.12
426.291	443.12
426.513	426.12
426.735	436.12
426.958	480.12
427.18	561.12
427.402	616.12
427.625	690.12
427.847	641.12
428.069	533.12
428.292	496.12
428.514	421.12
428.736	423.12
428.958	414.12
429.181	396.12
429.403	409.12
429.625	391.12
429.847	447.12
430.069	492.12
430.292	522.12
430.514	422.12
430.736	421.12
430.958	372.12
431.18	399.12
431.402	395.12
431.624	394.12
431.846	360.12
432.068	391.12
432.29	382.12
432.512	356.12
432.734	389.12
432.956	387.12
433.178	381.12
433.4	394.12
433.622	387.12
433.844	362.12
434.066	360.12
434.287	378.12
434.509	398.12
434.731	385.12
434.953	387.12
435.175	391.12
435.397	427.12
435.618	440.12
435.84	484.12
436.062	537.12
436.284	605.12
436.505	517.12
436.727	468.12
436.949	419.12
437.17	391.12
437.392	405.12
437.614	417.12
437.835	442.12
438.057	543.12
438.278	598.12
438.5	589.12
438.721	632.12
438.943	627.12
439.165	491.12
439.386	457.12
439.608	455.12
439.829	460.12
440.05	462.12
440.272	509.12
440.493	471.12
440.715	441.12
440.936	414.12
441.158	419.12
441.379	412.12
441.6	445.12
441.822	452.12
442.043	480.12
442.264	548.12
442.486	571.12
442.707	522.12
442.928	468.12
443.149	471.12
443.371	460.12
443.592	511.12
443.813	572.12
444.034	633.12
444.255	524.12
444.476	460.12
444.698	439.12
444.919	436.12
445.14	520.12
445.361	491.12
445.582	482.12
445.803	541.12
446.024	625.12
446.245	611.12
446.466	563.12
446.687	492.12
446.908	453.12
447.129	422.12
447.35	425.12
447.571	397.12
447.792	414.12
448.013	422.12
448.234	435.12
448.455	497.12
448.675	549.12
448.896	643.12
449.117	548.12
449.338	515.12
449.559	600.12
449.779	669.12
450	547.12
450.221	451.12
450.442	433.12
450.662	435.12
450.883	422.12
451.104	431.12
451.324	405.12
451.545	416.12
451.766	379.12
451.986	379.12
452.207	370.12
452.428	379.12
452.648	372.12
452.869	374.12
453.089	394.12
453.31	397.12
453.53	387.12
453.751	389.12
453.971	395.12
454.192	393.12
454.412	392.12
454.633	379.12
454.853	365.12
455.073	362.12
455.294	390.12
455.514	447.12
455.734	424.12
455.955	379.12
456.175	358.12
456.395	369.12
456.616	339.12
456.836	348.12
457.056	341.12
457.276	327.12
457.497	358.12
457.717	344.12
457.937	348.12
458.157	339.12
458.377	349.12
458.598	373.12
458.818	421.12
459.038	519.12
459.258	524.12
459.478	424.12
459.698	415.12
459.918	376.12
460.138	390.12
460.358	380.12
460.578	377.12
460.798	401.12
461.018	375.12
461.238	389.12
461.458	393.12
461.678	376.12
461.898	403.12
462.118	386.12
462.338	397.12
462.558	403.12
462.777	399.12
462.997	398.12
463.217	412.12
463.437	389.12
463.657	394.12
463.876	408.12
464.096	403.12
464.316	402.12
464.536	398.12
464.755	404.12
464.975	417.12
465.195	465.12
465.414	530.12
465.634	453.12
465.854	401.12
466.073	392.12
466.293	380.12
466.512	377.12
466.732	371.12
466.951	373.12
467.171	369.12
467.391	388.12
467.61	409.12
467.829	397.12
468.049	391.12
468.268	373.12
468.488	385.12
468.707	347.12
468.927	369.12
469.146	363.12
469.365	385.12
469.585	359.12
469.804	372.12
470.023	401.12
470.243	387.12
470.462	392.12
470.681	399.12
470.901	393.12
471.12	407.12
471.339	384.12
471.558	399.12
471.777	391.12
471.997	367.12
472.216	389.12
472.435	423.12
472.654	424.12
472.873	397.12
473.092	389.12
473.311	385.12
473.53	402.12
473.749	391.12
473.968	445.12
474.187	508.12
474.406	546.12
474.625	434.12
474.844	401.12
475.063	399.12
475.282	392.12
475.501	367.12
475.72	409.12
475.939	392.12
476.158	404.12
476.377	399.12
476.596	399.12
476.814	393.12
477.033	397.12
477.252	406.12
477.471	409.12
477.69	415.12
477.908	417.12
478.127	435.12
478.346	407.12
478.564	424.12
478.783	420.12
479.002	425.12
479.22	444.12
479.439	435.12
479.658	459.12
479.876	454.12
480.095	449.12
480.313	484.12
480.532	458.12
480.751	460.12
480.969	464.12
481.188	543.12
481.406	593.12
481.624	495.12
481.843	500.12
482.061	474.12
482.28	460.12
482.498	465.12
482.717	467.12
482.935	445.12
483.153	448.12
483.372	451.12
483.59	453.12
483.808	422.12
484.027	452.12
484.245	427.12
484.463	444.12
484.681	469.12
484.9	442.12
485.118	489.12
485.336	463.12
485.554	452.12
485.772	480.12
485.99	451.12
486.209	463.12
486.427	471.12
486.645	463.12
486.863	482.12
487.081	502.12
487.299	491.12
487.517	497.12
487.735	487.12
487.953	465.12
488.171	486.12
488.389	471.12
488.607	471.12
488.825	475.12
489.043	494.12
489.261	461.12
489.479	487.12
489.696	485.12
489.914	498.12
490.132	484.12
490.35	513.12
490.568	501.12
490.786	508.12
491.003	496.12
491.221	538.12
491.439	524.12
491.657	509.12
491.874	520.12
492.092	564.12
492.31	556.12
492.527	554.12
492.745	551.12
492.963	559.12
493.18	559.12
493.398	545.12
493.615	548.12
493.833	547.12
494.05	557.12
494.268	544.12
494.485	575.12
494.703	568.12
494.92	534.12
495.138	569.12
495.355	579.12
495.573	581.12
495.79	562.12
496.008	575.12
496.225	553.12
496.442	558.12
496.66	584.12
496.877	575.12
497.094	561.12
497.312	553.12
497.529	574.12
497.746	601.12
497.963	584.12
498.181	604.12
498.398	626.12
498.615	587.12
498.832	644.12
499.049	637.12
499.267	642.12
499.484	658.12
499.701	671.12
499.918	690.12
500.135	696.12
500.352	708.12
500.569	713.12
500.786	722.12
501.003	717.12
501.22	678.12
501.437	733.12
501.654	695.12
501.871	706.12
502.088	683.12
