Data from 1961.PennyLincolnUp.Lamp.En5.5.200Scan.071719.P1._HRD10591_13-47-38-059.txt Node
Date: Thu Jul 18 13:47:38 EDT 2019
User: cochatt
Spectrometer: HR+D1059
Trigger mode: 1
Integration Time (sec): 1.000000E-1
Scans to average: 1
Electric dark correction enabled: true
Nonlinearity correction enabled: false
Boxcar width: 0
XAxis mode: Wavelengths
Number of Pixels in Spectrum: 2048
>>>>>Begin Spectral Data<<<<<
223.165	-17.75
223.4	-17.75
223.635	-17.75
223.869	-23.75
224.104	-16.75
224.338	-2.75
224.573	-23.75
224.808	-16.75
225.042	-3.75
225.277	0.25
225.511	6.25
225.746	-4.75
225.98	4.25
226.215	3.25
226.449	14.25
226.683	22.25
226.918	31.25
227.152	28.25
227.387	28.25
227.621	41.25
227.856	55.25
228.09	49.25
228.324	45.25
228.559	48.25
228.793	59.25
229.027	91.25
229.262	105.25
229.496	112.25
229.73	126.25
229.964	139.25
230.199	119.25
230.433	94.25
230.667	115.25
230.901	118.25
231.136	102.25
231.37	99.25
231.604	109.25
231.838	118.25
232.072	116.25
232.306	125.25
232.541	114.25
232.775	100.25
233.009	102.25
233.243	113.25
233.477	106.25
233.711	117.25
233.945	106.25
234.179	116.25
234.413	114.25
234.647	113.25
234.881	106.25
235.115	108.25
235.349	93.25
235.583	113.25
235.817	108.25
236.051	105.25
236.285	110.25
236.519	120.25
236.753	116.25
236.987	125.25
237.221	170.25
237.455	221.25
237.689	158.25
237.922	126.25
238.156	116.25
238.39	122.25
238.624	114.25
238.858	110.25
239.091	107.25
239.325	110.25
239.559	97.25
239.793	121.25
240.027	120.25
240.26	118.25
240.494	155.25
240.728	140.25
240.961	131.25
241.195	144.25
241.429	128.25
241.662	120.25
241.896	125.25
242.13	96.25
242.363	125.25
242.597	114.25
242.83	122.25
243.064	122.25
243.298	128.25
243.531	121.25
243.765	123.25
243.998	123.25
244.232	114.25
244.465	139.25
244.699	134.25
244.932	116.25
245.166	124.25
245.399	120.25
245.633	131.25
245.866	128.25
246.099	142.25
246.333	148.25
246.566	150.25
246.8	134.25
247.033	140.25
247.266	129.25
247.5	137.25
247.733	142.25
247.966	153.25
248.2	156.25
248.433	132.25
248.666	153.25
248.899	151.25
249.133	164.25
249.366	166.25
249.599	181.25
249.832	184.25
250.066	146.25
250.299	156.25
250.532	169.25
250.765	150.25
250.998	181.25
251.231	206.25
251.465	164.25
251.698	192.25
251.931	165.25
252.164	176.25
252.397	166.25
252.63	165.25
252.863	166.25
253.096	170.25
253.329	193.25
253.562	196.25
253.795	204.25
254.028	184.25
254.261	185.25
254.494	216.25
254.727	225.25
254.96	247.25
255.193	230.25
255.426	222.25
255.659	187.25
255.892	201.25
256.124	210.25
256.357	197.25
256.59	194.25
256.823	186.25
257.056	182.25
257.289	182.25
257.521	187.25
257.754	171.25
257.987	185.25
258.22	157.25
258.452	168.25
258.685	176.25
258.918	193.25
259.151	194.25
259.383	185.25
259.616	190.25
259.849	200.25
260.081	203.25
260.314	207.25
260.547	238.25
260.779	204.25
261.012	204.25
261.244	190.25
261.477	196.25
261.71	187.25
261.942	188.25
262.175	197.25
262.407	190.25
262.64	183.25
262.872	177.25
263.105	175.25
263.337	186.25
263.57	165.25
263.802	174.25
264.035	168.25
264.267	194.25
264.499	186.25
264.732	184.25
264.964	165.25
265.197	194.25
265.429	178.25
265.661	186.25
265.894	181.25
266.126	172.25
266.358	191.25
266.591	194.25
266.823	184.25
267.055	196.25
267.287	186.25
267.52	186.25
267.752	167.25
267.984	196.25
268.216	186.25
268.448	184.25
268.681	215.25
268.913	228.25
269.145	237.25
269.377	208.25
269.609	233.25
269.841	220.25
270.073	214.25
270.306	254.25
270.538	261.25
270.77	269.25
271.002	261.25
271.234	252.25
271.466	247.25
271.698	259.25
271.93	258.25
272.162	268.25
272.394	263.25
272.626	256.25
272.858	245.25
273.09	233.25
273.322	231.25
273.553	229.25
273.785	220.25
274.017	220.25
274.249	229.25
274.481	221.25
274.713	216.25
274.945	221.25
275.176	213.25
275.408	222.25
275.64	220.25
275.872	212.25
276.104	237.25
276.335	199.25
276.567	229.25
276.799	231.25
277.031	256.25
277.262	256.25
277.494	245.25
277.726	245.25
277.957	231.25
278.189	228.25
278.421	225.25
278.652	232.25
278.884	226.25
279.115	226.25
279.347	224.25
279.579	230.25
279.81	221.25
280.042	237.25
280.273	230.25
280.505	218.25
280.736	213.25
280.968	221.25
281.199	217.25
281.431	210.25
281.662	201.25
281.894	237.25
282.125	227.25
282.356	228.25
282.588	244.25
282.819	275.25
283.051	217.25
283.282	224.25
283.513	203.25
283.745	218.25
283.976	241.25
284.207	233.25
284.439	229.25
284.67	250.25
284.901	219.25
285.132	227.25
285.364	209.25
285.595	225.25
285.826	234.25
286.057	228.25
286.288	234.25
286.52	231.25
286.751	234.25
286.982	238.25
287.213	227.25
287.444	228.25
287.675	247.25
287.906	260.25
288.138	269.25
288.369	260.25
288.6	248.25
288.831	246.25
289.062	246.25
289.293	236.25
289.524	247.25
289.755	249.25
289.986	230.25
290.217	240.25
290.448	241.25
290.679	248.25
290.91	228.25
291.141	229.25
291.371	240.25
291.602	234.25
291.833	234.25
292.064	229.25
292.295	234.25
292.526	242.25
292.757	220.25
292.987	230.25
293.218	231.25
293.449	239.25
293.68	243.25
293.91	229.25
294.141	218.25
294.372	241.25
294.603	240.25
294.833	231.25
295.064	229.25
295.295	243.25
295.525	239.25
295.756	257.25
295.987	241.25
296.217	267.25
296.448	262.25
296.679	240.25
296.909	227.25
297.14	246.25
297.37	240.25
297.601	259.25
297.831	251.25
298.062	250.25
298.292	244.25
298.523	250.25
298.753	245.25
298.984	237.25
299.214	265.25
299.445	234.25
299.675	240.25
299.905	252.25
300.136	234.25
300.366	241.25
300.597	253.25
300.827	250.25
301.057	246.25
301.288	283.25
301.518	271.25
301.748	243.25
301.979	251.25
302.209	258.25
302.439	298.25
302.669	262.25
302.9	248.25
303.13	287.25
303.36	264.25
303.59	269.25
303.82	288.25
304.051	259.25
304.281	254.25
304.511	275.25
304.741	271.25
304.971	252.25
305.201	258.25
305.431	282.25
305.661	263.25
305.891	254.25
306.121	248.25
306.352	262.25
306.582	255.25
306.812	275.25
307.042	270.25
307.272	274.25
307.502	273.25
307.731	268.25
307.961	284.25
308.191	278.25
308.421	268.25
308.651	284.25
308.881	259.25
309.111	287.25
309.341	283.25
309.571	291.25
309.8	286.25
310.03	305.25
310.26	322.25
310.49	323.25
310.72	326.25
310.949	319.25
311.179	333.25
311.409	323.25
311.639	326.25
311.868	316.25
312.098	335.25
312.328	329.25
312.557	342.25
312.787	349.25
313.017	342.25
313.246	313.25
313.476	323.25
313.706	312.25
313.935	324.25
314.165	326.25
314.394	336.25
314.624	336.25
314.853	343.25
315.083	321.25
315.312	304.25
315.542	325.25
315.771	298.25
316.001	306.25
316.23	294.25
316.46	302.25
316.689	314.25
316.919	324.25
317.148	334.25
317.377	337.25
317.607	315.25
317.836	327.25
318.065	309.25
318.295	310.25
318.524	319.25
318.753	312.25
318.983	324.25
319.212	308.25
319.441	321.25
319.67	311.25
319.9	316.25
320.129	318.25
320.358	295.25
320.587	325.25
320.816	316.25
321.046	337.25
321.275	342.25
321.504	317.25
321.733	330.25
321.962	342.25
322.191	368.25
322.42	362.25
322.649	387.25
322.878	402.25
323.108	416.25
323.337	422.25
323.566	440.25
323.795	464.25
324.024	540.25
324.253	648.25
324.482	984.25
324.71	1562.25
324.939	2134.25
325.168	1785.25
325.397	920.25
325.626	629.25
325.855	493.25
326.084	468.25
326.313	468.25
326.542	446.25
326.77	500.25
326.999	620.25
327.228	863.25
327.457	1331.25
327.686	1528.25
327.914	1020.25
328.143	696.25
328.372	590.25
328.6	538.25
328.829	491.25
329.058	503.25
329.287	532.25
329.515	474.25
329.744	442.25
329.972	457.25
330.201	501.25
330.43	503.25
330.658	534.25
330.887	566.25
331.115	549.25
331.344	468.25
331.572	451.25
331.801	425.25
332.03	421.25
332.258	381.25
332.486	385.25
332.715	384.25
332.943	374.25
333.172	384.25
333.4	398.25
333.629	379.25
333.857	427.25
334.085	407.25
334.314	421.25
334.542	454.25
334.771	478.25
334.999	440.25
335.227	409.25
335.455	373.25
335.684	373.25
335.912	374.25
336.14	373.25
336.369	358.25
336.597	365.25
336.825	378.25
337.053	368.25
337.281	369.25
337.51	361.25
337.738	342.25
337.966	342.25
338.194	364.25
338.422	361.25
338.65	362.25
338.878	328.25
339.106	364.25
339.334	347.25
339.562	346.25
339.79	334.25
340.018	337.25
340.246	354.25
340.474	359.25
340.702	357.25
340.93	334.25
341.158	338.25
341.386	356.25
341.614	344.25
341.842	349.25
342.07	360.25
342.298	346.25
342.526	331.25
342.754	340.25
342.981	322.25
343.209	328.25
343.437	316.25
343.665	328.25
343.893	361.25
344.12	336.25
344.348	325.25
344.576	366.25
344.804	370.25
345.031	374.25
345.259	378.25
345.487	362.25
345.714	358.25
345.942	348.25
346.17	344.25
346.397	343.25
346.625	363.25
346.853	329.25
347.08	344.25
347.308	348.25
347.535	339.25
347.763	351.25
347.99	363.25
348.218	338.25
348.445	365.25
348.673	356.25
348.9	344.25
349.128	324.25
349.355	334.25
349.583	338.25
349.81	318.25
350.037	333.25
350.265	315.25
350.492	313.25
350.72	316.25
350.947	343.25
351.174	357.25
351.402	344.25
351.629	354.25
351.856	353.25
352.083	365.25
352.311	370.25
352.538	375.25
352.765	361.25
352.992	368.25
353.22	338.25
353.447	318.25
353.674	359.25
353.901	326.25
354.128	315.25
354.355	317.25
354.583	312.25
354.81	320.25
355.037	314.25
355.264	321.25
355.491	315.25
355.718	318.25
355.945	325.25
356.172	311.25
356.399	301.25
356.626	309.25
356.853	322.25
357.08	294.25
357.307	291.25
357.534	328.25
357.761	319.25
357.988	324.25
358.215	315.25
358.441	309.25
358.668	337.25
358.895	333.25
359.122	311.25
359.349	343.25
359.576	335.25
359.802	370.25
360.029	415.25
360.256	386.25
360.483	384.25
360.709	364.25
360.936	372.25
361.163	352.25
361.39	342.25
361.616	362.25
361.843	348.25
362.07	341.25
362.296	343.25
362.523	346.25
362.749	333.25
362.976	355.25
363.203	341.25
363.429	334.25
363.656	333.25
363.882	315.25
364.109	341.25
364.335	321.25
364.562	347.25
364.788	330.25
365.015	333.25
365.241	324.25
365.468	334.25
365.694	343.25
365.92	332.25
366.147	318.25
366.373	320.25
366.599	338.25
366.826	317.25
367.052	316.25
367.278	299.25
367.505	311.25
367.731	325.25
367.957	334.25
368.184	330.25
368.41	337.25
368.636	342.25
368.862	362.25
369.089	324.25
369.315	326.25
369.541	318.25
369.767	336.25
369.993	336.25
370.219	323.25
370.445	323.25
370.672	323.25
370.898	326.25
371.124	342.25
371.35	316.25
371.576	319.25
371.802	338.25
372.028	318.25
372.254	317.25
372.48	319.25
372.706	309.25
372.932	332.25
373.158	325.25
373.384	344.25
373.61	338.25
373.835	311.25
374.061	324.25
374.287	326.25
374.513	326.25
374.739	323.25
374.965	329.25
375.191	321.25
375.416	330.25
375.642	322.25
375.868	328.25
376.094	322.25
376.319	326.25
376.545	319.25
376.771	311.25
376.997	326.25
377.222	319.25
377.448	320.25
377.674	300.25
377.899	306.25
378.125	307.25
378.35	298.25
378.576	325.25
378.802	310.25
379.027	318.25
379.253	317.25
379.478	327.25
379.704	330.25
379.929	315.25
380.155	314.25
380.38	322.25
380.606	327.25
380.831	315.25
381.057	317.25
381.282	323.25
381.507	330.25
381.733	336.25
381.958	312.25
382.184	310.25
382.409	317.25
382.634	318.25
382.86	333.25
383.085	324.25
383.31	319.25
383.535	315.25
383.761	338.25
383.986	336.25
384.211	344.25
384.436	346.25
384.662	341.25
384.887	332.25
385.112	316.25
385.337	337.25
385.562	336.25
385.787	334.25
386.013	353.25
386.238	366.25
386.463	349.25
386.688	344.25
386.913	335.25
387.138	315.25
387.363	334.25
387.588	321.25
387.813	339.25
388.038	330.25
388.263	333.25
388.488	346.25
388.713	352.25
388.938	343.25
389.163	350.25
389.387	342.25
389.612	357.25
389.837	341.25
390.062	332.25
390.287	340.25
390.512	339.25
390.736	343.25
390.961	346.25
391.186	338.25
391.411	352.25
391.636	342.25
391.86	350.25
392.085	347.25
392.31	350.25
392.534	348.25
392.759	350.25
392.984	361.25
393.208	339.25
393.433	354.25
393.658	348.25
393.882	345.25
394.107	347.25
394.331	328.25
394.556	352.25
394.78	339.25
395.005	345.25
395.229	353.25
395.454	352.25
395.678	344.25
395.903	360.25
396.127	376.25
396.352	374.25
396.576	356.25
396.801	356.25
397.025	364.25
397.249	376.25
397.474	370.25
397.698	380.25
397.922	377.25
398.147	374.25
398.371	391.25
398.595	382.25
398.82	383.25
399.044	391.25
399.268	388.25
399.492	421.25
399.717	457.25
399.941	456.25
400.165	477.25
400.389	477.25
400.613	408.25
400.837	407.25
401.062	413.25
401.286	395.25
401.51	394.25
401.734	382.25
401.958	384.25
402.182	389.25
402.406	385.25
402.63	403.25
402.854	396.25
403.078	397.25
403.302	416.25
403.526	412.25
403.75	407.25
403.974	405.25
404.198	381.25
404.422	406.25
404.645	424.25
404.869	428.25
405.093	441.25
405.317	477.25
405.541	512.25
405.765	445.25
405.988	438.25
406.212	460.25
406.436	453.25
406.66	478.25
406.883	448.25
407.107	464.25
407.331	495.25
407.555	558.25
407.778	566.25
408.002	489.25
408.226	458.25
408.449	485.25
408.673	454.25
408.896	470.25
409.12	514.25
409.344	478.25
409.567	436.25
409.791	419.25
410.014	421.25
410.238	410.25
410.461	416.25
410.685	403.25
410.908	436.25
411.132	467.25
411.355	472.25
411.578	439.25
411.802	406.25
412.025	414.25
412.249	408.25
412.472	446.25
412.695	479.25
412.919	491.25
413.142	417.25
413.365	402.25
413.589	393.25
413.812	380.25
414.035	370.25
414.258	387.25
414.482	396.25
414.705	382.25
414.928	388.25
415.151	394.25
415.374	391.25
415.597	384.25
415.821	364.25
416.044	386.25
416.267	394.25
416.49	404.25
416.713	394.25
416.936	378.25
417.159	366.25
417.382	377.25
417.605	406.25
417.828	414.25
418.051	417.25
418.274	399.25
418.497	385.25
418.72	390.25
418.943	396.25
419.166	416.25
419.389	412.25
419.611	410.25
419.834	402.25
420.057	386.25
420.28	402.25
420.503	399.25
420.726	396.25
420.948	421.25
421.171	455.25
421.394	499.25
421.617	436.25
421.839	401.25
422.062	399.25
422.285	412.25
422.507	469.25
422.73	541.25
422.953	512.25
423.175	446.25
423.398	434.25
423.621	423.25
423.843	414.25
424.066	449.25
424.288	461.25
424.511	453.25
424.733	501.25
424.956	570.25
425.178	556.25
425.401	544.25
425.623	553.25
425.846	491.25
426.068	456.25
426.291	461.25
426.513	440.25
426.735	457.25
426.958	483.25
427.18	546.25
427.402	654.25
427.625	724.25
427.847	683.25
428.069	594.25
428.292	506.25
428.514	451.25
428.736	440.25
428.958	424.25
429.181	410.25
429.403	427.25
429.625	419.25
429.847	442.25
430.069	519.25
430.292	504.25
430.514	459.25
430.736	422.25
430.958	409.25
431.18	399.25
431.402	381.25
431.624	394.25
431.846	396.25
432.068	404.25
432.29	385.25
432.512	384.25
432.734	409.25
432.956	404.25
433.178	426.25
433.4	413.25
433.622	397.25
433.844	393.25
434.066	390.25
434.287	371.25
434.509	386.25
434.731	419.25
434.953	422.25
435.175	423.25
435.397	458.25
435.618	455.25
435.84	488.25
436.062	560.25
436.284	607.25
436.505	526.25
436.727	483.25
436.949	438.25
437.17	432.25
437.392	417.25
437.614	450.25
437.835	450.25
438.057	555.25
438.278	628.25
438.5	608.25
438.721	663.25
438.943	654.25
439.165	544.25
439.386	469.25
439.608	459.25
439.829	476.25
440.05	489.25
440.272	533.25
440.493	516.25
440.715	454.25
440.936	445.25
441.158	427.25
441.379	426.25
441.6	425.25
441.822	439.25
442.043	478.25
442.264	566.25
442.486	585.25
442.707	498.25
442.928	474.25
443.149	485.25
443.371	498.25
443.592	514.25
443.813	598.25
444.034	638.25
444.255	541.25
444.476	499.25
444.698	466.25
444.919	446.25
445.14	566.25
445.361	478.25
445.582	501.25
445.803	566.25
446.024	647.25
446.245	655.25
446.466	595.25
446.687	518.25
446.908	456.25
447.129	441.25
447.35	426.25
447.571	436.25
447.792	413.25
448.013	434.25
448.234	453.25
448.455	487.25
448.675	595.25
448.896	683.25
449.117	577.25
449.338	534.25
449.559	640.25
449.779	694.25
450	576.25
450.221	466.25
450.442	435.25
450.662	443.25
450.883	419.25
451.104	435.25
451.324	444.25
451.545	406.25
451.766	404.25
451.986	384.25
452.207	386.25
452.428	384.25
452.648	377.25
452.869	376.25
453.089	416.25
453.31	408.25
453.53	387.25
453.751	404.25
453.971	409.25
454.192	412.25
454.412	394.25
454.633	403.25
454.853	380.25
455.073	379.25
455.294	408.25
455.514	455.25
455.734	441.25
455.955	388.25
456.175	374.25
456.395	349.25
456.616	356.25
456.836	359.25
457.056	347.25
457.276	359.25
457.497	351.25
457.717	377.25
457.937	360.25
458.157	372.25
458.377	381.25
458.598	392.25
458.818	457.25
459.038	530.25
459.258	507.25
459.478	456.25
459.698	402.25
459.918	402.25
460.138	392.25
460.358	401.25
460.578	378.25
460.798	388.25
461.018	411.25
461.238	394.25
461.458	403.25
461.678	380.25
461.898	397.25
462.118	387.25
462.338	413.25
462.558	383.25
462.777	388.25
462.997	404.25
463.217	417.25
463.437	405.25
463.657	413.25
463.876	413.25
464.096	437.25
464.316	389.25
464.536	425.25
464.755	439.25
464.975	424.25
465.195	465.25
465.414	557.25
465.634	479.25
465.854	437.25
466.073	430.25
466.293	394.25
466.512	391.25
466.732	406.25
466.951	396.25
467.171	389.25
467.391	388.25
467.61	408.25
467.829	393.25
468.049	379.25
468.268	405.25
468.488	379.25
468.707	385.25
468.927	386.25
469.146	354.25
469.365	369.25
469.585	364.25
469.804	405.25
470.023	404.25
470.243	405.25
470.462	390.25
470.681	420.25
470.901	413.25
471.12	401.25
471.339	402.25
471.558	395.25
471.777	390.25
471.997	388.25
472.216	398.25
472.435	454.25
472.654	430.25
472.873	413.25
473.092	383.25
473.311	382.25
473.53	403.25
473.749	408.25
473.968	437.25
474.187	520.25
474.406	557.25
474.625	468.25
474.844	420.25
475.063	416.25
475.282	384.25
475.501	398.25
475.72	405.25
475.939	407.25
476.158	393.25
476.377	419.25
476.596	431.25
476.814	413.25
477.033	422.25
477.252	401.25
477.471	436.25
477.69	411.25
477.908	420.25
478.127	437.25
478.346	416.25
478.564	430.25
478.783	405.25
479.002	440.25
479.22	446.25
479.439	462.25
479.658	475.25
479.876	469.25
480.095	462.25
480.313	497.25
480.532	477.25
480.751	474.25
480.969	499.25
481.188	583.25
481.406	599.25
481.624	539.25
481.843	507.25
482.061	474.25
482.28	502.25
482.498	460.25
482.717	448.25
482.935	464.25
483.153	451.25
483.372	452.25
483.59	454.25
483.808	460.25
484.027	449.25
484.245	443.25
484.463	485.25
484.681	482.25
484.9	450.25
485.118	463.25
485.336	449.25
485.554	461.25
485.772	478.25
485.99	467.25
486.209	480.25
486.427	485.25
486.645	505.25
486.863	518.25
487.081	512.25
487.299	488.25
487.517	505.25
487.735	490.25
487.953	496.25
488.171	492.25
488.389	478.25
488.607	497.25
488.825	483.25
489.043	500.25
489.261	487.25
489.479	512.25
489.696	502.25
489.914	515.25
490.132	524.25
490.35	524.25
490.568	501.25
490.786	541.25
491.003	534.25
491.221	552.25
491.439	539.25
491.657	528.25
491.874	545.25
492.092	561.25
492.31	566.25
492.527	580.25
492.745	573.25
492.963	566.25
493.18	567.25
493.398	582.25
493.615	576.25
493.833	579.25
494.05	583.25
494.268	580.25
494.485	574.25
494.703	579.25
494.92	589.25
495.138	589.25
495.355	588.25
495.573	604.25
495.79	590.25
496.008	595.25
496.225	606.25
496.442	610.25
496.66	595.25
496.877	577.25
497.094	582.25
497.312	576.25
497.529	605.25
497.746	613.25
497.963	622.25
498.181	642.25
498.398	641.25
498.615	640.25
498.832	622.25
499.049	647.25
499.267	653.25
499.484	675.25
499.701	688.25
499.918	715.25
500.135	700.25
500.352	726.25
500.569	734.25
500.786	741.25
501.003	726.25
501.22	752.25
501.437	711.25
501.654	710.25
501.871	702.25
502.088	702.25
