Data from 1961.PennyLincolnUp.Lamp.En5.5.200Scan.071719.P1._HRD10591_13-46-29-057.txt Node
Date: Thu Jul 18 13:46:29 EDT 2019
User: cochatt
Spectrometer: HR+D1059
Trigger mode: 1
Integration Time (sec): 1.000000E-1
Scans to average: 1
Electric dark correction enabled: true
Nonlinearity correction enabled: false
Boxcar width: 0
XAxis mode: Wavelengths
Number of Pixels in Spectrum: 2048
>>>>>Begin Spectral Data<<<<<
223.165	-24.44
223.4	-24.44
223.635	-24.44
223.869	-15.44
224.104	-5.44
224.338	-4.44
224.573	-3.44
224.808	-5.44
225.042	-16.44
225.277	2.56
225.511	-1.44
225.746	5.56
225.98	5.56
226.215	2.56
226.449	8.56
226.683	21.56
226.918	5.56
227.152	24.56
227.387	40.56
227.621	23.56
227.856	53.56
228.09	43.56
228.324	44.56
228.559	59.56
228.793	55.56
229.027	83.56
229.262	70.56
229.496	85.56
229.73	84.56
229.964	126.56
230.199	104.56
230.433	111.56
230.667	97.56
230.901	95.56
231.136	99.56
231.37	106.56
231.604	89.56
231.838	103.56
232.072	104.56
232.306	110.56
232.541	104.56
232.775	100.56
233.009	86.56
233.243	88.56
233.477	94.56
233.711	88.56
233.945	88.56
234.179	95.56
234.413	113.56
234.647	94.56
234.881	96.56
235.115	100.56
235.349	101.56
235.583	94.56
235.817	102.56
236.051	98.56
236.285	104.56
236.519	95.56
236.753	101.56
236.987	130.56
237.221	140.56
237.455	156.56
237.689	138.56
237.922	119.56
238.156	111.56
238.39	110.56
238.624	98.56
238.858	104.56
239.091	111.56
239.325	105.56
239.559	108.56
239.793	107.56
240.027	94.56
240.26	113.56
240.494	129.56
240.728	127.56
240.961	125.56
241.195	125.56
241.429	114.56
241.662	121.56
241.896	117.56
242.13	93.56
242.363	106.56
242.597	104.56
242.83	105.56
243.064	111.56
243.298	113.56
243.531	121.56
243.765	110.56
243.998	111.56
244.232	108.56
244.465	120.56
244.699	120.56
244.932	122.56
245.166	120.56
245.399	118.56
245.633	117.56
245.866	126.56
246.099	119.56
246.333	122.56
246.566	131.56
246.8	128.56
247.033	124.56
247.266	129.56
247.5	130.56
247.733	141.56
247.966	126.56
248.2	133.56
248.433	143.56
248.666	129.56
248.899	141.56
249.133	144.56
249.366	163.56
249.599	164.56
249.832	136.56
250.066	147.56
250.299	145.56
250.532	145.56
250.765	159.56
250.998	154.56
251.231	163.56
251.465	161.56
251.698	160.56
251.931	161.56
252.164	146.56
252.397	148.56
252.63	147.56
252.863	156.56
253.096	156.56
253.329	178.56
253.562	165.56
253.795	145.56
254.028	142.56
254.261	148.56
254.494	162.56
254.727	165.56
254.96	180.56
255.193	181.56
255.426	193.56
255.659	190.56
255.892	201.56
256.124	173.56
256.357	157.56
256.59	164.56
256.823	160.56
257.056	158.56
257.289	157.56
257.521	169.56
257.754	152.56
257.987	157.56
258.22	157.56
258.452	143.56
258.685	150.56
258.918	143.56
259.151	160.56
259.383	168.56
259.616	160.56
259.849	181.56
260.081	165.56
260.314	177.56
260.547	188.56
260.779	175.56
261.012	161.56
261.244	173.56
261.477	164.56
261.71	148.56
261.942	161.56
262.175	167.56
262.407	178.56
262.64	169.56
262.872	151.56
263.105	144.56
263.337	151.56
263.57	158.56
263.802	162.56
264.035	160.56
264.267	158.56
264.499	164.56
264.732	150.56
264.964	149.56
265.197	153.56
265.429	154.56
265.661	159.56
265.894	155.56
266.126	168.56
266.358	164.56
266.591	174.56
266.823	158.56
267.055	164.56
267.287	162.56
267.52	158.56
267.752	162.56
267.984	145.56
268.216	165.56
268.448	157.56
268.681	164.56
268.913	170.56
269.145	185.56
269.377	188.56
269.609	183.56
269.841	191.56
270.073	183.56
270.306	189.56
270.538	215.56
270.77	200.56
271.002	213.56
271.234	190.56
271.466	201.56
271.698	210.56
271.93	195.56
272.162	212.56
272.394	208.56
272.626	200.56
272.858	211.56
273.09	216.56
273.322	206.56
273.553	185.56
273.785	183.56
274.017	169.56
274.249	182.56
274.481	194.56
274.713	180.56
274.945	182.56
275.176	193.56
275.408	195.56
275.64	189.56
275.872	177.56
276.104	194.56
276.335	192.56
276.567	193.56
276.799	199.56
277.031	210.56
277.262	201.56
277.494	215.56
277.726	206.56
277.957	184.56
278.189	190.56
278.421	182.56
278.652	201.56
278.884	200.56
279.115	188.56
279.347	197.56
279.579	181.56
279.81	191.56
280.042	179.56
280.273	197.56
280.505	210.56
280.736	186.56
280.968	193.56
281.199	180.56
281.431	186.56
281.662	182.56
281.894	190.56
282.125	189.56
282.356	190.56
282.588	215.56
282.819	223.56
283.051	208.56
283.282	193.56
283.513	189.56
283.745	183.56
283.976	188.56
284.207	200.56
284.439	191.56
284.67	203.56
284.901	185.56
285.132	199.56
285.364	197.56
285.595	192.56
285.826	199.56
286.057	197.56
286.288	169.56
286.52	188.56
286.751	213.56
286.982	202.56
287.213	192.56
287.444	188.56
287.675	202.56
287.906	210.56
288.138	208.56
288.369	206.56
288.6	198.56
288.831	193.56
289.062	206.56
289.293	216.56
289.524	196.56
289.755	192.56
289.986	207.56
290.217	194.56
290.448	198.56
290.679	209.56
290.91	207.56
291.141	192.56
291.371	182.56
291.602	193.56
291.833	205.56
292.064	199.56
292.295	202.56
292.526	197.56
292.757	218.56
292.987	195.56
293.218	206.56
293.449	205.56
293.68	197.56
293.91	198.56
294.141	208.56
294.372	193.56
294.603	204.56
294.833	204.56
295.064	213.56
295.295	204.56
295.525	218.56
295.756	204.56
295.987	218.56
296.217	218.56
296.448	228.56
296.679	212.56
296.909	214.56
297.14	213.56
297.37	212.56
297.601	202.56
297.831	208.56
298.062	210.56
298.292	207.56
298.523	231.56
298.753	214.56
298.984	201.56
299.214	199.56
299.445	215.56
299.675	213.56
299.905	212.56
300.136	202.56
300.366	217.56
300.597	228.56
300.827	214.56
301.057	207.56
301.288	241.56
301.518	230.56
301.748	227.56
301.979	206.56
302.209	229.56
302.439	227.56
302.669	212.56
302.9	219.56
303.13	238.56
303.36	227.56
303.59	224.56
303.82	229.56
304.051	230.56
304.281	214.56
304.511	219.56
304.741	216.56
304.971	223.56
305.201	226.56
305.431	215.56
305.661	221.56
305.891	209.56
306.121	228.56
306.352	225.56
306.582	231.56
306.812	245.56
307.042	211.56
307.272	237.56
307.502	228.56
307.731	224.56
307.961	242.56
308.191	220.56
308.421	226.56
308.651	222.56
308.881	241.56
309.111	235.56
309.341	237.56
309.571	250.56
309.8	229.56
310.03	257.56
310.26	256.56
310.49	269.56
310.72	262.56
310.949	266.56
311.179	282.56
311.409	254.56
311.639	265.56
311.868	277.56
312.098	269.56
312.328	252.56
312.557	266.56
312.787	268.56
313.017	287.56
313.246	255.56
313.476	254.56
313.706	269.56
313.935	248.56
314.165	274.56
314.394	276.56
314.624	228.56
314.853	266.56
315.083	258.56
315.312	249.56
315.542	272.56
315.771	266.56
316.001	230.56
316.23	246.56
316.46	260.56
316.689	272.56
316.919	269.56
317.148	257.56
317.377	259.56
317.607	274.56
317.836	280.56
318.065	278.56
318.295	264.56
318.524	260.56
318.753	252.56
318.983	277.56
319.212	277.56
319.441	253.56
319.67	266.56
319.9	267.56
320.129	266.56
320.358	280.56
320.587	256.56
320.816	280.56
321.046	280.56
321.275	300.56
321.504	289.56
321.733	282.56
321.962	282.56
322.191	285.56
322.42	290.56
322.649	306.56
322.878	304.56
323.108	307.56
323.337	341.56
323.566	336.56
323.795	354.56
324.024	423.56
324.253	482.56
324.482	674.56
324.71	1011.56
324.939	1439.56
325.168	1240.56
325.397	638.56
325.626	442.56
325.855	373.56
326.084	346.56
326.313	356.56
326.542	345.56
326.77	376.56
326.999	456.56
327.228	613.56
327.457	883.56
327.686	1068.56
327.914	712.56
328.143	477.56
328.372	422.56
328.6	382.56
328.829	382.56
329.058	379.56
329.287	383.56
329.515	393.56
329.744	350.56
329.972	353.56
330.201	378.56
330.43	389.56
330.658	400.56
330.887	404.56
331.115	395.56
331.344	364.56
331.572	342.56
331.801	332.56
332.03	344.56
332.258	317.56
332.486	302.56
332.715	317.56
332.943	319.56
333.172	297.56
333.4	318.56
333.629	313.56
333.857	331.56
334.085	341.56
334.314	334.56
334.542	351.56
334.771	357.56
334.999	350.56
335.227	335.56
335.455	315.56
335.684	319.56
335.912	314.56
336.14	319.56
336.369	310.56
336.597	309.56
336.825	324.56
337.053	298.56
337.281	306.56
337.51	302.56
337.738	306.56
337.966	291.56
338.194	306.56
338.422	310.56
338.65	301.56
338.878	304.56
339.106	293.56
339.334	316.56
339.562	284.56
339.79	284.56
340.018	278.56
340.246	287.56
340.474	308.56
340.702	273.56
340.93	290.56
341.158	288.56
341.386	296.56
341.614	300.56
341.842	300.56
342.07	288.56
342.298	286.56
342.526	285.56
342.754	297.56
342.981	288.56
343.209	295.56
343.437	293.56
343.665	310.56
343.893	282.56
344.12	289.56
344.348	295.56
344.576	303.56
344.804	296.56
345.031	322.56
345.259	314.56
345.487	294.56
345.714	308.56
345.942	296.56
346.17	281.56
346.397	290.56
346.625	294.56
346.853	277.56
347.08	278.56
347.308	277.56
347.535	294.56
347.763	294.56
347.99	306.56
348.218	306.56
348.445	303.56
348.673	310.56
348.9	290.56
349.128	312.56
349.355	289.56
349.583	276.56
349.81	274.56
350.037	278.56
350.265	301.56
350.492	300.56
350.72	288.56
350.947	285.56
351.174	294.56
351.402	285.56
351.629	278.56
351.856	294.56
352.083	295.56
352.311	312.56
352.538	292.56
352.765	303.56
352.992	308.56
353.22	302.56
353.447	295.56
353.674	292.56
353.901	280.56
354.128	258.56
354.355	291.56
354.583	285.56
354.81	271.56
355.037	282.56
355.264	278.56
355.491	279.56
355.718	278.56
355.945	286.56
356.172	270.56
356.399	272.56
356.626	285.56
356.853	272.56
357.08	274.56
357.307	285.56
357.534	272.56
357.761	290.56
357.988	276.56
358.215	272.56
358.441	261.56
358.668	262.56
358.895	284.56
359.122	291.56
359.349	289.56
359.576	279.56
359.802	303.56
360.029	308.56
360.256	335.56
360.483	318.56
360.709	287.56
360.936	306.56
361.163	273.56
361.39	293.56
361.616	303.56
361.843	296.56
362.07	281.56
362.296	303.56
362.523	310.56
362.749	301.56
362.976	281.56
363.203	291.56
363.429	277.56
363.656	282.56
363.882	278.56
364.109	278.56
364.335	303.56
364.562	281.56
364.788	276.56
365.015	275.56
365.241	271.56
365.468	278.56
365.694	270.56
365.92	281.56
366.147	276.56
366.373	287.56
366.599	276.56
366.826	295.56
367.052	274.56
367.278	260.56
367.505	267.56
367.731	276.56
367.957	285.56
368.184	280.56
368.41	285.56
368.636	293.56
368.862	287.56
369.089	272.56
369.315	279.56
369.541	296.56
369.767	263.56
369.993	296.56
370.219	291.56
370.445	285.56
370.672	285.56
370.898	277.56
371.124	274.56
371.35	292.56
371.576	270.56
371.802	273.56
372.028	277.56
372.254	295.56
372.48	278.56
372.706	285.56
372.932	297.56
373.158	269.56
373.384	285.56
373.61	285.56
373.835	307.56
374.061	283.56
374.287	281.56
374.513	284.56
374.739	306.56
374.965	290.56
375.191	287.56
375.416	288.56
375.642	283.56
375.868	279.56
376.094	270.56
376.319	294.56
376.545	266.56
376.771	266.56
376.997	292.56
377.222	285.56
377.448	277.56
377.674	289.56
377.899	271.56
378.125	287.56
378.35	289.56
378.576	278.56
378.802	287.56
379.027	297.56
379.253	273.56
379.478	277.56
379.704	278.56
379.929	270.56
380.155	288.56
380.38	283.56
380.606	275.56
380.831	296.56
381.057	284.56
381.282	280.56
381.507	297.56
381.733	274.56
381.958	285.56
382.184	303.56
382.409	281.56
382.634	280.56
382.86	275.56
383.085	296.56
383.31	290.56
383.535	283.56
383.761	296.56
383.986	310.56
384.211	298.56
384.436	293.56
384.662	296.56
384.887	292.56
385.112	301.56
385.337	294.56
385.562	298.56
385.787	315.56
386.013	318.56
386.238	303.56
386.463	308.56
386.688	316.56
386.913	308.56
387.138	307.56
387.363	311.56
387.588	312.56
387.813	309.56
388.038	305.56
388.263	318.56
388.488	292.56
388.713	308.56
388.938	321.56
389.163	305.56
389.387	308.56
389.612	282.56
389.837	306.56
390.062	329.56
390.287	301.56
390.512	308.56
390.736	292.56
390.961	302.56
391.186	303.56
391.411	322.56
391.636	313.56
391.86	301.56
392.085	298.56
392.31	313.56
392.534	314.56
392.759	310.56
392.984	308.56
393.208	316.56
393.433	316.56
393.658	321.56
393.882	296.56
394.107	318.56
394.331	301.56
394.556	311.56
394.78	310.56
395.005	288.56
395.229	316.56
395.454	310.56
395.678	331.56
395.903	323.56
396.127	340.56
396.352	324.56
396.576	304.56
396.801	322.56
397.025	341.56
397.249	320.56
397.474	362.56
397.698	346.56
397.922	335.56
398.147	365.56
398.371	352.56
398.595	358.56
398.82	354.56
399.044	353.56
399.268	350.56
399.492	342.56
399.717	388.56
399.941	408.56
400.165	437.56
400.389	409.56
400.613	376.56
400.837	361.56
401.062	362.56
401.286	354.56
401.51	359.56
401.734	345.56
401.958	334.56
402.182	341.56
402.406	350.56
402.63	369.56
402.854	372.56
403.078	358.56
403.302	351.56
403.526	341.56
403.75	360.56
403.974	353.56
404.198	365.56
404.422	366.56
404.645	348.56
404.869	374.56
405.093	386.56
405.317	399.56
405.541	444.56
405.765	402.56
405.988	378.56
406.212	366.56
406.436	394.56
406.66	398.56
406.883	385.56
407.107	395.56
407.331	410.56
407.555	476.56
407.778	456.56
408.002	409.56
408.226	387.56
408.449	414.56
408.673	385.56
408.896	416.56
409.12	436.56
409.344	425.56
409.567	401.56
409.791	373.56
410.014	359.56
410.238	350.56
410.461	364.56
410.685	368.56
410.908	370.56
411.132	400.56
411.355	405.56
411.578	385.56
411.802	360.56
412.025	357.56
412.249	384.56
412.472	384.56
412.695	425.56
412.919	408.56
413.142	348.56
413.365	359.56
413.589	370.56
413.812	339.56
414.035	345.56
414.258	338.56
414.482	335.56
414.705	348.56
414.928	346.56
415.151	343.56
415.374	324.56
415.597	341.56
415.821	327.56
416.044	351.56
416.267	364.56
416.49	330.56
416.713	355.56
416.936	351.56
417.159	325.56
417.382	329.56
417.605	349.56
417.828	341.56
418.051	346.56
418.274	359.56
418.497	346.56
418.72	337.56
418.943	338.56
419.166	347.56
419.389	367.56
419.611	368.56
419.834	372.56
420.057	366.56
420.28	357.56
420.503	362.56
420.726	362.56
420.948	390.56
421.171	406.56
421.394	408.56
421.617	384.56
421.839	358.56
422.062	344.56
422.285	365.56
422.507	380.56
422.73	442.56
422.953	423.56
423.175	374.56
423.398	369.56
423.621	377.56
423.843	390.56
424.066	386.56
424.288	377.56
424.511	383.56
424.733	415.56
424.956	458.56
425.178	461.56
425.401	448.56
425.623	460.56
425.846	408.56
426.068	393.56
426.291	375.56
426.513	382.56
426.735	390.56
426.958	424.56
427.18	454.56
427.402	549.56
427.625	595.56
427.847	548.56
428.069	470.56
428.292	420.56
428.514	391.56
428.736	373.56
428.958	355.56
429.181	355.56
429.403	360.56
429.625	360.56
429.847	387.56
430.069	436.56
430.292	422.56
430.514	374.56
430.736	345.56
430.958	350.56
431.18	316.56
431.402	354.56
431.624	359.56
431.846	345.56
432.068	348.56
432.29	338.56
432.512	357.56
432.734	368.56
432.956	370.56
433.178	357.56
433.4	355.56
433.622	348.56
433.844	326.56
434.066	343.56
434.287	367.56
434.509	361.56
434.731	350.56
434.953	344.56
435.175	359.56
435.397	380.56
435.618	397.56
435.84	421.56
436.062	487.56
436.284	508.56
436.505	442.56
436.727	392.56
436.949	363.56
437.17	351.56
437.392	355.56
437.614	380.56
437.835	402.56
438.057	432.56
438.278	519.56
438.5	520.56
438.721	584.56
438.943	560.56
439.165	438.56
439.386	397.56
439.608	403.56
439.829	412.56
440.05	417.56
440.272	456.56
440.493	404.56
440.715	372.56
440.936	379.56
441.158	356.56
441.379	346.56
441.6	379.56
441.822	391.56
442.043	425.56
442.264	495.56
442.486	502.56
442.707	440.56
442.928	376.56
443.149	400.56
443.371	424.56
443.592	436.56
443.813	516.56
444.034	550.56
444.255	447.56
444.476	398.56
444.698	384.56
444.919	378.56
445.14	512.56
445.361	455.56
445.582	433.56
445.803	456.56
446.024	531.56
446.245	541.56
446.466	477.56
446.687	432.56
446.908	398.56
447.129	385.56
447.35	372.56
447.571	368.56
447.792	364.56
448.013	376.56
448.234	381.56
448.455	383.56
448.675	474.56
448.896	549.56
449.117	473.56
449.338	466.56
449.559	518.56
449.779	593.56
450	482.56
450.221	406.56
450.442	364.56
450.662	355.56
450.883	372.56
451.104	395.56
451.324	361.56
451.545	364.56
451.766	348.56
451.986	312.56
452.207	327.56
452.428	334.56
452.648	344.56
452.869	313.56
453.089	342.56
453.31	336.56
453.53	349.56
453.751	329.56
453.971	321.56
454.192	350.56
454.412	344.56
454.633	347.56
454.853	344.56
455.073	344.56
455.294	356.56
455.514	381.56
455.734	378.56
455.955	325.56
456.175	299.56
456.395	312.56
456.616	318.56
456.836	307.56
457.056	312.56
457.276	304.56
457.497	317.56
457.717	303.56
457.937	324.56
458.157	316.56
458.377	346.56
458.598	334.56
458.818	376.56
459.038	418.56
459.258	429.56
459.478	376.56
459.698	346.56
459.918	354.56
460.138	337.56
460.358	345.56
460.578	346.56
460.798	356.56
461.018	356.56
461.238	335.56
461.458	368.56
461.678	357.56
461.898	376.56
462.118	357.56
462.338	370.56
462.558	370.56
462.777	368.56
462.997	373.56
463.217	376.56
463.437	372.56
463.657	368.56
463.876	374.56
464.096	363.56
464.316	360.56
464.536	382.56
464.755	365.56
464.975	372.56
465.195	377.56
465.414	439.56
465.634	406.56
465.854	364.56
466.073	354.56
466.293	354.56
466.512	352.56
466.732	360.56
466.951	343.56
467.171	327.56
467.391	345.56
467.61	360.56
467.829	349.56
468.049	349.56
468.268	347.56
468.488	337.56
468.707	348.56
468.927	327.56
469.146	352.56
469.365	355.56
469.585	342.56
469.804	343.56
470.023	355.56
470.243	345.56
470.462	351.56
470.681	375.56
470.901	331.56
471.12	320.56
471.339	364.56
471.558	364.56
471.777	358.56
471.997	336.56
472.216	346.56
472.435	385.56
472.654	374.56
472.873	350.56
473.092	318.56
473.311	325.56
473.53	337.56
473.749	359.56
473.968	384.56
474.187	435.56
474.406	457.56
474.625	376.56
474.844	351.56
475.063	380.56
475.282	360.56
475.501	340.56
475.72	346.56
475.939	340.56
476.158	351.56
476.377	345.56
476.596	349.56
476.814	355.56
477.033	380.56
477.252	364.56
477.471	370.56
477.69	374.56
477.908	365.56
478.127	372.56
478.346	374.56
478.564	380.56
478.783	367.56
479.002	376.56
479.22	386.56
479.439	382.56
479.658	411.56
479.876	404.56
480.095	411.56
480.313	441.56
480.532	414.56
480.751	397.56
480.969	412.56
481.188	473.56
481.406	515.56
481.624	450.56
481.843	412.56
482.061	420.56
482.28	387.56
482.498	394.56
482.717	398.56
482.935	395.56
483.153	403.56
483.372	405.56
483.59	407.56
483.808	399.56
484.027	415.56
484.245	400.56
484.463	404.56
484.681	419.56
484.9	400.56
485.118	404.56
485.336	415.56
485.554	424.56
485.772	446.56
485.99	408.56
486.209	410.56
486.427	403.56
486.645	417.56
486.863	433.56
487.081	423.56
487.299	426.56
487.517	445.56
487.735	438.56
487.953	446.56
488.171	429.56
488.389	416.56
488.607	434.56
488.825	419.56
489.043	424.56
489.261	442.56
489.479	428.56
489.696	440.56
489.914	437.56
490.132	439.56
490.35	445.56
490.568	444.56
490.786	470.56
491.003	461.56
491.221	472.56
491.439	471.56
491.657	495.56
491.874	469.56
492.092	466.56
492.31	498.56
492.527	497.56
492.745	467.56
492.963	506.56
493.18	495.56
493.398	480.56
493.615	492.56
493.833	480.56
494.05	474.56
494.268	484.56
494.485	470.56
494.703	496.56
494.92	514.56
495.138	505.56
495.355	522.56
495.573	512.56
495.79	517.56
496.008	495.56
496.225	493.56
496.442	493.56
496.66	516.56
496.877	510.56
497.094	538.56
497.312	537.56
497.529	540.56
497.746	548.56
497.963	530.56
498.181	540.56
498.398	538.56
498.615	565.56
498.832	553.56
499.049	575.56
499.267	580.56
499.484	598.56
499.701	598.56
499.918	607.56
500.135	636.56
500.352	666.56
500.569	674.56
500.786	679.56
501.003	673.56
501.22	633.56
501.437	644.56
501.654	624.56
501.871	603.56
502.088	613.56
502.305	580.56
