Data from 1961.PennyLincolnUp.Lamp.En5.5.200Scan.071719.P1._HRD10591_13-47-46-057.txt Node
Date: Thu Jul 18 13:47:46 EDT 2019
User: cochatt
Spectrometer: HR+D1059
Trigger mode: 1
Integration Time (sec): 1.000000E-1
Scans to average: 1
Electric dark correction enabled: true
Nonlinearity correction enabled: false
Boxcar width: 0
XAxis mode: Wavelengths
Number of Pixels in Spectrum: 2048
>>>>>Begin Spectral Data<<<<<
223.165	-18.75
223.4	-18.75
223.635	-18.75
223.869	-29.75
224.104	-1.75
224.338	-1.75
224.573	-2.75
224.808	-22.75
225.042	-1.75
225.277	-4.75
225.511	10.25
225.746	8.25
225.98	-3.75
226.215	7.25
226.449	13.25
226.683	16.25
226.918	13.25
227.152	19.25
227.387	30.25
227.621	31.25
227.856	41.25
228.09	40.25
228.324	40.25
228.559	54.25
228.793	62.25
229.027	80.25
229.262	95.25
229.496	117.25
229.73	120.25
229.964	150.25
230.199	109.25
230.433	102.25
230.667	114.25
230.901	92.25
231.136	98.25
231.37	109.25
231.604	102.25
231.838	96.25
232.072	103.25
232.306	105.25
232.541	105.25
232.775	92.25
233.009	98.25
233.243	110.25
233.477	104.25
233.711	110.25
233.945	106.25
234.179	103.25
234.413	105.25
234.647	110.25
234.881	96.25
235.115	98.25
235.349	109.25
235.583	104.25
235.817	114.25
236.051	110.25
236.285	118.25
236.519	114.25
236.753	116.25
236.987	133.25
237.221	172.25
237.455	192.25
237.689	169.25
237.922	137.25
238.156	110.25
238.39	97.25
238.624	112.25
238.858	121.25
239.091	118.25
239.325	117.25
239.559	110.25
239.793	117.25
240.027	118.25
240.26	129.25
240.494	136.25
240.728	137.25
240.961	126.25
241.195	136.25
241.429	120.25
241.662	124.25
241.896	126.25
242.13	121.25
242.363	122.25
242.597	100.25
242.83	112.25
243.064	122.25
243.298	113.25
243.531	120.25
243.765	119.25
243.998	122.25
244.232	119.25
244.465	141.25
244.699	114.25
244.932	129.25
245.166	120.25
245.399	124.25
245.633	122.25
245.866	131.25
246.099	124.25
246.333	122.25
246.566	123.25
246.8	134.25
247.033	132.25
247.266	149.25
247.5	138.25
247.733	128.25
247.966	144.25
248.2	132.25
248.433	142.25
248.666	145.25
248.899	152.25
249.133	169.25
249.366	161.25
249.599	168.25
249.832	159.25
250.066	172.25
250.299	148.25
250.532	167.25
250.765	176.25
250.998	182.25
251.231	182.25
251.465	196.25
251.698	176.25
251.931	163.25
252.164	173.25
252.397	169.25
252.63	178.25
252.863	166.25
253.096	186.25
253.329	184.25
253.562	166.25
253.795	182.25
254.028	170.25
254.261	184.25
254.494	191.25
254.727	207.25
254.96	218.25
255.193	223.25
255.426	203.25
255.659	189.25
255.892	188.25
256.124	172.25
256.357	180.25
256.59	181.25
256.823	186.25
257.056	170.25
257.289	180.25
257.521	174.25
257.754	176.25
257.987	166.25
258.22	161.25
258.452	179.25
258.685	166.25
258.918	165.25
259.151	186.25
259.383	184.25
259.616	193.25
259.849	174.25
260.081	186.25
260.314	213.25
260.547	204.25
260.779	197.25
261.012	189.25
261.244	186.25
261.477	190.25
261.71	190.25
261.942	190.25
262.175	196.25
262.407	199.25
262.64	176.25
262.872	180.25
263.105	188.25
263.337	189.25
263.57	181.25
263.802	160.25
264.035	188.25
264.267	170.25
264.499	187.25
264.732	179.25
264.964	166.25
265.197	171.25
265.429	172.25
265.661	168.25
265.894	182.25
266.126	187.25
266.358	158.25
266.591	177.25
266.823	178.25
267.055	174.25
267.287	165.25
267.52	188.25
267.752	182.25
267.984	196.25
268.216	191.25
268.448	201.25
268.681	186.25
268.913	192.25
269.145	195.25
269.377	220.25
269.609	223.25
269.841	224.25
270.073	237.25
270.306	236.25
270.538	254.25
270.77	230.25
271.002	217.25
271.234	231.25
271.466	247.25
271.698	228.25
271.93	267.25
272.162	246.25
272.394	229.25
272.626	245.25
272.858	223.25
273.09	225.25
273.322	217.25
273.553	205.25
273.785	226.25
274.017	211.25
274.249	226.25
274.481	232.25
274.713	218.25
274.945	205.25
275.176	221.25
275.408	240.25
275.64	203.25
275.872	204.25
276.104	207.25
276.335	217.25
276.567	220.25
276.799	236.25
277.031	255.25
277.262	257.25
277.494	260.25
277.726	249.25
277.957	233.25
278.189	232.25
278.421	225.25
278.652	213.25
278.884	214.25
279.115	215.25
279.347	214.25
279.579	210.25
279.81	210.25
280.042	206.25
280.273	208.25
280.505	208.25
280.736	208.25
280.968	202.25
281.199	214.25
281.431	220.25
281.662	214.25
281.894	204.25
282.125	224.25
282.356	224.25
282.588	247.25
282.819	247.25
283.051	227.25
283.282	208.25
283.513	202.25
283.745	218.25
283.976	218.25
284.207	227.25
284.439	217.25
284.67	218.25
284.901	221.25
285.132	219.25
285.364	217.25
285.595	220.25
285.826	228.25
286.057	227.25
286.288	220.25
286.52	214.25
286.751	232.25
286.982	214.25
287.213	220.25
287.444	220.25
287.675	219.25
287.906	239.25
288.138	238.25
288.369	238.25
288.6	227.25
288.831	237.25
289.062	232.25
289.293	231.25
289.524	237.25
289.755	217.25
289.986	230.25
290.217	212.25
290.448	220.25
290.679	221.25
290.91	227.25
291.141	218.25
291.371	217.25
291.602	232.25
291.833	216.25
292.064	196.25
292.295	229.25
292.526	232.25
292.757	223.25
292.987	229.25
293.218	217.25
293.449	221.25
293.68	242.25
293.91	239.25
294.141	220.25
294.372	234.25
294.603	220.25
294.833	236.25
295.064	240.25
295.295	245.25
295.525	232.25
295.756	229.25
295.987	240.25
296.217	269.25
296.448	260.25
296.679	250.25
296.909	240.25
297.14	229.25
297.37	225.25
297.601	244.25
297.831	226.25
298.062	221.25
298.292	239.25
298.523	242.25
298.753	231.25
298.984	231.25
299.214	228.25
299.445	229.25
299.675	239.25
299.905	241.25
300.136	242.25
300.366	244.25
300.597	240.25
300.827	261.25
301.057	255.25
301.288	279.25
301.518	237.25
301.748	257.25
301.979	244.25
302.209	253.25
302.439	250.25
302.669	267.25
302.9	270.25
303.13	267.25
303.36	256.25
303.59	264.25
303.82	272.25
304.051	242.25
304.281	252.25
304.511	264.25
304.741	265.25
304.971	245.25
305.201	254.25
305.431	256.25
305.661	250.25
305.891	249.25
306.121	262.25
306.352	258.25
306.582	282.25
306.812	254.25
307.042	242.25
307.272	263.25
307.502	270.25
307.731	266.25
307.961	258.25
308.191	273.25
308.421	278.25
308.651	282.25
308.881	266.25
309.111	274.25
309.341	279.25
309.571	280.25
309.8	286.25
310.03	305.25
310.26	298.25
310.49	311.25
310.72	311.25
310.949	324.25
311.179	310.25
311.409	308.25
311.639	317.25
311.868	319.25
312.098	319.25
312.328	316.25
312.557	320.25
312.787	347.25
313.017	333.25
313.246	310.25
313.476	315.25
313.706	314.25
313.935	316.25
314.165	317.25
314.394	320.25
314.624	313.25
314.853	317.25
315.083	314.25
315.312	314.25
315.542	303.25
315.771	293.25
316.001	296.25
316.23	294.25
316.46	307.25
316.689	296.25
316.919	303.25
317.148	304.25
317.377	311.25
317.607	304.25
317.836	302.25
318.065	305.25
318.295	309.25
318.524	311.25
318.753	288.25
318.983	298.25
319.212	312.25
319.441	310.25
319.67	305.25
319.9	321.25
320.129	328.25
320.358	311.25
320.587	332.25
320.816	324.25
321.046	338.25
321.275	327.25
321.504	314.25
321.733	342.25
321.962	335.25
322.191	355.25
322.42	358.25
322.649	386.25
322.878	402.25
323.108	359.25
323.337	404.25
323.566	425.25
323.795	472.25
324.024	545.25
324.253	648.25
324.482	957.25
324.71	1454.25
324.939	2053.25
325.168	1788.25
325.397	896.25
325.626	600.25
325.855	496.25
326.084	460.25
326.313	464.25
326.542	439.25
326.77	505.25
326.999	599.25
327.228	848.25
327.457	1264.25
327.686	1509.25
327.914	1023.25
328.143	660.25
328.372	584.25
328.6	529.25
328.829	501.25
329.058	494.25
329.287	510.25
329.515	466.25
329.744	444.25
329.972	428.25
330.201	448.25
330.43	480.25
330.658	504.25
330.887	551.25
331.115	533.25
331.344	456.25
331.572	406.25
331.801	431.25
332.03	396.25
332.258	394.25
332.486	357.25
332.715	376.25
332.943	357.25
333.172	352.25
333.4	372.25
333.629	391.25
333.857	406.25
334.085	402.25
334.314	425.25
334.542	454.25
334.771	448.25
334.999	426.25
335.227	388.25
335.455	373.25
335.684	372.25
335.912	374.25
336.14	355.25
336.369	344.25
336.597	358.25
336.825	356.25
337.053	375.25
337.281	353.25
337.51	343.25
337.738	335.25
337.966	357.25
338.194	346.25
338.422	349.25
338.65	358.25
338.878	346.25
339.106	346.25
339.334	355.25
339.562	337.25
339.79	341.25
340.018	339.25
340.246	344.25
340.474	339.25
340.702	355.25
340.93	352.25
341.158	344.25
341.386	352.25
341.614	353.25
341.842	352.25
342.07	338.25
342.298	310.25
342.526	347.25
342.754	333.25
342.981	347.25
343.209	324.25
343.437	333.25
343.665	344.25
343.893	321.25
344.12	342.25
344.348	351.25
344.576	333.25
344.804	353.25
345.031	366.25
345.259	379.25
345.487	367.25
345.714	333.25
345.942	344.25
346.17	345.25
346.397	313.25
346.625	325.25
346.853	341.25
347.08	341.25
347.308	353.25
347.535	338.25
347.763	350.25
347.99	356.25
348.218	356.25
348.445	328.25
348.673	350.25
348.9	336.25
349.128	320.25
349.355	300.25
349.583	324.25
349.81	320.25
350.037	321.25
350.265	318.25
350.492	324.25
350.72	324.25
350.947	321.25
351.174	337.25
351.402	342.25
351.629	354.25
351.856	361.25
352.083	361.25
352.311	361.25
352.538	345.25
352.765	355.25
352.992	353.25
353.22	342.25
353.447	342.25
353.674	328.25
353.901	336.25
354.128	308.25
354.355	302.25
354.583	325.25
354.81	329.25
355.037	317.25
355.264	307.25
355.491	297.25
355.718	300.25
355.945	293.25
356.172	313.25
356.399	295.25
356.626	306.25
356.853	304.25
357.08	311.25
357.307	325.25
357.534	295.25
357.761	323.25
357.988	313.25
358.215	302.25
358.441	320.25
358.668	316.25
358.895	328.25
359.122	313.25
359.349	332.25
359.576	333.25
359.802	350.25
360.029	381.25
360.256	390.25
360.483	356.25
360.709	348.25
360.936	353.25
361.163	338.25
361.39	345.25
361.616	332.25
361.843	325.25
362.07	344.25
362.296	349.25
362.523	352.25
362.749	319.25
362.976	329.25
363.203	341.25
363.429	319.25
363.656	304.25
363.882	325.25
364.109	344.25
364.335	329.25
364.562	321.25
364.788	326.25
365.015	314.25
365.241	325.25
365.468	336.25
365.694	329.25
365.92	337.25
366.147	329.25
366.373	333.25
366.599	326.25
366.826	316.25
367.052	331.25
367.278	323.25
367.505	312.25
367.731	327.25
367.957	317.25
368.184	312.25
368.41	329.25
368.636	345.25
368.862	326.25
369.089	320.25
369.315	320.25
369.541	321.25
369.767	313.25
369.993	320.25
370.219	318.25
370.445	308.25
370.672	304.25
370.898	320.25
371.124	323.25
371.35	332.25
371.576	299.25
371.802	314.25
372.028	308.25
372.254	306.25
372.48	318.25
372.706	321.25
372.932	337.25
373.158	306.25
373.384	302.25
373.61	311.25
373.835	342.25
374.061	332.25
374.287	311.25
374.513	330.25
374.739	311.25
374.965	318.25
375.191	334.25
375.416	313.25
375.642	316.25
375.868	304.25
376.094	330.25
376.319	329.25
376.545	322.25
376.771	315.25
376.997	306.25
377.222	331.25
377.448	324.25
377.674	298.25
377.899	296.25
378.125	314.25
378.35	304.25
378.576	306.25
378.802	309.25
379.027	308.25
379.253	316.25
379.478	312.25
379.704	291.25
379.929	319.25
380.155	311.25
380.38	322.25
380.606	323.25
380.831	334.25
381.057	328.25
381.282	296.25
381.507	306.25
381.733	296.25
381.958	327.25
382.184	340.25
382.409	317.25
382.634	316.25
382.86	330.25
383.085	323.25
383.31	307.25
383.535	312.25
383.761	324.25
383.986	337.25
384.211	297.25
384.436	321.25
384.662	306.25
384.887	325.25
385.112	336.25
385.337	333.25
385.562	330.25
385.787	336.25
386.013	321.25
386.238	340.25
386.463	337.25
386.688	331.25
386.913	325.25
387.138	332.25
387.363	330.25
387.588	357.25
387.813	349.25
388.038	352.25
388.263	338.25
388.488	328.25
388.713	316.25
388.938	340.25
389.163	344.25
389.387	333.25
389.612	345.25
389.837	334.25
390.062	333.25
390.287	327.25
390.512	322.25
390.736	325.25
390.961	335.25
391.186	330.25
391.411	330.25
391.636	359.25
391.86	336.25
392.085	337.25
392.31	348.25
392.534	350.25
392.759	355.25
392.984	349.25
393.208	346.25
393.433	349.25
393.658	338.25
393.882	343.25
394.107	342.25
394.331	328.25
394.556	337.25
394.78	344.25
395.005	343.25
395.229	343.25
395.454	342.25
395.678	341.25
395.903	364.25
396.127	363.25
396.352	367.25
396.576	352.25
396.801	351.25
397.025	366.25
397.249	378.25
397.474	372.25
397.698	374.25
397.922	374.25
398.147	388.25
398.371	393.25
398.595	386.25
398.82	388.25
399.044	381.25
399.268	397.25
399.492	403.25
399.717	425.25
399.941	447.25
400.165	434.25
400.389	475.25
400.613	446.25
400.837	417.25
401.062	388.25
401.286	413.25
401.51	375.25
401.734	377.25
401.958	388.25
402.182	402.25
402.406	404.25
402.63	400.25
402.854	387.25
403.078	391.25
403.302	423.25
403.526	405.25
403.75	395.25
403.974	386.25
404.198	382.25
404.422	413.25
404.645	413.25
404.869	430.25
405.093	446.25
405.317	461.25
405.541	482.25
405.765	477.25
405.988	432.25
406.212	455.25
406.436	473.25
406.66	460.25
406.883	446.25
407.107	452.25
407.331	490.25
407.555	536.25
407.778	536.25
408.002	485.25
408.226	464.25
408.449	441.25
408.673	456.25
408.896	470.25
409.12	494.25
409.344	470.25
409.567	435.25
409.791	437.25
410.014	400.25
410.238	404.25
410.461	407.25
410.685	433.25
410.908	436.25
411.132	448.25
411.355	471.25
411.578	459.25
411.802	410.25
412.025	405.25
412.249	423.25
412.472	434.25
412.695	474.25
412.919	482.25
413.142	392.25
413.365	410.25
413.589	398.25
413.812	406.25
414.035	375.25
414.258	389.25
414.482	373.25
414.705	364.25
414.928	380.25
415.151	410.25
415.374	390.25
415.597	373.25
415.821	380.25
416.044	395.25
416.267	390.25
416.49	392.25
416.713	375.25
416.936	384.25
417.159	386.25
417.382	366.25
417.605	374.25
417.828	403.25
418.051	416.25
418.274	412.25
418.497	386.25
418.72	386.25
418.943	366.25
419.166	393.25
419.389	400.25
419.611	405.25
419.834	395.25
420.057	396.25
420.28	405.25
420.503	411.25
420.726	407.25
420.948	428.25
421.171	436.25
421.394	458.25
421.617	409.25
421.839	396.25
422.062	394.25
422.285	413.25
422.507	460.25
422.73	512.25
422.953	516.25
423.175	456.25
423.398	417.25
423.621	415.25
423.843	409.25
424.066	436.25
424.288	431.25
424.511	451.25
424.733	521.25
424.956	560.25
425.178	540.25
425.401	530.25
425.623	553.25
425.846	477.25
426.068	439.25
426.291	441.25
426.513	464.25
426.735	450.25
426.958	468.25
427.18	567.25
427.402	636.25
427.625	715.25
427.847	634.25
428.069	558.25
428.292	500.25
428.514	448.25
428.736	430.25
428.958	432.25
429.181	399.25
429.403	394.25
429.625	418.25
429.847	458.25
430.069	500.25
430.292	484.25
430.514	420.25
430.736	405.25
430.958	401.25
431.18	387.25
431.402	384.25
431.624	390.25
431.846	401.25
432.068	395.25
432.29	378.25
432.512	380.25
432.734	398.25
432.956	395.25
433.178	382.25
433.4	422.25
433.622	405.25
433.844	404.25
434.066	368.25
434.287	376.25
434.509	387.25
434.731	407.25
434.953	387.25
435.175	411.25
435.397	414.25
435.618	436.25
435.84	484.25
436.062	567.25
436.284	603.25
436.505	507.25
436.727	460.25
436.949	439.25
437.17	413.25
437.392	414.25
437.614	428.25
437.835	459.25
438.057	521.25
438.278	602.25
438.5	608.25
438.721	654.25
438.943	634.25
439.165	513.25
439.386	469.25
439.608	442.25
439.829	470.25
440.05	475.25
440.272	503.25
440.493	496.25
440.715	473.25
440.936	432.25
441.158	417.25
441.379	420.25
441.6	438.25
441.822	455.25
442.043	466.25
442.264	538.25
442.486	564.25
442.707	489.25
442.928	457.25
443.149	480.25
443.371	487.25
443.592	520.25
443.813	577.25
444.034	654.25
444.255	522.25
444.476	474.25
444.698	442.25
444.919	441.25
445.14	536.25
445.361	497.25
445.582	485.25
445.803	549.25
446.024	614.25
446.245	631.25
446.466	598.25
446.687	477.25
446.908	450.25
447.129	448.25
447.35	423.25
447.571	416.25
447.792	411.25
448.013	412.25
448.234	439.25
448.455	477.25
448.675	582.25
448.896	658.25
449.117	580.25
449.338	525.25
449.559	596.25
449.779	692.25
450	564.25
450.221	458.25
450.442	441.25
450.662	407.25
450.883	430.25
451.104	452.25
451.324	424.25
451.545	408.25
451.766	374.25
451.986	386.25
452.207	373.25
452.428	368.25
452.648	372.25
452.869	395.25
453.089	375.25
453.31	393.25
453.53	379.25
453.751	380.25
453.971	386.25
454.192	394.25
454.412	394.25
454.633	379.25
454.853	378.25
455.073	364.25
455.294	400.25
455.514	451.25
455.734	462.25
455.955	386.25
456.175	364.25
456.395	352.25
456.616	363.25
456.836	362.25
457.056	361.25
457.276	371.25
457.497	350.25
457.717	366.25
457.937	353.25
458.157	359.25
458.377	386.25
458.598	376.25
458.818	453.25
459.038	505.25
459.258	505.25
459.478	469.25
459.698	415.25
459.918	409.25
460.138	405.25
460.358	409.25
460.578	375.25
460.798	393.25
461.018	402.25
461.238	386.25
461.458	392.25
461.678	396.25
461.898	403.25
462.118	386.25
462.338	405.25
462.558	412.25
462.777	398.25
462.997	420.25
463.217	412.25
463.437	426.25
463.657	415.25
463.876	413.25
464.096	400.25
464.316	416.25
464.536	446.25
464.755	418.25
464.975	422.25
465.195	484.25
465.414	537.25
465.634	466.25
465.854	438.25
466.073	412.25
466.293	404.25
466.512	378.25
466.732	386.25
466.951	393.25
467.171	395.25
467.391	400.25
467.61	413.25
467.829	409.25
468.049	397.25
468.268	404.25
468.488	376.25
468.707	358.25
468.927	384.25
469.146	371.25
469.365	356.25
469.585	364.25
469.804	367.25
470.023	387.25
470.243	401.25
470.462	405.25
470.681	412.25
470.901	400.25
471.12	375.25
471.339	396.25
471.558	389.25
471.777	396.25
471.997	396.25
472.216	412.25
472.435	447.25
472.654	434.25
472.873	383.25
473.092	397.25
473.311	395.25
473.53	390.25
473.749	391.25
473.968	437.25
474.187	530.25
474.406	544.25
474.625	444.25
474.844	404.25
475.063	384.25
475.282	396.25
475.501	388.25
475.72	402.25
475.939	411.25
476.158	408.25
476.377	404.25
476.596	415.25
476.814	412.25
477.033	399.25
477.252	428.25
477.471	440.25
477.69	413.25
477.908	420.25
478.127	415.25
478.346	416.25
478.564	403.25
478.783	409.25
479.002	421.25
479.22	435.25
479.439	429.25
479.658	450.25
479.876	478.25
480.095	482.25
480.313	488.25
480.532	481.25
480.751	471.25
480.969	483.25
481.188	543.25
481.406	597.25
481.624	522.25
481.843	482.25
482.061	475.25
482.28	467.25
482.498	468.25
482.717	454.25
482.935	471.25
483.153	427.25
483.372	458.25
483.59	457.25
483.808	444.25
484.027	454.25
484.245	456.25
484.463	473.25
484.681	473.25
484.9	461.25
485.118	466.25
485.336	456.25
485.554	473.25
485.772	462.25
485.99	461.25
486.209	476.25
486.427	460.25
486.645	464.25
486.863	495.25
487.081	498.25
487.299	483.25
487.517	505.25
487.735	488.25
487.953	478.25
488.171	495.25
488.389	500.25
488.607	478.25
488.825	487.25
489.043	477.25
489.261	498.25
489.479	500.25
489.696	505.25
489.914	474.25
490.132	497.25
490.35	513.25
490.568	506.25
490.786	528.25
491.003	543.25
491.221	526.25
491.439	547.25
491.657	556.25
491.874	549.25
492.092	550.25
492.31	540.25
492.527	552.25
492.745	552.25
492.963	550.25
493.18	574.25
493.398	547.25
493.615	553.25
493.833	597.25
494.05	583.25
494.268	566.25
494.485	570.25
494.703	570.25
494.92	584.25
495.138	577.25
495.355	579.25
495.573	553.25
495.79	564.25
496.008	585.25
496.225	561.25
496.442	586.25
496.66	585.25
496.877	584.25
497.094	584.25
497.312	581.25
497.529	598.25
497.746	596.25
497.963	614.25
498.181	623.25
498.398	623.25
498.615	608.25
498.832	650.25
499.049	648.25
499.267	631.25
499.484	679.25
499.701	703.25
499.918	691.25
500.135	711.25
500.352	744.25
500.569	743.25
500.786	744.25
501.003	727.25
501.22	712.25
501.437	721.25
501.654	706.25
501.871	723.25
502.088	695.25
