Data from 1961.PennyLincolnUp.Lamp.En5.5.200Scan.071719.P1._HRD10591_13-48-06-058.txt Node
Date: Thu Jul 18 13:48:06 EDT 2019
User: cochatt
Spectrometer: HR+D1059
Trigger mode: 1
Integration Time (sec): 1.000000E-1
Scans to average: 1
Electric dark correction enabled: true
Nonlinearity correction enabled: false
Boxcar width: 0
XAxis mode: Wavelengths
Number of Pixels in Spectrum: 2048
>>>>>Begin Spectral Data<<<<<
223.165	-16.12
223.4	-16.12
223.635	-16.12
223.869	-12.12
224.104	-24.12
224.338	-12.12
224.573	-25.12
224.808	-3.12
225.042	-15.12
225.277	7.88
225.511	-0.12
225.746	-5.12
225.98	4.88
226.215	2.88
226.449	14.88
226.683	29.88
226.918	36.88
227.152	15.88
227.387	30.88
227.621	34.88
227.856	47.88
228.09	54.88
228.324	37.88
228.559	60.88
228.793	70.88
229.027	91.88
229.262	104.88
229.496	95.88
229.73	121.88
229.964	128.88
230.199	122.88
230.433	115.88
230.667	102.88
230.901	102.88
231.136	109.88
231.37	103.88
231.604	105.88
231.838	111.88
232.072	108.88
232.306	103.88
232.541	110.88
232.775	104.88
233.009	112.88
233.243	101.88
233.477	118.88
233.711	111.88
233.945	103.88
234.179	101.88
234.413	108.88
234.647	110.88
234.881	113.88
235.115	116.88
235.349	103.88
235.583	99.88
235.817	116.88
236.051	114.88
236.285	122.88
236.519	114.88
236.753	116.88
236.987	138.88
237.221	169.88
237.455	205.88
237.689	172.88
237.922	118.88
238.156	121.88
238.39	111.88
238.624	125.88
238.858	124.88
239.091	111.88
239.325	112.88
239.559	107.88
239.793	103.88
240.027	120.88
240.26	126.88
240.494	142.88
240.728	130.88
240.961	128.88
241.195	122.88
241.429	127.88
241.662	116.88
241.896	119.88
242.13	117.88
242.363	122.88
242.597	119.88
242.83	115.88
243.064	139.88
243.298	101.88
243.531	117.88
243.765	126.88
243.998	124.88
244.232	131.88
244.465	113.88
244.699	139.88
244.932	122.88
245.166	124.88
245.399	129.88
245.633	125.88
245.866	117.88
246.099	116.88
246.333	141.88
246.566	136.88
246.8	132.88
247.033	123.88
247.266	144.88
247.5	132.88
247.733	136.88
247.966	148.88
248.2	146.88
248.433	144.88
248.666	132.88
248.899	137.88
249.133	165.88
249.366	168.88
249.599	166.88
249.832	152.88
250.066	154.88
250.299	154.88
250.532	164.88
250.765	164.88
250.998	188.88
251.231	185.88
251.465	163.88
251.698	182.88
251.931	165.88
252.164	174.88
252.397	172.88
252.63	173.88
252.863	165.88
253.096	174.88
253.329	178.88
253.562	184.88
253.795	197.88
254.028	186.88
254.261	183.88
254.494	200.88
254.727	209.88
254.96	222.88
255.193	233.88
255.426	204.88
255.659	195.88
255.892	190.88
256.124	201.88
256.357	208.88
256.59	188.88
256.823	181.88
257.056	187.88
257.289	188.88
257.521	184.88
257.754	168.88
257.987	173.88
258.22	163.88
258.452	170.88
258.685	181.88
258.918	161.88
259.151	168.88
259.383	166.88
259.616	192.88
259.849	197.88
260.081	188.88
260.314	211.88
260.547	205.88
260.779	186.88
261.012	207.88
261.244	204.88
261.477	182.88
261.71	182.88
261.942	193.88
262.175	208.88
262.407	207.88
262.64	194.88
262.872	182.88
263.105	187.88
263.337	184.88
263.57	169.88
263.802	167.88
264.035	179.88
264.267	176.88
264.499	180.88
264.732	165.88
264.964	173.88
265.197	178.88
265.429	172.88
265.661	162.88
265.894	167.88
266.126	186.88
266.358	175.88
266.591	180.88
266.823	184.88
267.055	189.88
267.287	181.88
267.52	194.88
267.752	174.88
267.984	195.88
268.216	208.88
268.448	196.88
268.681	211.88
268.913	208.88
269.145	221.88
269.377	225.88
269.609	223.88
269.841	227.88
270.073	216.88
270.306	236.88
270.538	257.88
270.77	252.88
271.002	252.88
271.234	254.88
271.466	243.88
271.698	251.88
271.93	265.88
272.162	266.88
272.394	263.88
272.626	246.88
272.858	218.88
273.09	228.88
273.322	232.88
273.553	229.88
273.785	238.88
274.017	216.88
274.249	225.88
274.481	215.88
274.713	225.88
274.945	223.88
275.176	224.88
275.408	208.88
275.64	220.88
275.872	229.88
276.104	232.88
276.335	205.88
276.567	215.88
276.799	233.88
277.031	253.88
277.262	270.88
277.494	240.88
277.726	257.88
277.957	225.88
278.189	228.88
278.421	232.88
278.652	244.88
278.884	226.88
279.115	220.88
279.347	224.88
279.579	202.88
279.81	219.88
280.042	212.88
280.273	217.88
280.505	216.88
280.736	216.88
280.968	224.88
281.199	208.88
281.431	202.88
281.662	203.88
281.894	224.88
282.125	231.88
282.356	235.88
282.588	280.88
282.819	254.88
283.051	254.88
283.282	215.88
283.513	217.88
283.745	221.88
283.976	214.88
284.207	223.88
284.439	211.88
284.67	213.88
284.901	217.88
285.132	219.88
285.364	210.88
285.595	221.88
285.826	226.88
286.057	205.88
286.288	224.88
286.52	204.88
286.751	222.88
286.982	211.88
287.213	210.88
287.444	223.88
287.675	227.88
287.906	263.88
288.138	254.88
288.369	245.88
288.6	233.88
288.831	242.88
289.062	231.88
289.293	221.88
289.524	240.88
289.755	218.88
289.986	233.88
290.217	219.88
290.448	210.88
290.679	225.88
290.91	211.88
291.141	242.88
291.371	235.88
291.602	242.88
291.833	223.88
292.064	219.88
292.295	237.88
292.526	229.88
292.757	208.88
292.987	240.88
293.218	214.88
293.449	247.88
293.68	244.88
293.91	230.88
294.141	233.88
294.372	226.88
294.603	233.88
294.833	218.88
295.064	247.88
295.295	216.88
295.525	223.88
295.756	243.88
295.987	259.88
296.217	272.88
296.448	265.88
296.679	243.88
296.909	236.88
297.14	245.88
297.37	225.88
297.601	225.88
297.831	222.88
298.062	220.88
298.292	238.88
298.523	246.88
298.753	238.88
298.984	256.88
299.214	250.88
299.445	233.88
299.675	254.88
299.905	256.88
300.136	239.88
300.366	253.88
300.597	265.88
300.827	259.88
301.057	254.88
301.288	261.88
301.518	265.88
301.748	251.88
301.979	260.88
302.209	271.88
302.439	259.88
302.669	259.88
302.9	246.88
303.13	247.88
303.36	258.88
303.59	259.88
303.82	276.88
304.051	266.88
304.281	272.88
304.511	238.88
304.741	243.88
304.971	248.88
305.201	263.88
305.431	267.88
305.661	249.88
305.891	236.88
306.121	259.88
306.352	293.88
306.582	270.88
306.812	273.88
307.042	260.88
307.272	256.88
307.502	272.88
307.731	280.88
307.961	273.88
308.191	255.88
308.421	288.88
308.651	292.88
308.881	259.88
309.111	281.88
309.341	272.88
309.571	292.88
309.8	279.88
310.03	300.88
310.26	296.88
310.49	312.88
310.72	304.88
310.949	333.88
311.179	340.88
311.409	314.88
311.639	310.88
311.868	324.88
312.098	308.88
312.328	309.88
312.557	325.88
312.787	337.88
313.017	345.88
313.246	342.88
313.476	306.88
313.706	290.88
313.935	319.88
314.165	304.88
314.394	334.88
314.624	336.88
314.853	330.88
315.083	310.88
315.312	308.88
315.542	315.88
315.771	306.88
316.001	299.88
316.23	310.88
316.46	315.88
316.689	300.88
316.919	313.88
317.148	316.88
317.377	316.88
317.607	321.88
317.836	323.88
318.065	303.88
318.295	301.88
318.524	311.88
318.753	316.88
318.983	303.88
319.212	322.88
319.441	334.88
319.67	341.88
319.9	318.88
320.129	307.88
320.358	328.88
320.587	315.88
320.816	338.88
321.046	323.88
321.275	320.88
321.504	311.88
321.733	312.88
321.962	357.88
322.191	347.88
322.42	340.88
322.649	371.88
322.878	380.88
323.108	401.88
323.337	416.88
323.566	448.88
323.795	480.88
324.024	539.88
324.253	710.88
324.482	1000.88
324.71	1525.88
324.939	2128.88
325.168	1769.88
325.397	912.88
325.626	620.88
325.855	504.88
326.084	456.88
326.313	440.88
326.542	464.88
326.77	504.88
326.999	597.88
327.228	887.88
327.457	1374.88
327.686	1570.88
327.914	1060.88
328.143	703.88
328.372	592.88
328.6	547.88
328.829	520.88
329.058	536.88
329.287	509.88
329.515	485.88
329.744	445.88
329.972	470.88
330.201	458.88
330.43	489.88
330.658	536.88
330.887	554.88
331.115	529.88
331.344	470.88
331.572	444.88
331.801	419.88
332.03	414.88
332.258	401.88
332.486	359.88
332.715	374.88
332.943	372.88
333.172	376.88
333.4	388.88
333.629	402.88
333.857	382.88
334.085	422.88
334.314	430.88
334.542	446.88
334.771	460.88
334.999	438.88
335.227	390.88
335.455	384.88
335.684	349.88
335.912	364.88
336.14	354.88
336.369	367.88
336.597	364.88
336.825	365.88
337.053	368.88
337.281	376.88
337.51	356.88
337.738	355.88
337.966	350.88
338.194	366.88
338.422	361.88
338.65	366.88
338.878	344.88
339.106	349.88
339.334	350.88
339.562	341.88
339.79	344.88
340.018	343.88
340.246	345.88
340.474	345.88
340.702	340.88
340.93	344.88
341.158	337.88
341.386	326.88
341.614	344.88
341.842	342.88
342.07	333.88
342.298	350.88
342.526	328.88
342.754	340.88
342.981	320.88
343.209	322.88
343.437	350.88
343.665	334.88
343.893	332.88
344.12	338.88
344.348	323.88
344.576	353.88
344.804	351.88
345.031	370.88
345.259	376.88
345.487	376.88
345.714	367.88
345.942	362.88
346.17	336.88
346.397	328.88
346.625	317.88
346.853	341.88
347.08	347.88
347.308	314.88
347.535	347.88
347.763	348.88
347.99	367.88
348.218	359.88
348.445	356.88
348.673	371.88
348.9	336.88
349.128	326.88
349.355	329.88
349.583	334.88
349.81	329.88
350.037	333.88
350.265	334.88
350.492	340.88
350.72	325.88
350.947	327.88
351.174	333.88
351.402	355.88
351.629	353.88
351.856	360.88
352.083	376.88
352.311	351.88
352.538	360.88
352.765	372.88
352.992	344.88
353.22	326.88
353.447	356.88
353.674	328.88
353.901	337.88
354.128	319.88
354.355	318.88
354.583	312.88
354.81	336.88
355.037	306.88
355.264	308.88
355.491	319.88
355.718	306.88
355.945	309.88
356.172	316.88
356.399	300.88
356.626	323.88
356.853	318.88
357.08	314.88
357.307	302.88
357.534	305.88
357.761	314.88
357.988	320.88
358.215	321.88
358.441	319.88
358.668	320.88
358.895	326.88
359.122	340.88
359.349	329.88
359.576	338.88
359.802	374.88
360.029	411.88
360.256	407.88
360.483	378.88
360.709	360.88
360.936	343.88
361.163	349.88
361.39	339.88
361.616	339.88
361.843	324.88
362.07	350.88
362.296	357.88
362.523	328.88
362.749	335.88
362.976	318.88
363.203	335.88
363.429	346.88
363.656	339.88
363.882	317.88
364.109	331.88
364.335	320.88
364.562	321.88
364.788	328.88
365.015	335.88
365.241	330.88
365.468	332.88
365.694	328.88
365.92	332.88
366.147	324.88
366.373	321.88
366.599	316.88
366.826	329.88
367.052	330.88
367.278	301.88
367.505	336.88
367.731	332.88
367.957	300.88
368.184	301.88
368.41	324.88
368.636	330.88
368.862	338.88
369.089	305.88
369.315	329.88
369.541	312.88
369.767	333.88
369.993	327.88
370.219	333.88
370.445	295.88
370.672	332.88
370.898	317.88
371.124	325.88
371.35	324.88
371.576	313.88
371.802	324.88
372.028	315.88
372.254	312.88
372.48	314.88
372.706	318.88
372.932	327.88
373.158	318.88
373.384	327.88
373.61	313.88
373.835	324.88
374.061	305.88
374.287	319.88
374.513	314.88
374.739	327.88
374.965	305.88
375.191	325.88
375.416	319.88
375.642	315.88
375.868	333.88
376.094	330.88
376.319	307.88
376.545	321.88
376.771	324.88
376.997	321.88
377.222	329.88
377.448	321.88
377.674	304.88
377.899	319.88
378.125	307.88
378.35	306.88
378.576	319.88
378.802	312.88
379.027	299.88
379.253	295.88
379.478	298.88
379.704	296.88
379.929	330.88
380.155	312.88
380.38	313.88
380.606	312.88
380.831	313.88
381.057	328.88
381.282	323.88
381.507	306.88
381.733	311.88
381.958	314.88
382.184	314.88
382.409	309.88
382.634	336.88
382.86	299.88
383.085	320.88
383.31	326.88
383.535	306.88
383.761	325.88
383.986	315.88
384.211	308.88
384.436	333.88
384.662	330.88
384.887	341.88
385.112	322.88
385.337	324.88
385.562	330.88
385.787	328.88
386.013	352.88
386.238	343.88
386.463	338.88
386.688	370.88
386.913	336.88
387.138	325.88
387.363	326.88
387.588	333.88
387.813	312.88
388.038	339.88
388.263	337.88
388.488	327.88
388.713	332.88
388.938	335.88
389.163	336.88
389.387	353.88
389.612	341.88
389.837	330.88
390.062	340.88
390.287	328.88
390.512	329.88
390.736	354.88
390.961	344.88
391.186	343.88
391.411	339.88
391.636	345.88
391.86	345.88
392.085	357.88
392.31	347.88
392.534	334.88
392.759	349.88
392.984	338.88
393.208	345.88
393.433	380.88
393.658	342.88
393.882	344.88
394.107	347.88
394.331	346.88
394.556	336.88
394.78	327.88
395.005	375.88
395.229	336.88
395.454	323.88
395.678	366.88
395.903	361.88
396.127	371.88
396.352	375.88
396.576	353.88
396.801	366.88
397.025	354.88
397.249	362.88
397.474	370.88
397.698	352.88
397.922	386.88
398.147	396.88
398.371	381.88
398.595	368.88
398.82	358.88
399.044	390.88
399.268	391.88
399.492	399.88
399.717	421.88
399.941	440.88
400.165	470.88
400.389	465.88
400.613	454.88
400.837	408.88
401.062	394.88
401.286	380.88
401.51	384.88
401.734	392.88
401.958	381.88
402.182	379.88
402.406	420.88
402.63	400.88
402.854	408.88
403.078	386.88
403.302	400.88
403.526	400.88
403.75	392.88
403.974	401.88
404.198	398.88
404.422	410.88
404.645	417.88
404.869	408.88
405.093	445.88
405.317	451.88
405.541	483.88
405.765	472.88
405.988	422.88
406.212	440.88
406.436	463.88
406.66	448.88
406.883	465.88
407.107	466.88
407.331	489.88
407.555	542.88
407.778	510.88
408.002	490.88
408.226	452.88
408.449	476.88
408.673	429.88
408.896	493.88
409.12	479.88
409.344	466.88
409.567	423.88
409.791	422.88
410.014	408.88
410.238	402.88
410.461	404.88
410.685	411.88
410.908	415.88
411.132	467.88
411.355	474.88
411.578	451.88
411.802	409.88
412.025	400.88
412.249	395.88
412.472	433.88
412.695	473.88
412.919	473.88
413.142	408.88
413.365	412.88
413.589	402.88
413.812	398.88
414.035	367.88
414.258	379.88
414.482	386.88
414.705	374.88
414.928	370.88
415.151	383.88
415.374	386.88
415.597	385.88
415.821	389.88
416.044	377.88
416.267	391.88
416.49	386.88
416.713	390.88
416.936	382.88
417.159	370.88
417.382	402.88
417.605	389.88
417.828	401.88
418.051	422.88
418.274	398.88
418.497	395.88
418.72	394.88
418.943	386.88
419.166	401.88
419.389	410.88
419.611	406.88
419.834	409.88
420.057	411.88
420.28	417.88
420.503	395.88
420.726	390.88
420.948	432.88
421.171	460.88
421.394	460.88
421.617	417.88
421.839	410.88
422.062	392.88
422.285	417.88
422.507	464.88
422.73	528.88
422.953	511.88
423.175	429.88
423.398	426.88
423.621	441.88
423.843	432.88
424.066	447.88
424.288	457.88
424.511	472.88
424.733	494.88
424.956	581.88
425.178	541.88
425.401	537.88
425.623	560.88
425.846	497.88
426.068	441.88
426.291	432.88
426.513	461.88
426.735	454.88
426.958	504.88
427.18	568.88
427.402	672.88
427.625	730.88
427.847	663.88
428.069	543.88
428.292	490.88
428.514	456.88
428.736	424.88
428.958	433.88
429.181	416.88
429.403	376.88
429.625	432.88
429.847	453.88
430.069	503.88
430.292	492.88
430.514	434.88
430.736	435.88
430.958	406.88
431.18	397.88
431.402	371.88
431.624	395.88
431.846	388.88
432.068	383.88
432.29	378.88
432.512	402.88
432.734	401.88
432.956	390.88
433.178	416.88
433.4	410.88
433.622	402.88
433.844	390.88
434.066	380.88
434.287	384.88
434.509	375.88
434.731	391.88
434.953	406.88
435.175	429.88
435.397	426.88
435.618	439.88
435.84	482.88
436.062	556.88
436.284	604.88
436.505	519.88
436.727	457.88
436.949	425.88
437.17	433.88
437.392	414.88
437.614	450.88
437.835	487.88
438.057	549.88
438.278	640.88
438.5	633.88
438.721	681.88
438.943	665.88
439.165	520.88
439.386	478.88
439.608	471.88
439.829	462.88
440.05	493.88
440.272	549.88
440.493	487.88
440.715	458.88
440.936	429.88
441.158	422.88
441.379	421.88
441.6	453.88
441.822	452.88
442.043	462.88
442.264	547.88
442.486	592.88
442.707	508.88
442.928	452.88
443.149	468.88
443.371	493.88
443.592	516.88
443.813	602.88
444.034	646.88
444.255	533.88
444.476	471.88
444.698	456.88
444.919	440.88
445.14	523.88
445.361	488.88
445.582	494.88
445.803	556.88
446.024	632.88
446.245	621.88
446.466	582.88
446.687	492.88
446.908	487.88
447.129	434.88
447.35	422.88
447.571	456.88
447.792	415.88
448.013	417.88
448.234	453.88
448.455	489.88
448.675	586.88
448.896	654.88
449.117	580.88
449.338	542.88
449.559	644.88
449.779	689.88
450	564.88
450.221	473.88
450.442	450.88
450.662	424.88
450.883	425.88
451.104	430.88
451.324	417.88
451.545	403.88
451.766	395.88
451.986	392.88
452.207	375.88
452.428	362.88
452.648	360.88
452.869	390.88
453.089	410.88
453.31	413.88
453.53	394.88
453.751	381.88
453.971	373.88
454.192	428.88
454.412	393.88
454.633	369.88
454.853	373.88
455.073	379.88
455.294	397.88
455.514	479.88
455.734	439.88
455.955	374.88
456.175	361.88
456.395	360.88
456.616	364.88
456.836	345.88
457.056	350.88
457.276	339.88
457.497	356.88
457.717	358.88
457.937	369.88
458.157	350.88
458.377	361.88
458.598	389.88
458.818	452.88
459.038	532.88
459.258	542.88
459.478	445.88
459.698	406.88
459.918	378.88
460.138	365.88
460.358	403.88
460.578	393.88
460.798	401.88
461.018	413.88
461.238	392.88
461.458	400.88
461.678	392.88
461.898	397.88
462.118	365.88
462.338	378.88
462.558	380.88
462.777	407.88
462.997	396.88
463.217	416.88
463.437	417.88
463.657	399.88
463.876	393.88
464.096	414.88
464.316	398.88
464.536	417.88
464.755	416.88
464.975	435.88
465.195	471.88
465.414	529.88
465.634	491.88
465.854	448.88
466.073	420.88
466.293	402.88
466.512	390.88
466.732	398.88
466.951	390.88
467.171	380.88
467.391	389.88
467.61	389.88
467.829	412.88
468.049	396.88
468.268	401.88
468.488	384.88
468.707	384.88
468.927	389.88
469.146	386.88
469.365	370.88
469.585	366.88
469.804	392.88
470.023	402.88
470.243	403.88
470.462	413.88
470.681	428.88
470.901	406.88
471.12	398.88
471.339	389.88
471.558	391.88
471.777	403.88
471.997	380.88
472.216	395.88
472.435	441.88
472.654	433.88
472.873	392.88
473.092	397.88
473.311	392.88
473.53	395.88
473.749	397.88
473.968	449.88
474.187	525.88
474.406	527.88
474.625	454.88
474.844	400.88
475.063	395.88
475.282	381.88
475.501	401.88
475.72	429.88
475.939	422.88
476.158	391.88
476.377	401.88
476.596	402.88
476.814	406.88
477.033	406.88
477.252	415.88
477.471	412.88
477.69	420.88
477.908	405.88
478.127	418.88
478.346	408.88
478.564	444.88
478.783	436.88
479.002	439.88
479.22	425.88
479.439	472.88
479.658	500.88
479.876	461.88
480.095	493.88
480.313	479.88
480.532	481.88
480.751	487.88
480.969	494.88
481.188	592.88
481.406	613.88
481.624	509.88
481.843	506.88
482.061	465.88
482.28	469.88
482.498	483.88
482.717	484.88
482.935	467.88
483.153	443.88
483.372	460.88
483.59	465.88
483.808	466.88
484.027	445.88
484.245	464.88
484.463	484.88
484.681	478.88
484.9	456.88
485.118	473.88
485.336	466.88
485.554	485.88
485.772	474.88
485.99	453.88
486.209	482.88
486.427	463.88
486.645	490.88
486.863	492.88
487.081	496.88
487.299	492.88
487.517	487.88
487.735	481.88
487.953	495.88
488.171	490.88
488.389	486.88
488.607	480.88
488.825	509.88
489.043	501.88
489.261	498.88
489.479	510.88
489.696	532.88
489.914	504.88
490.132	533.88
490.35	503.88
490.568	516.88
490.786	536.88
491.003	510.88
491.221	542.88
491.439	537.88
491.657	556.88
491.874	547.88
492.092	574.88
492.31	588.88
492.527	572.88
492.745	581.88
492.963	588.88
493.18	559.88
493.398	567.88
493.615	579.88
493.833	564.88
494.05	589.88
494.268	609.88
494.485	558.88
494.703	583.88
494.92	578.88
495.138	585.88
495.355	579.88
495.573	587.88
495.79	606.88
496.008	596.88
496.225	595.88
496.442	598.88
496.66	599.88
496.877	584.88
497.094	618.88
497.312	572.88
497.529	582.88
497.746	616.88
497.963	624.88
498.181	606.88
498.398	641.88
498.615	622.88
498.832	642.88
499.049	659.88
499.267	659.88
499.484	689.88
499.701	690.88
499.918	705.88
500.135	696.88
500.352	734.88
500.569	734.88
500.786	728.88
501.003	735.88
501.22	720.88
501.437	737.88
501.654	705.88
501.871	711.88
