Data from 1961.PennyLincolnUp.Lamp.En5.5.200Scan.071719.P1._HRD10591_13-45-47-058.txt Node
Date: Thu Jul 18 13:45:47 EDT 2019
User: cochatt
Spectrometer: HR+D1059
Trigger mode: 1
Integration Time (sec): 1.000000E-1
Scans to average: 1
Electric dark correction enabled: true
Nonlinearity correction enabled: false
Boxcar width: 0
XAxis mode: Wavelengths
Number of Pixels in Spectrum: 2048
>>>>>Begin Spectral Data<<<<<
223.165	-2.5
223.4	-2.5
223.635	-2.5
223.869	-18.5
224.104	-19.5
224.338	-7.5
224.573	-15.5
224.808	-19.5
225.042	-7.5
225.277	-6.5
225.511	-3.5
225.746	0.5
225.98	-0.5
226.215	18.5
226.449	9.5
226.683	27.5
226.918	21.5
227.152	23.5
227.387	25.5
227.621	26.5
227.856	28.5
228.09	37.5
228.324	61.5
228.559	48.5
228.793	53.5
229.027	89.5
229.262	85.5
229.496	77.5
229.73	90.5
229.964	98.5
230.199	80.5
230.433	84.5
230.667	95.5
230.901	79.5
231.136	84.5
231.37	89.5
231.604	87.5
231.838	105.5
232.072	93.5
232.306	100.5
232.541	88.5
232.775	84.5
233.009	97.5
233.243	101.5
233.477	101.5
233.711	97.5
233.945	96.5
234.179	89.5
234.413	97.5
234.647	108.5
234.881	97.5
235.115	86.5
235.349	89.5
235.583	99.5
235.817	96.5
236.051	113.5
236.285	106.5
236.519	106.5
236.753	97.5
236.987	113.5
237.221	118.5
237.455	125.5
237.689	124.5
237.922	120.5
238.156	109.5
238.39	113.5
238.624	117.5
238.858	98.5
239.091	96.5
239.325	94.5
239.559	92.5
239.793	105.5
240.027	126.5
240.26	94.5
240.494	107.5
240.728	117.5
240.961	102.5
241.195	98.5
241.429	101.5
241.662	100.5
241.896	114.5
242.13	89.5
242.363	114.5
242.597	112.5
242.83	115.5
243.064	112.5
243.298	124.5
243.531	106.5
243.765	108.5
243.998	117.5
244.232	125.5
244.465	135.5
244.699	105.5
244.932	114.5
245.166	114.5
245.399	114.5
245.633	121.5
245.866	124.5
246.099	102.5
246.333	105.5
246.566	109.5
246.8	114.5
247.033	128.5
247.266	110.5
247.5	113.5
247.733	116.5
247.966	132.5
248.2	136.5
248.433	126.5
248.666	128.5
248.899	136.5
249.133	133.5
249.366	148.5
249.599	154.5
249.832	147.5
250.066	139.5
250.299	127.5
250.532	141.5
250.765	155.5
250.998	151.5
251.231	149.5
251.465	155.5
251.698	150.5
251.931	130.5
252.164	144.5
252.397	142.5
252.63	145.5
252.863	146.5
253.096	156.5
253.329	168.5
253.562	151.5
253.795	133.5
254.028	154.5
254.261	158.5
254.494	157.5
254.727	158.5
254.96	178.5
255.193	176.5
255.426	165.5
255.659	148.5
255.892	182.5
256.124	154.5
256.357	164.5
256.59	154.5
256.823	150.5
257.056	155.5
257.289	142.5
257.521	145.5
257.754	151.5
257.987	156.5
258.22	145.5
258.452	158.5
258.685	169.5
258.918	155.5
259.151	160.5
259.383	154.5
259.616	158.5
259.849	161.5
260.081	163.5
260.314	164.5
260.547	170.5
260.779	168.5
261.012	167.5
261.244	152.5
261.477	163.5
261.71	155.5
261.942	162.5
262.175	169.5
262.407	169.5
262.64	163.5
262.872	153.5
263.105	174.5
263.337	161.5
263.57	153.5
263.802	158.5
264.035	156.5
264.267	164.5
264.499	149.5
264.732	161.5
264.964	180.5
265.197	182.5
265.429	142.5
265.661	166.5
265.894	165.5
266.126	169.5
266.358	172.5
266.591	160.5
266.823	161.5
267.055	184.5
267.287	182.5
267.52	172.5
267.752	176.5
267.984	169.5
268.216	170.5
268.448	164.5
268.681	165.5
268.913	179.5
269.145	188.5
269.377	198.5
269.609	186.5
269.841	178.5
270.073	186.5
270.306	193.5
270.538	211.5
270.77	199.5
271.002	203.5
271.234	184.5
271.466	209.5
271.698	210.5
271.93	211.5
272.162	223.5
272.394	206.5
272.626	219.5
272.858	210.5
273.09	193.5
273.322	181.5
273.553	205.5
273.785	194.5
274.017	196.5
274.249	198.5
274.481	194.5
274.713	181.5
274.945	201.5
275.176	174.5
275.408	196.5
275.64	199.5
275.872	202.5
276.104	197.5
276.335	188.5
276.567	198.5
276.799	204.5
277.031	201.5
277.262	218.5
277.494	214.5
277.726	209.5
277.957	209.5
278.189	209.5
278.421	194.5
278.652	204.5
278.884	195.5
279.115	189.5
279.347	212.5
279.579	202.5
279.81	221.5
280.042	224.5
280.273	197.5
280.505	195.5
280.736	200.5
280.968	201.5
281.199	204.5
281.431	218.5
281.662	212.5
281.894	218.5
282.125	204.5
282.356	238.5
282.588	225.5
282.819	216.5
283.051	209.5
283.282	188.5
283.513	207.5
283.745	217.5
283.976	204.5
284.207	214.5
284.439	221.5
284.67	209.5
284.901	213.5
285.132	231.5
285.364	215.5
285.595	210.5
285.826	213.5
286.057	225.5
286.288	224.5
286.52	232.5
286.751	209.5
286.982	237.5
287.213	232.5
287.444	233.5
287.675	228.5
287.906	215.5
288.138	222.5
288.369	242.5
288.6	237.5
288.831	218.5
289.062	233.5
289.293	222.5
289.524	221.5
289.755	236.5
289.986	226.5
290.217	223.5
290.448	233.5
290.679	202.5
290.91	232.5
291.141	209.5
291.371	224.5
291.602	210.5
291.833	228.5
292.064	226.5
292.295	233.5
292.526	237.5
292.757	226.5
292.987	228.5
293.218	229.5
293.449	222.5
293.68	228.5
293.91	217.5
294.141	211.5
294.372	220.5
294.603	234.5
294.833	229.5
295.064	238.5
295.295	230.5
295.525	209.5
295.756	231.5
295.987	218.5
296.217	230.5
296.448	256.5
296.679	241.5
296.909	236.5
297.14	256.5
297.37	244.5
297.601	240.5
297.831	228.5
298.062	213.5
298.292	241.5
298.523	254.5
298.753	237.5
298.984	224.5
299.214	238.5
299.445	227.5
299.675	240.5
299.905	229.5
300.136	237.5
300.366	257.5
300.597	239.5
300.827	241.5
301.057	250.5
301.288	274.5
301.518	245.5
301.748	236.5
301.979	249.5
302.209	250.5
302.439	249.5
302.669	258.5
302.9	246.5
303.13	251.5
303.36	229.5
303.59	252.5
303.82	264.5
304.051	267.5
304.281	243.5
304.511	279.5
304.741	250.5
304.971	256.5
305.201	257.5
305.431	258.5
305.661	252.5
305.891	254.5
306.121	234.5
306.352	259.5
306.582	255.5
306.812	252.5
307.042	258.5
307.272	265.5
307.502	254.5
307.731	272.5
307.961	264.5
308.191	266.5
308.421	262.5
308.651	241.5
308.881	261.5
309.111	272.5
309.341	255.5
309.571	256.5
309.8	262.5
310.03	256.5
310.26	259.5
310.49	266.5
310.72	288.5
310.949	274.5
311.179	288.5
311.409	282.5
311.639	264.5
311.868	274.5
312.098	257.5
312.328	272.5
312.557	272.5
312.787	285.5
313.017	302.5
313.246	280.5
313.476	264.5
313.706	273.5
313.935	278.5
314.165	278.5
314.394	306.5
314.624	281.5
314.853	274.5
315.083	283.5
315.312	277.5
315.542	263.5
315.771	288.5
316.001	268.5
316.23	269.5
316.46	292.5
316.689	277.5
316.919	276.5
317.148	295.5
317.377	286.5
317.607	273.5
317.836	308.5
318.065	292.5
318.295	282.5
318.524	282.5
318.753	285.5
318.983	284.5
319.212	269.5
319.441	292.5
319.67	284.5
319.9	269.5
320.129	284.5
320.358	278.5
320.587	289.5
320.816	266.5
321.046	302.5
321.275	292.5
321.504	282.5
321.733	287.5
321.962	282.5
322.191	306.5
322.42	305.5
322.649	320.5
322.878	302.5
323.108	310.5
323.337	325.5
323.566	335.5
323.795	320.5
324.024	328.5
324.253	413.5
324.482	551.5
324.71	798.5
324.939	1066.5
325.168	888.5
325.397	472.5
325.626	387.5
325.855	317.5
326.084	327.5
326.313	315.5
326.542	311.5
326.77	359.5
326.999	422.5
327.228	533.5
327.457	734.5
327.686	812.5
327.914	547.5
328.143	401.5
328.372	377.5
328.6	348.5
328.829	344.5
329.058	353.5
329.287	362.5
329.515	334.5
329.744	349.5
329.972	318.5
330.201	344.5
330.43	363.5
330.658	351.5
330.887	379.5
331.115	377.5
331.344	333.5
331.572	330.5
331.801	308.5
332.03	325.5
332.258	319.5
332.486	328.5
332.715	326.5
332.943	331.5
333.172	325.5
333.4	335.5
333.629	326.5
333.857	346.5
334.085	342.5
334.314	356.5
334.542	349.5
334.771	373.5
334.999	356.5
335.227	369.5
335.455	333.5
335.684	338.5
335.912	340.5
336.14	329.5
336.369	326.5
336.597	328.5
336.825	332.5
337.053	324.5
337.281	333.5
337.51	312.5
337.738	325.5
337.966	316.5
338.194	325.5
338.422	320.5
338.65	330.5
338.878	323.5
339.106	322.5
339.334	317.5
339.562	305.5
339.79	295.5
340.018	326.5
340.246	316.5
340.474	322.5
340.702	302.5
340.93	317.5
341.158	315.5
341.386	321.5
341.614	297.5
341.842	291.5
342.07	306.5
342.298	290.5
342.526	308.5
342.754	300.5
342.981	308.5
343.209	311.5
343.437	303.5
343.665	316.5
343.893	330.5
344.12	328.5
344.348	336.5
344.576	334.5
344.804	325.5
345.031	312.5
345.259	308.5
345.487	290.5
345.714	320.5
345.942	325.5
346.17	305.5
346.397	302.5
346.625	297.5
346.853	300.5
347.08	284.5
347.308	314.5
347.535	326.5
347.763	304.5
347.99	305.5
348.218	297.5
348.445	292.5
348.673	295.5
348.9	288.5
349.128	283.5
349.355	292.5
349.583	290.5
349.81	289.5
350.037	288.5
350.265	279.5
350.492	304.5
350.72	286.5
350.947	287.5
351.174	291.5
351.402	296.5
351.629	292.5
351.856	308.5
352.083	273.5
352.311	285.5
352.538	292.5
352.765	295.5
352.992	280.5
353.22	293.5
353.447	303.5
353.674	282.5
353.901	296.5
354.128	292.5
354.355	267.5
354.583	278.5
354.81	286.5
355.037	280.5
355.264	297.5
355.491	296.5
355.718	294.5
355.945	293.5
356.172	292.5
356.399	297.5
356.626	289.5
356.853	267.5
357.08	276.5
357.307	284.5
357.534	263.5
357.761	284.5
357.988	276.5
358.215	279.5
358.441	272.5
358.668	277.5
358.895	290.5
359.122	288.5
359.349	276.5
359.576	286.5
359.802	312.5
360.029	295.5
360.256	309.5
360.483	316.5
360.709	298.5
360.936	280.5
361.163	290.5
361.39	291.5
361.616	295.5
361.843	285.5
362.07	290.5
362.296	284.5
362.523	276.5
362.749	300.5
362.976	297.5
363.203	288.5
363.429	288.5
363.656	311.5
363.882	292.5
364.109	276.5
364.335	280.5
364.562	293.5
364.788	290.5
365.015	275.5
365.241	264.5
365.468	277.5
365.694	289.5
365.92	278.5
366.147	271.5
366.373	275.5
366.599	270.5
366.826	271.5
367.052	272.5
367.278	276.5
367.505	276.5
367.731	284.5
367.957	275.5
368.184	280.5
368.41	282.5
368.636	284.5
368.862	276.5
369.089	292.5
369.315	296.5
369.541	302.5
369.767	263.5
369.993	272.5
370.219	277.5
370.445	274.5
370.672	271.5
370.898	253.5
371.124	271.5
371.35	272.5
371.576	272.5
371.802	281.5
372.028	270.5
372.254	289.5
372.48	296.5
372.706	286.5
372.932	309.5
373.158	292.5
373.384	297.5
373.61	286.5
373.835	293.5
374.061	276.5
374.287	286.5
374.513	288.5
374.739	279.5
374.965	297.5
375.191	293.5
375.416	276.5
375.642	300.5
375.868	295.5
376.094	286.5
376.319	290.5
376.545	287.5
376.771	288.5
376.997	274.5
377.222	288.5
377.448	276.5
377.674	273.5
377.899	273.5
378.125	275.5
378.35	289.5
378.576	280.5
378.802	288.5
379.027	290.5
379.253	269.5
379.478	275.5
379.704	278.5
379.929	275.5
380.155	299.5
380.38	297.5
380.606	268.5
380.831	278.5
381.057	289.5
381.282	293.5
381.507	290.5
381.733	270.5
381.958	276.5
382.184	289.5
382.409	295.5
382.634	285.5
382.86	294.5
383.085	305.5
383.31	297.5
383.535	303.5
383.761	290.5
383.986	296.5
384.211	306.5
384.436	284.5
384.662	292.5
384.887	297.5
385.112	327.5
385.337	310.5
385.562	304.5
385.787	302.5
386.013	312.5
386.238	308.5
386.463	317.5
386.688	320.5
386.913	306.5
387.138	304.5
387.363	319.5
387.588	306.5
387.813	309.5
388.038	314.5
388.263	298.5
388.488	325.5
388.713	312.5
388.938	312.5
389.163	303.5
389.387	310.5
389.612	304.5
389.837	291.5
390.062	299.5
390.287	305.5
390.512	305.5
390.736	296.5
390.961	312.5
391.186	319.5
391.411	311.5
391.636	298.5
391.86	320.5
392.085	339.5
392.31	316.5
392.534	308.5
392.759	305.5
392.984	320.5
393.208	332.5
393.433	347.5
393.658	359.5
393.882	291.5
394.107	295.5
394.331	307.5
394.556	322.5
394.78	295.5
395.005	302.5
395.229	303.5
395.454	332.5
395.678	322.5
395.903	326.5
396.127	325.5
396.352	318.5
396.576	321.5
396.801	318.5
397.025	320.5
397.249	326.5
397.474	310.5
397.698	302.5
397.922	313.5
398.147	320.5
398.371	345.5
398.595	329.5
398.82	323.5
399.044	341.5
399.268	340.5
399.492	383.5
399.717	390.5
399.941	386.5
400.165	394.5
400.389	386.5
400.613	366.5
400.837	354.5
401.062	352.5
401.286	351.5
401.51	351.5
401.734	348.5
401.958	342.5
402.182	340.5
402.406	350.5
402.63	339.5
402.854	348.5
403.078	344.5
403.302	358.5
403.526	356.5
403.75	359.5
403.974	346.5
404.198	345.5
404.422	345.5
404.645	355.5
404.869	361.5
405.093	359.5
405.317	369.5
405.541	404.5
405.765	361.5
405.988	366.5
406.212	356.5
406.436	364.5
406.66	377.5
406.883	342.5
407.107	382.5
407.331	406.5
407.555	448.5
407.778	422.5
408.002	382.5
408.226	384.5
408.449	401.5
408.673	377.5
408.896	380.5
409.12	402.5
409.344	374.5
409.567	358.5
409.791	346.5
410.014	322.5
410.238	336.5
410.461	350.5
410.685	358.5
410.908	354.5
411.132	362.5
411.355	371.5
411.578	356.5
411.802	366.5
412.025	361.5
412.249	337.5
412.472	360.5
412.695	358.5
412.919	360.5
413.142	334.5
413.365	325.5
413.589	334.5
413.812	330.5
414.035	332.5
414.258	327.5
414.482	329.5
414.705	317.5
414.928	340.5
415.151	339.5
415.374	325.5
415.597	312.5
415.821	351.5
416.044	319.5
416.267	322.5
416.49	328.5
416.713	333.5
416.936	318.5
417.159	308.5
417.382	329.5
417.605	329.5
417.828	337.5
418.051	329.5
418.274	337.5
418.497	325.5
418.72	328.5
418.943	329.5
419.166	313.5
419.389	324.5
419.611	330.5
419.834	326.5
420.057	341.5
420.28	345.5
420.503	334.5
420.726	322.5
420.948	335.5
421.171	368.5
421.394	370.5
421.617	321.5
421.839	322.5
422.062	320.5
422.285	345.5
422.507	356.5
422.73	398.5
422.953	370.5
423.175	337.5
423.398	350.5
423.621	339.5
423.843	351.5
424.066	338.5
424.288	339.5
424.511	349.5
424.733	376.5
424.956	386.5
425.178	388.5
425.401	389.5
425.623	404.5
425.846	343.5
426.068	327.5
426.291	337.5
426.513	319.5
426.735	327.5
426.958	356.5
427.18	408.5
427.402	466.5
427.625	501.5
427.847	409.5
428.069	380.5
428.292	364.5
428.514	331.5
428.736	310.5
428.958	325.5
429.181	310.5
429.403	295.5
429.625	302.5
429.847	326.5
430.069	372.5
430.292	365.5
430.514	319.5
430.736	310.5
430.958	308.5
431.18	296.5
431.402	295.5
431.624	309.5
431.846	310.5
432.068	305.5
432.29	320.5
432.512	319.5
432.734	320.5
432.956	298.5
433.178	313.5
433.4	325.5
433.622	321.5
433.844	301.5
434.066	303.5
434.287	316.5
434.509	322.5
434.731	322.5
434.953	332.5
435.175	336.5
435.397	328.5
435.618	321.5
435.84	350.5
436.062	390.5
436.284	420.5
436.505	380.5
436.727	335.5
436.949	338.5
437.17	324.5
437.392	318.5
437.614	324.5
437.835	337.5
438.057	372.5
438.278	414.5
438.5	421.5
438.721	441.5
438.943	438.5
439.165	356.5
439.386	329.5
439.608	340.5
439.829	312.5
440.05	350.5
440.272	359.5
440.493	341.5
440.715	335.5
440.936	328.5
441.158	319.5
441.379	313.5
441.6	318.5
441.822	322.5
442.043	335.5
442.264	360.5
442.486	399.5
442.707	344.5
442.928	324.5
443.149	342.5
443.371	349.5
443.592	381.5
443.813	401.5
444.034	436.5
444.255	354.5
444.476	355.5
444.698	349.5
444.919	345.5
445.14	478.5
445.361	393.5
445.582	369.5
445.803	371.5
446.024	421.5
446.245	385.5
446.466	403.5
446.687	352.5
446.908	329.5
447.129	333.5
447.35	314.5
447.571	306.5
447.792	311.5
448.013	317.5
448.234	335.5
448.455	338.5
448.675	411.5
448.896	457.5
449.117	383.5
449.338	377.5
449.559	425.5
449.779	449.5
450	388.5
450.221	330.5
450.442	300.5
450.662	304.5
450.883	295.5
451.104	302.5
451.324	311.5
451.545	285.5
451.766	284.5
451.986	289.5
452.207	289.5
452.428	296.5
452.648	297.5
452.869	278.5
453.089	283.5
453.31	286.5
453.53	290.5
453.751	273.5
453.971	287.5
454.192	278.5
454.412	290.5
454.633	287.5
454.853	289.5
455.073	289.5
455.294	287.5
455.514	304.5
455.734	321.5
455.955	289.5
456.175	283.5
456.395	269.5
456.616	281.5
456.836	290.5
457.056	270.5
457.276	281.5
457.497	264.5
457.717	268.5
457.937	285.5
458.157	272.5
458.377	286.5
458.598	294.5
458.818	291.5
459.038	355.5
459.258	340.5
459.478	325.5
459.698	311.5
459.918	307.5
460.138	290.5
460.358	311.5
460.578	309.5
460.798	320.5
461.018	324.5
461.238	307.5
461.458	318.5
461.678	312.5
461.898	324.5
462.118	309.5
462.338	330.5
462.558	325.5
462.777	335.5
462.997	346.5
463.217	347.5
463.437	358.5
463.657	345.5
463.876	364.5
464.096	350.5
464.316	342.5
464.536	339.5
464.755	361.5
464.975	329.5
465.195	342.5
465.414	341.5
465.634	331.5
465.854	327.5
466.073	316.5
466.293	324.5
466.512	336.5
466.732	284.5
466.951	272.5
467.171	278.5
467.391	309.5
467.61	301.5
467.829	298.5
468.049	305.5
468.268	298.5
468.488	285.5
468.707	286.5
468.927	284.5
469.146	281.5
469.365	274.5
469.585	293.5
469.804	309.5
470.023	308.5
470.243	273.5
470.462	288.5
470.681	295.5
470.901	311.5
471.12	293.5
471.339	301.5
471.558	293.5
471.777	306.5
471.997	277.5
472.216	313.5
472.435	307.5
472.654	316.5
472.873	305.5
473.092	297.5
473.311	286.5
473.53	296.5
473.749	309.5
473.968	310.5
474.187	352.5
474.406	351.5
474.625	315.5
474.844	289.5
475.063	290.5
475.282	293.5
475.501	302.5
475.72	316.5
475.939	312.5
476.158	313.5
476.377	305.5
476.596	289.5
476.814	314.5
477.033	313.5
477.252	321.5
477.471	305.5
477.69	306.5
477.908	328.5
478.127	357.5
478.346	329.5
478.564	333.5
478.783	338.5
479.002	336.5
479.22	337.5
479.439	334.5
479.658	350.5
479.876	365.5
480.095	334.5
480.313	371.5
480.532	366.5
480.751	364.5
480.969	355.5
481.188	376.5
481.406	407.5
481.624	369.5
481.843	355.5
482.061	352.5
482.28	351.5
482.498	339.5
482.717	330.5
482.935	351.5
483.153	354.5
483.372	338.5
483.59	337.5
483.808	332.5
484.027	340.5
484.245	343.5
484.463	342.5
484.681	366.5
484.9	358.5
485.118	364.5
485.336	354.5
485.554	372.5
485.772	353.5
485.99	361.5
486.209	351.5
486.427	364.5
486.645	368.5
486.863	385.5
487.081	351.5
487.299	375.5
487.517	356.5
487.735	372.5
487.953	356.5
488.171	372.5
488.389	366.5
488.607	369.5
488.825	363.5
489.043	371.5
489.261	379.5
489.479	361.5
489.696	367.5
489.914	374.5
490.132	356.5
490.35	370.5
490.568	375.5
490.786	366.5
491.003	373.5
491.221	358.5
491.439	380.5
491.657	376.5
491.874	382.5
492.092	384.5
492.31	365.5
492.527	382.5
492.745	417.5
492.963	387.5
493.18	382.5
493.398	394.5
493.615	398.5
493.833	398.5
494.05	416.5
494.268	396.5
494.485	400.5
494.703	395.5
494.92	405.5
495.138	393.5
495.355	382.5
495.573	413.5
495.79	420.5
496.008	412.5
496.225	409.5
496.442	409.5
496.66	423.5
496.877	419.5
497.094	420.5
497.312	437.5
497.529	413.5
497.746	449.5
497.963	438.5
498.181	449.5
498.398	447.5
498.615	456.5
498.832	472.5
499.049	497.5
499.267	508.5
499.484	534.5
499.701	550.5
499.918	572.5
500.135	573.5
500.352	604.5
500.569	628.5
500.786	624.5
501.003	635.5
501.22	589.5
501.437	557.5
501.654	522.5
501.871	532.5
502.088	510.5
502.305	482.5
502.522	480.5
502.739	467.5
502.956	445.5
503.172	433.5
503.389	443.5
503.606	437.5
503.823	418.5
504.04	438.5
504.256	436.5
504.473	404.5
504.69	430.5
504.907	404.5
505.123	428.5
505.34	416.5
505.557	400.5
505.773	412.5
505.99	377.5
506.207	388.5
506.423	374.5
506.64	359.5
506.856	408.5
507.073	394.5
507.289	375.5
507.506	375.5
507.722	368.5
507.939	380.5
508.155	376.5
508.372	362.5
508.588	368.5
508.805	365.5
509.021	366.5
509.238	356.5
509.454	376.5
509.67	364.5
509.887	389.5
510.103	360.5
510.319	371.5
510.536	392.5
510.752	537.5
510.968	448.5
511.184	366.5
511.401	350.5
511.617	354.5
511.833	329.5
512.049	356.5
512.265	356.5
512.481	340.5
512.698	352.5
512.914	339.5
513.13	346.5
513.346	345.5
513.562	352.5
513.778	348.5
513.994	340.5
514.21	376.5
514.426	378.5
514.642	357.5
514.858	375.5
515.074	395.5
515.29	421.5
515.506	505.5
515.721	463.5
515.937	399.5
516.153	382.5
516.369	359.5
516.585	352.5
516.801	356.5
517.016	351.5
517.232	368.5
517.448	370.5
517.664	377.5
517.879	367.5
518.095	382.5
518.311	373.5
518.527	372.5
518.742	371.5
518.958	359.5
519.173	332.5
519.389	343.5
519.605	343.5
519.82	348.5
520.036	361.5
520.251	343.5
520.467	344.5
