Data from 1961.PennyLincolnUp.Lamp.En5.5.200Scan.071719.P1._HRD10591_13-47-37-057.txt Node
Date: Thu Jul 18 13:47:37 EDT 2019
User: cochatt
Spectrometer: HR+D1059
Trigger mode: 1
Integration Time (sec): 1.000000E-1
Scans to average: 1
Electric dark correction enabled: true
Nonlinearity correction enabled: false
Boxcar width: 0
XAxis mode: Wavelengths
Number of Pixels in Spectrum: 2048
>>>>>Begin Spectral Data<<<<<
223.165	-6.69
223.4	-6.69
223.635	-6.69
223.869	-9.69
224.104	-3.69
224.338	-17.69
224.573	-0.69
224.808	-15.69
225.042	-0.69
225.277	-12.69
225.511	-13.69
225.746	-6.69
225.98	3.31
226.215	-4.69
226.449	9.31
226.683	23.31
226.918	27.31
227.152	29.31
227.387	33.31
227.621	39.31
227.856	48.31
228.09	53.31
228.324	68.31
228.559	54.31
228.793	80.31
229.027	89.31
229.262	105.31
229.496	116.31
229.73	115.31
229.964	141.31
230.199	132.31
230.433	114.31
230.667	109.31
230.901	101.31
231.136	103.31
231.37	104.31
231.604	108.31
231.838	111.31
232.072	96.31
232.306	101.31
232.541	108.31
232.775	108.31
233.009	115.31
233.243	117.31
233.477	119.31
233.711	117.31
233.945	104.31
234.179	119.31
234.413	101.31
234.647	101.31
234.881	112.31
235.115	95.31
235.349	102.31
235.583	109.31
235.817	108.31
236.051	125.31
236.285	107.31
236.519	125.31
236.753	123.31
236.987	139.31
237.221	173.31
237.455	197.31
237.689	169.31
237.922	133.31
238.156	119.31
238.39	117.31
238.624	116.31
238.858	116.31
239.091	115.31
239.325	101.31
239.559	108.31
239.793	122.31
240.027	115.31
240.26	141.31
240.494	150.31
240.728	132.31
240.961	133.31
241.195	132.31
241.429	127.31
241.662	124.31
241.896	117.31
242.13	117.31
242.363	128.31
242.597	119.31
242.83	120.31
243.064	121.31
243.298	124.31
243.531	131.31
243.765	123.31
243.998	121.31
244.232	125.31
244.465	123.31
244.699	129.31
244.932	136.31
245.166	120.31
245.399	125.31
245.633	119.31
245.866	138.31
246.099	136.31
246.333	140.31
246.566	132.31
246.8	129.31
247.033	127.31
247.266	135.31
247.5	134.31
247.733	148.31
247.966	141.31
248.2	157.31
248.433	147.31
248.666	152.31
248.899	180.31
249.133	171.31
249.366	184.31
249.599	168.31
249.832	160.31
250.066	159.31
250.299	167.31
250.532	142.31
250.765	180.31
250.998	193.31
251.231	208.31
251.465	185.31
251.698	175.31
251.931	160.31
252.164	172.31
252.397	159.31
252.63	172.31
252.863	163.31
253.096	185.31
253.329	161.31
253.562	198.31
253.795	183.31
254.028	181.31
254.261	172.31
254.494	189.31
254.727	213.31
254.96	227.31
255.193	198.31
255.426	205.31
255.659	196.31
255.892	208.31
256.124	191.31
256.357	199.31
256.59	193.31
256.823	195.31
257.056	184.31
257.289	167.31
257.521	175.31
257.754	175.31
257.987	171.31
258.22	171.31
258.452	171.31
258.685	186.31
258.918	193.31
259.151	184.31
259.383	183.31
259.616	191.31
259.849	186.31
260.081	198.31
260.314	209.31
260.547	210.31
260.779	187.31
261.012	202.31
261.244	191.31
261.477	193.31
261.71	184.31
261.942	176.31
262.175	204.31
262.407	197.31
262.64	188.31
262.872	190.31
263.105	185.31
263.337	197.31
263.57	169.31
263.802	159.31
264.035	180.31
264.267	186.31
264.499	177.31
264.732	178.31
264.964	170.31
265.197	199.31
265.429	180.31
265.661	180.31
265.894	190.31
266.126	193.31
266.358	175.31
266.591	175.31
266.823	191.31
267.055	207.31
267.287	185.31
267.52	204.31
267.752	192.31
267.984	197.31
268.216	195.31
268.448	200.31
268.681	208.31
268.913	204.31
269.145	212.31
269.377	217.31
269.609	213.31
269.841	225.31
270.073	227.31
270.306	253.31
270.538	259.31
270.77	262.31
271.002	248.31
271.234	249.31
271.466	232.31
271.698	247.31
271.93	252.31
272.162	266.31
272.394	253.31
272.626	224.31
272.858	238.31
273.09	215.31
273.322	216.31
273.553	234.31
273.785	213.31
274.017	192.31
274.249	214.31
274.481	225.31
274.713	204.31
274.945	236.31
275.176	228.31
275.408	212.31
275.64	226.31
275.872	226.31
276.104	227.31
276.335	221.31
276.567	226.31
276.799	258.31
277.031	270.31
277.262	252.31
277.494	260.31
277.726	254.31
277.957	240.31
278.189	206.31
278.421	235.31
278.652	221.31
278.884	226.31
279.115	231.31
279.347	221.31
279.579	224.31
279.81	213.31
280.042	233.31
280.273	223.31
280.505	236.31
280.736	226.31
280.968	233.31
281.199	202.31
281.431	220.31
281.662	214.31
281.894	219.31
282.125	216.31
282.356	236.31
282.588	235.31
282.819	233.31
283.051	223.31
283.282	204.31
283.513	234.31
283.745	227.31
283.976	231.31
284.207	229.31
284.439	228.31
284.67	227.31
284.901	245.31
285.132	215.31
285.364	219.31
285.595	228.31
285.826	218.31
286.057	214.31
286.288	230.31
286.52	209.31
286.751	226.31
286.982	221.31
287.213	208.31
287.444	204.31
287.675	232.31
287.906	249.31
288.138	249.31
288.369	245.31
288.6	247.31
288.831	235.31
289.062	238.31
289.293	215.31
289.524	234.31
289.755	220.31
289.986	223.31
290.217	240.31
290.448	241.31
290.679	235.31
290.91	212.31
291.141	228.31
291.371	241.31
291.602	221.31
291.833	223.31
292.064	219.31
292.295	235.31
292.526	232.31
292.757	244.31
292.987	237.31
293.218	228.31
293.449	237.31
293.68	228.31
293.91	225.31
294.141	252.31
294.372	234.31
294.603	243.31
294.833	233.31
295.064	245.31
295.295	218.31
295.525	248.31
295.756	229.31
295.987	240.31
296.217	260.31
296.448	290.31
296.679	249.31
296.909	225.31
297.14	251.31
297.37	245.31
297.601	243.31
297.831	248.31
298.062	230.31
298.292	233.31
298.523	220.31
298.753	237.31
298.984	260.31
299.214	231.31
299.445	225.31
299.675	242.31
299.905	261.31
300.136	264.31
300.366	247.31
300.597	248.31
300.827	255.31
301.057	265.31
301.288	267.31
301.518	249.31
301.748	265.31
301.979	262.31
302.209	256.31
302.439	266.31
302.669	269.31
302.9	256.31
303.13	258.31
303.36	259.31
303.59	259.31
303.82	285.31
304.051	272.31
304.281	231.31
304.511	263.31
304.741	264.31
304.971	261.31
305.201	251.31
305.431	253.31
305.661	263.31
305.891	263.31
306.121	258.31
306.352	274.31
306.582	286.31
306.812	269.31
307.042	283.31
307.272	284.31
307.502	278.31
307.731	260.31
307.961	282.31
308.191	267.31
308.421	263.31
308.651	289.31
308.881	292.31
309.111	281.31
309.341	290.31
309.571	283.31
309.8	293.31
310.03	296.31
310.26	296.31
310.49	307.31
310.72	324.31
310.949	326.31
311.179	342.31
311.409	323.31
311.639	305.31
311.868	308.31
312.098	308.31
312.328	333.31
312.557	314.31
312.787	341.31
313.017	326.31
313.246	335.31
313.476	313.31
313.706	311.31
313.935	314.31
314.165	311.31
314.394	323.31
314.624	328.31
314.853	315.31
315.083	305.31
315.312	307.31
315.542	321.31
315.771	299.31
316.001	303.31
316.23	295.31
316.46	311.31
316.689	312.31
316.919	316.31
317.148	320.31
317.377	328.31
317.607	317.31
317.836	310.31
318.065	330.31
318.295	313.31
318.524	311.31
318.753	294.31
318.983	315.31
319.212	301.31
319.441	308.31
319.67	324.31
319.9	309.31
320.129	316.31
320.358	304.31
320.587	335.31
320.816	322.31
321.046	329.31
321.275	326.31
321.504	340.31
321.733	345.31
321.962	355.31
322.191	363.31
322.42	359.31
322.649	365.31
322.878	385.31
323.108	379.31
323.337	416.31
323.566	436.31
323.795	479.31
324.024	543.31
324.253	674.31
324.482	963.31
324.71	1497.31
324.939	2062.31
325.168	1720.31
325.397	900.31
325.626	601.31
325.855	485.31
326.084	455.31
326.313	460.31
326.542	448.31
326.77	508.31
326.999	615.31
327.228	879.31
327.457	1300.31
327.686	1491.31
327.914	1011.31
328.143	663.31
328.372	580.31
328.6	535.31
328.829	521.31
329.058	532.31
329.287	534.31
329.515	490.31
329.744	442.31
329.972	458.31
330.201	476.31
330.43	526.31
330.658	545.31
330.887	546.31
331.115	549.31
331.344	468.31
331.572	408.31
331.801	430.31
332.03	430.31
332.258	398.31
332.486	389.31
332.715	349.31
332.943	354.31
333.172	363.31
333.4	380.31
333.629	383.31
333.857	391.31
334.085	423.31
334.314	411.31
334.542	440.31
334.771	477.31
334.999	429.31
335.227	393.31
335.455	383.31
335.684	363.31
335.912	372.31
336.14	361.31
336.369	367.31
336.597	341.31
336.825	361.31
337.053	371.31
337.281	344.31
337.51	339.31
337.738	359.31
337.966	361.31
338.194	359.31
338.422	353.31
338.65	356.31
338.878	335.31
339.106	338.31
339.334	348.31
339.562	344.31
339.79	357.31
340.018	352.31
340.246	339.31
340.474	359.31
340.702	362.31
340.93	341.31
341.158	326.31
341.386	331.31
341.614	351.31
341.842	348.31
342.07	356.31
342.298	352.31
342.526	334.31
342.754	355.31
342.981	365.31
343.209	338.31
343.437	356.31
343.665	340.31
343.893	338.31
344.12	344.31
344.348	364.31
344.576	344.31
344.804	364.31
345.031	365.31
345.259	365.31
345.487	361.31
345.714	361.31
345.942	348.31
346.17	338.31
346.397	340.31
346.625	353.31
346.853	350.31
347.08	330.31
347.308	350.31
347.535	358.31
347.763	348.31
347.99	339.31
348.218	350.31
348.445	350.31
348.673	361.31
348.9	354.31
349.128	345.31
349.355	354.31
349.583	348.31
349.81	313.31
350.037	346.31
350.265	340.31
350.492	314.31
350.72	328.31
350.947	345.31
351.174	356.31
351.402	347.31
351.629	343.31
351.856	343.31
352.083	349.31
352.311	356.31
352.538	356.31
352.765	356.31
352.992	348.31
353.22	355.31
353.447	327.31
353.674	343.31
353.901	330.31
354.128	339.31
354.355	325.31
354.583	319.31
354.81	329.31
355.037	317.31
355.264	320.31
355.491	317.31
355.718	326.31
355.945	298.31
356.172	300.31
356.399	300.31
356.626	321.31
356.853	320.31
357.08	314.31
357.307	321.31
357.534	327.31
357.761	307.31
357.988	317.31
358.215	316.31
358.441	291.31
358.668	318.31
358.895	327.31
359.122	315.31
359.349	346.31
359.576	339.31
359.802	360.31
360.029	397.31
360.256	401.31
360.483	383.31
360.709	363.31
360.936	321.31
361.163	333.31
361.39	345.31
361.616	353.31
361.843	347.31
362.07	349.31
362.296	352.31
362.523	342.31
362.749	343.31
362.976	346.31
363.203	336.31
363.429	343.31
363.656	328.31
363.882	320.31
364.109	317.31
364.335	319.31
364.562	314.31
364.788	332.31
365.015	330.31
365.241	329.31
365.468	338.31
365.694	327.31
365.92	335.31
366.147	335.31
366.373	343.31
366.599	324.31
366.826	326.31
367.052	320.31
367.278	339.31
367.505	323.31
367.731	316.31
367.957	332.31
368.184	314.31
368.41	336.31
368.636	347.31
368.862	347.31
369.089	359.31
369.315	323.31
369.541	325.31
369.767	299.31
369.993	314.31
370.219	319.31
370.445	319.31
370.672	300.31
370.898	321.31
371.124	323.31
371.35	313.31
371.576	323.31
371.802	332.31
372.028	314.31
372.254	309.31
372.48	324.31
372.706	311.31
372.932	322.31
373.158	327.31
373.384	326.31
373.61	318.31
373.835	329.31
374.061	319.31
374.287	336.31
374.513	325.31
374.739	316.31
374.965	320.31
375.191	330.31
375.416	314.31
375.642	305.31
375.868	317.31
376.094	324.31
376.319	329.31
376.545	311.31
376.771	307.31
376.997	325.31
377.222	311.31
377.448	336.31
377.674	297.31
377.899	321.31
378.125	313.31
378.35	316.31
378.576	321.31
378.802	313.31
379.027	315.31
379.253	335.31
379.478	315.31
379.704	316.31
379.929	331.31
380.155	322.31
380.38	313.31
380.606	309.31
380.831	282.31
381.057	329.31
381.282	332.31
381.507	315.31
381.733	314.31
381.958	316.31
382.184	320.31
382.409	324.31
382.634	308.31
382.86	313.31
383.085	317.31
383.31	317.31
383.535	339.31
383.761	326.31
383.986	326.31
384.211	344.31
384.436	303.31
384.662	322.31
384.887	341.31
385.112	321.31
385.337	354.31
385.562	347.31
385.787	332.31
386.013	347.31
386.238	339.31
386.463	360.31
386.688	338.31
386.913	320.31
387.138	341.31
387.363	355.31
387.588	333.31
387.813	340.31
388.038	331.31
388.263	354.31
388.488	343.31
388.713	348.31
388.938	336.31
389.163	345.31
389.387	357.31
389.612	329.31
389.837	367.31
390.062	340.31
390.287	351.31
390.512	339.31
390.736	368.31
390.961	337.31
391.186	373.31
391.411	336.31
391.636	350.31
391.86	353.31
392.085	346.31
392.31	356.31
392.534	361.31
392.759	346.31
392.984	349.31
393.208	342.31
393.433	342.31
393.658	347.31
393.882	348.31
394.107	338.31
394.331	346.31
394.556	330.31
394.78	346.31
395.005	354.31
395.229	338.31
395.454	351.31
395.678	347.31
395.903	383.31
396.127	391.31
396.352	377.31
396.576	368.31
396.801	376.31
397.025	345.31
397.249	347.31
397.474	389.31
397.698	374.31
397.922	387.31
398.147	387.31
398.371	396.31
398.595	389.31
398.82	383.31
399.044	375.31
399.268	384.31
399.492	409.31
399.717	411.31
399.941	431.31
400.165	463.31
400.389	489.31
400.613	434.31
400.837	394.31
401.062	412.31
401.286	424.31
401.51	407.31
401.734	395.31
401.958	385.31
402.182	393.31
402.406	409.31
402.63	409.31
402.854	407.31
403.078	399.31
403.302	412.31
403.526	392.31
403.75	391.31
403.974	407.31
404.198	400.31
404.422	411.31
404.645	422.31
404.869	406.31
405.093	449.31
405.317	463.31
405.541	530.31
405.765	461.31
405.988	465.31
406.212	424.31
406.436	444.31
406.66	476.31
406.883	437.31
407.107	453.31
407.331	496.31
407.555	575.31
407.778	538.31
408.002	480.31
408.226	455.31
408.449	455.31
408.673	461.31
408.896	493.31
409.12	506.31
409.344	471.31
409.567	444.31
409.791	447.31
410.014	407.31
410.238	431.31
410.461	401.31
410.685	404.31
410.908	444.31
411.132	451.31
411.355	477.31
411.578	447.31
411.802	441.31
412.025	443.31
412.249	408.31
412.472	443.31
412.695	474.31
412.919	457.31
413.142	439.31
413.365	412.31
413.589	423.31
413.812	400.31
414.035	409.31
414.258	377.31
414.482	378.31
414.705	375.31
414.928	372.31
415.151	381.31
415.374	376.31
415.597	366.31
415.821	360.31
416.044	382.31
416.267	393.31
416.49	390.31
416.713	368.31
416.936	391.31
417.159	397.31
417.382	362.31
417.605	395.31
417.828	388.31
418.051	420.31
418.274	402.31
418.497	387.31
418.72	372.31
418.943	390.31
419.166	402.31
419.389	420.31
419.611	421.31
419.834	410.31
420.057	425.31
420.28	415.31
420.503	423.31
420.726	412.31
420.948	431.31
421.171	445.31
421.394	478.31
421.617	433.31
421.839	415.31
422.062	403.31
422.285	410.31
422.507	476.31
422.73	524.31
422.953	499.31
423.175	455.31
423.398	431.31
423.621	416.31
423.843	429.31
424.066	444.31
424.288	431.31
424.511	450.31
424.733	520.31
424.956	570.31
425.178	561.31
425.401	556.31
425.623	549.31
425.846	472.31
426.068	437.31
426.291	434.31
426.513	440.31
426.735	464.31
426.958	480.31
427.18	570.31
427.402	651.31
427.625	745.31
427.847	637.31
428.069	587.31
428.292	537.31
428.514	469.31
428.736	435.31
428.958	415.31
429.181	426.31
429.403	411.31
429.625	425.31
429.847	448.31
430.069	491.31
430.292	503.31
430.514	431.31
430.736	441.31
430.958	405.31
431.18	392.31
431.402	416.31
431.624	392.31
431.846	403.31
432.068	391.31
432.29	403.31
432.512	377.31
432.734	404.31
432.956	389.31
433.178	417.31
433.4	415.31
433.622	407.31
433.844	383.31
434.066	390.31
434.287	399.31
434.509	377.31
434.731	405.31
434.953	408.31
435.175	442.31
435.397	465.31
435.618	437.31
435.84	483.31
436.062	569.31
436.284	600.31
436.505	501.31
436.727	475.31
436.949	415.31
437.17	423.31
437.392	439.31
437.614	432.31
437.835	443.31
438.057	546.31
438.278	632.31
438.5	597.31
438.721	656.31
438.943	618.31
439.165	520.31
439.386	481.31
439.608	469.31
439.829	475.31
440.05	495.31
440.272	524.31
440.493	494.31
440.715	456.31
440.936	433.31
441.158	449.31
441.379	432.31
441.6	432.31
441.822	457.31
442.043	497.31
442.264	565.31
442.486	585.31
442.707	478.31
442.928	484.31
443.149	476.31
443.371	492.31
443.592	523.31
443.813	589.31
444.034	644.31
444.255	508.31
444.476	456.31
444.698	444.31
444.919	441.31
445.14	544.31
445.361	488.31
445.582	488.31
445.803	559.31
446.024	661.31
446.245	641.31
446.466	573.31
446.687	487.31
446.908	469.31
447.129	415.31
447.35	423.31
447.571	424.31
447.792	425.31
448.013	424.31
448.234	440.31
448.455	489.31
448.675	595.31
448.896	687.31
449.117	582.31
449.338	545.31
449.559	625.31
449.779	692.31
450	555.31
450.221	478.31
450.442	419.31
450.662	446.31
450.883	447.31
451.104	458.31
451.324	439.31
451.545	422.31
451.766	419.31
451.986	386.31
452.207	354.31
452.428	377.31
452.648	381.31
452.869	394.31
453.089	403.31
453.31	400.31
453.53	400.31
453.751	383.31
453.971	395.31
454.192	391.31
454.412	404.31
454.633	371.31
454.853	389.31
455.073	395.31
455.294	417.31
455.514	455.31
455.734	455.31
455.955	391.31
456.175	361.31
456.395	364.31
456.616	356.31
456.836	361.31
457.056	328.31
457.276	344.31
457.497	367.31
457.717	371.31
457.937	373.31
458.157	377.31
458.377	368.31
458.598	393.31
458.818	454.31
459.038	522.31
459.258	515.31
459.478	421.31
459.698	391.31
459.918	395.31
460.138	373.31
460.358	386.31
460.578	390.31
460.798	401.31
461.018	400.31
461.238	381.31
461.458	399.31
461.678	411.31
461.898	405.31
462.118	381.31
462.338	392.31
462.558	393.31
462.777	414.31
462.997	409.31
463.217	411.31
463.437	411.31
463.657	405.31
463.876	427.31
464.096	404.31
464.316	428.31
464.536	432.31
464.755	433.31
464.975	433.31
465.195	454.31
465.414	547.31
465.634	484.31
465.854	448.31
466.073	415.31
466.293	397.31
466.512	428.31
466.732	380.31
466.951	375.31
467.171	412.31
467.391	392.31
467.61	405.31
467.829	408.31
468.049	406.31
468.268	396.31
468.488	375.31
468.707	376.31
468.927	373.31
469.146	370.31
469.365	357.31
469.585	377.31
469.804	390.31
470.023	401.31
470.243	409.31
470.462	397.31
470.681	419.31
470.901	404.31
471.12	413.31
471.339	407.31
471.558	391.31
471.777	390.31
471.997	375.31
472.216	397.31
472.435	428.31
472.654	424.31
472.873	408.31
473.092	391.31
473.311	405.31
473.53	386.31
473.749	411.31
473.968	453.31
474.187	535.31
474.406	527.31
474.625	441.31
474.844	410.31
475.063	383.31
475.282	413.31
475.501	401.31
475.72	422.31
475.939	401.31
476.158	392.31
476.377	388.31
476.596	411.31
476.814	413.31
477.033	405.31
477.252	419.31
477.471	423.31
477.69	417.31
477.908	431.31
478.127	410.31
478.346	426.31
478.564	446.31
478.783	440.31
479.002	448.31
479.22	451.31
479.439	474.31
479.658	474.31
479.876	460.31
480.095	470.31
480.313	498.31
480.532	480.31
480.751	464.31
480.969	493.31
481.188	565.31
481.406	605.31
481.624	523.31
481.843	478.31
482.061	479.31
482.28	477.31
482.498	461.31
482.717	470.31
482.935	461.31
483.153	461.31
483.372	475.31
483.59	460.31
483.808	461.31
484.027	464.31
484.245	455.31
484.463	457.31
484.681	476.31
484.9	458.31
485.118	467.31
485.336	463.31
485.554	476.31
485.772	482.31
485.99	488.31
486.209	484.31
486.427	480.31
486.645	482.31
486.863	508.31
487.081	506.31
487.299	504.31
487.517	501.31
487.735	513.31
487.953	515.31
488.171	486.31
488.389	479.31
488.607	488.31
488.825	497.31
489.043	505.31
489.261	506.31
489.479	507.31
489.696	493.31
489.914	538.31
490.132	506.31
490.35	486.31
490.568	500.31
490.786	513.31
491.003	523.31
491.221	550.31
491.439	525.31
491.657	555.31
491.874	555.31
492.092	580.31
492.31	552.31
492.527	578.31
492.745	563.31
492.963	554.31
493.18	599.31
493.398	584.31
493.615	586.31
493.833	588.31
494.05	581.31
494.268	590.31
494.485	571.31
494.703	564.31
494.92	582.31
495.138	585.31
495.355	577.31
495.573	607.31
495.79	578.31
496.008	606.31
496.225	623.31
496.442	585.31
496.66	599.31
496.877	582.31
497.094	596.31
497.312	610.31
497.529	608.31
497.746	603.31
497.963	620.31
498.181	635.31
498.398	635.31
498.615	631.31
498.832	647.31
499.049	641.31
499.267	654.31
499.484	664.31
499.701	677.31
499.918	719.31
500.135	705.31
500.352	736.31
500.569	741.31
500.786	728.31
501.003	761.31
501.22	727.31
501.437	736.31
501.654	726.31
501.871	714.31
502.088	703.31
