Data from 1961.PennyLincolnUp.Lamp.En5.5.200Scan.071719.P1._HRD10591_13-45-45-100.txt Node
Date: Thu Jul 18 13:45:45 EDT 2019
User: cochatt
Spectrometer: HR+D1059
Trigger mode: 1
Integration Time (sec): 1.000000E-1
Scans to average: 1
Electric dark correction enabled: true
Nonlinearity correction enabled: false
Boxcar width: 0
XAxis mode: Wavelengths
Number of Pixels in Spectrum: 2048
>>>>>Begin Spectral Data<<<<<
223.165	-21.38
223.4	-21.38
223.635	-21.38
223.869	-17.38
224.104	-11.38
224.338	1.62
224.573	-15.38
224.808	1.62
225.042	-10.38
225.277	-9.38
225.511	-4.38
225.746	-8.38
225.98	3.62
226.215	5.62
226.449	11.62
226.683	20.62
226.918	22.62
227.152	30.62
227.387	44.62
227.621	24.62
227.856	41.62
228.09	49.62
228.324	50.62
228.559	47.62
228.793	47.62
229.027	72.62
229.262	75.62
229.496	85.62
229.73	110.62
229.964	91.62
230.199	105.62
230.433	89.62
230.667	109.62
230.901	83.62
231.136	93.62
231.37	74.62
231.604	91.62
231.838	118.62
232.072	93.62
232.306	99.62
232.541	100.62
232.775	102.62
233.009	103.62
233.243	85.62
233.477	89.62
233.711	110.62
233.945	91.62
234.179	108.62
234.413	98.62
234.647	88.62
234.881	104.62
235.115	101.62
235.349	95.62
235.583	106.62
235.817	115.62
236.051	93.62
236.285	113.62
236.519	105.62
236.753	98.62
236.987	111.62
237.221	121.62
237.455	152.62
237.689	123.62
237.922	105.62
238.156	122.62
238.39	111.62
238.624	100.62
238.858	101.62
239.091	97.62
239.325	100.62
239.559	90.62
239.793	109.62
240.027	101.62
240.26	103.62
240.494	117.62
240.728	104.62
240.961	121.62
241.195	99.62
241.429	110.62
241.662	122.62
241.896	110.62
242.13	117.62
242.363	110.62
242.597	102.62
242.83	122.62
243.064	117.62
243.298	106.62
243.531	119.62
243.765	94.62
243.998	109.62
244.232	123.62
244.465	117.62
244.699	115.62
244.932	111.62
245.166	122.62
245.399	125.62
245.633	120.62
245.866	115.62
246.099	121.62
246.333	123.62
246.566	130.62
246.8	113.62
247.033	125.62
247.266	127.62
247.5	123.62
247.733	137.62
247.966	140.62
248.2	131.62
248.433	136.62
248.666	129.62
248.899	133.62
249.133	145.62
249.366	136.62
249.599	149.62
249.832	149.62
250.066	137.62
250.299	131.62
250.532	147.62
250.765	139.62
250.998	156.62
251.231	155.62
251.465	146.62
251.698	150.62
251.931	145.62
252.164	143.62
252.397	136.62
252.63	141.62
252.863	148.62
253.096	155.62
253.329	150.62
253.562	158.62
253.795	173.62
254.028	161.62
254.261	149.62
254.494	160.62
254.727	176.62
254.96	189.62
255.193	166.62
255.426	147.62
255.659	179.62
255.892	163.62
256.124	159.62
256.357	171.62
256.59	165.62
256.823	155.62
257.056	155.62
257.289	162.62
257.521	141.62
257.754	149.62
257.987	158.62
258.22	163.62
258.452	152.62
258.685	173.62
258.918	150.62
259.151	149.62
259.383	164.62
259.616	158.62
259.849	165.62
260.081	165.62
260.314	161.62
260.547	179.62
260.779	187.62
261.012	154.62
261.244	168.62
261.477	178.62
261.71	170.62
261.942	180.62
262.175	173.62
262.407	171.62
262.64	161.62
262.872	154.62
263.105	159.62
263.337	160.62
263.57	167.62
263.802	175.62
264.035	167.62
264.267	162.62
264.499	169.62
264.732	170.62
264.964	153.62
265.197	157.62
265.429	161.62
265.661	176.62
265.894	177.62
266.126	171.62
266.358	169.62
266.591	166.62
266.823	187.62
267.055	179.62
267.287	166.62
267.52	180.62
267.752	184.62
267.984	160.62
268.216	198.62
268.448	174.62
268.681	186.62
268.913	178.62
269.145	196.62
269.377	197.62
269.609	207.62
269.841	202.62
270.073	194.62
270.306	189.62
270.538	224.62
270.77	201.62
271.002	199.62
271.234	213.62
271.466	203.62
271.698	198.62
271.93	206.62
272.162	221.62
272.394	223.62
272.626	219.62
272.858	177.62
273.09	190.62
273.322	212.62
273.553	199.62
273.785	210.62
274.017	193.62
274.249	198.62
274.481	204.62
274.713	187.62
274.945	192.62
275.176	202.62
275.408	203.62
275.64	193.62
275.872	186.62
276.104	205.62
276.335	208.62
276.567	195.62
276.799	216.62
277.031	206.62
277.262	222.62
277.494	227.62
277.726	228.62
277.957	203.62
278.189	210.62
278.421	203.62
278.652	219.62
278.884	190.62
279.115	228.62
279.347	231.62
279.579	242.62
279.81	263.62
280.042	251.62
280.273	241.62
280.505	267.62
280.736	233.62
280.968	224.62
281.199	210.62
281.431	222.62
281.662	205.62
281.894	211.62
282.125	219.62
282.356	225.62
282.588	251.62
282.819	236.62
283.051	207.62
283.282	213.62
283.513	206.62
283.745	221.62
283.976	206.62
284.207	214.62
284.439	225.62
284.67	200.62
284.901	209.62
285.132	213.62
285.364	215.62
285.595	230.62
285.826	213.62
286.057	216.62
286.288	228.62
286.52	212.62
286.751	212.62
286.982	225.62
287.213	211.62
287.444	221.62
287.675	233.62
287.906	235.62
288.138	237.62
288.369	241.62
288.6	235.62
288.831	215.62
289.062	218.62
289.293	218.62
289.524	221.62
289.755	225.62
289.986	221.62
290.217	217.62
290.448	221.62
290.679	219.62
290.91	232.62
291.141	234.62
291.371	234.62
291.602	230.62
291.833	247.62
292.064	225.62
292.295	257.62
292.526	230.62
292.757	233.62
292.987	225.62
293.218	242.62
293.449	239.62
293.68	239.62
293.91	219.62
294.141	235.62
294.372	239.62
294.603	235.62
294.833	232.62
295.064	239.62
295.295	253.62
295.525	227.62
295.756	229.62
295.987	227.62
296.217	248.62
296.448	260.62
296.679	242.62
296.909	241.62
297.14	242.62
297.37	246.62
297.601	258.62
297.831	247.62
298.062	243.62
298.292	243.62
298.523	250.62
298.753	244.62
298.984	242.62
299.214	222.62
299.445	248.62
299.675	253.62
299.905	247.62
300.136	266.62
300.366	260.62
300.597	249.62
300.827	251.62
301.057	255.62
301.288	256.62
301.518	267.62
301.748	259.62
301.979	259.62
302.209	271.62
302.439	282.62
302.669	270.62
302.9	246.62
303.13	273.62
303.36	273.62
303.59	267.62
303.82	267.62
304.051	271.62
304.281	258.62
304.511	247.62
304.741	266.62
304.971	264.62
305.201	261.62
305.431	259.62
305.661	265.62
305.891	269.62
306.121	253.62
306.352	256.62
306.582	261.62
306.812	265.62
307.042	256.62
307.272	253.62
307.502	253.62
307.731	272.62
307.961	264.62
308.191	263.62
308.421	277.62
308.651	253.62
308.881	266.62
309.111	271.62
309.341	263.62
309.571	288.62
309.8	275.62
310.03	276.62
310.26	291.62
310.49	271.62
310.72	276.62
310.949	295.62
311.179	286.62
311.409	265.62
311.639	268.62
311.868	305.62
312.098	287.62
312.328	291.62
312.557	302.62
312.787	309.62
313.017	293.62
313.246	299.62
313.476	284.62
313.706	287.62
313.935	294.62
314.165	290.62
314.394	283.62
314.624	304.62
314.853	304.62
315.083	293.62
315.312	295.62
315.542	290.62
315.771	287.62
316.001	283.62
316.23	288.62
316.46	290.62
316.689	284.62
316.919	287.62
317.148	290.62
317.377	294.62
317.607	322.62
317.836	302.62
318.065	314.62
318.295	297.62
318.524	286.62
318.753	279.62
318.983	278.62
319.212	269.62
319.441	293.62
319.67	301.62
319.9	285.62
320.129	321.62
320.358	286.62
320.587	290.62
320.816	310.62
321.046	295.62
321.275	309.62
321.504	287.62
321.733	295.62
321.962	289.62
322.191	305.62
322.42	314.62
322.649	321.62
322.878	325.62
323.108	330.62
323.337	354.62
323.566	352.62
323.795	377.62
324.024	393.62
324.253	449.62
324.482	666.62
324.71	999.62
324.939	1360.62
325.168	1077.62
325.397	562.62
325.626	421.62
325.855	360.62
326.084	340.62
326.313	344.62
326.542	344.62
326.77	376.62
326.999	451.62
327.228	635.62
327.457	898.62
327.686	971.62
327.914	652.62
328.143	460.62
328.372	399.62
328.6	387.62
328.829	378.62
329.058	377.62
329.287	362.62
329.515	381.62
329.744	341.62
329.972	352.62
330.201	372.62
330.43	387.62
330.658	379.62
330.887	390.62
331.115	387.62
331.344	353.62
331.572	363.62
331.801	348.62
332.03	355.62
332.258	353.62
332.486	320.62
332.715	331.62
332.943	344.62
333.172	341.62
333.4	358.62
333.629	356.62
333.857	374.62
334.085	361.62
334.314	373.62
334.542	403.62
334.771	405.62
334.999	385.62
335.227	358.62
335.455	360.62
335.684	334.62
335.912	346.62
336.14	344.62
336.369	337.62
336.597	328.62
336.825	357.62
337.053	330.62
337.281	333.62
337.51	351.62
337.738	354.62
337.966	334.62
338.194	335.62
338.422	355.62
338.65	344.62
338.878	339.62
339.106	326.62
339.334	318.62
339.562	330.62
339.79	304.62
340.018	314.62
340.246	324.62
340.474	320.62
340.702	328.62
340.93	317.62
341.158	314.62
341.386	307.62
341.614	305.62
341.842	321.62
342.07	326.62
342.298	308.62
342.526	321.62
342.754	280.62
342.981	328.62
343.209	319.62
343.437	319.62
343.665	318.62
343.893	334.62
344.12	337.62
344.348	337.62
344.576	324.62
344.804	331.62
345.031	345.62
345.259	335.62
345.487	304.62
345.714	325.62
345.942	312.62
346.17	315.62
346.397	318.62
346.625	303.62
346.853	297.62
347.08	306.62
347.308	307.62
347.535	303.62
347.763	319.62
347.99	309.62
348.218	314.62
348.445	299.62
348.673	299.62
348.9	304.62
349.128	302.62
349.355	314.62
349.583	297.62
349.81	292.62
350.037	304.62
350.265	294.62
350.492	293.62
350.72	310.62
350.947	314.62
351.174	305.62
351.402	302.62
351.629	307.62
351.856	316.62
352.083	307.62
352.311	320.62
352.538	303.62
352.765	320.62
352.992	314.62
353.22	303.62
353.447	307.62
353.674	298.62
353.901	286.62
354.128	292.62
354.355	272.62
354.583	299.62
354.81	309.62
355.037	297.62
355.264	287.62
355.491	287.62
355.718	276.62
355.945	291.62
356.172	286.62
356.399	287.62
356.626	298.62
356.853	290.62
357.08	293.62
357.307	277.62
357.534	290.62
357.761	301.62
357.988	302.62
358.215	297.62
358.441	295.62
358.668	323.62
358.895	304.62
359.122	294.62
359.349	296.62
359.576	295.62
359.802	306.62
360.029	321.62
360.256	299.62
360.483	329.62
360.709	285.62
360.936	320.62
361.163	295.62
361.39	307.62
361.616	305.62
361.843	303.62
362.07	301.62
362.296	310.62
362.523	297.62
362.749	311.62
362.976	290.62
363.203	295.62
363.429	277.62
363.656	274.62
363.882	288.62
364.109	282.62
364.335	284.62
364.562	283.62
364.788	320.62
365.015	309.62
365.241	287.62
365.468	301.62
365.694	283.62
365.92	285.62
366.147	285.62
366.373	278.62
366.599	291.62
366.826	293.62
367.052	289.62
367.278	291.62
367.505	283.62
367.731	285.62
367.957	297.62
368.184	298.62
368.41	299.62
368.636	295.62
368.862	290.62
369.089	290.62
369.315	298.62
369.541	296.62
369.767	283.62
369.993	277.62
370.219	290.62
370.445	287.62
370.672	287.62
370.898	292.62
371.124	299.62
371.35	289.62
371.576	299.62
371.802	299.62
372.028	310.62
372.254	289.62
372.48	288.62
372.706	294.62
372.932	295.62
373.158	297.62
373.384	288.62
373.61	294.62
373.835	291.62
374.061	304.62
374.287	297.62
374.513	296.62
374.739	302.62
374.965	316.62
375.191	319.62
375.416	299.62
375.642	315.62
375.868	299.62
376.094	285.62
376.319	313.62
376.545	297.62
376.771	266.62
376.997	280.62
377.222	259.62
377.448	286.62
377.674	287.62
377.899	282.62
378.125	283.62
378.35	300.62
378.576	287.62
378.802	290.62
379.027	285.62
379.253	289.62
379.478	265.62
379.704	273.62
379.929	278.62
380.155	296.62
380.38	291.62
380.606	289.62
380.831	299.62
381.057	321.62
381.282	305.62
381.507	293.62
381.733	291.62
381.958	303.62
382.184	309.62
382.409	309.62
382.634	307.62
382.86	291.62
383.085	294.62
383.31	301.62
383.535	309.62
383.761	316.62
383.986	296.62
384.211	304.62
384.436	311.62
384.662	294.62
384.887	325.62
385.112	318.62
385.337	323.62
385.562	332.62
385.787	326.62
386.013	341.62
386.238	335.62
386.463	317.62
386.688	327.62
386.913	326.62
387.138	326.62
387.363	337.62
387.588	337.62
387.813	333.62
388.038	347.62
388.263	305.62
388.488	312.62
388.713	320.62
388.938	326.62
389.163	315.62
389.387	334.62
389.612	307.62
389.837	311.62
390.062	312.62
390.287	299.62
390.512	309.62
390.736	307.62
390.961	310.62
391.186	312.62
391.411	318.62
391.636	329.62
391.86	331.62
392.085	312.62
392.31	330.62
392.534	329.62
392.759	312.62
392.984	346.62
393.208	343.62
393.433	379.62
393.658	360.62
393.882	349.62
394.107	329.62
394.331	317.62
394.556	310.62
394.78	325.62
395.005	322.62
395.229	321.62
395.454	338.62
395.678	337.62
395.903	328.62
396.127	326.62
396.352	331.62
396.576	327.62
396.801	373.62
397.025	347.62
397.249	329.62
397.474	345.62
397.698	352.62
397.922	345.62
398.147	346.62
398.371	337.62
398.595	376.62
398.82	342.62
399.044	357.62
399.268	366.62
399.492	377.62
399.717	409.62
399.941	411.62
400.165	408.62
400.389	432.62
400.613	405.62
400.837	377.62
401.062	380.62
401.286	368.62
401.51	353.62
401.734	337.62
401.958	343.62
402.182	336.62
402.406	366.62
402.63	361.62
402.854	359.62
403.078	350.62
403.302	357.62
403.526	352.62
403.75	369.62
403.974	328.62
404.198	343.62
404.422	354.62
404.645	368.62
404.869	369.62
405.093	374.62
405.317	398.62
405.541	407.62
405.765	398.62
405.988	383.62
406.212	381.62
406.436	362.62
406.66	408.62
406.883	369.62
407.107	385.62
407.331	415.62
407.555	454.62
407.778	454.62
408.002	399.62
408.226	399.62
408.449	358.62
408.673	399.62
408.896	387.62
409.12	408.62
409.344	413.62
409.567	368.62
409.791	345.62
410.014	350.62
410.238	359.62
410.461	343.62
410.685	360.62
410.908	368.62
411.132	378.62
411.355	399.62
411.578	361.62
411.802	351.62
412.025	357.62
412.249	352.62
412.472	357.62
412.695	391.62
412.919	357.62
413.142	346.62
413.365	365.62
413.589	347.62
413.812	332.62
414.035	333.62
414.258	331.62
414.482	328.62
414.705	328.62
414.928	357.62
415.151	322.62
415.374	324.62
415.597	332.62
415.821	325.62
416.044	334.62
416.267	350.62
416.49	325.62
416.713	346.62
416.936	314.62
417.159	343.62
417.382	351.62
417.605	322.62
417.828	345.62
418.051	335.62
418.274	334.62
418.497	336.62
418.72	327.62
418.943	329.62
419.166	345.62
419.389	329.62
419.611	342.62
419.834	339.62
420.057	333.62
420.28	341.62
420.503	327.62
420.726	313.62
420.948	351.62
421.171	338.62
421.394	361.62
421.617	341.62
421.839	331.62
422.062	319.62
422.285	333.62
422.507	384.62
422.73	426.62
422.953	399.62
423.175	346.62
423.398	349.62
423.621	339.62
423.843	354.62
424.066	353.62
424.288	351.62
424.511	351.62
424.733	415.62
424.956	435.62
425.178	393.62
425.401	403.62
425.623	409.62
425.846	359.62
426.068	346.62
426.291	332.62
426.513	351.62
426.735	370.62
426.958	353.62
427.18	418.62
427.402	489.62
427.625	534.62
427.847	478.62
428.069	403.62
428.292	340.62
428.514	322.62
428.736	330.62
428.958	325.62
429.181	316.62
429.403	330.62
429.625	331.62
429.847	358.62
430.069	369.62
430.292	377.62
430.514	341.62
430.736	314.62
430.958	329.62
431.18	309.62
431.402	343.62
431.624	317.62
431.846	308.62
432.068	319.62
432.29	326.62
432.512	316.62
432.734	339.62
432.956	326.62
433.178	319.62
433.4	318.62
433.622	323.62
433.844	340.62
434.066	335.62
434.287	336.62
434.509	321.62
434.731	330.62
434.953	346.62
435.175	330.62
435.397	325.62
435.618	343.62
435.84	353.62
436.062	417.62
436.284	447.62
436.505	374.62
436.727	360.62
436.949	342.62
437.17	344.62
437.392	329.62
437.614	336.62
437.835	357.62
438.057	388.62
438.278	439.62
438.5	447.62
438.721	482.62
438.943	441.62
439.165	370.62
439.386	349.62
439.608	353.62
439.829	348.62
440.05	363.62
440.272	376.62
440.493	373.62
440.715	333.62
440.936	315.62
441.158	329.62
441.379	332.62
441.6	335.62
441.822	350.62
442.043	367.62
442.264	405.62
442.486	413.62
442.707	374.62
442.928	341.62
443.149	349.62
443.371	385.62
443.592	379.62
443.813	439.62
444.034	448.62
444.255	391.62
444.476	377.62
444.698	359.62
444.919	342.62
445.14	501.62
445.361	416.62
445.582	381.62
445.803	415.62
446.024	433.62
446.245	451.62
446.466	394.62
446.687	367.62
446.908	330.62
447.129	330.62
447.35	305.62
447.571	315.62
447.792	324.62
448.013	317.62
448.234	329.62
448.455	353.62
448.675	426.62
448.896	466.62
449.117	388.62
449.338	391.62
449.559	425.62
449.779	486.62
450	386.62
450.221	326.62
450.442	317.62
450.662	319.62
450.883	317.62
451.104	329.62
451.324	317.62
451.545	311.62
451.766	293.62
451.986	284.62
452.207	279.62
452.428	290.62
452.648	289.62
452.869	295.62
453.089	290.62
453.31	319.62
453.53	294.62
453.751	288.62
453.971	296.62
454.192	299.62
454.412	304.62
454.633	289.62
454.853	286.62
455.073	297.62
455.294	304.62
455.514	330.62
455.734	321.62
455.955	296.62
456.175	298.62
456.395	273.62
456.616	297.62
456.836	303.62
457.056	276.62
457.276	275.62
457.497	276.62
457.717	275.62
457.937	276.62
458.157	295.62
458.377	295.62
458.598	291.62
458.818	305.62
459.038	371.62
459.258	365.62
459.478	337.62
459.698	305.62
459.918	297.62
460.138	329.62
460.358	310.62
460.578	326.62
460.798	323.62
461.018	328.62
461.238	313.62
461.458	313.62
461.678	334.62
461.898	334.62
462.118	328.62
462.338	343.62
462.558	341.62
462.777	339.62
462.997	341.62
463.217	356.62
463.437	375.62
463.657	359.62
463.876	340.62
464.096	353.62
464.316	359.62
464.536	337.62
464.755	352.62
464.975	372.62
465.195	359.62
465.414	387.62
465.634	349.62
465.854	327.62
466.073	334.62
466.293	318.62
466.512	304.62
466.732	331.62
466.951	320.62
467.171	287.62
467.391	319.62
467.61	308.62
467.829	310.62
468.049	304.62
468.268	315.62
468.488	296.62
468.707	296.62
468.927	285.62
469.146	292.62
469.365	302.62
469.585	281.62
469.804	312.62
470.023	310.62
470.243	307.62
470.462	305.62
470.681	326.62
470.901	296.62
471.12	309.62
471.339	304.62
471.558	322.62
471.777	297.62
471.997	305.62
472.216	296.62
472.435	337.62
472.654	335.62
472.873	307.62
473.092	309.62
473.311	295.62
473.53	325.62
473.749	338.62
473.968	321.62
474.187	372.62
474.406	381.62
474.625	351.62
474.844	325.62
475.063	315.62
475.282	311.62
475.501	303.62
475.72	329.62
475.939	336.62
476.158	321.62
476.377	336.62
476.596	319.62
476.814	328.62
477.033	305.62
477.252	324.62
477.471	322.62
477.69	322.62
477.908	337.62
478.127	336.62
478.346	319.62
478.564	344.62
478.783	343.62
479.002	344.62
479.22	341.62
479.439	348.62
479.658	371.62
479.876	378.62
480.095	348.62
480.313	372.62
480.532	363.62
480.751	391.62
480.969	378.62
481.188	426.62
481.406	413.62
481.624	359.62
481.843	366.62
482.061	341.62
482.28	363.62
482.498	351.62
482.717	360.62
482.935	366.62
483.153	343.62
483.372	369.62
483.59	339.62
483.808	377.62
484.027	359.62
484.245	365.62
484.463	354.62
484.681	364.62
484.9	375.62
485.118	378.62
485.336	364.62
485.554	374.62
485.772	370.62
485.99	373.62
486.209	373.62
486.427	363.62
486.645	371.62
486.863	371.62
487.081	374.62
487.299	395.62
487.517	371.62
487.735	379.62
487.953	373.62
488.171	386.62
488.389	357.62
488.607	354.62
488.825	385.62
489.043	369.62
489.261	368.62
489.479	382.62
489.696	381.62
489.914	387.62
490.132	367.62
490.35	374.62
490.568	394.62
490.786	380.62
491.003	401.62
491.221	384.62
491.439	390.62
491.657	406.62
491.874	385.62
492.092	409.62
492.31	409.62
492.527	396.62
492.745	414.62
492.963	390.62
493.18	403.62
493.398	414.62
493.615	409.62
493.833	400.62
494.05	408.62
494.268	390.62
494.485	406.62
494.703	415.62
494.92	413.62
495.138	411.62
495.355	423.62
495.573	408.62
495.79	425.62
496.008	436.62
496.225	424.62
496.442	428.62
496.66	444.62
496.877	418.62
497.094	444.62
497.312	440.62
497.529	450.62
497.746	454.62
497.963	441.62
498.181	469.62
498.398	448.62
498.615	471.62
498.832	509.62
499.049	490.62
499.267	522.62
499.484	524.62
499.701	539.62
499.918	583.62
500.135	573.62
500.352	621.62
500.569	615.62
500.786	630.62
501.003	613.62
501.22	601.62
501.437	572.62
501.654	562.62
501.871	563.62
502.088	537.62
502.305	523.62
