Data from 1961.PennyLincolnUp.Lamp.En5.5.200Scan.071719.P1._HRD10591_13-46-13-057.txt Node
Date: Thu Jul 18 13:46:13 EDT 2019
User: cochatt
Spectrometer: HR+D1059
Trigger mode: 1
Integration Time (sec): 1.000000E-1
Scans to average: 1
Electric dark correction enabled: true
Nonlinearity correction enabled: false
Boxcar width: 0
XAxis mode: Wavelengths
Number of Pixels in Spectrum: 2048
>>>>>Begin Spectral Data<<<<<
223.165	-18.69
223.4	-18.69
223.635	-18.69
223.869	-9.69
224.104	-29.69
224.338	-22.69
224.573	-12.69
224.808	-17.69
225.042	6.31
225.277	-0.69
225.511	0.31
225.746	7.31
225.98	-8.69
226.215	16.31
226.449	23.31
226.683	24.31
226.918	16.31
227.152	26.31
227.387	36.31
227.621	36.31
227.856	42.31
228.09	40.31
228.324	42.31
228.559	50.31
228.793	64.31
229.027	76.31
229.262	82.31
229.496	85.31
229.73	90.31
229.964	122.31
230.199	102.31
230.433	94.31
230.667	97.31
230.901	90.31
231.136	94.31
231.37	104.31
231.604	100.31
231.838	95.31
232.072	86.31
232.306	102.31
232.541	88.31
232.775	106.31
233.009	97.31
233.243	88.31
233.477	99.31
233.711	80.31
233.945	105.31
234.179	92.31
234.413	96.31
234.647	96.31
234.881	99.31
235.115	104.31
235.349	92.31
235.583	89.31
235.817	95.31
236.051	86.31
236.285	100.31
236.519	107.31
236.753	94.31
236.987	110.31
237.221	130.31
237.455	147.31
237.689	126.31
237.922	108.31
238.156	106.31
238.39	87.31
238.624	102.31
238.858	98.31
239.091	118.31
239.325	115.31
239.559	104.31
239.793	101.31
240.027	99.31
240.26	96.31
240.494	112.31
240.728	115.31
240.961	113.31
241.195	119.31
241.429	84.31
241.662	103.31
241.896	104.31
242.13	110.31
242.363	104.31
242.597	110.31
242.83	103.31
243.064	108.31
243.298	112.31
243.531	118.31
243.765	97.31
243.998	106.31
244.232	117.31
244.465	104.31
244.699	108.31
244.932	122.31
245.166	105.31
245.399	100.31
245.633	110.31
245.866	117.31
246.099	98.31
246.333	116.31
246.566	107.31
246.8	128.31
247.033	119.31
247.266	111.31
247.5	112.31
247.733	120.31
247.966	117.31
248.2	124.31
248.433	122.31
248.666	123.31
248.899	119.31
249.133	134.31
249.366	132.31
249.599	130.31
249.832	113.31
250.066	120.31
250.299	126.31
250.532	127.31
250.765	136.31
250.998	148.31
251.231	146.31
251.465	140.31
251.698	125.31
251.931	141.31
252.164	139.31
252.397	148.31
252.63	154.31
252.863	138.31
253.096	133.31
253.329	159.31
253.562	139.31
253.795	153.31
254.028	140.31
254.261	150.31
254.494	155.31
254.727	178.31
254.96	180.31
255.193	170.31
255.426	167.31
255.659	168.31
255.892	160.31
256.124	162.31
256.357	171.31
256.59	152.31
256.823	150.31
257.056	138.31
257.289	152.31
257.521	134.31
257.754	139.31
257.987	147.31
258.22	152.31
258.452	140.31
258.685	142.31
258.918	146.31
259.151	137.31
259.383	150.31
259.616	144.31
259.849	129.31
260.081	148.31
260.314	154.31
260.547	171.31
260.779	172.31
261.012	160.31
261.244	171.31
261.477	138.31
261.71	146.31
261.942	168.31
262.175	156.31
262.407	160.31
262.64	148.31
262.872	148.31
263.105	130.31
263.337	156.31
263.57	160.31
263.802	150.31
264.035	155.31
264.267	144.31
264.499	146.31
264.732	145.31
264.964	147.31
265.197	155.31
265.429	156.31
265.661	154.31
265.894	122.31
266.126	140.31
266.358	149.31
266.591	146.31
266.823	143.31
267.055	148.31
267.287	151.31
267.52	149.31
267.752	151.31
267.984	163.31
268.216	152.31
268.448	171.31
268.681	152.31
268.913	167.31
269.145	158.31
269.377	169.31
269.609	168.31
269.841	162.31
270.073	171.31
270.306	156.31
270.538	200.31
270.77	199.31
271.002	174.31
271.234	187.31
271.466	192.31
271.698	182.31
271.93	201.31
272.162	184.31
272.394	190.31
272.626	184.31
272.858	163.31
273.09	186.31
273.322	174.31
273.553	162.31
273.785	191.31
274.017	178.31
274.249	170.31
274.481	164.31
274.713	165.31
274.945	163.31
275.176	181.31
275.408	158.31
275.64	180.31
275.872	171.31
276.104	182.31
276.335	181.31
276.567	169.31
276.799	182.31
277.031	187.31
277.262	205.31
277.494	200.31
277.726	182.31
277.957	182.31
278.189	181.31
278.421	193.31
278.652	187.31
278.884	162.31
279.115	178.31
279.347	165.31
279.579	160.31
279.81	157.31
280.042	166.31
280.273	183.31
280.505	165.31
280.736	181.31
280.968	187.31
281.199	179.31
281.431	175.31
281.662	185.31
281.894	167.31
282.125	174.31
282.356	166.31
282.588	200.31
282.819	208.31
283.051	177.31
283.282	190.31
283.513	168.31
283.745	183.31
283.976	191.31
284.207	164.31
284.439	174.31
284.67	192.31
284.901	189.31
285.132	167.31
285.364	182.31
285.595	180.31
285.826	186.31
286.057	187.31
286.288	187.31
286.52	175.31
286.751	178.31
286.982	184.31
287.213	193.31
287.444	199.31
287.675	202.31
287.906	182.31
288.138	198.31
288.369	175.31
288.6	182.31
288.831	191.31
289.062	202.31
289.293	180.31
289.524	186.31
289.755	161.31
289.986	186.31
290.217	197.31
290.448	186.31
290.679	200.31
290.91	178.31
291.141	183.31
291.371	196.31
291.602	189.31
291.833	170.31
292.064	175.31
292.295	194.31
292.526	200.31
292.757	177.31
292.987	180.31
293.218	184.31
293.449	172.31
293.68	182.31
293.91	201.31
294.141	196.31
294.372	186.31
294.603	191.31
294.833	180.31
295.064	190.31
295.295	195.31
295.525	184.31
295.756	206.31
295.987	210.31
296.217	199.31
296.448	194.31
296.679	203.31
296.909	199.31
297.14	190.31
297.37	193.31
297.601	195.31
297.831	182.31
298.062	186.31
298.292	204.31
298.523	203.31
298.753	201.31
298.984	196.31
299.214	197.31
299.445	232.31
299.675	205.31
299.905	201.31
300.136	208.31
300.366	179.31
300.597	186.31
300.827	213.31
301.057	199.31
301.288	208.31
301.518	218.31
301.748	207.31
301.979	209.31
302.209	208.31
302.439	208.31
302.669	201.31
302.9	226.31
303.13	201.31
303.36	208.31
303.59	210.31
303.82	216.31
304.051	209.31
304.281	229.31
304.511	191.31
304.741	213.31
304.971	216.31
305.201	220.31
305.431	209.31
305.661	218.31
305.891	223.31
306.121	202.31
306.352	205.31
306.582	208.31
306.812	213.31
307.042	215.31
307.272	206.31
307.502	221.31
307.731	213.31
307.961	219.31
308.191	224.31
308.421	204.31
308.651	222.31
308.881	211.31
309.111	239.31
309.341	231.31
309.571	228.31
309.8	238.31
310.03	226.31
310.26	248.31
310.49	227.31
310.72	242.31
310.949	259.31
311.179	234.31
311.409	235.31
311.639	225.31
311.868	225.31
312.098	243.31
312.328	220.31
312.557	230.31
312.787	258.31
313.017	246.31
313.246	229.31
313.476	234.31
313.706	234.31
313.935	224.31
314.165	238.31
314.394	247.31
314.624	229.31
314.853	257.31
315.083	241.31
315.312	247.31
315.542	254.31
315.771	242.31
316.001	240.31
316.23	222.31
316.46	254.31
316.689	227.31
316.919	240.31
317.148	244.31
317.377	241.31
317.607	242.31
317.836	224.31
318.065	239.31
318.295	244.31
318.524	238.31
318.753	234.31
318.983	245.31
319.212	248.31
319.441	258.31
319.67	243.31
319.9	258.31
320.129	256.31
320.358	224.31
320.587	235.31
320.816	254.31
321.046	242.31
321.275	253.31
321.504	245.31
321.733	258.31
321.962	258.31
322.191	249.31
322.42	272.31
322.649	254.31
322.878	282.31
323.108	278.31
323.337	292.31
323.566	303.31
323.795	312.31
324.024	323.31
324.253	395.31
324.482	552.31
324.71	828.31
324.939	1132.31
325.168	947.31
325.397	507.31
325.626	367.31
325.855	315.31
326.084	322.31
326.313	317.31
326.542	310.31
326.77	322.31
326.999	388.31
327.228	515.31
327.457	739.31
327.686	872.31
327.914	576.31
328.143	395.31
328.372	357.31
328.6	323.31
328.829	327.31
329.058	319.31
329.287	324.31
329.515	314.31
329.744	303.31
329.972	307.31
330.201	315.31
330.43	332.31
330.658	318.31
330.887	341.31
331.115	329.31
331.344	315.31
331.572	300.31
331.801	306.31
332.03	291.31
332.258	304.31
332.486	289.31
332.715	278.31
332.943	291.31
333.172	296.31
333.4	291.31
333.629	272.31
333.857	283.31
334.085	282.31
334.314	290.31
334.542	323.31
334.771	321.31
334.999	316.31
335.227	307.31
335.455	304.31
335.684	282.31
335.912	288.31
336.14	283.31
336.369	274.31
336.597	291.31
336.825	283.31
337.053	278.31
337.281	282.31
337.51	288.31
337.738	277.31
337.966	293.31
338.194	281.31
338.422	287.31
338.65	300.31
338.878	285.31
339.106	266.31
339.334	288.31
339.562	271.31
339.79	266.31
340.018	271.31
340.246	270.31
340.474	264.31
340.702	265.31
340.93	287.31
341.158	284.31
341.386	267.31
341.614	285.31
341.842	280.31
342.07	259.31
342.298	257.31
342.526	263.31
342.754	260.31
342.981	254.31
343.209	280.31
343.437	293.31
343.665	266.31
343.893	267.31
344.12	265.31
344.348	284.31
344.576	306.31
344.804	294.31
345.031	275.31
345.259	273.31
345.487	271.31
345.714	284.31
345.942	275.31
346.17	268.31
346.397	259.31
346.625	276.31
346.853	266.31
347.08	274.31
347.308	263.31
347.535	274.31
347.763	272.31
347.99	262.31
348.218	265.31
348.445	273.31
348.673	273.31
348.9	276.31
349.128	263.31
349.355	268.31
349.583	261.31
349.81	251.31
350.037	263.31
350.265	265.31
350.492	264.31
350.72	264.31
350.947	265.31
351.174	254.31
351.402	245.31
351.629	269.31
351.856	264.31
352.083	261.31
352.311	269.31
352.538	280.31
352.765	277.31
352.992	263.31
353.22	278.31
353.447	262.31
353.674	266.31
353.901	266.31
354.128	260.31
354.355	257.31
354.583	259.31
354.81	261.31
355.037	271.31
355.264	266.31
355.491	253.31
355.718	265.31
355.945	261.31
356.172	257.31
356.399	240.31
356.626	266.31
356.853	259.31
357.08	255.31
357.307	253.31
357.534	247.31
357.761	273.31
357.988	266.31
358.215	277.31
358.441	274.31
358.668	272.31
358.895	256.31
359.122	253.31
359.349	264.31
359.576	272.31
359.802	275.31
360.029	298.31
360.256	304.31
360.483	287.31
360.709	275.31
360.936	267.31
361.163	274.31
361.39	275.31
361.616	261.31
361.843	267.31
362.07	273.31
362.296	268.31
362.523	256.31
362.749	272.31
362.976	263.31
363.203	280.31
363.429	272.31
363.656	277.31
363.882	263.31
364.109	267.31
364.335	272.31
364.562	261.31
364.788	247.31
365.015	264.31
365.241	264.31
365.468	263.31
365.694	256.31
365.92	267.31
366.147	274.31
366.373	252.31
366.599	241.31
366.826	261.31
367.052	268.31
367.278	278.31
367.505	255.31
367.731	281.31
367.957	267.31
368.184	248.31
368.41	272.31
368.636	274.31
368.862	270.31
369.089	280.31
369.315	268.31
369.541	266.31
369.767	268.31
369.993	262.31
370.219	250.31
370.445	264.31
370.672	256.31
370.898	273.31
371.124	265.31
371.35	262.31
371.576	264.31
371.802	263.31
372.028	250.31
372.254	267.31
372.48	270.31
372.706	277.31
372.932	263.31
373.158	264.31
373.384	270.31
373.61	279.31
373.835	256.31
374.061	260.31
374.287	287.31
374.513	272.31
374.739	274.31
374.965	266.31
375.191	268.31
375.416	275.31
375.642	275.31
375.868	265.31
376.094	271.31
376.319	272.31
376.545	267.31
376.771	270.31
376.997	260.31
377.222	267.31
377.448	276.31
377.674	258.31
377.899	272.31
378.125	267.31
378.35	251.31
378.576	264.31
378.802	272.31
379.027	266.31
379.253	270.31
379.478	259.31
379.704	274.31
379.929	270.31
380.155	276.31
380.38	286.31
380.606	266.31
380.831	248.31
381.057	285.31
381.282	270.31
381.507	274.31
381.733	276.31
381.958	280.31
382.184	284.31
382.409	288.31
382.634	281.31
382.86	282.31
383.085	275.31
383.31	303.31
383.535	280.31
383.761	289.31
383.986	292.31
384.211	295.31
384.436	283.31
384.662	289.31
384.887	294.31
385.112	281.31
385.337	292.31
385.562	303.31
385.787	294.31
386.013	309.31
386.238	292.31
386.463	289.31
386.688	286.31
386.913	287.31
387.138	284.31
387.363	291.31
387.588	288.31
387.813	277.31
388.038	300.31
388.263	306.31
388.488	298.31
388.713	294.31
388.938	299.31
389.163	298.31
389.387	293.31
389.612	292.31
389.837	270.31
390.062	297.31
390.287	297.31
390.512	310.31
390.736	289.31
390.961	292.31
391.186	299.31
391.411	305.31
391.636	298.31
391.86	309.31
392.085	308.31
392.31	290.31
392.534	290.31
392.759	307.31
392.984	289.31
393.208	301.31
393.433	295.31
393.658	306.31
393.882	300.31
394.107	295.31
394.331	305.31
394.556	285.31
394.78	298.31
395.005	310.31
395.229	300.31
395.454	317.31
395.678	294.31
395.903	307.31
396.127	308.31
396.352	323.31
396.576	329.31
396.801	316.31
397.025	308.31
397.249	316.31
397.474	309.31
397.698	314.31
397.922	334.31
398.147	331.31
398.371	323.31
398.595	330.31
398.82	329.31
399.044	316.31
399.268	346.31
399.492	348.31
399.717	348.31
399.941	388.31
400.165	368.31
400.389	391.31
400.613	358.31
400.837	344.31
401.062	343.31
401.286	355.31
401.51	350.31
401.734	342.31
401.958	338.31
402.182	325.31
402.406	339.31
402.63	335.31
402.854	352.31
403.078	332.31
403.302	335.31
403.526	344.31
403.75	325.31
403.974	335.31
404.198	341.31
404.422	343.31
404.645	342.31
404.869	353.31
405.093	358.31
405.317	393.31
405.541	408.31
405.765	372.31
405.988	375.31
406.212	371.31
406.436	367.31
406.66	374.31
406.883	363.31
407.107	361.31
407.331	403.31
407.555	438.31
407.778	446.31
408.002	397.31
408.226	376.31
408.449	366.31
408.673	378.31
408.896	379.31
409.12	404.31
409.344	388.31
409.567	341.31
409.791	363.31
410.014	353.31
410.238	327.31
410.461	348.31
410.685	355.31
410.908	354.31
411.132	375.31
411.355	379.31
411.578	379.31
411.802	361.31
412.025	339.31
412.249	360.31
412.472	373.31
412.695	400.31
412.919	384.31
413.142	347.31
413.365	352.31
413.589	345.31
413.812	330.31
414.035	340.31
414.258	332.31
414.482	318.31
414.705	332.31
414.928	338.31
415.151	344.31
415.374	337.31
415.597	326.31
415.821	322.31
416.044	311.31
416.267	350.31
416.49	338.31
416.713	337.31
416.936	326.31
417.159	319.31
417.382	303.31
417.605	318.31
417.828	347.31
418.051	326.31
418.274	325.31
418.497	312.31
418.72	334.31
418.943	320.31
419.166	354.31
419.389	362.31
419.611	355.31
419.834	325.31
420.057	362.31
420.28	344.31
420.503	336.31
420.726	326.31
420.948	335.31
421.171	382.31
421.394	402.31
421.617	363.31
421.839	358.31
422.062	340.31
422.285	359.31
422.507	382.31
422.73	438.31
422.953	406.31
423.175	371.31
423.398	366.31
423.621	358.31
423.843	353.31
424.066	364.31
424.288	366.31
424.511	370.31
424.733	406.31
424.956	450.31
425.178	443.31
425.401	422.31
425.623	448.31
425.846	382.31
426.068	361.31
426.291	350.31
426.513	354.31
426.735	378.31
426.958	384.31
427.18	453.31
427.402	498.31
427.625	540.31
427.847	479.31
428.069	432.31
428.292	394.31
428.514	382.31
428.736	355.31
428.958	331.31
429.181	318.31
429.403	339.31
429.625	352.31
429.847	375.31
430.069	407.31
430.292	400.31
430.514	361.31
430.736	329.31
430.958	340.31
431.18	330.31
431.402	339.31
431.624	329.31
431.846	335.31
432.068	334.31
432.29	319.31
432.512	315.31
432.734	323.31
432.956	345.31
433.178	342.31
433.4	338.31
433.622	336.31
433.844	316.31
434.066	329.31
434.287	318.31
434.509	354.31
434.731	320.31
434.953	363.31
435.175	361.31
435.397	361.31
435.618	358.31
435.84	395.31
436.062	440.31
436.284	466.31
436.505	382.31
436.727	364.31
436.949	351.31
437.17	337.31
437.392	339.31
437.614	347.31
437.835	366.31
438.057	405.31
438.278	466.31
438.5	478.31
438.721	543.31
438.943	513.31
439.165	416.31
439.386	354.31
439.608	366.31
439.829	370.31
440.05	376.31
440.272	406.31
440.493	381.31
440.715	361.31
440.936	351.31
441.158	346.31
441.379	340.31
441.6	347.31
441.822	371.31
442.043	371.31
442.264	427.31
442.486	453.31
442.707	391.31
442.928	371.31
443.149	381.31
443.371	393.31
443.592	424.31
443.813	465.31
444.034	488.31
444.255	404.31
444.476	379.31
444.698	362.31
444.919	345.31
445.14	460.31
445.361	419.31
445.582	363.31
445.803	418.31
446.024	468.31
446.245	490.31
446.466	456.31
446.687	385.31
446.908	370.31
447.129	349.31
447.35	351.31
447.571	360.31
447.792	338.31
448.013	332.31
448.234	352.31
448.455	376.31
448.675	463.31
448.896	507.31
449.117	424.31
449.338	423.31
449.559	508.31
449.779	512.31
450	438.31
450.221	376.31
450.442	369.31
450.662	325.31
450.883	323.31
451.104	333.31
451.324	330.31
451.545	326.31
451.766	310.31
451.986	321.31
452.207	314.31
452.428	316.31
452.648	306.31
452.869	325.31
453.089	310.31
453.31	300.31
453.53	310.31
453.751	314.31
453.971	327.31
454.192	311.31
454.412	311.31
454.633	300.31
454.853	308.31
455.073	303.31
455.294	332.31
455.514	350.31
455.734	353.31
455.955	318.31
456.175	300.31
456.395	291.31
456.616	283.31
456.836	287.31
457.056	300.31
457.276	291.31
457.497	274.31
457.717	288.31
457.937	330.31
458.157	304.31
458.377	311.31
458.598	331.31
458.818	338.31
459.038	398.31
459.258	384.31
459.478	359.31
459.698	332.31
459.918	334.31
460.138	326.31
460.358	325.31
460.578	326.31
460.798	330.31
461.018	345.31
461.238	341.31
461.458	340.31
461.678	332.31
461.898	343.31
462.118	369.31
462.338	366.31
462.558	361.31
462.777	366.31
462.997	372.31
463.217	354.31
463.437	350.31
463.657	345.31
463.876	345.31
464.096	356.31
464.316	364.31
464.536	368.31
464.755	371.31
464.975	350.31
465.195	374.31
465.414	398.31
465.634	377.31
465.854	360.31
466.073	344.31
466.293	325.31
466.512	324.31
466.732	338.31
466.951	318.31
467.171	324.31
467.391	320.31
467.61	322.31
467.829	320.31
468.049	319.31
468.268	328.31
468.488	319.31
468.707	329.31
468.927	322.31
469.146	297.31
469.365	313.31
469.585	318.31
469.804	338.31
470.023	315.31
470.243	321.31
470.462	324.31
470.681	328.31
470.901	306.31
471.12	315.31
471.339	329.31
471.558	309.31
471.777	334.31
471.997	328.31
472.216	337.31
472.435	331.31
472.654	342.31
472.873	335.31
473.092	337.31
473.311	336.31
473.53	319.31
473.749	342.31
473.968	355.31
474.187	412.31
474.406	436.31
474.625	359.31
474.844	318.31
475.063	342.31
475.282	337.31
475.501	336.31
475.72	341.31
475.939	322.31
476.158	335.31
476.377	347.31
476.596	335.31
476.814	337.31
477.033	345.31
477.252	345.31
477.471	354.31
477.69	355.31
477.908	348.31
478.127	351.31
478.346	364.31
478.564	352.31
478.783	358.31
479.002	362.31
479.22	368.31
479.439	378.31
479.658	392.31
479.876	379.31
480.095	363.31
480.313	388.31
480.532	386.31
480.751	390.31
480.969	390.31
481.188	422.31
481.406	438.31
481.624	411.31
481.843	388.31
482.061	384.31
482.28	390.31
482.498	374.31
482.717	378.31
482.935	374.31
483.153	392.31
483.372	375.31
483.59	379.31
483.808	390.31
484.027	373.31
484.245	403.31
484.463	400.31
484.681	404.31
484.9	398.31
485.118	396.31
485.336	409.31
485.554	397.31
485.772	409.31
485.99	383.31
486.209	384.31
486.427	401.31
486.645	404.31
486.863	408.31
487.081	415.31
487.299	407.31
487.517	393.31
487.735	426.31
487.953	407.31
488.171	416.31
488.389	408.31
488.607	402.31
488.825	410.31
489.043	411.31
489.261	424.31
489.479	417.31
489.696	418.31
489.914	416.31
490.132	443.31
490.35	426.31
490.568	443.31
490.786	434.31
491.003	437.31
491.221	448.31
491.439	458.31
491.657	441.31
491.874	447.31
492.092	436.31
492.31	447.31
492.527	458.31
492.745	440.31
492.963	435.31
493.18	460.31
493.398	470.31
493.615	475.31
493.833	456.31
494.05	467.31
494.268	448.31
494.485	474.31
494.703	464.31
494.92	460.31
495.138	472.31
495.355	466.31
495.573	455.31
495.79	475.31
496.008	464.31
496.225	489.31
496.442	481.31
496.66	518.31
496.877	484.31
497.094	503.31
497.312	500.31
497.529	505.31
497.746	476.31
497.963	503.31
498.181	529.31
498.398	494.31
498.615	552.31
498.832	527.31
499.049	538.31
499.267	544.31
499.484	556.31
499.701	584.31
499.918	616.31
500.135	608.31
500.352	622.31
500.569	614.31
500.786	615.31
501.003	624.31
501.22	616.31
501.437	599.31
501.654	612.31
501.871	587.31
502.088	584.31
502.305	558.31
502.522	551.31
