Data from 1961.PennyLincolnUp.Lamp.En5.5.200Scan.071719.P1._HRD10591_13-47-57-058.txt Node
Date: Thu Jul 18 13:47:57 EDT 2019
User: cochatt
Spectrometer: HR+D1059
Trigger mode: 1
Integration Time (sec): 1.000000E-1
Scans to average: 1
Electric dark correction enabled: true
Nonlinearity correction enabled: false
Boxcar width: 0
XAxis mode: Wavelengths
Number of Pixels in Spectrum: 2048
>>>>>Begin Spectral Data<<<<<
223.165	-24.44
223.4	-24.44
223.635	-24.44
223.869	-10.44
224.104	-33.44
224.338	-4.44
224.573	-7.44
224.808	-6.44
225.042	-14.44
225.277	-10.44
225.511	-15.44
225.746	10.56
225.98	7.56
226.215	13.56
226.449	23.56
226.683	19.56
226.918	27.56
227.152	24.56
227.387	27.56
227.621	44.56
227.856	49.56
228.09	32.56
228.324	50.56
228.559	53.56
228.793	64.56
229.027	90.56
229.262	96.56
229.496	89.56
229.73	130.56
229.964	143.56
230.199	113.56
230.433	127.56
230.667	114.56
230.901	108.56
231.136	110.56
231.37	89.56
231.604	112.56
231.838	103.56
232.072	110.56
232.306	108.56
232.541	92.56
232.775	99.56
233.009	108.56
233.243	116.56
233.477	103.56
233.711	99.56
233.945	99.56
234.179	112.56
234.413	106.56
234.647	113.56
234.881	100.56
235.115	99.56
235.349	116.56
235.583	119.56
235.817	118.56
236.051	107.56
236.285	112.56
236.519	117.56
236.753	123.56
236.987	141.56
237.221	167.56
237.455	213.56
237.689	177.56
237.922	127.56
238.156	119.56
238.39	116.56
238.624	114.56
238.858	109.56
239.091	121.56
239.325	124.56
239.559	130.56
239.793	119.56
240.027	122.56
240.26	131.56
240.494	142.56
240.728	129.56
240.961	119.56
241.195	120.56
241.429	116.56
241.662	130.56
241.896	124.56
242.13	102.56
242.363	120.56
242.597	120.56
242.83	114.56
243.064	124.56
243.298	108.56
243.531	117.56
243.765	123.56
243.998	115.56
244.232	127.56
244.465	123.56
244.699	127.56
244.932	137.56
245.166	132.56
245.399	136.56
245.633	120.56
245.866	137.56
246.099	145.56
246.333	139.56
246.566	125.56
246.8	141.56
247.033	147.56
247.266	150.56
247.5	148.56
247.733	133.56
247.966	155.56
248.2	159.56
248.433	149.56
248.666	153.56
248.899	163.56
249.133	172.56
249.366	178.56
249.599	173.56
249.832	160.56
250.066	163.56
250.299	155.56
250.532	166.56
250.765	186.56
250.998	188.56
251.231	181.56
251.465	183.56
251.698	160.56
251.931	177.56
252.164	176.56
252.397	160.56
252.63	160.56
252.863	183.56
253.096	173.56
253.329	183.56
253.562	192.56
253.795	184.56
254.028	194.56
254.261	195.56
254.494	211.56
254.727	208.56
254.96	234.56
255.193	236.56
255.426	218.56
255.659	213.56
255.892	181.56
256.124	199.56
256.357	197.56
256.59	194.56
256.823	187.56
257.056	187.56
257.289	177.56
257.521	172.56
257.754	183.56
257.987	197.56
258.22	190.56
258.452	169.56
258.685	183.56
258.918	187.56
259.151	178.56
259.383	173.56
259.616	181.56
259.849	190.56
260.081	204.56
260.314	216.56
260.547	212.56
260.779	207.56
261.012	184.56
261.244	190.56
261.477	179.56
261.71	179.56
261.942	204.56
262.175	218.56
262.407	212.56
262.64	188.56
262.872	194.56
263.105	185.56
263.337	184.56
263.57	173.56
263.802	181.56
264.035	177.56
264.267	180.56
264.499	172.56
264.732	164.56
264.964	167.56
265.197	172.56
265.429	183.56
265.661	175.56
265.894	184.56
266.126	184.56
266.358	180.56
266.591	192.56
266.823	197.56
267.055	174.56
267.287	189.56
267.52	199.56
267.752	194.56
267.984	189.56
268.216	181.56
268.448	176.56
268.681	203.56
268.913	187.56
269.145	205.56
269.377	232.56
269.609	220.56
269.841	218.56
270.073	230.56
270.306	234.56
270.538	260.56
270.77	260.56
271.002	257.56
271.234	237.56
271.466	261.56
271.698	267.56
271.93	274.56
272.162	284.56
272.394	243.56
272.626	243.56
272.858	249.56
273.09	233.56
273.322	205.56
273.553	225.56
273.785	211.56
274.017	221.56
274.249	220.56
274.481	225.56
274.713	225.56
274.945	227.56
275.176	217.56
275.408	230.56
275.64	202.56
275.872	223.56
276.104	220.56
276.335	232.56
276.567	229.56
276.799	227.56
277.031	255.56
277.262	258.56
277.494	281.56
277.726	244.56
277.957	233.56
278.189	241.56
278.421	245.56
278.652	231.56
278.884	230.56
279.115	215.56
279.347	230.56
279.579	211.56
279.81	207.56
280.042	229.56
280.273	219.56
280.505	206.56
280.736	210.56
280.968	227.56
281.199	231.56
281.431	236.56
281.662	227.56
281.894	216.56
282.125	228.56
282.356	242.56
282.588	262.56
282.819	271.56
283.051	241.56
283.282	218.56
283.513	235.56
283.745	225.56
283.976	235.56
284.207	228.56
284.439	229.56
284.67	234.56
284.901	229.56
285.132	215.56
285.364	223.56
285.595	214.56
285.826	225.56
286.057	235.56
286.288	244.56
286.52	216.56
286.751	224.56
286.982	232.56
287.213	226.56
287.444	224.56
287.675	239.56
287.906	226.56
288.138	248.56
288.369	252.56
288.6	241.56
288.831	228.56
289.062	241.56
289.293	234.56
289.524	219.56
289.755	233.56
289.986	231.56
290.217	233.56
290.448	233.56
290.679	229.56
290.91	220.56
291.141	226.56
291.371	226.56
291.602	237.56
291.833	229.56
292.064	221.56
292.295	235.56
292.526	231.56
292.757	202.56
292.987	231.56
293.218	227.56
293.449	240.56
293.68	229.56
293.91	231.56
294.141	242.56
294.372	231.56
294.603	241.56
294.833	232.56
295.064	234.56
295.295	243.56
295.525	225.56
295.756	236.56
295.987	243.56
296.217	263.56
296.448	272.56
296.679	256.56
296.909	234.56
297.14	239.56
297.37	260.56
297.601	233.56
297.831	236.56
298.062	237.56
298.292	240.56
298.523	243.56
298.753	255.56
298.984	259.56
299.214	237.56
299.445	243.56
299.675	256.56
299.905	263.56
300.136	263.56
300.366	242.56
300.597	255.56
300.827	246.56
301.057	263.56
301.288	261.56
301.518	250.56
301.748	261.56
301.979	263.56
302.209	275.56
302.439	275.56
302.669	270.56
302.9	263.56
303.13	262.56
303.36	267.56
303.59	284.56
303.82	269.56
304.051	274.56
304.281	248.56
304.511	258.56
304.741	268.56
304.971	265.56
305.201	266.56
305.431	268.56
305.661	277.56
305.891	271.56
306.121	266.56
306.352	273.56
306.582	293.56
306.812	264.56
307.042	284.56
307.272	267.56
307.502	273.56
307.731	271.56
307.961	288.56
308.191	261.56
308.421	287.56
308.651	285.56
308.881	270.56
309.111	263.56
309.341	281.56
309.571	267.56
309.8	301.56
310.03	308.56
310.26	316.56
310.49	322.56
310.72	325.56
310.949	337.56
311.179	327.56
311.409	309.56
311.639	313.56
311.868	315.56
312.098	311.56
312.328	321.56
312.557	332.56
312.787	356.56
313.017	342.56
313.246	323.56
313.476	310.56
313.706	307.56
313.935	319.56
314.165	350.56
314.394	347.56
314.624	341.56
314.853	317.56
315.083	326.56
315.312	331.56
315.542	307.56
315.771	303.56
316.001	305.56
316.23	324.56
316.46	303.56
316.689	317.56
316.919	317.56
317.148	314.56
317.377	332.56
317.607	325.56
317.836	333.56
318.065	338.56
318.295	327.56
318.524	297.56
318.753	296.56
318.983	303.56
319.212	325.56
319.441	327.56
319.67	342.56
319.9	320.56
320.129	329.56
320.358	296.56
320.587	318.56
320.816	339.56
321.046	329.56
321.275	325.56
321.504	336.56
321.733	362.56
321.962	365.56
322.191	359.56
322.42	377.56
322.649	394.56
322.878	400.56
323.108	413.56
323.337	436.56
323.566	456.56
323.795	485.56
324.024	552.56
324.253	678.56
324.482	992.56
324.71	1555.56
324.939	2169.56
325.168	1829.56
325.397	959.56
325.626	637.56
325.855	527.56
326.084	479.56
326.313	458.56
326.542	464.56
326.77	507.56
326.999	635.56
327.228	892.56
327.457	1337.56
327.686	1574.56
327.914	1059.56
328.143	677.56
328.372	614.56
328.6	550.56
328.829	534.56
329.058	524.56
329.287	563.56
329.515	489.56
329.744	455.56
329.972	439.56
330.201	475.56
330.43	537.56
330.658	565.56
330.887	581.56
331.115	546.56
331.344	446.56
331.572	439.56
331.801	420.56
332.03	428.56
332.258	392.56
332.486	383.56
332.715	389.56
332.943	372.56
333.172	379.56
333.4	363.56
333.629	381.56
333.857	411.56
334.085	431.56
334.314	431.56
334.542	463.56
334.771	505.56
334.999	424.56
335.227	383.56
335.455	391.56
335.684	370.56
335.912	360.56
336.14	387.56
336.369	369.56
336.597	377.56
336.825	398.56
337.053	374.56
337.281	345.56
337.51	379.56
337.738	357.56
337.966	379.56
338.194	367.56
338.422	365.56
338.65	370.56
338.878	359.56
339.106	351.56
339.334	344.56
339.562	348.56
339.79	331.56
340.018	342.56
340.246	372.56
340.474	359.56
340.702	347.56
340.93	348.56
341.158	359.56
341.386	355.56
341.614	369.56
341.842	339.56
342.07	348.56
342.298	345.56
342.526	342.56
342.754	349.56
342.981	338.56
343.209	328.56
343.437	333.56
343.665	349.56
343.893	339.56
344.12	351.56
344.348	343.56
344.576	340.56
344.804	374.56
345.031	357.56
345.259	373.56
345.487	362.56
345.714	343.56
345.942	348.56
346.17	348.56
346.397	363.56
346.625	347.56
346.853	339.56
347.08	341.56
347.308	353.56
347.535	362.56
347.763	363.56
347.99	367.56
348.218	373.56
348.445	367.56
348.673	354.56
348.9	339.56
349.128	332.56
349.355	346.56
349.583	345.56
349.81	345.56
350.037	346.56
350.265	332.56
350.492	333.56
350.72	338.56
350.947	341.56
351.174	346.56
351.402	346.56
351.629	351.56
351.856	347.56
352.083	385.56
352.311	359.56
352.538	355.56
352.765	374.56
352.992	347.56
353.22	354.56
353.447	350.56
353.674	360.56
353.901	352.56
354.128	344.56
354.355	336.56
354.583	337.56
354.81	321.56
355.037	314.56
355.264	303.56
355.491	298.56
355.718	308.56
355.945	301.56
356.172	332.56
356.399	324.56
356.626	312.56
356.853	317.56
357.08	322.56
357.307	324.56
357.534	306.56
357.761	340.56
357.988	335.56
358.215	326.56
358.441	332.56
358.668	321.56
358.895	322.56
359.122	338.56
359.349	341.56
359.576	347.56
359.802	376.56
360.029	399.56
360.256	411.56
360.483	395.56
360.709	352.56
360.936	358.56
361.163	337.56
361.39	354.56
361.616	360.56
361.843	356.56
362.07	348.56
362.296	365.56
362.523	362.56
362.749	360.56
362.976	335.56
363.203	335.56
363.429	316.56
363.656	334.56
363.882	340.56
364.109	342.56
364.335	304.56
364.562	330.56
364.788	329.56
365.015	341.56
365.241	322.56
365.468	338.56
365.694	343.56
365.92	338.56
366.147	332.56
366.373	338.56
366.599	307.56
366.826	318.56
367.052	329.56
367.278	321.56
367.505	329.56
367.731	324.56
367.957	311.56
368.184	321.56
368.41	336.56
368.636	342.56
368.862	347.56
369.089	344.56
369.315	322.56
369.541	320.56
369.767	351.56
369.993	332.56
370.219	331.56
370.445	321.56
370.672	327.56
370.898	324.56
371.124	316.56
371.35	332.56
371.576	322.56
371.802	317.56
372.028	333.56
372.254	320.56
372.48	315.56
372.706	326.56
372.932	319.56
373.158	333.56
373.384	328.56
373.61	331.56
373.835	332.56
374.061	336.56
374.287	324.56
374.513	328.56
374.739	315.56
374.965	317.56
375.191	312.56
375.416	323.56
375.642	318.56
375.868	329.56
376.094	307.56
376.319	315.56
376.545	326.56
376.771	327.56
376.997	324.56
377.222	318.56
377.448	309.56
377.674	337.56
377.899	318.56
378.125	317.56
378.35	300.56
378.576	316.56
378.802	307.56
379.027	330.56
379.253	313.56
379.478	310.56
379.704	331.56
379.929	329.56
380.155	328.56
380.38	309.56
380.606	320.56
380.831	311.56
381.057	330.56
381.282	311.56
381.507	320.56
381.733	316.56
381.958	336.56
382.184	330.56
382.409	335.56
382.634	325.56
382.86	316.56
383.085	318.56
383.31	344.56
383.535	337.56
383.761	329.56
383.986	339.56
384.211	326.56
384.436	336.56
384.662	333.56
384.887	346.56
385.112	329.56
385.337	346.56
385.562	352.56
385.787	338.56
386.013	337.56
386.238	359.56
386.463	343.56
386.688	358.56
386.913	370.56
387.138	353.56
387.363	360.56
387.588	347.56
387.813	347.56
388.038	322.56
388.263	344.56
388.488	347.56
388.713	333.56
388.938	354.56
389.163	355.56
389.387	368.56
389.612	353.56
389.837	357.56
390.062	343.56
390.287	329.56
390.512	340.56
390.736	342.56
390.961	346.56
391.186	356.56
391.411	351.56
391.636	341.56
391.86	336.56
392.085	360.56
392.31	360.56
392.534	357.56
392.759	362.56
392.984	355.56
393.208	364.56
393.433	353.56
393.658	387.56
393.882	355.56
394.107	355.56
394.331	348.56
394.556	336.56
394.78	355.56
395.005	354.56
395.229	364.56
395.454	349.56
395.678	364.56
395.903	391.56
396.127	384.56
396.352	390.56
396.576	346.56
396.801	345.56
397.025	369.56
397.249	377.56
397.474	377.56
397.698	378.56
397.922	389.56
398.147	407.56
398.371	392.56
398.595	387.56
398.82	395.56
399.044	394.56
399.268	414.56
399.492	404.56
399.717	423.56
399.941	468.56
400.165	483.56
400.389	492.56
400.613	445.56
400.837	419.56
401.062	427.56
401.286	410.56
401.51	396.56
401.734	384.56
401.958	405.56
402.182	405.56
402.406	393.56
402.63	405.56
402.854	416.56
403.078	423.56
403.302	422.56
403.526	400.56
403.75	422.56
403.974	424.56
404.198	405.56
404.422	419.56
404.645	419.56
404.869	439.56
405.093	456.56
405.317	467.56
405.541	505.56
405.765	459.56
405.988	433.56
406.212	458.56
406.436	483.56
406.66	474.56
406.883	461.56
407.107	474.56
407.331	518.56
407.555	543.56
407.778	544.56
408.002	489.56
408.226	485.56
408.449	442.56
408.673	468.56
408.896	476.56
409.12	499.56
409.344	497.56
409.567	435.56
409.791	402.56
410.014	410.56
410.238	438.56
410.461	418.56
410.685	434.56
410.908	419.56
411.132	465.56
411.355	482.56
411.578	462.56
411.802	426.56
412.025	415.56
412.249	430.56
412.472	435.56
412.695	460.56
412.919	478.56
413.142	442.56
413.365	407.56
413.589	412.56
413.812	384.56
414.035	396.56
414.258	404.56
414.482	396.56
414.705	369.56
414.928	383.56
415.151	404.56
415.374	390.56
415.597	395.56
415.821	403.56
416.044	403.56
416.267	381.56
416.49	383.56
416.713	387.56
416.936	390.56
417.159	382.56
417.382	379.56
417.605	390.56
417.828	395.56
418.051	423.56
418.274	407.56
418.497	400.56
418.72	388.56
418.943	376.56
419.166	406.56
419.389	419.56
419.611	415.56
419.834	422.56
420.057	417.56
420.28	415.56
420.503	412.56
420.726	406.56
420.948	423.56
421.171	469.56
421.394	474.56
421.617	440.56
421.839	424.56
422.062	434.56
422.285	434.56
422.507	467.56
422.73	531.56
422.953	506.56
423.175	422.56
423.398	438.56
423.621	444.56
423.843	432.56
424.066	439.56
424.288	433.56
424.511	454.56
424.733	515.56
424.956	575.56
425.178	562.56
425.401	537.56
425.623	580.56
425.846	476.56
426.068	456.56
426.291	451.56
426.513	444.56
426.735	455.56
426.958	483.56
427.18	583.56
427.402	689.56
427.625	733.56
427.847	667.56
428.069	601.56
428.292	515.56
428.514	466.56
428.736	427.56
428.958	452.56
429.181	437.56
429.403	427.56
429.625	429.56
429.847	468.56
430.069	517.56
430.292	515.56
430.514	451.56
430.736	409.56
430.958	438.56
431.18	401.56
431.402	407.56
431.624	384.56
431.846	393.56
432.068	391.56
432.29	376.56
432.512	409.56
432.734	404.56
432.956	408.56
433.178	399.56
433.4	429.56
433.622	390.56
433.844	397.56
434.066	392.56
434.287	368.56
434.509	400.56
434.731	417.56
434.953	427.56
435.175	414.56
435.397	439.56
435.618	443.56
435.84	500.56
436.062	585.56
436.284	614.56
436.505	519.56
436.727	488.56
436.949	456.56
437.17	442.56
437.392	424.56
437.614	425.56
437.835	481.56
438.057	576.56
438.278	658.56
438.5	635.56
438.721	662.56
438.943	652.56
439.165	530.56
439.386	471.56
439.608	488.56
439.829	473.56
440.05	494.56
440.272	569.56
440.493	487.56
440.715	488.56
440.936	453.56
441.158	426.56
441.379	420.56
441.6	438.56
441.822	476.56
442.043	489.56
442.264	558.56
442.486	584.56
442.707	507.56
442.928	470.56
443.149	470.56
443.371	484.56
443.592	529.56
443.813	611.56
444.034	633.56
444.255	547.56
444.476	499.56
444.698	465.56
444.919	455.56
445.14	545.56
445.361	507.56
445.582	488.56
445.803	563.56
446.024	657.56
446.245	643.56
446.466	586.56
446.687	521.56
446.908	492.56
447.129	446.56
447.35	436.56
447.571	428.56
447.792	433.56
448.013	427.56
448.234	445.56
448.455	507.56
448.675	612.56
448.896	690.56
449.117	592.56
449.338	555.56
449.559	637.56
449.779	698.56
450	568.56
450.221	492.56
450.442	443.56
450.662	441.56
450.883	441.56
451.104	448.56
451.324	468.56
451.545	413.56
451.766	424.56
451.986	404.56
452.207	377.56
452.428	389.56
452.648	391.56
452.869	393.56
453.089	387.56
453.31	389.56
453.53	394.56
453.751	401.56
453.971	391.56
454.192	424.56
454.412	407.56
454.633	399.56
454.853	397.56
455.073	376.56
455.294	411.56
455.514	461.56
455.734	471.56
455.955	407.56
456.175	395.56
456.395	355.56
456.616	356.56
456.836	369.56
457.056	368.56
457.276	359.56
457.497	357.56
457.717	360.56
457.937	352.56
458.157	375.56
458.377	375.56
458.598	393.56
458.818	470.56
459.038	526.56
459.258	535.56
459.478	442.56
459.698	407.56
459.918	419.56
460.138	389.56
460.358	418.56
460.578	397.56
460.798	405.56
461.018	405.56
461.238	405.56
461.458	410.56
461.678	393.56
461.898	383.56
462.118	394.56
462.338	399.56
462.558	417.56
462.777	422.56
462.997	421.56
463.217	431.56
463.437	425.56
463.657	452.56
463.876	403.56
464.096	419.56
464.316	436.56
464.536	432.56
464.755	432.56
464.975	445.56
465.195	469.56
465.414	574.56
465.634	507.56
465.854	454.56
466.073	423.56
466.293	403.56
466.512	391.56
466.732	407.56
466.951	393.56
467.171	396.56
467.391	412.56
467.61	412.56
467.829	421.56
468.049	395.56
468.268	396.56
468.488	388.56
468.707	387.56
468.927	392.56
469.146	387.56
469.365	386.56
469.585	394.56
469.804	406.56
470.023	418.56
470.243	425.56
470.462	403.56
470.681	436.56
470.901	409.56
471.12	418.56
471.339	400.56
471.558	395.56
471.777	411.56
471.997	402.56
472.216	397.56
472.435	441.56
472.654	437.56
472.873	407.56
473.092	402.56
473.311	396.56
473.53	383.56
473.749	403.56
473.968	450.56
474.187	535.56
474.406	552.56
474.625	461.56
474.844	419.56
475.063	422.56
475.282	412.56
475.501	409.56
475.72	416.56
475.939	417.56
476.158	401.56
476.377	407.56
476.596	405.56
476.814	426.56
477.033	428.56
477.252	437.56
477.471	449.56
477.69	407.56
477.908	440.56
478.127	422.56
478.346	422.56
478.564	418.56
478.783	431.56
479.002	417.56
479.22	472.56
479.439	454.56
479.658	479.56
479.876	493.56
480.095	493.56
480.313	488.56
480.532	489.56
480.751	469.56
480.969	499.56
481.188	537.56
481.406	601.56
481.624	511.56
481.843	497.56
482.061	480.56
482.28	488.56
482.498	477.56
482.717	467.56
482.935	473.56
483.153	465.56
483.372	477.56
483.59	449.56
483.808	465.56
484.027	475.56
484.245	465.56
484.463	459.56
484.681	476.56
484.9	481.56
485.118	490.56
485.336	487.56
485.554	474.56
485.772	463.56
485.99	481.56
486.209	496.56
486.427	511.56
486.645	483.56
486.863	516.56
487.081	506.56
487.299	482.56
487.517	469.56
487.735	481.56
487.953	506.56
488.171	523.56
488.389	492.56
488.607	484.56
488.825	491.56
489.043	496.56
489.261	525.56
489.479	516.56
489.696	523.56
489.914	516.56
490.132	523.56
490.35	516.56
490.568	537.56
490.786	541.56
491.003	552.56
491.221	561.56
491.439	555.56
491.657	536.56
491.874	570.56
492.092	573.56
492.31	559.56
492.527	571.56
492.745	555.56
492.963	584.56
493.18	561.56
493.398	589.56
493.615	587.56
493.833	593.56
494.05	594.56
494.268	581.56
494.485	570.56
494.703	572.56
494.92	572.56
495.138	597.56
495.355	566.56
495.573	572.56
495.79	611.56
496.008	629.56
496.225	603.56
496.442	623.56
496.66	614.56
496.877	604.56
497.094	608.56
497.312	627.56
497.529	602.56
497.746	603.56
497.963	635.56
498.181	630.56
498.398	635.56
498.615	635.56
498.832	657.56
499.049	642.56
499.267	675.56
499.484	674.56
499.701	690.56
499.918	703.56
500.135	716.56
500.352	742.56
500.569	753.56
500.786	771.56
501.003	764.56
501.22	744.56
501.437	771.56
501.654	723.56
501.871	747.56
502.088	707.56
