Data from 1961.PennyLincolnUp.Lamp.En5.5.200Scan.071719.P1._HRD10591_13-46-52-057.txt Node
Date: Thu Jul 18 13:46:52 EDT 2019
User: cochatt
Spectrometer: HR+D1059
Trigger mode: 1
Integration Time (sec): 1.000000E-1
Scans to average: 1
Electric dark correction enabled: true
Nonlinearity correction enabled: false
Boxcar width: 0
XAxis mode: Wavelengths
Number of Pixels in Spectrum: 2048
>>>>>Begin Spectral Data<<<<<
223.165	-14.44
223.4	-14.44
223.635	-14.44
223.869	-12.44
224.104	-10.44
224.338	-7.44
224.573	-8.44
224.808	-12.44
225.042	-6.44
225.277	-5.44
225.511	-12.44
225.746	5.56
225.98	2.56
226.215	6.56
226.449	16.56
226.683	9.56
226.918	23.56
227.152	25.56
227.387	37.56
227.621	27.56
227.856	54.56
228.09	44.56
228.324	53.56
228.559	54.56
228.793	76.56
229.027	80.56
229.262	107.56
229.496	110.56
229.73	116.56
229.964	119.56
230.199	99.56
230.433	109.56
230.667	85.56
230.901	91.56
231.136	114.56
231.37	104.56
231.604	111.56
231.838	124.56
232.072	127.56
232.306	111.56
232.541	113.56
232.775	114.56
233.009	114.56
233.243	101.56
233.477	100.56
233.711	105.56
233.945	108.56
234.179	116.56
234.413	106.56
234.647	94.56
234.881	113.56
235.115	123.56
235.349	105.56
235.583	107.56
235.817	108.56
236.051	113.56
236.285	116.56
236.519	115.56
236.753	117.56
236.987	123.56
237.221	159.56
237.455	195.56
237.689	164.56
237.922	108.56
238.156	129.56
238.39	103.56
238.624	110.56
238.858	118.56
239.091	104.56
239.325	120.56
239.559	113.56
239.793	110.56
240.027	126.56
240.26	128.56
240.494	123.56
240.728	129.56
240.961	140.56
241.195	123.56
241.429	113.56
241.662	129.56
241.896	118.56
242.13	129.56
242.363	122.56
242.597	131.56
242.83	125.56
243.064	123.56
243.298	119.56
243.531	128.56
243.765	102.56
243.998	122.56
244.232	125.56
244.465	129.56
244.699	130.56
244.932	117.56
245.166	121.56
245.399	126.56
245.633	112.56
245.866	126.56
246.099	128.56
246.333	123.56
246.566	126.56
246.8	121.56
247.033	128.56
247.266	130.56
247.5	138.56
247.733	141.56
247.966	133.56
248.2	159.56
248.433	137.56
248.666	158.56
248.899	163.56
249.133	179.56
249.366	179.56
249.599	163.56
249.832	142.56
250.066	153.56
250.299	154.56
250.532	164.56
250.765	155.56
250.998	177.56
251.231	177.56
251.465	170.56
251.698	153.56
251.931	152.56
252.164	143.56
252.397	163.56
252.63	165.56
252.863	175.56
253.096	155.56
253.329	188.56
253.562	172.56
253.795	154.56
254.028	172.56
254.261	173.56
254.494	176.56
254.727	194.56
254.96	206.56
255.193	201.56
255.426	186.56
255.659	196.56
255.892	189.56
256.124	192.56
256.357	201.56
256.59	180.56
256.823	181.56
257.056	166.56
257.289	165.56
257.521	167.56
257.754	157.56
257.987	169.56
258.22	166.56
258.452	179.56
258.685	169.56
258.918	171.56
259.151	178.56
259.383	169.56
259.616	178.56
259.849	167.56
260.081	181.56
260.314	206.56
260.547	190.56
260.779	192.56
261.012	193.56
261.244	186.56
261.477	170.56
261.71	172.56
261.942	197.56
262.175	196.56
262.407	182.56
262.64	175.56
262.872	183.56
263.105	180.56
263.337	174.56
263.57	171.56
263.802	174.56
264.035	175.56
264.267	163.56
264.499	161.56
264.732	173.56
264.964	171.56
265.197	165.56
265.429	141.56
265.661	182.56
265.894	165.56
266.126	171.56
266.358	167.56
266.591	149.56
266.823	179.56
267.055	189.56
267.287	190.56
267.52	189.56
267.752	182.56
267.984	182.56
268.216	186.56
268.448	182.56
268.681	179.56
268.913	193.56
269.145	215.56
269.377	220.56
269.609	221.56
269.841	206.56
270.073	221.56
270.306	219.56
270.538	218.56
270.77	248.56
271.002	246.56
271.234	231.56
271.466	236.56
271.698	226.56
271.93	232.56
272.162	229.56
272.394	247.56
272.626	244.56
272.858	220.56
273.09	210.56
273.322	193.56
273.553	212.56
273.785	201.56
274.017	199.56
274.249	203.56
274.481	206.56
274.713	212.56
274.945	202.56
275.176	196.56
275.408	214.56
275.64	210.56
275.872	199.56
276.104	207.56
276.335	201.56
276.567	203.56
276.799	225.56
277.031	235.56
277.262	241.56
277.494	236.56
277.726	212.56
277.957	224.56
278.189	218.56
278.421	200.56
278.652	215.56
278.884	200.56
279.115	211.56
279.347	200.56
279.579	207.56
279.81	205.56
280.042	194.56
280.273	205.56
280.505	210.56
280.736	197.56
280.968	218.56
281.199	184.56
281.431	189.56
281.662	196.56
281.894	210.56
282.125	214.56
282.356	215.56
282.588	238.56
282.819	226.56
283.051	219.56
283.282	222.56
283.513	214.56
283.745	209.56
283.976	221.56
284.207	211.56
284.439	219.56
284.67	212.56
284.901	207.56
285.132	216.56
285.364	206.56
285.595	207.56
285.826	198.56
286.057	207.56
286.288	213.56
286.52	210.56
286.751	230.56
286.982	209.56
287.213	207.56
287.444	213.56
287.675	212.56
287.906	217.56
288.138	224.56
288.369	229.56
288.6	237.56
288.831	214.56
289.062	228.56
289.293	226.56
289.524	221.56
289.755	226.56
289.986	207.56
290.217	212.56
290.448	215.56
290.679	230.56
290.91	233.56
291.141	218.56
291.371	224.56
291.602	229.56
291.833	197.56
292.064	219.56
292.295	213.56
292.526	237.56
292.757	223.56
292.987	219.56
293.218	217.56
293.449	231.56
293.68	228.56
293.91	201.56
294.141	224.56
294.372	229.56
294.603	212.56
294.833	199.56
295.064	215.56
295.295	228.56
295.525	220.56
295.756	237.56
295.987	251.56
296.217	248.56
296.448	243.56
296.679	213.56
296.909	234.56
297.14	226.56
297.37	233.56
297.601	230.56
297.831	222.56
298.062	231.56
298.292	237.56
298.523	213.56
298.753	233.56
298.984	238.56
299.214	217.56
299.445	218.56
299.675	225.56
299.905	219.56
300.136	248.56
300.366	227.56
300.597	234.56
300.827	241.56
301.057	235.56
301.288	238.56
301.518	260.56
301.748	234.56
301.979	260.56
302.209	239.56
302.439	250.56
302.669	246.56
302.9	258.56
303.13	240.56
303.36	241.56
303.59	254.56
303.82	246.56
304.051	247.56
304.281	233.56
304.511	253.56
304.741	225.56
304.971	243.56
305.201	245.56
305.431	244.56
305.661	220.56
305.891	241.56
306.121	250.56
306.352	239.56
306.582	245.56
306.812	241.56
307.042	231.56
307.272	260.56
307.502	265.56
307.731	246.56
307.961	257.56
308.191	237.56
308.421	260.56
308.651	273.56
308.881	258.56
309.111	249.56
309.341	261.56
309.571	275.56
309.8	283.56
310.03	299.56
310.26	309.56
310.49	266.56
310.72	275.56
310.949	304.56
311.179	315.56
311.409	295.56
311.639	269.56
311.868	290.56
312.098	299.56
312.328	290.56
312.557	306.56
312.787	319.56
313.017	313.56
313.246	290.56
313.476	287.56
313.706	294.56
313.935	284.56
314.165	297.56
314.394	302.56
314.624	300.56
314.853	302.56
315.083	290.56
315.312	279.56
315.542	280.56
315.771	277.56
316.001	302.56
316.23	296.56
316.46	286.56
316.689	302.56
316.919	295.56
317.148	299.56
317.377	298.56
317.607	310.56
317.836	296.56
318.065	296.56
318.295	275.56
318.524	289.56
318.753	271.56
318.983	294.56
319.212	290.56
319.441	289.56
319.67	294.56
319.9	299.56
320.129	270.56
320.358	279.56
320.587	290.56
320.816	296.56
321.046	314.56
321.275	311.56
321.504	312.56
321.733	310.56
321.962	325.56
322.191	336.56
322.42	330.56
322.649	341.56
322.878	340.56
323.108	356.56
323.337	373.56
323.566	413.56
323.795	437.56
324.024	488.56
324.253	584.56
324.482	853.56
324.71	1297.56
324.939	1768.56
325.168	1501.56
325.397	793.56
325.626	558.56
325.855	425.56
326.084	426.56
326.313	393.56
326.542	391.56
326.77	437.56
326.999	551.56
327.228	758.56
327.457	1113.56
327.686	1267.56
327.914	888.56
328.143	591.56
328.372	515.56
328.6	476.56
328.829	464.56
329.058	462.56
329.287	473.56
329.515	438.56
329.744	400.56
329.972	405.56
330.201	425.56
330.43	458.56
330.658	470.56
330.887	482.56
331.115	461.56
331.344	414.56
331.572	371.56
331.801	398.56
332.03	359.56
332.258	360.56
332.486	350.56
332.715	348.56
332.943	344.56
333.172	370.56
333.4	334.56
333.629	346.56
333.857	352.56
334.085	370.56
334.314	397.56
334.542	419.56
334.771	413.56
334.999	405.56
335.227	367.56
335.455	352.56
335.684	349.56
335.912	339.56
336.14	363.56
336.369	355.56
336.597	345.56
336.825	331.56
337.053	342.56
337.281	331.56
337.51	332.56
337.738	338.56
337.966	335.56
338.194	331.56
338.422	350.56
338.65	340.56
338.878	320.56
339.106	340.56
339.334	323.56
339.562	322.56
339.79	307.56
340.018	317.56
340.246	319.56
340.474	319.56
340.702	326.56
340.93	341.56
341.158	305.56
341.386	313.56
341.614	322.56
341.842	317.56
342.07	324.56
342.298	333.56
342.526	340.56
342.754	312.56
342.981	300.56
343.209	315.56
343.437	314.56
343.665	332.56
343.893	310.56
344.12	334.56
344.348	328.56
344.576	332.56
344.804	343.56
345.031	323.56
345.259	370.56
345.487	345.56
345.714	325.56
345.942	323.56
346.17	313.56
346.397	307.56
346.625	326.56
346.853	317.56
347.08	301.56
347.308	327.56
347.535	316.56
347.763	319.56
347.99	333.56
348.218	343.56
348.445	336.56
348.673	327.56
348.9	318.56
349.128	327.56
349.355	310.56
349.583	311.56
349.81	317.56
350.037	308.56
350.265	310.56
350.492	298.56
350.72	316.56
350.947	321.56
351.174	333.56
351.402	331.56
351.629	302.56
351.856	291.56
352.083	305.56
352.311	343.56
352.538	333.56
352.765	356.56
352.992	346.56
353.22	318.56
353.447	315.56
353.674	325.56
353.901	313.56
354.128	327.56
354.355	299.56
354.583	303.56
354.81	294.56
355.037	316.56
355.264	311.56
355.491	299.56
355.718	303.56
355.945	307.56
356.172	307.56
356.399	296.56
356.626	301.56
356.853	321.56
357.08	289.56
357.307	300.56
357.534	288.56
357.761	296.56
357.988	300.56
358.215	302.56
358.441	322.56
358.668	296.56
358.895	293.56
359.122	315.56
359.349	313.56
359.576	321.56
359.802	350.56
360.029	362.56
360.256	365.56
360.483	347.56
360.709	338.56
360.936	340.56
361.163	307.56
361.39	323.56
361.616	319.56
361.843	314.56
362.07	342.56
362.296	318.56
362.523	324.56
362.749	322.56
362.976	300.56
363.203	314.56
363.429	301.56
363.656	302.56
363.882	298.56
364.109	308.56
364.335	300.56
364.562	311.56
364.788	314.56
365.015	302.56
365.241	318.56
365.468	308.56
365.694	311.56
365.92	321.56
366.147	298.56
366.373	319.56
366.599	310.56
366.826	300.56
367.052	326.56
367.278	326.56
367.505	307.56
367.731	309.56
367.957	319.56
368.184	287.56
368.41	294.56
368.636	305.56
368.862	317.56
369.089	326.56
369.315	308.56
369.541	299.56
369.767	316.56
369.993	289.56
370.219	297.56
370.445	322.56
370.672	310.56
370.898	285.56
371.124	296.56
371.35	323.56
371.576	307.56
371.802	310.56
372.028	297.56
372.254	297.56
372.48	318.56
372.706	290.56
372.932	291.56
373.158	312.56
373.384	307.56
373.61	304.56
373.835	315.56
374.061	290.56
374.287	311.56
374.513	325.56
374.739	306.56
374.965	300.56
375.191	290.56
375.416	305.56
375.642	312.56
375.868	325.56
376.094	286.56
376.319	290.56
376.545	305.56
376.771	294.56
376.997	307.56
377.222	321.56
377.448	309.56
377.674	295.56
377.899	308.56
378.125	291.56
378.35	322.56
378.576	313.56
378.802	290.56
379.027	305.56
379.253	300.56
379.478	289.56
379.704	293.56
379.929	317.56
380.155	325.56
380.38	320.56
380.606	303.56
380.831	317.56
381.057	311.56
381.282	299.56
381.507	292.56
381.733	315.56
381.958	299.56
382.184	296.56
382.409	320.56
382.634	307.56
382.86	299.56
383.085	321.56
383.31	324.56
383.535	316.56
383.761	299.56
383.986	308.56
384.211	318.56
384.436	325.56
384.662	314.56
384.887	309.56
385.112	324.56
385.337	331.56
385.562	325.56
385.787	287.56
386.013	338.56
386.238	340.56
386.463	329.56
386.688	312.56
386.913	321.56
387.138	338.56
387.363	317.56
387.588	341.56
387.813	322.56
388.038	312.56
388.263	337.56
388.488	321.56
388.713	319.56
388.938	325.56
389.163	330.56
389.387	340.56
389.612	332.56
389.837	334.56
390.062	333.56
390.287	330.56
390.512	337.56
390.736	330.56
390.961	339.56
391.186	335.56
391.411	343.56
391.636	334.56
391.86	322.56
392.085	337.56
392.31	335.56
392.534	361.56
392.759	356.56
392.984	348.56
393.208	332.56
393.433	333.56
393.658	329.56
393.882	340.56
394.107	332.56
394.331	324.56
394.556	316.56
394.78	326.56
395.005	336.56
395.229	331.56
395.454	358.56
395.678	349.56
395.903	362.56
396.127	379.56
396.352	351.56
396.576	345.56
396.801	351.56
397.025	346.56
397.249	371.56
397.474	346.56
397.698	365.56
397.922	362.56
398.147	367.56
398.371	383.56
398.595	374.56
398.82	364.56
399.044	379.56
399.268	360.56
399.492	392.56
399.717	396.56
399.941	452.56
400.165	460.56
400.389	470.56
400.613	423.56
400.837	402.56
401.062	381.56
401.286	390.56
401.51	367.56
401.734	374.56
401.958	362.56
402.182	374.56
402.406	383.56
402.63	403.56
402.854	376.56
403.078	377.56
403.302	375.56
403.526	384.56
403.75	370.56
403.974	392.56
404.198	388.56
404.422	394.56
404.645	405.56
404.869	391.56
405.093	436.56
405.317	455.56
405.541	460.56
405.765	419.56
405.988	421.56
406.212	408.56
406.436	413.56
406.66	429.56
406.883	421.56
407.107	443.56
407.331	488.56
407.555	516.56
407.778	515.56
408.002	459.56
408.226	426.56
408.449	429.56
408.673	415.56
408.896	428.56
409.12	477.56
409.344	465.56
409.567	414.56
409.791	399.56
410.014	379.56
410.238	382.56
410.461	406.56
410.685	396.56
410.908	409.56
411.132	426.56
411.355	455.56
411.578	447.56
411.802	403.56
412.025	397.56
412.249	409.56
412.472	437.56
412.695	453.56
412.919	395.56
413.142	396.56
413.365	379.56
413.589	382.56
413.812	394.56
414.035	374.56
414.258	370.56
414.482	361.56
414.705	344.56
414.928	360.56
415.151	369.56
415.374	385.56
415.597	375.56
415.821	366.56
416.044	360.56
416.267	371.56
416.49	386.56
416.713	360.56
416.936	371.56
417.159	369.56
417.382	371.56
417.605	375.56
417.828	410.56
418.051	393.56
418.274	368.56
418.497	369.56
418.72	370.56
418.943	365.56
419.166	385.56
419.389	395.56
419.611	383.56
419.834	398.56
420.057	402.56
420.28	400.56
420.503	392.56
420.726	383.56
420.948	397.56
421.171	419.56
421.394	445.56
421.617	399.56
421.839	393.56
422.062	378.56
422.285	395.56
422.507	431.56
422.73	486.56
422.953	457.56
423.175	422.56
423.398	411.56
423.621	421.56
423.843	423.56
424.066	392.56
424.288	419.56
424.511	442.56
424.733	453.56
424.956	519.56
425.178	523.56
425.401	506.56
425.623	540.56
425.846	469.56
426.068	431.56
426.291	420.56
426.513	411.56
426.735	447.56
426.958	474.56
427.18	546.56
427.402	602.56
427.625	669.56
427.847	605.56
428.069	546.56
428.292	458.56
428.514	432.56
428.736	395.56
428.958	397.56
429.181	412.56
429.403	399.56
429.625	404.56
429.847	418.56
430.069	474.56
430.292	468.56
430.514	413.56
430.736	397.56
430.958	389.56
431.18	379.56
431.402	358.56
431.624	377.56
431.846	373.56
432.068	369.56
432.29	363.56
432.512	382.56
432.734	374.56
432.956	369.56
433.178	381.56
433.4	371.56
433.622	385.56
433.844	378.56
434.066	366.56
434.287	359.56
434.509	388.56
434.731	357.56
434.953	377.56
435.175	397.56
435.397	404.56
435.618	417.56
435.84	473.56
436.062	549.56
436.284	585.56
436.505	486.56
436.727	444.56
436.949	404.56
437.17	410.56
437.392	395.56
437.614	399.56
437.835	425.56
438.057	508.56
438.278	601.56
438.5	588.56
438.721	621.56
438.943	596.56
439.165	487.56
439.386	447.56
439.608	443.56
439.829	435.56
440.05	449.56
440.272	478.56
440.493	447.56
440.715	415.56
440.936	382.56
441.158	406.56
441.379	415.56
441.6	413.56
441.822	437.56
442.043	449.56
442.264	533.56
442.486	537.56
442.707	470.56
442.928	424.56
443.149	451.56
443.371	454.56
443.592	470.56
443.813	587.56
444.034	603.56
444.255	497.56
444.476	436.56
444.698	424.56
444.919	408.56
445.14	565.56
445.361	494.56
445.582	473.56
445.803	504.56
446.024	588.56
446.245	597.56
446.466	532.56
446.687	487.56
446.908	442.56
447.129	413.56
447.35	405.56
447.571	408.56
447.792	391.56
448.013	430.56
448.234	426.56
448.455	468.56
448.675	547.56
448.896	622.56
449.117	521.56
449.338	501.56
449.559	590.56
449.779	655.56
450	534.56
450.221	427.56
450.442	397.56
450.662	412.56
450.883	383.56
451.104	411.56
451.324	404.56
451.545	409.56
451.766	374.56
451.986	362.56
452.207	357.56
452.428	367.56
452.648	360.56
452.869	375.56
453.089	349.56
453.31	383.56
453.53	370.56
453.751	360.56
453.971	378.56
454.192	404.56
454.412	376.56
454.633	340.56
454.853	353.56
455.073	373.56
455.294	388.56
455.514	407.56
455.734	404.56
455.955	371.56
456.175	346.56
456.395	356.56
456.616	333.56
456.836	358.56
457.056	361.56
457.276	333.56
457.497	353.56
457.717	335.56
457.937	341.56
458.157	354.56
458.377	376.56
458.598	365.56
458.818	411.56
459.038	462.56
459.258	484.56
459.478	406.56
459.698	380.56
459.918	366.56
460.138	363.56
460.358	400.56
460.578	385.56
460.798	376.56
461.018	381.56
461.238	371.56
461.458	369.56
461.678	375.56
461.898	365.56
462.118	379.56
462.338	387.56
462.558	390.56
462.777	388.56
462.997	392.56
463.217	398.56
463.437	390.56
463.657	406.56
463.876	400.56
464.096	395.56
464.316	408.56
464.536	399.56
464.755	388.56
464.975	415.56
465.195	450.56
465.414	503.56
465.634	467.56
465.854	417.56
466.073	406.56
466.293	397.56
466.512	363.56
466.732	360.56
466.951	374.56
467.171	371.56
467.391	370.56
467.61	378.56
467.829	385.56
468.049	393.56
468.268	374.56
468.488	375.56
468.707	363.56
468.927	360.56
469.146	357.56
469.365	375.56
469.585	363.56
469.804	369.56
470.023	355.56
470.243	371.56
470.462	381.56
470.681	385.56
470.901	377.56
471.12	370.56
471.339	361.56
471.558	382.56
471.777	389.56
471.997	377.56
472.216	375.56
472.435	424.56
472.654	406.56
472.873	392.56
473.092	392.56
473.311	361.56
473.53	373.56
473.749	377.56
473.968	414.56
474.187	477.56
474.406	491.56
474.625	429.56
474.844	379.56
475.063	394.56
475.282	384.56
475.501	389.56
475.72	393.56
475.939	381.56
476.158	390.56
476.377	397.56
476.596	403.56
476.814	395.56
477.033	407.56
477.252	395.56
477.471	377.56
477.69	396.56
477.908	399.56
478.127	398.56
478.346	386.56
478.564	402.56
478.783	415.56
479.002	422.56
479.22	433.56
479.439	444.56
479.658	425.56
479.876	451.56
480.095	433.56
480.313	499.56
480.532	467.56
480.751	443.56
480.969	463.56
481.188	526.56
481.406	530.56
481.624	478.56
481.843	457.56
482.061	452.56
482.28	460.56
482.498	438.56
482.717	416.56
482.935	463.56
483.153	419.56
483.372	430.56
483.59	443.56
483.808	430.56
484.027	435.56
484.245	427.56
484.463	435.56
484.681	449.56
484.9	441.56
485.118	451.56
485.336	446.56
485.554	450.56
485.772	444.56
485.99	441.56
486.209	473.56
486.427	460.56
486.645	466.56
486.863	478.56
487.081	460.56
487.299	463.56
487.517	473.56
487.735	470.56
487.953	454.56
488.171	457.56
488.389	482.56
488.607	467.56
488.825	482.56
489.043	474.56
489.261	489.56
489.479	485.56
489.696	477.56
489.914	510.56
490.132	477.56
490.35	489.56
490.568	483.56
490.786	480.56
491.003	490.56
491.221	500.56
491.439	511.56
491.657	516.56
491.874	535.56
492.092	515.56
492.31	527.56
492.527	505.56
492.745	522.56
492.963	522.56
493.18	537.56
493.398	536.56
493.615	555.56
493.833	535.56
494.05	553.56
494.268	554.56
494.485	546.56
494.703	541.56
494.92	549.56
495.138	533.56
495.355	545.56
495.573	548.56
495.79	556.56
496.008	548.56
496.225	557.56
496.442	536.56
496.66	561.56
496.877	558.56
497.094	541.56
497.312	548.56
497.529	570.56
497.746	585.56
497.963	559.56
498.181	589.56
498.398	601.56
498.615	584.56
498.832	613.56
499.049	599.56
499.267	605.56
499.484	643.56
499.701	638.56
499.918	669.56
500.135	676.56
500.352	698.56
500.569	714.56
500.786	712.56
501.003	684.56
501.22	686.56
501.437	673.56
501.654	665.56
501.871	649.56
502.088	647.56
