Data from 1961.PennyLincolnUp.Lamp.En5.5.200Scan.071719.P1._HRD10591_13-48-12-057.txt Node
Date: Thu Jul 18 13:48:12 EDT 2019
User: cochatt
Spectrometer: HR+D1059
Trigger mode: 1
Integration Time (sec): 1.000000E-1
Scans to average: 1
Electric dark correction enabled: true
Nonlinearity correction enabled: false
Boxcar width: 0
XAxis mode: Wavelengths
Number of Pixels in Spectrum: 2048
>>>>>Begin Spectral Data<<<<<
223.165	-7.5
223.4	-7.5
223.635	-7.5
223.869	-17.5
224.104	-18.5
224.338	-26.5
224.573	-6.5
224.808	-18.5
225.042	-14.5
225.277	-2.5
225.511	-1.5
225.746	13.5
225.98	-2.5
226.215	1.5
226.449	18.5
226.683	14.5
226.918	32.5
227.152	35.5
227.387	28.5
227.621	41.5
227.856	31.5
228.09	45.5
228.324	42.5
228.559	61.5
228.793	60.5
229.027	86.5
229.262	87.5
229.496	100.5
229.73	119.5
229.964	139.5
230.199	123.5
230.433	118.5
230.667	98.5
230.901	100.5
231.136	108.5
231.37	114.5
231.604	101.5
231.838	90.5
232.072	93.5
232.306	93.5
232.541	101.5
232.775	100.5
233.009	112.5
233.243	101.5
233.477	99.5
233.711	117.5
233.945	112.5
234.179	109.5
234.413	106.5
234.647	102.5
234.881	109.5
235.115	116.5
235.349	107.5
235.583	102.5
235.817	106.5
236.051	108.5
236.285	124.5
236.519	128.5
236.753	125.5
236.987	145.5
237.221	178.5
237.455	202.5
237.689	166.5
237.922	133.5
238.156	120.5
238.39	117.5
238.624	110.5
238.858	104.5
239.091	101.5
239.325	122.5
239.559	122.5
239.793	115.5
240.027	133.5
240.26	116.5
240.494	138.5
240.728	148.5
240.961	131.5
241.195	124.5
241.429	130.5
241.662	112.5
241.896	107.5
242.13	104.5
242.363	112.5
242.597	132.5
242.83	131.5
243.064	116.5
243.298	112.5
243.531	129.5
243.765	131.5
243.998	120.5
244.232	124.5
244.465	118.5
244.699	129.5
244.932	132.5
245.166	129.5
245.399	134.5
245.633	138.5
245.866	127.5
246.099	127.5
246.333	146.5
246.566	128.5
246.8	120.5
247.033	128.5
247.266	126.5
247.5	116.5
247.733	150.5
247.966	146.5
248.2	149.5
248.433	144.5
248.666	156.5
248.899	170.5
249.133	188.5
249.366	174.5
249.599	159.5
249.832	153.5
250.066	154.5
250.299	152.5
250.532	172.5
250.765	176.5
250.998	192.5
251.231	193.5
251.465	174.5
251.698	176.5
251.931	176.5
252.164	168.5
252.397	162.5
252.63	160.5
252.863	167.5
253.096	188.5
253.329	198.5
253.562	178.5
253.795	190.5
254.028	189.5
254.261	170.5
254.494	192.5
254.727	214.5
254.96	230.5
255.193	237.5
255.426	221.5
255.659	208.5
255.892	209.5
256.124	201.5
256.357	178.5
256.59	193.5
256.823	189.5
257.056	170.5
257.289	191.5
257.521	170.5
257.754	177.5
257.987	185.5
258.22	190.5
258.452	164.5
258.685	177.5
258.918	178.5
259.151	168.5
259.383	194.5
259.616	159.5
259.849	193.5
260.081	195.5
260.314	203.5
260.547	198.5
260.779	188.5
261.012	191.5
261.244	196.5
261.477	182.5
261.71	206.5
261.942	188.5
262.175	209.5
262.407	212.5
262.64	184.5
262.872	176.5
263.105	181.5
263.337	179.5
263.57	177.5
263.802	177.5
264.035	182.5
264.267	184.5
264.499	179.5
264.732	162.5
264.964	178.5
265.197	188.5
265.429	172.5
265.661	185.5
265.894	162.5
266.126	184.5
266.358	176.5
266.591	168.5
266.823	178.5
267.055	190.5
267.287	188.5
267.52	166.5
267.752	183.5
267.984	203.5
268.216	192.5
268.448	184.5
268.681	187.5
268.913	212.5
269.145	207.5
269.377	234.5
269.609	219.5
269.841	215.5
270.073	213.5
270.306	230.5
270.538	251.5
270.77	256.5
271.002	250.5
271.234	248.5
271.466	249.5
271.698	254.5
271.93	266.5
272.162	268.5
272.394	258.5
272.626	255.5
272.858	233.5
273.09	233.5
273.322	229.5
273.553	215.5
273.785	209.5
274.017	229.5
274.249	226.5
274.481	220.5
274.713	216.5
274.945	232.5
275.176	221.5
275.408	214.5
275.64	227.5
275.872	222.5
276.104	221.5
276.335	226.5
276.567	227.5
276.799	238.5
277.031	251.5
277.262	263.5
277.494	262.5
277.726	247.5
277.957	238.5
278.189	224.5
278.421	215.5
278.652	232.5
278.884	232.5
279.115	233.5
279.347	221.5
279.579	209.5
279.81	227.5
280.042	225.5
280.273	223.5
280.505	224.5
280.736	213.5
280.968	210.5
281.199	217.5
281.431	228.5
281.662	233.5
281.894	214.5
282.125	230.5
282.356	223.5
282.588	258.5
282.819	253.5
283.051	228.5
283.282	216.5
283.513	208.5
283.745	219.5
283.976	208.5
284.207	231.5
284.439	226.5
284.67	237.5
284.901	220.5
285.132	241.5
285.364	230.5
285.595	219.5
285.826	227.5
286.057	230.5
286.288	229.5
286.52	214.5
286.751	240.5
286.982	221.5
287.213	221.5
287.444	215.5
287.675	254.5
287.906	256.5
288.138	229.5
288.369	246.5
288.6	257.5
288.831	238.5
289.062	239.5
289.293	235.5
289.524	231.5
289.755	236.5
289.986	226.5
290.217	225.5
290.448	245.5
290.679	225.5
290.91	244.5
291.141	250.5
291.371	233.5
291.602	248.5
291.833	234.5
292.064	223.5
292.295	234.5
292.526	228.5
292.757	222.5
292.987	236.5
293.218	225.5
293.449	236.5
293.68	228.5
293.91	244.5
294.141	214.5
294.372	220.5
294.603	248.5
294.833	221.5
295.064	238.5
295.295	236.5
295.525	234.5
295.756	226.5
295.987	240.5
296.217	273.5
296.448	258.5
296.679	260.5
296.909	247.5
297.14	232.5
297.37	250.5
297.601	251.5
297.831	240.5
298.062	252.5
298.292	248.5
298.523	254.5
298.753	237.5
298.984	210.5
299.214	231.5
299.445	252.5
299.675	263.5
299.905	254.5
300.136	237.5
300.366	237.5
300.597	262.5
300.827	254.5
301.057	242.5
301.288	266.5
301.518	274.5
301.748	240.5
301.979	262.5
302.209	273.5
302.439	258.5
302.669	260.5
302.9	260.5
303.13	269.5
303.36	265.5
303.59	269.5
303.82	281.5
304.051	265.5
304.281	276.5
304.511	253.5
304.741	254.5
304.971	271.5
305.201	246.5
305.431	259.5
305.661	257.5
305.891	254.5
306.121	244.5
306.352	276.5
306.582	278.5
306.812	252.5
307.042	262.5
307.272	260.5
307.502	258.5
307.731	277.5
307.961	284.5
308.191	260.5
308.421	253.5
308.651	284.5
308.881	278.5
309.111	273.5
309.341	281.5
309.571	293.5
309.8	309.5
310.03	320.5
310.26	301.5
310.49	316.5
310.72	333.5
310.949	329.5
311.179	338.5
311.409	324.5
311.639	316.5
311.868	338.5
312.098	322.5
312.328	334.5
312.557	350.5
312.787	347.5
313.017	352.5
313.246	324.5
313.476	324.5
313.706	317.5
313.935	326.5
314.165	300.5
314.394	318.5
314.624	313.5
314.853	341.5
315.083	331.5
315.312	305.5
315.542	297.5
315.771	322.5
316.001	301.5
316.23	301.5
316.46	308.5
316.689	296.5
316.919	297.5
317.148	322.5
317.377	309.5
317.607	324.5
317.836	312.5
318.065	309.5
318.295	314.5
318.524	288.5
318.753	304.5
318.983	320.5
319.212	309.5
319.441	316.5
319.67	345.5
319.9	322.5
320.129	302.5
320.358	331.5
320.587	325.5
320.816	310.5
321.046	339.5
321.275	329.5
321.504	328.5
321.733	334.5
321.962	351.5
322.191	352.5
322.42	375.5
322.649	366.5
322.878	399.5
323.108	409.5
323.337	419.5
323.566	445.5
323.795	493.5
324.024	533.5
324.253	679.5
324.482	1035.5
324.71	1553.5
324.939	2216.5
325.168	1822.5
325.397	965.5
325.626	636.5
325.855	513.5
326.084	458.5
326.313	486.5
326.542	465.5
326.77	510.5
326.999	629.5
327.228	898.5
327.457	1390.5
327.686	1632.5
327.914	1058.5
328.143	679.5
328.372	612.5
328.6	578.5
328.829	519.5
329.058	544.5
329.287	531.5
329.515	492.5
329.744	448.5
329.972	456.5
330.201	466.5
330.43	518.5
330.658	558.5
330.887	578.5
331.115	545.5
331.344	454.5
331.572	421.5
331.801	424.5
332.03	448.5
332.258	415.5
332.486	382.5
332.715	373.5
332.943	376.5
333.172	385.5
333.4	369.5
333.629	386.5
333.857	400.5
334.085	405.5
334.314	424.5
334.542	453.5
334.771	481.5
334.999	425.5
335.227	393.5
335.455	369.5
335.684	370.5
335.912	372.5
336.14	343.5
336.369	376.5
336.597	372.5
336.825	358.5
337.053	360.5
337.281	345.5
337.51	345.5
337.738	351.5
337.966	365.5
338.194	354.5
338.422	372.5
338.65	372.5
338.878	336.5
339.106	344.5
339.334	336.5
339.562	342.5
339.79	349.5
340.018	360.5
340.246	361.5
340.474	351.5
340.702	371.5
340.93	346.5
341.158	342.5
341.386	331.5
341.614	366.5
341.842	357.5
342.07	349.5
342.298	353.5
342.526	341.5
342.754	353.5
342.981	341.5
343.209	336.5
343.437	339.5
343.665	318.5
343.893	339.5
344.12	336.5
344.348	340.5
344.576	364.5
344.804	362.5
345.031	363.5
345.259	374.5
345.487	371.5
345.714	342.5
345.942	336.5
346.17	348.5
346.397	345.5
346.625	357.5
346.853	358.5
347.08	342.5
347.308	344.5
347.535	337.5
347.763	338.5
347.99	357.5
348.218	334.5
348.445	357.5
348.673	388.5
348.9	352.5
349.128	327.5
349.355	350.5
349.583	327.5
349.81	321.5
350.037	330.5
350.265	319.5
350.492	319.5
350.72	327.5
350.947	329.5
351.174	351.5
351.402	360.5
351.629	348.5
351.856	355.5
352.083	364.5
352.311	360.5
352.538	382.5
352.765	377.5
352.992	360.5
353.22	345.5
353.447	330.5
353.674	346.5
353.901	326.5
354.128	341.5
354.355	321.5
354.583	316.5
354.81	326.5
355.037	322.5
355.264	317.5
355.491	309.5
355.718	300.5
355.945	321.5
356.172	324.5
356.399	320.5
356.626	336.5
356.853	307.5
357.08	295.5
357.307	317.5
357.534	321.5
357.761	328.5
357.988	309.5
358.215	305.5
358.441	316.5
358.668	316.5
358.895	313.5
359.122	327.5
359.349	320.5
359.576	361.5
359.802	362.5
360.029	417.5
360.256	409.5
360.483	388.5
360.709	341.5
360.936	346.5
361.163	347.5
361.39	338.5
361.616	358.5
361.843	341.5
362.07	351.5
362.296	344.5
362.523	360.5
362.749	337.5
362.976	358.5
363.203	332.5
363.429	321.5
363.656	312.5
363.882	341.5
364.109	321.5
364.335	321.5
364.562	320.5
364.788	323.5
365.015	321.5
365.241	325.5
365.468	340.5
365.694	318.5
365.92	329.5
366.147	341.5
366.373	324.5
366.599	330.5
366.826	313.5
367.052	319.5
367.278	328.5
367.505	322.5
367.731	309.5
367.957	334.5
368.184	319.5
368.41	320.5
368.636	337.5
368.862	336.5
369.089	319.5
369.315	345.5
369.541	329.5
369.767	306.5
369.993	317.5
370.219	324.5
370.445	310.5
370.672	330.5
370.898	335.5
371.124	301.5
371.35	310.5
371.576	308.5
371.802	308.5
372.028	304.5
372.254	308.5
372.48	310.5
372.706	307.5
372.932	290.5
373.158	320.5
373.384	320.5
373.61	304.5
373.835	316.5
374.061	314.5
374.287	310.5
374.513	308.5
374.739	325.5
374.965	313.5
375.191	303.5
375.416	308.5
375.642	313.5
375.868	321.5
376.094	322.5
376.319	313.5
376.545	318.5
376.771	320.5
376.997	329.5
377.222	312.5
377.448	310.5
377.674	306.5
377.899	302.5
378.125	313.5
378.35	330.5
378.576	317.5
378.802	310.5
379.027	312.5
379.253	323.5
379.478	303.5
379.704	301.5
379.929	314.5
380.155	316.5
380.38	334.5
380.606	326.5
380.831	330.5
381.057	331.5
381.282	319.5
381.507	319.5
381.733	309.5
381.958	314.5
382.184	309.5
382.409	323.5
382.634	315.5
382.86	326.5
383.085	334.5
383.31	320.5
383.535	341.5
383.761	313.5
383.986	316.5
384.211	318.5
384.436	339.5
384.662	328.5
384.887	334.5
385.112	344.5
385.337	326.5
385.562	320.5
385.787	326.5
386.013	333.5
386.238	352.5
386.463	342.5
386.688	318.5
386.913	329.5
387.138	336.5
387.363	328.5
387.588	333.5
387.813	341.5
388.038	337.5
388.263	345.5
388.488	330.5
388.713	330.5
388.938	319.5
389.163	332.5
389.387	342.5
389.612	341.5
389.837	349.5
390.062	352.5
390.287	348.5
390.512	345.5
390.736	323.5
390.961	357.5
391.186	327.5
391.411	349.5
391.636	350.5
391.86	344.5
392.085	360.5
392.31	353.5
392.534	341.5
392.759	349.5
392.984	366.5
393.208	341.5
393.433	361.5
393.658	324.5
393.882	352.5
394.107	345.5
394.331	329.5
394.556	333.5
394.78	330.5
395.005	337.5
395.229	346.5
395.454	369.5
395.678	350.5
395.903	360.5
396.127	356.5
396.352	406.5
396.576	366.5
396.801	352.5
397.025	357.5
397.249	354.5
397.474	362.5
397.698	376.5
397.922	360.5
398.147	374.5
398.371	376.5
398.595	383.5
398.82	356.5
399.044	390.5
399.268	405.5
399.492	399.5
399.717	405.5
399.941	450.5
400.165	436.5
400.389	472.5
400.613	442.5
400.837	399.5
401.062	409.5
401.286	407.5
401.51	402.5
401.734	375.5
401.958	400.5
402.182	400.5
402.406	413.5
402.63	395.5
402.854	400.5
403.078	378.5
403.302	398.5
403.526	400.5
403.75	405.5
403.974	396.5
404.198	405.5
404.422	416.5
404.645	402.5
404.869	432.5
405.093	446.5
405.317	486.5
405.541	479.5
405.765	471.5
405.988	421.5
406.212	435.5
406.436	452.5
406.66	456.5
406.883	439.5
407.107	470.5
407.331	501.5
407.555	541.5
407.778	545.5
408.002	495.5
408.226	455.5
408.449	450.5
408.673	450.5
408.896	481.5
409.12	509.5
409.344	462.5
409.567	413.5
409.791	413.5
410.014	423.5
410.238	403.5
410.461	402.5
410.685	412.5
410.908	434.5
411.132	464.5
411.355	494.5
411.578	441.5
411.802	428.5
412.025	414.5
412.249	418.5
412.472	442.5
412.695	444.5
412.919	464.5
413.142	426.5
413.365	392.5
413.589	400.5
413.812	383.5
414.035	372.5
414.258	391.5
414.482	385.5
414.705	386.5
414.928	388.5
415.151	386.5
415.374	395.5
415.597	391.5
415.821	384.5
416.044	374.5
416.267	364.5
416.49	394.5
416.713	380.5
416.936	388.5
417.159	403.5
417.382	401.5
417.605	408.5
417.828	395.5
418.051	413.5
418.274	401.5
418.497	401.5
418.72	376.5
418.943	407.5
419.166	393.5
419.389	417.5
419.611	399.5
419.834	409.5
420.057	418.5
420.28	392.5
420.503	401.5
420.726	405.5
420.948	416.5
421.171	460.5
421.394	486.5
421.617	431.5
421.839	428.5
422.062	414.5
422.285	426.5
422.507	485.5
422.73	539.5
422.953	504.5
423.175	458.5
423.398	422.5
423.621	438.5
423.843	442.5
424.066	450.5
424.288	453.5
424.511	451.5
424.733	510.5
424.956	569.5
425.178	549.5
425.401	540.5
425.623	532.5
425.846	480.5
426.068	449.5
426.291	435.5
426.513	415.5
426.735	453.5
426.958	482.5
427.18	565.5
427.402	668.5
427.625	735.5
427.847	684.5
428.069	556.5
428.292	484.5
428.514	449.5
428.736	433.5
428.958	410.5
429.181	423.5
429.403	412.5
429.625	418.5
429.847	466.5
430.069	522.5
430.292	500.5
430.514	440.5
430.736	416.5
430.958	415.5
431.18	399.5
431.402	418.5
431.624	367.5
431.846	383.5
432.068	395.5
432.29	396.5
432.512	397.5
432.734	430.5
432.956	386.5
433.178	402.5
433.4	402.5
433.622	406.5
433.844	429.5
434.066	393.5
434.287	392.5
434.509	405.5
434.731	404.5
434.953	393.5
435.175	421.5
435.397	441.5
435.618	442.5
435.84	488.5
436.062	560.5
436.284	612.5
436.505	552.5
436.727	460.5
436.949	439.5
437.17	418.5
437.392	414.5
437.614	403.5
437.835	489.5
438.057	570.5
438.278	643.5
438.5	636.5
438.721	674.5
438.943	653.5
439.165	528.5
439.386	469.5
439.608	458.5
439.829	476.5
440.05	517.5
440.272	537.5
440.493	497.5
440.715	463.5
440.936	433.5
441.158	417.5
441.379	420.5
441.6	431.5
441.822	463.5
442.043	509.5
442.264	535.5
442.486	581.5
442.707	489.5
442.928	476.5
443.149	468.5
443.371	498.5
443.592	511.5
443.813	609.5
444.034	620.5
444.255	562.5
444.476	460.5
444.698	462.5
444.919	457.5
445.14	550.5
445.361	492.5
445.582	489.5
445.803	568.5
446.024	662.5
446.245	653.5
446.466	590.5
446.687	505.5
446.908	453.5
447.129	415.5
447.35	437.5
447.571	438.5
447.792	408.5
448.013	423.5
448.234	461.5
448.455	476.5
448.675	605.5
448.896	670.5
449.117	562.5
449.338	539.5
449.559	657.5
449.779	696.5
450	562.5
450.221	470.5
450.442	451.5
450.662	421.5
450.883	420.5
451.104	450.5
451.324	444.5
451.545	394.5
451.766	406.5
451.986	410.5
452.207	386.5
452.428	388.5
452.648	382.5
452.869	372.5
453.089	398.5
453.31	407.5
453.53	393.5
453.751	397.5
453.971	398.5
454.192	412.5
454.412	402.5
454.633	393.5
454.853	374.5
455.073	384.5
455.294	416.5
455.514	474.5
455.734	440.5
455.955	392.5
456.175	368.5
456.395	365.5
456.616	359.5
456.836	354.5
457.056	353.5
457.276	344.5
457.497	370.5
457.717	358.5
457.937	367.5
458.157	371.5
458.377	381.5
458.598	397.5
458.818	456.5
459.038	533.5
459.258	534.5
459.478	449.5
459.698	400.5
459.918	398.5
460.138	395.5
460.358	402.5
460.578	380.5
460.798	383.5
461.018	394.5
461.238	401.5
461.458	397.5
461.678	404.5
461.898	371.5
462.118	381.5
462.338	427.5
462.558	391.5
462.777	395.5
462.997	392.5
463.217	408.5
463.437	412.5
463.657	425.5
463.876	421.5
464.096	408.5
464.316	400.5
464.536	432.5
464.755	431.5
464.975	424.5
465.195	468.5
465.414	567.5
465.634	479.5
465.854	421.5
466.073	409.5
466.293	409.5
466.512	382.5
466.732	366.5
466.951	372.5
467.171	376.5
467.391	376.5
467.61	401.5
467.829	418.5
468.049	406.5
468.268	390.5
468.488	379.5
468.707	376.5
468.927	378.5
469.146	382.5
469.365	384.5
469.585	378.5
469.804	395.5
470.023	381.5
470.243	392.5
470.462	407.5
470.681	417.5
470.901	419.5
471.12	391.5
471.339	390.5
471.558	362.5
471.777	379.5
471.997	385.5
472.216	396.5
472.435	452.5
472.654	423.5
472.873	381.5
473.092	398.5
473.311	376.5
473.53	378.5
473.749	410.5
473.968	452.5
474.187	540.5
474.406	550.5
474.625	464.5
474.844	413.5
475.063	404.5
475.282	397.5
475.501	395.5
475.72	409.5
475.939	388.5
476.158	409.5
476.377	399.5
476.596	393.5
476.814	407.5
477.033	416.5
477.252	405.5
477.471	443.5
477.69	416.5
477.908	432.5
478.127	435.5
478.346	409.5
478.564	429.5
478.783	424.5
479.002	434.5
479.22	472.5
479.439	458.5
479.658	464.5
479.876	454.5
480.095	488.5
480.313	493.5
480.532	490.5
480.751	475.5
480.969	502.5
481.188	553.5
481.406	605.5
481.624	545.5
481.843	470.5
482.061	493.5
482.28	461.5
482.498	457.5
482.717	449.5
482.935	443.5
483.153	483.5
483.372	456.5
483.59	448.5
483.808	463.5
484.027	462.5
484.245	478.5
484.463	447.5
484.681	453.5
484.9	466.5
485.118	460.5
485.336	471.5
485.554	462.5
485.772	489.5
485.99	482.5
486.209	483.5
486.427	480.5
486.645	486.5
486.863	503.5
487.081	509.5
487.299	502.5
487.517	495.5
487.735	494.5
487.953	471.5
488.171	483.5
488.389	508.5
488.607	500.5
488.825	492.5
489.043	489.5
489.261	502.5
489.479	510.5
489.696	531.5
489.914	507.5
490.132	522.5
490.35	534.5
490.568	510.5
490.786	510.5
491.003	540.5
491.221	544.5
491.439	552.5
491.657	541.5
491.874	561.5
492.092	575.5
492.31	589.5
492.527	583.5
492.745	566.5
492.963	578.5
493.18	556.5
493.398	579.5
493.615	574.5
493.833	595.5
494.05	581.5
494.268	608.5
494.485	582.5
494.703	595.5
494.92	568.5
495.138	590.5
495.355	589.5
495.573	601.5
495.79	575.5
496.008	594.5
496.225	582.5
496.442	580.5
496.66	590.5
496.877	595.5
497.094	583.5
497.312	598.5
497.529	607.5
497.746	608.5
497.963	623.5
498.181	634.5
498.398	619.5
498.615	642.5
498.832	672.5
499.049	660.5
499.267	642.5
499.484	664.5
499.701	692.5
499.918	675.5
500.135	708.5
500.352	707.5
500.569	750.5
500.786	758.5
501.003	725.5
501.22	718.5
501.437	729.5
501.654	696.5
501.871	737.5
502.088	689.5
502.305	674.5
502.522	653.5
502.739	641.5
502.956	628.5
503.172	626.5
503.389	608.5
503.606	609.5
503.823	612.5
504.04	609.5
504.256	589.5
504.473	573.5
504.69	575.5
504.907	613.5
505.123	576.5
505.34	586.5
505.557	590.5
505.773	588.5
505.99	593.5
506.207	575.5
506.423	574.5
506.64	565.5
506.856	549.5
507.073	565.5
507.289	564.5
507.506	582.5
507.722	576.5
507.939	592.5
508.155	576.5
508.372	595.5
508.588	543.5
508.805	550.5
509.021	552.5
509.238	555.5
509.454	559.5
509.67	546.5
509.887	546.5
510.103	546.5
510.319	573.5
510.536	695.5
510.752	1193.5
510.968	947.5
511.184	604.5
511.401	575.5
511.617	550.5
511.833	522.5
512.049	531.5
512.265	536.5
512.481	537.5
512.698	533.5
512.914	509.5
513.13	522.5
513.346	525.5
513.562	533.5
513.778	557.5
513.994	535.5
514.21	551.5
514.426	586.5
514.642	623.5
514.858	656.5
515.074	702.5
515.29	842.5
515.506	1289.5
515.721	1062.5
515.937	656.5
516.153	605.5
516.369	578.5
516.585	559.5
516.801	556.5
517.016	563.5
517.232	531.5
517.448	522.5
517.664	531.5
517.879	546.5
518.095	530.5
518.311	538.5
518.527	551.5
518.742	530.5
518.958	541.5
519.173	504.5
519.389	522.5
519.605	522.5
519.82	536.5
