Data from 1961.PennyLincolnUp.Lamp.En5.5.200Scan.071719.P1._HRD10591_13-49-11-058.txt Node
Date: Thu Jul 18 13:49:11 EDT 2019
User: cochatt
Spectrometer: HR+D1059
Trigger mode: 1
Integration Time (sec): 1.000000E-1
Scans to average: 1
Electric dark correction enabled: true
Nonlinearity correction enabled: false
Boxcar width: 0
XAxis mode: Wavelengths
Number of Pixels in Spectrum: 2048
>>>>>Begin Spectral Data<<<<<
223.165	-13.12
223.4	-13.12
223.635	-13.12
223.869	-21.12
224.104	-13.12
224.338	-14.12
224.573	-18.12
224.808	-3.12
225.042	-9.12
225.277	5.88
225.511	-15.12
225.746	-5.12
225.98	5.88
226.215	4.88
226.449	25.88
226.683	26.88
226.918	22.88
227.152	19.88
227.387	32.88
227.621	33.88
227.856	39.88
228.09	45.88
228.324	54.88
228.559	54.88
228.793	72.88
229.027	98.88
229.262	102.88
229.496	106.88
229.73	118.88
229.964	138.88
230.199	111.88
230.433	98.88
230.667	103.88
230.901	102.88
231.136	106.88
231.37	105.88
231.604	116.88
231.838	103.88
232.072	131.88
232.306	111.88
232.541	107.88
232.775	101.88
233.009	110.88
233.243	100.88
233.477	113.88
233.711	100.88
233.945	101.88
234.179	99.88
234.413	116.88
234.647	103.88
234.881	105.88
235.115	102.88
235.349	112.88
235.583	109.88
235.817	104.88
236.051	105.88
236.285	114.88
236.519	128.88
236.753	116.88
236.987	134.88
237.221	180.88
237.455	209.88
237.689	171.88
237.922	141.88
238.156	113.88
238.39	109.88
238.624	107.88
238.858	115.88
239.091	105.88
239.325	122.88
239.559	129.88
239.793	129.88
240.027	115.88
240.26	134.88
240.494	139.88
240.728	136.88
240.961	125.88
241.195	135.88
241.429	119.88
241.662	115.88
241.896	116.88
242.13	113.88
242.363	116.88
242.597	126.88
242.83	127.88
243.064	120.88
243.298	123.88
243.531	125.88
243.765	131.88
243.998	129.88
244.232	136.88
244.465	127.88
244.699	121.88
244.932	127.88
245.166	120.88
245.399	125.88
245.633	112.88
245.866	141.88
246.099	122.88
246.333	134.88
246.566	135.88
246.8	136.88
247.033	139.88
247.266	138.88
247.5	145.88
247.733	140.88
247.966	136.88
248.2	149.88
248.433	141.88
248.666	154.88
248.899	180.88
249.133	165.88
249.366	188.88
249.599	156.88
249.832	157.88
250.066	142.88
250.299	155.88
250.532	162.88
250.765	177.88
250.998	193.88
251.231	201.88
251.465	192.88
251.698	185.88
251.931	176.88
252.164	176.88
252.397	180.88
252.63	179.88
252.863	187.88
253.096	170.88
253.329	199.88
253.562	191.88
253.795	197.88
254.028	199.88
254.261	192.88
254.494	195.88
254.727	239.88
254.96	239.88
255.193	226.88
255.426	232.88
255.659	213.88
255.892	211.88
256.124	203.88
256.357	217.88
256.59	204.88
256.823	184.88
257.056	184.88
257.289	212.88
257.521	169.88
257.754	178.88
257.987	187.88
258.22	187.88
258.452	178.88
258.685	167.88
258.918	187.88
259.151	186.88
259.383	191.88
259.616	185.88
259.849	183.88
260.081	198.88
260.314	211.88
260.547	214.88
260.779	202.88
261.012	207.88
261.244	203.88
261.477	178.88
261.71	183.88
261.942	200.88
262.175	221.88
262.407	208.88
262.64	189.88
262.872	179.88
263.105	182.88
263.337	178.88
263.57	175.88
263.802	196.88
264.035	185.88
264.267	195.88
264.499	207.88
264.732	185.88
264.964	188.88
265.197	180.88
265.429	171.88
265.661	181.88
265.894	180.88
266.126	187.88
266.358	196.88
266.591	181.88
266.823	171.88
267.055	188.88
267.287	198.88
267.52	214.88
267.752	202.88
267.984	190.88
268.216	174.88
268.448	179.88
268.681	194.88
268.913	191.88
269.145	209.88
269.377	236.88
269.609	224.88
269.841	218.88
270.073	233.88
270.306	244.88
270.538	269.88
270.77	276.88
271.002	258.88
271.234	245.88
271.466	263.88
271.698	275.88
271.93	278.88
272.162	265.88
272.394	264.88
272.626	257.88
272.858	246.88
273.09	227.88
273.322	224.88
273.553	223.88
273.785	226.88
274.017	212.88
274.249	234.88
274.481	228.88
274.713	224.88
274.945	238.88
275.176	245.88
275.408	225.88
275.64	213.88
275.872	230.88
276.104	229.88
276.335	236.88
276.567	233.88
276.799	254.88
277.031	265.88
277.262	275.88
277.494	266.88
277.726	248.88
277.957	257.88
278.189	240.88
278.421	258.88
278.652	227.88
278.884	240.88
279.115	215.88
279.347	234.88
279.579	226.88
279.81	226.88
280.042	229.88
280.273	227.88
280.505	233.88
280.736	212.88
280.968	224.88
281.199	224.88
281.431	199.88
281.662	211.88
281.894	232.88
282.125	223.88
282.356	254.88
282.588	255.88
282.819	255.88
283.051	222.88
283.282	231.88
283.513	229.88
283.745	203.88
283.976	220.88
284.207	225.88
284.439	228.88
284.67	240.88
284.901	239.88
285.132	240.88
285.364	211.88
285.595	224.88
285.826	230.88
286.057	225.88
286.288	228.88
286.52	226.88
286.751	231.88
286.982	243.88
287.213	231.88
287.444	245.88
287.675	241.88
287.906	228.88
288.138	257.88
288.369	255.88
288.6	257.88
288.831	232.88
289.062	235.88
289.293	232.88
289.524	244.88
289.755	236.88
289.986	248.88
290.217	235.88
290.448	232.88
290.679	240.88
290.91	233.88
291.141	235.88
291.371	235.88
291.602	229.88
291.833	245.88
292.064	240.88
292.295	244.88
292.526	240.88
292.757	230.88
292.987	237.88
293.218	244.88
293.449	231.88
293.68	251.88
293.91	227.88
294.141	233.88
294.372	229.88
294.603	231.88
294.833	221.88
295.064	253.88
295.295	242.88
295.525	253.88
295.756	228.88
295.987	259.88
296.217	271.88
296.448	277.88
296.679	262.88
296.909	256.88
297.14	235.88
297.37	218.88
297.601	256.88
297.831	245.88
298.062	250.88
298.292	248.88
298.523	239.88
298.753	242.88
298.984	245.88
299.214	260.88
299.445	254.88
299.675	255.88
299.905	262.88
300.136	264.88
300.366	255.88
300.597	249.88
300.827	259.88
301.057	265.88
301.288	276.88
301.518	266.88
301.748	280.88
301.979	260.88
302.209	269.88
302.439	277.88
302.669	276.88
302.9	268.88
303.13	291.88
303.36	278.88
303.59	283.88
303.82	287.88
304.051	289.88
304.281	265.88
304.511	267.88
304.741	275.88
304.971	278.88
305.201	278.88
305.431	255.88
305.661	263.88
305.891	273.88
306.121	285.88
306.352	275.88
306.582	294.88
306.812	259.88
307.042	259.88
307.272	275.88
307.502	288.88
307.731	289.88
307.961	279.88
308.191	280.88
308.421	258.88
308.651	286.88
308.881	285.88
309.111	289.88
309.341	273.88
309.571	292.88
309.8	307.88
310.03	303.88
310.26	328.88
310.49	323.88
310.72	315.88
310.949	344.88
311.179	356.88
311.409	331.88
311.639	312.88
311.868	328.88
312.098	338.88
312.328	349.88
312.557	366.88
312.787	353.88
313.017	355.88
313.246	338.88
313.476	336.88
313.706	315.88
313.935	311.88
314.165	334.88
314.394	343.88
314.624	341.88
314.853	328.88
315.083	322.88
315.312	319.88
315.542	319.88
315.771	324.88
316.001	303.88
316.23	306.88
316.46	315.88
316.689	310.88
316.919	333.88
317.148	335.88
317.377	334.88
317.607	329.88
317.836	327.88
318.065	325.88
318.295	319.88
318.524	306.88
318.753	306.88
318.983	327.88
319.212	344.88
319.441	328.88
319.67	333.88
319.9	336.88
320.129	314.88
320.358	326.88
320.587	346.88
320.816	342.88
321.046	347.88
321.275	349.88
321.504	347.88
321.733	366.88
321.962	365.88
322.191	370.88
322.42	361.88
322.649	387.88
322.878	415.88
323.108	439.88
323.337	452.88
323.566	474.88
323.795	506.88
324.024	571.88
324.253	715.88
324.482	1097.88
324.71	1643.88
324.939	2349.88
325.168	1958.88
325.397	1013.88
325.626	639.88
325.855	565.88
326.084	499.88
326.313	485.88
326.542	481.88
326.77	548.88
326.999	657.88
327.228	927.88
327.457	1448.88
327.686	1754.88
327.914	1126.88
328.143	722.88
328.372	638.88
328.6	616.88
328.829	550.88
329.058	547.88
329.287	565.88
329.515	517.88
329.744	470.88
329.972	501.88
330.201	513.88
330.43	552.88
330.658	588.88
330.887	598.88
331.115	580.88
331.344	489.88
331.572	456.88
331.801	442.88
332.03	437.88
332.258	406.88
332.486	399.88
332.715	388.88
332.943	390.88
333.172	390.88
333.4	393.88
333.629	406.88
333.857	421.88
334.085	439.88
334.314	474.88
334.542	472.88
334.771	495.88
334.999	439.88
335.227	395.88
335.455	398.88
335.684	388.88
335.912	384.88
336.14	371.88
336.369	387.88
336.597	391.88
336.825	377.88
337.053	377.88
337.281	359.88
337.51	363.88
337.738	394.88
337.966	362.88
338.194	370.88
338.422	366.88
338.65	385.88
338.878	357.88
339.106	355.88
339.334	385.88
339.562	348.88
339.79	362.88
340.018	357.88
340.246	366.88
340.474	386.88
340.702	386.88
340.93	368.88
341.158	354.88
341.386	360.88
341.614	360.88
341.842	361.88
342.07	371.88
342.298	353.88
342.526	361.88
342.754	342.88
342.981	334.88
343.209	343.88
343.437	344.88
343.665	361.88
343.893	342.88
344.12	367.88
344.348	350.88
344.576	359.88
344.804	371.88
345.031	397.88
345.259	389.88
345.487	375.88
345.714	387.88
345.942	365.88
346.17	337.88
346.397	341.88
346.625	349.88
346.853	348.88
347.08	347.88
347.308	378.88
347.535	353.88
347.763	373.88
347.99	362.88
348.218	358.88
348.445	362.88
348.673	361.88
348.9	350.88
349.128	329.88
349.355	344.88
349.583	326.88
349.81	348.88
350.037	356.88
350.265	340.88
350.492	337.88
350.72	345.88
350.947	344.88
351.174	383.88
351.402	364.88
351.629	366.88
351.856	360.88
352.083	357.88
352.311	386.88
352.538	378.88
352.765	362.88
352.992	367.88
353.22	370.88
353.447	362.88
353.674	351.88
353.901	343.88
354.128	334.88
354.355	326.88
354.583	335.88
354.81	323.88
355.037	328.88
355.264	326.88
355.491	315.88
355.718	315.88
355.945	318.88
356.172	313.88
356.399	312.88
356.626	311.88
356.853	315.88
357.08	313.88
357.307	314.88
357.534	324.88
357.761	327.88
357.988	337.88
358.215	319.88
358.441	326.88
358.668	330.88
358.895	358.88
359.122	334.88
359.349	356.88
359.576	366.88
359.802	389.88
360.029	404.88
360.256	432.88
360.483	390.88
360.709	377.88
360.936	366.88
361.163	359.88
361.39	369.88
361.616	381.88
361.843	370.88
362.07	352.88
362.296	367.88
362.523	349.88
362.749	367.88
362.976	359.88
363.203	339.88
363.429	341.88
363.656	338.88
363.882	358.88
364.109	331.88
364.335	360.88
364.562	340.88
364.788	331.88
365.015	333.88
365.241	337.88
365.468	347.88
365.694	338.88
365.92	340.88
366.147	335.88
366.373	346.88
366.599	329.88
366.826	331.88
367.052	341.88
367.278	345.88
367.505	329.88
367.731	335.88
367.957	337.88
368.184	343.88
368.41	357.88
368.636	335.88
368.862	338.88
369.089	351.88
369.315	330.88
369.541	341.88
369.767	331.88
369.993	328.88
370.219	328.88
370.445	325.88
370.672	311.88
370.898	323.88
371.124	324.88
371.35	329.88
371.576	333.88
371.802	315.88
372.028	322.88
372.254	336.88
372.48	326.88
372.706	313.88
372.932	339.88
373.158	308.88
373.384	338.88
373.61	320.88
373.835	326.88
374.061	331.88
374.287	309.88
374.513	338.88
374.739	326.88
374.965	341.88
375.191	326.88
375.416	342.88
375.642	350.88
375.868	351.88
376.094	338.88
376.319	320.88
376.545	319.88
376.771	327.88
376.997	324.88
377.222	342.88
377.448	310.88
377.674	317.88
377.899	326.88
378.125	319.88
378.35	311.88
378.576	328.88
378.802	319.88
379.027	334.88
379.253	338.88
379.478	327.88
379.704	311.88
379.929	320.88
380.155	332.88
380.38	326.88
380.606	325.88
380.831	331.88
381.057	346.88
381.282	336.88
381.507	333.88
381.733	337.88
381.958	308.88
382.184	344.88
382.409	344.88
382.634	335.88
382.86	334.88
383.085	335.88
383.31	343.88
383.535	343.88
383.761	336.88
383.986	337.88
384.211	330.88
384.436	329.88
384.662	337.88
384.887	344.88
385.112	340.88
385.337	335.88
385.562	353.88
385.787	323.88
386.013	359.88
386.238	355.88
386.463	351.88
386.688	354.88
386.913	334.88
387.138	341.88
387.363	334.88
387.588	329.88
387.813	371.88
388.038	331.88
388.263	341.88
388.488	350.88
388.713	353.88
388.938	372.88
389.163	347.88
389.387	350.88
389.612	347.88
389.837	337.88
390.062	338.88
390.287	331.88
390.512	343.88
390.736	353.88
390.961	351.88
391.186	334.88
391.411	349.88
391.636	337.88
391.86	344.88
392.085	365.88
392.31	362.88
392.534	352.88
392.759	360.88
392.984	370.88
393.208	365.88
393.433	352.88
393.658	345.88
393.882	352.88
394.107	343.88
394.331	349.88
394.556	346.88
394.78	345.88
395.005	361.88
395.229	345.88
395.454	346.88
395.678	359.88
395.903	359.88
396.127	367.88
396.352	373.88
396.576	381.88
396.801	360.88
397.025	362.88
397.249	362.88
397.474	369.88
397.698	382.88
397.922	391.88
398.147	410.88
398.371	392.88
398.595	364.88
398.82	375.88
399.044	371.88
399.268	405.88
399.492	408.88
399.717	440.88
399.941	451.88
400.165	489.88
400.389	469.88
400.613	451.88
400.837	394.88
401.062	415.88
401.286	412.88
401.51	402.88
401.734	416.88
401.958	408.88
402.182	395.88
402.406	399.88
402.63	409.88
402.854	420.88
403.078	418.88
403.302	428.88
403.526	432.88
403.75	430.88
403.974	413.88
404.198	429.88
404.422	415.88
404.645	417.88
404.869	424.88
405.093	456.88
405.317	494.88
405.541	515.88
405.765	465.88
405.988	449.88
406.212	463.88
406.436	466.88
406.66	486.88
406.883	468.88
407.107	468.88
407.331	518.88
407.555	545.88
407.778	570.88
408.002	489.88
408.226	462.88
408.449	464.88
408.673	461.88
408.896	471.88
409.12	533.88
409.344	490.88
409.567	450.88
409.791	407.88
410.014	410.88
410.238	426.88
410.461	438.88
410.685	413.88
410.908	433.88
411.132	474.88
411.355	500.88
411.578	467.88
411.802	430.88
412.025	437.88
412.249	422.88
412.472	462.88
412.695	478.88
412.919	481.88
413.142	419.88
413.365	400.88
413.589	400.88
413.812	386.88
414.035	395.88
414.258	384.88
414.482	389.88
414.705	402.88
414.928	385.88
415.151	396.88
415.374	412.88
415.597	383.88
415.821	398.88
416.044	387.88
416.267	389.88
416.49	388.88
416.713	386.88
416.936	403.88
417.159	417.88
417.382	410.88
417.605	399.88
417.828	402.88
418.051	418.88
418.274	406.88
418.497	415.88
418.72	402.88
418.943	377.88
419.166	397.88
419.389	427.88
419.611	413.88
419.834	412.88
420.057	429.88
420.28	414.88
420.503	424.88
420.726	419.88
420.948	416.88
421.171	471.88
421.394	481.88
421.617	430.88
421.839	404.88
422.062	433.88
422.285	458.88
422.507	475.88
422.73	517.88
422.953	496.88
423.175	457.88
423.398	433.88
423.621	451.88
423.843	432.88
424.066	458.88
424.288	459.88
424.511	453.88
424.733	502.88
424.956	581.88
425.178	561.88
425.401	545.88
425.623	584.88
425.846	508.88
426.068	474.88
426.291	474.88
426.513	478.88
426.735	471.88
426.958	525.88
427.18	580.88
427.402	703.88
427.625	755.88
427.847	689.88
428.069	623.88
428.292	524.88
428.514	481.88
428.736	449.88
428.958	443.88
429.181	447.88
429.403	436.88
429.625	434.88
429.847	485.88
430.069	541.88
430.292	533.88
430.514	449.88
430.736	446.88
430.958	439.88
431.18	413.88
431.402	415.88
431.624	400.88
431.846	396.88
432.068	387.88
432.29	410.88
432.512	411.88
432.734	384.88
432.956	393.88
433.178	407.88
433.4	441.88
433.622	404.88
433.844	419.88
434.066	401.88
434.287	411.88
434.509	396.88
434.731	425.88
434.953	417.88
435.175	433.88
435.397	460.88
435.618	470.88
435.84	506.88
436.062	581.88
436.284	647.88
436.505	546.88
436.727	482.88
436.949	457.88
437.17	415.88
437.392	435.88
437.614	444.88
437.835	474.88
438.057	570.88
438.278	658.88
438.5	643.88
438.721	693.88
438.943	672.88
439.165	546.88
439.386	504.88
439.608	484.88
439.829	497.88
440.05	521.88
440.272	545.88
440.493	512.88
440.715	471.88
440.936	446.88
441.158	427.88
441.379	432.88
441.6	454.88
441.822	467.88
442.043	528.88
442.264	563.88
442.486	623.88
442.707	510.88
442.928	488.88
443.149	492.88
443.371	530.88
443.592	558.88
443.813	608.88
444.034	663.88
444.255	546.88
444.476	486.88
444.698	466.88
444.919	469.88
445.14	549.88
445.361	536.88
445.582	513.88
445.803	593.88
446.024	683.88
446.245	705.88
446.466	609.88
446.687	530.88
446.908	470.88
447.129	436.88
447.35	445.88
447.571	442.88
447.792	419.88
448.013	433.88
448.234	470.88
448.455	492.88
448.675	615.88
448.896	704.88
449.117	583.88
449.338	563.88
449.559	641.88
449.779	723.88
450	599.88
450.221	484.88
450.442	463.88
450.662	452.88
450.883	445.88
451.104	460.88
451.324	433.88
451.545	440.88
451.766	407.88
451.986	393.88
452.207	393.88
452.428	387.88
452.648	387.88
452.869	400.88
453.089	397.88
453.31	438.88
453.53	399.88
453.751	397.88
453.971	413.88
454.192	414.88
454.412	409.88
454.633	411.88
454.853	406.88
455.073	410.88
455.294	415.88
455.514	488.88
455.734	447.88
455.955	391.88
456.175	376.88
456.395	372.88
456.616	385.88
456.836	379.88
457.056	386.88
457.276	343.88
457.497	338.88
457.717	376.88
457.937	358.88
458.157	384.88
458.377	378.88
458.598	420.88
458.818	473.88
459.038	570.88
459.258	555.88
459.478	465.88
459.698	433.88
459.918	394.88
460.138	397.88
460.358	417.88
460.578	396.88
460.798	397.88
461.018	405.88
461.238	405.88
461.458	401.88
461.678	389.88
461.898	389.88
462.118	381.88
462.338	411.88
462.558	404.88
462.777	416.88
462.997	438.88
463.217	429.88
463.437	419.88
463.657	415.88
463.876	413.88
464.096	401.88
464.316	441.88
464.536	426.88
464.755	414.88
464.975	435.88
465.195	480.88
465.414	570.88
465.634	507.88
465.854	457.88
466.073	441.88
466.293	408.88
466.512	400.88
466.732	401.88
466.951	387.88
467.171	388.88
467.391	398.88
467.61	432.88
467.829	409.88
468.049	413.88
468.268	411.88
468.488	400.88
468.707	406.88
468.927	387.88
469.146	395.88
469.365	385.88
469.585	379.88
469.804	389.88
470.023	405.88
470.243	412.88
470.462	402.88
470.681	427.88
470.901	421.88
471.12	423.88
471.339	405.88
471.558	421.88
471.777	411.88
471.997	432.88
472.216	413.88
472.435	482.88
472.654	426.88
472.873	421.88
473.092	403.88
473.311	395.88
473.53	389.88
473.749	438.88
473.968	459.88
474.187	577.88
474.406	582.88
474.625	469.88
474.844	421.88
475.063	394.88
475.282	397.88
475.501	407.88
475.72	414.88
475.939	417.88
476.158	414.88
476.377	409.88
476.596	405.88
476.814	422.88
477.033	425.88
477.252	417.88
477.471	425.88
477.69	440.88
477.908	435.88
478.127	424.88
478.346	444.88
478.564	416.88
478.783	430.88
479.002	435.88
479.22	443.88
479.439	448.88
479.658	488.88
479.876	480.88
480.095	502.88
480.313	513.88
480.532	493.88
480.751	487.88
480.969	490.88
481.188	581.88
481.406	641.88
481.624	565.88
481.843	510.88
482.061	493.88
482.28	463.88
482.498	492.88
482.717	475.88
482.935	494.88
483.153	490.88
483.372	467.88
483.59	480.88
483.808	468.88
484.027	479.88
484.245	478.88
484.463	467.88
484.681	487.88
484.9	469.88
485.118	522.88
485.336	477.88
485.554	480.88
485.772	517.88
485.99	476.88
486.209	484.88
486.427	506.88
486.645	498.88
486.863	536.88
487.081	534.88
487.299	519.88
487.517	519.88
487.735	511.88
487.953	511.88
488.171	514.88
488.389	521.88
488.607	500.88
488.825	506.88
489.043	518.88
489.261	502.88
489.479	515.88
489.696	509.88
489.914	514.88
490.132	548.88
490.35	521.88
490.568	536.88
490.786	538.88
491.003	553.88
491.221	542.88
491.439	550.88
491.657	574.88
491.874	588.88
492.092	585.88
492.31	573.88
492.527	601.88
492.745	597.88
492.963	608.88
493.18	587.88
493.398	578.88
493.615	614.88
493.833	596.88
494.05	597.88
494.268	579.88
494.485	618.88
494.703	605.88
494.92	586.88
495.138	578.88
495.355	607.88
495.573	619.88
495.79	606.88
496.008	609.88
496.225	609.88
496.442	615.88
496.66	602.88
496.877	610.88
497.094	631.88
497.312	623.88
497.529	617.88
497.746	639.88
497.963	630.88
498.181	649.88
498.398	652.88
498.615	649.88
498.832	643.88
499.049	671.88
499.267	675.88
499.484	683.88
499.701	712.88
499.918	721.88
500.135	734.88
500.352	746.88
500.569	735.88
500.786	762.88
501.003	735.88
501.22	755.88
501.437	723.88
501.654	710.88
501.871	740.88
