Data from 1961.PennyLincolnUp.Lamp.En5.5.200Scan.071719.P1._HRD10591_13-46-59-057.txt Node
Date: Thu Jul 18 13:46:59 EDT 2019
User: cochatt
Spectrometer: HR+D1059
Trigger mode: 1
Integration Time (sec): 1.000000E-1
Scans to average: 1
Electric dark correction enabled: true
Nonlinearity correction enabled: false
Boxcar width: 0
XAxis mode: Wavelengths
Number of Pixels in Spectrum: 2048
>>>>>Begin Spectral Data<<<<<
223.165	-21.06
223.4	-21.06
223.635	-21.06
223.869	-10.06
224.104	-27.06
224.338	-14.06
224.573	-8.06
224.808	-12.06
225.042	-7.06
225.277	2.94
225.511	-16.06
225.746	7.94
225.98	-7.06
226.215	10.94
226.449	5.94
226.683	27.94
226.918	26.94
227.152	39.94
227.387	30.94
227.621	41.94
227.856	46.94
228.09	60.94
228.324	53.94
228.559	51.94
228.793	64.94
229.027	80.94
229.262	99.94
229.496	100.94
229.73	111.94
229.964	117.94
230.199	104.94
230.433	95.94
230.667	105.94
230.901	107.94
231.136	93.94
231.37	99.94
231.604	119.94
231.838	106.94
232.072	103.94
232.306	113.94
232.541	76.94
232.775	106.94
233.009	109.94
233.243	101.94
233.477	100.94
233.711	101.94
233.945	100.94
234.179	111.94
234.413	112.94
234.647	109.94
234.881	109.94
235.115	108.94
235.349	101.94
235.583	110.94
235.817	115.94
236.051	98.94
236.285	115.94
236.519	106.94
236.753	119.94
236.987	129.94
237.221	164.94
237.455	216.94
237.689	172.94
237.922	126.94
238.156	124.94
238.39	107.94
238.624	106.94
238.858	108.94
239.091	122.94
239.325	95.94
239.559	116.94
239.793	109.94
240.027	127.94
240.26	134.94
240.494	131.94
240.728	127.94
240.961	127.94
241.195	107.94
241.429	120.94
241.662	111.94
241.896	107.94
242.13	129.94
242.363	115.94
242.597	113.94
242.83	95.94
243.064	116.94
243.298	121.94
243.531	122.94
243.765	130.94
243.998	117.94
244.232	123.94
244.465	132.94
244.699	132.94
244.932	115.94
245.166	119.94
245.399	119.94
245.633	125.94
245.866	137.94
246.099	125.94
246.333	132.94
246.566	125.94
246.8	124.94
247.033	118.94
247.266	124.94
247.5	124.94
247.733	129.94
247.966	141.94
248.2	140.94
248.433	125.94
248.666	161.94
248.899	140.94
249.133	179.94
249.366	156.94
249.599	164.94
249.832	144.94
250.066	146.94
250.299	147.94
250.532	161.94
250.765	167.94
250.998	171.94
251.231	175.94
251.465	167.94
251.698	171.94
251.931	171.94
252.164	162.94
252.397	167.94
252.63	166.94
252.863	157.94
253.096	167.94
253.329	178.94
253.562	186.94
253.795	180.94
254.028	164.94
254.261	166.94
254.494	185.94
254.727	200.94
254.96	218.94
255.193	190.94
255.426	197.94
255.659	188.94
255.892	193.94
256.124	193.94
256.357	192.94
256.59	189.94
256.823	170.94
257.056	166.94
257.289	179.94
257.521	183.94
257.754	152.94
257.987	147.94
258.22	172.94
258.452	163.94
258.685	168.94
258.918	153.94
259.151	169.94
259.383	178.94
259.616	189.94
259.849	182.94
260.081	177.94
260.314	204.94
260.547	196.94
260.779	179.94
261.012	196.94
261.244	177.94
261.477	172.94
261.71	172.94
261.942	166.94
262.175	186.94
262.407	184.94
262.64	164.94
262.872	158.94
263.105	157.94
263.337	165.94
263.57	170.94
263.802	171.94
264.035	169.94
264.267	165.94
264.499	155.94
264.732	179.94
264.964	165.94
265.197	157.94
265.429	171.94
265.661	171.94
265.894	156.94
266.126	169.94
266.358	169.94
266.591	161.94
266.823	186.94
267.055	172.94
267.287	168.94
267.52	163.94
267.752	179.94
267.984	166.94
268.216	188.94
268.448	182.94
268.681	182.94
268.913	192.94
269.145	191.94
269.377	218.94
269.609	212.94
269.841	205.94
270.073	215.94
270.306	221.94
270.538	258.94
270.77	219.94
271.002	210.94
271.234	237.94
271.466	238.94
271.698	241.94
271.93	239.94
272.162	239.94
272.394	239.94
272.626	228.94
272.858	214.94
273.09	221.94
273.322	218.94
273.553	216.94
273.785	207.94
274.017	208.94
274.249	201.94
274.481	209.94
274.713	202.94
274.945	191.94
275.176	202.94
275.408	202.94
275.64	203.94
275.872	205.94
276.104	201.94
276.335	217.94
276.567	203.94
276.799	202.94
277.031	231.94
277.262	240.94
277.494	242.94
277.726	233.94
277.957	205.94
278.189	202.94
278.421	203.94
278.652	224.94
278.884	204.94
279.115	217.94
279.347	195.94
279.579	204.94
279.81	214.94
280.042	212.94
280.273	201.94
280.505	203.94
280.736	195.94
280.968	203.94
281.199	206.94
281.431	198.94
281.662	196.94
281.894	198.94
282.125	213.94
282.356	224.94
282.588	240.94
282.819	237.94
283.051	213.94
283.282	199.94
283.513	209.94
283.745	201.94
283.976	187.94
284.207	209.94
284.439	205.94
284.67	225.94
284.901	215.94
285.132	214.94
285.364	220.94
285.595	196.94
285.826	211.94
286.057	211.94
286.288	221.94
286.52	215.94
286.751	208.94
286.982	209.94
287.213	221.94
287.444	219.94
287.675	214.94
287.906	210.94
288.138	202.94
288.369	226.94
288.6	218.94
288.831	219.94
289.062	238.94
289.293	221.94
289.524	231.94
289.755	222.94
289.986	220.94
290.217	216.94
290.448	224.94
290.679	213.94
290.91	212.94
291.141	209.94
291.371	225.94
291.602	222.94
291.833	217.94
292.064	217.94
292.295	213.94
292.526	215.94
292.757	217.94
292.987	218.94
293.218	225.94
293.449	232.94
293.68	221.94
293.91	220.94
294.141	225.94
294.372	225.94
294.603	234.94
294.833	220.94
295.064	216.94
295.295	222.94
295.525	234.94
295.756	216.94
295.987	229.94
296.217	241.94
296.448	257.94
296.679	215.94
296.909	211.94
297.14	211.94
297.37	212.94
297.601	209.94
297.831	236.94
298.062	225.94
298.292	230.94
298.523	230.94
298.753	236.94
298.984	244.94
299.214	235.94
299.445	235.94
299.675	220.94
299.905	251.94
300.136	239.94
300.366	225.94
300.597	236.94
300.827	228.94
301.057	241.94
301.288	259.94
301.518	247.94
301.748	238.94
301.979	232.94
302.209	234.94
302.439	242.94
302.669	261.94
302.9	248.94
303.13	242.94
303.36	243.94
303.59	244.94
303.82	257.94
304.051	232.94
304.281	244.94
304.511	253.94
304.741	260.94
304.971	242.94
305.201	248.94
305.431	226.94
305.661	247.94
305.891	265.94
306.121	256.94
306.352	261.94
306.582	236.94
306.812	253.94
307.042	250.94
307.272	237.94
307.502	244.94
307.731	255.94
307.961	242.94
308.191	235.94
308.421	257.94
308.651	276.94
308.881	260.94
309.111	259.94
309.341	257.94
309.571	276.94
309.8	274.94
310.03	271.94
310.26	280.94
310.49	293.94
310.72	288.94
310.949	295.94
311.179	301.94
311.409	296.94
311.639	304.94
311.868	278.94
312.098	295.94
312.328	308.94
312.557	314.94
312.787	326.94
313.017	317.94
313.246	305.94
313.476	293.94
313.706	291.94
313.935	293.94
314.165	297.94
314.394	314.94
314.624	311.94
314.853	312.94
315.083	300.94
315.312	282.94
315.542	282.94
315.771	278.94
316.001	282.94
316.23	298.94
316.46	289.94
316.689	272.94
316.919	291.94
317.148	305.94
317.377	305.94
317.607	284.94
317.836	289.94
318.065	297.94
318.295	283.94
318.524	279.94
318.753	301.94
318.983	290.94
319.212	286.94
319.441	294.94
319.67	313.94
319.9	281.94
320.129	286.94
320.358	307.94
320.587	295.94
320.816	293.94
321.046	309.94
321.275	316.94
321.504	323.94
321.733	312.94
321.962	309.94
322.191	336.94
322.42	340.94
322.649	356.94
322.878	374.94
323.108	362.94
323.337	391.94
323.566	391.94
323.795	437.94
324.024	472.94
324.253	596.94
324.482	852.94
324.71	1302.94
324.939	1800.94
325.168	1544.94
325.397	801.94
325.626	533.94
325.855	448.94
326.084	419.94
326.313	419.94
326.542	404.94
326.77	453.94
326.999	551.94
327.228	735.94
327.457	1179.94
327.686	1337.94
327.914	901.94
328.143	584.94
328.372	509.94
328.6	478.94
328.829	463.94
329.058	436.94
329.287	470.94
329.515	456.94
329.744	397.94
329.972	411.94
330.201	444.94
330.43	482.94
330.658	486.94
330.887	513.94
331.115	478.94
331.344	419.94
331.572	376.94
331.801	374.94
332.03	380.94
332.258	388.94
332.486	340.94
332.715	327.94
332.943	341.94
333.172	360.94
333.4	345.94
333.629	342.94
333.857	360.94
334.085	362.94
334.314	392.94
334.542	428.94
334.771	413.94
334.999	398.94
335.227	364.94
335.455	351.94
335.684	337.94
335.912	331.94
336.14	338.94
336.369	341.94
336.597	347.94
336.825	334.94
337.053	347.94
337.281	337.94
337.51	313.94
337.738	336.94
337.966	336.94
338.194	347.94
338.422	349.94
338.65	353.94
338.878	321.94
339.106	305.94
339.334	338.94
339.562	336.94
339.79	326.94
340.018	336.94
340.246	319.94
340.474	333.94
340.702	326.94
340.93	337.94
341.158	317.94
341.386	306.94
341.614	324.94
341.842	340.94
342.07	335.94
342.298	313.94
342.526	330.94
342.754	310.94
342.981	315.94
343.209	308.94
343.437	321.94
343.665	315.94
343.893	331.94
344.12	326.94
344.348	331.94
344.576	312.94
344.804	332.94
345.031	362.94
345.259	363.94
345.487	342.94
345.714	345.94
345.942	321.94
346.17	315.94
346.397	300.94
346.625	308.94
346.853	316.94
347.08	324.94
347.308	316.94
347.535	330.94
347.763	308.94
347.99	335.94
348.218	338.94
348.445	355.94
348.673	333.94
348.9	321.94
349.128	315.94
349.355	301.94
349.583	288.94
349.81	307.94
350.037	293.94
350.265	315.94
350.492	304.94
350.72	311.94
350.947	305.94
351.174	303.94
351.402	328.94
351.629	333.94
351.856	333.94
352.083	314.94
352.311	334.94
352.538	331.94
352.765	323.94
352.992	330.94
353.22	321.94
353.447	309.94
353.674	316.94
353.901	295.94
354.128	307.94
354.355	307.94
354.583	304.94
354.81	291.94
355.037	303.94
355.264	294.94
355.491	306.94
355.718	309.94
355.945	283.94
356.172	301.94
356.399	299.94
356.626	292.94
356.853	285.94
357.08	277.94
357.307	307.94
357.534	288.94
357.761	289.94
357.988	321.94
358.215	311.94
358.441	291.94
358.668	311.94
358.895	294.94
359.122	309.94
359.349	316.94
359.576	313.94
359.802	316.94
360.029	364.94
360.256	381.94
360.483	356.94
360.709	313.94
360.936	311.94
361.163	331.94
361.39	331.94
361.616	330.94
361.843	314.94
362.07	322.94
362.296	333.94
362.523	304.94
362.749	312.94
362.976	326.94
363.203	323.94
363.429	307.94
363.656	303.94
363.882	312.94
364.109	298.94
364.335	305.94
364.562	287.94
364.788	295.94
365.015	283.94
365.241	319.94
365.468	304.94
365.694	307.94
365.92	323.94
366.147	299.94
366.373	291.94
366.599	301.94
366.826	294.94
367.052	292.94
367.278	299.94
367.505	290.94
367.731	290.94
367.957	298.94
368.184	323.94
368.41	328.94
368.636	303.94
368.862	315.94
369.089	312.94
369.315	300.94
369.541	311.94
369.767	325.94
369.993	307.94
370.219	303.94
370.445	306.94
370.672	314.94
370.898	294.94
371.124	310.94
371.35	291.94
371.576	283.94
371.802	303.94
372.028	281.94
372.254	300.94
372.48	292.94
372.706	315.94
372.932	308.94
373.158	304.94
373.384	301.94
373.61	301.94
373.835	294.94
374.061	310.94
374.287	327.94
374.513	322.94
374.739	311.94
374.965	312.94
375.191	305.94
375.416	309.94
375.642	314.94
375.868	308.94
376.094	296.94
376.319	312.94
376.545	309.94
376.771	306.94
376.997	289.94
377.222	287.94
377.448	297.94
377.674	287.94
377.899	297.94
378.125	280.94
378.35	298.94
378.576	293.94
378.802	303.94
379.027	300.94
379.253	309.94
379.478	314.94
379.704	306.94
379.929	303.94
380.155	307.94
380.38	295.94
380.606	274.94
380.831	289.94
381.057	296.94
381.282	314.94
381.507	305.94
381.733	304.94
381.958	301.94
382.184	321.94
382.409	303.94
382.634	313.94
382.86	309.94
383.085	325.94
383.31	312.94
383.535	299.94
383.761	306.94
383.986	311.94
384.211	331.94
384.436	317.94
384.662	334.94
384.887	319.94
385.112	312.94
385.337	310.94
385.562	316.94
385.787	328.94
386.013	331.94
386.238	339.94
386.463	337.94
386.688	331.94
386.913	327.94
387.138	312.94
387.363	303.94
387.588	321.94
387.813	320.94
388.038	304.94
388.263	337.94
388.488	309.94
388.713	333.94
388.938	317.94
389.163	340.94
389.387	321.94
389.612	329.94
389.837	328.94
390.062	317.94
390.287	319.94
390.512	324.94
390.736	321.94
390.961	311.94
391.186	325.94
391.411	332.94
391.636	319.94
391.86	331.94
392.085	307.94
392.31	305.94
392.534	320.94
392.759	323.94
392.984	323.94
393.208	339.94
393.433	341.94
393.658	322.94
393.882	327.94
394.107	315.94
394.331	318.94
394.556	329.94
394.78	305.94
395.005	299.94
395.229	327.94
395.454	349.94
395.678	330.94
395.903	335.94
396.127	345.94
396.352	346.94
396.576	332.94
396.801	329.94
397.025	349.94
397.249	342.94
397.474	348.94
397.698	339.94
397.922	342.94
398.147	364.94
398.371	375.94
398.595	346.94
398.82	375.94
399.044	365.94
399.268	368.94
399.492	379.94
399.717	407.94
399.941	398.94
400.165	439.94
400.389	438.94
400.613	404.94
400.837	379.94
401.062	395.94
401.286	388.94
401.51	373.94
401.734	361.94
401.958	371.94
402.182	376.94
402.406	370.94
402.63	356.94
402.854	348.94
403.078	382.94
403.302	385.94
403.526	378.94
403.75	375.94
403.974	387.94
404.198	367.94
404.422	381.94
404.645	372.94
404.869	392.94
405.093	427.94
405.317	450.94
405.541	481.94
405.765	434.94
405.988	416.94
406.212	412.94
406.436	431.94
406.66	455.94
406.883	415.94
407.107	415.94
407.331	465.94
407.555	499.94
407.778	521.94
408.002	456.94
408.226	425.94
408.449	408.94
408.673	438.94
408.896	473.94
409.12	469.94
409.344	421.94
409.567	399.94
409.791	384.94
410.014	399.94
410.238	372.94
410.461	388.94
410.685	391.94
410.908	403.94
411.132	428.94
411.355	456.94
411.578	433.94
411.802	391.94
412.025	405.94
412.249	418.94
412.472	420.94
412.695	458.94
412.919	420.94
413.142	388.94
413.365	383.94
413.589	381.94
413.812	378.94
414.035	389.94
414.258	357.94
414.482	369.94
414.705	353.94
414.928	362.94
415.151	354.94
415.374	370.94
415.597	379.94
415.821	358.94
416.044	376.94
416.267	368.94
416.49	380.94
416.713	361.94
416.936	357.94
417.159	358.94
417.382	362.94
417.605	364.94
417.828	368.94
418.051	383.94
418.274	376.94
418.497	370.94
418.72	359.94
418.943	367.94
419.166	380.94
419.389	383.94
419.611	379.94
419.834	384.94
420.057	383.94
420.28	363.94
420.503	375.94
420.726	372.94
420.948	407.94
421.171	419.94
421.394	448.94
421.617	424.94
421.839	387.94
422.062	389.94
422.285	400.94
422.507	441.94
422.73	490.94
422.953	468.94
423.175	434.94
423.398	407.94
423.621	419.94
423.843	415.94
424.066	423.94
424.288	427.94
424.511	444.94
424.733	472.94
424.956	548.94
425.178	517.94
425.401	516.94
425.623	520.94
425.846	443.94
426.068	419.94
426.291	413.94
426.513	406.94
426.735	423.94
426.958	447.94
427.18	532.94
427.402	605.94
427.625	681.94
427.847	646.94
428.069	550.94
428.292	464.94
428.514	443.94
428.736	401.94
428.958	394.94
429.181	385.94
429.403	365.94
429.625	401.94
429.847	428.94
430.069	476.94
430.292	472.94
430.514	401.94
430.736	401.94
430.958	386.94
431.18	377.94
431.402	372.94
431.624	376.94
431.846	363.94
432.068	367.94
432.29	377.94
432.512	377.94
432.734	375.94
432.956	357.94
433.178	385.94
433.4	359.94
433.622	363.94
433.844	380.94
434.066	385.94
434.287	360.94
434.509	369.94
434.731	372.94
434.953	387.94
435.175	392.94
435.397	414.94
435.618	408.94
435.84	457.94
436.062	523.94
436.284	583.94
436.505	497.94
436.727	429.94
436.949	413.94
437.17	387.94
437.392	391.94
437.614	415.94
437.835	421.94
438.057	496.94
438.278	583.94
438.5	589.94
438.721	627.94
438.943	623.94
439.165	496.94
439.386	443.94
439.608	445.94
439.829	432.94
440.05	452.94
440.272	505.94
440.493	469.94
440.715	420.94
440.936	421.94
441.158	391.94
441.379	411.94
441.6	403.94
441.822	436.94
442.043	458.94
442.264	525.94
442.486	561.94
442.707	467.94
442.928	440.94
443.149	439.94
443.371	482.94
443.592	495.94
443.813	571.94
444.034	602.94
444.255	526.94
444.476	443.94
444.698	435.94
444.919	416.94
445.14	508.94
445.361	458.94
445.582	456.94
445.803	522.94
446.024	598.94
446.245	614.94
446.466	533.94
446.687	463.94
446.908	431.94
447.129	401.94
447.35	395.94
447.571	404.94
447.792	401.94
448.013	384.94
448.234	388.94
448.455	459.94
448.675	563.94
448.896	630.94
449.117	554.94
449.338	507.94
449.559	577.94
449.779	652.94
450	526.94
450.221	451.94
450.442	403.94
450.662	395.94
450.883	410.94
451.104	407.94
451.324	404.94
451.545	393.94
451.766	360.94
451.986	357.94
452.207	365.94
452.428	355.94
452.648	358.94
452.869	356.94
453.089	364.94
453.31	363.94
453.53	371.94
453.751	356.94
453.971	377.94
454.192	389.94
454.412	360.94
454.633	350.94
454.853	367.94
455.073	336.94
455.294	393.94
455.514	408.94
455.734	413.94
455.955	365.94
456.175	343.94
456.395	332.94
456.616	341.94
456.836	339.94
457.056	361.94
457.276	340.94
457.497	311.94
457.717	330.94
457.937	326.94
458.157	343.94
458.377	337.94
458.598	376.94
458.818	421.94
459.038	475.94
459.258	486.94
459.478	422.94
459.698	379.94
459.918	374.94
460.138	369.94
460.358	391.94
460.578	371.94
460.798	379.94
461.018	385.94
461.238	365.94
461.458	370.94
461.678	361.94
461.898	377.94
462.118	377.94
462.338	384.94
462.558	361.94
462.777	387.94
462.997	372.94
463.217	395.94
463.437	388.94
463.657	388.94
463.876	394.94
464.096	401.94
464.316	404.94
464.536	410.94
464.755	390.94
464.975	413.94
465.195	448.94
465.414	497.94
465.634	439.94
465.854	425.94
466.073	380.94
466.293	395.94
466.512	358.94
466.732	373.94
466.951	360.94
467.171	353.94
467.391	369.94
467.61	376.94
467.829	363.94
468.049	377.94
468.268	379.94
468.488	371.94
468.707	357.94
468.927	351.94
469.146	346.94
469.365	360.94
469.585	356.94
469.804	353.94
470.023	378.94
470.243	365.94
470.462	364.94
470.681	363.94
470.901	390.94
471.12	371.94
471.339	357.94
471.558	370.94
471.777	377.94
471.997	361.94
472.216	383.94
472.435	403.94
472.654	405.94
472.873	396.94
473.092	371.94
473.311	378.94
473.53	370.94
473.749	388.94
473.968	423.94
474.187	477.94
474.406	505.94
474.625	409.94
474.844	395.94
475.063	369.94
475.282	383.94
475.501	380.94
475.72	385.94
475.939	370.94
476.158	393.94
476.377	389.94
476.596	375.94
476.814	413.94
477.033	379.94
477.252	392.94
477.471	403.94
477.69	410.94
477.908	399.94
478.127	403.94
478.346	396.94
478.564	413.94
478.783	412.94
479.002	429.94
479.22	439.94
479.439	420.94
479.658	451.94
479.876	441.94
480.095	456.94
480.313	469.94
480.532	451.94
480.751	437.94
480.969	467.94
481.188	524.94
481.406	542.94
481.624	489.94
481.843	450.94
482.061	455.94
482.28	435.94
482.498	457.94
482.717	425.94
482.935	431.94
483.153	448.94
483.372	459.94
483.59	443.94
483.808	436.94
484.027	425.94
484.245	445.94
484.463	449.94
484.681	452.94
484.9	442.94
485.118	450.94
485.336	440.94
485.554	456.94
485.772	436.94
485.99	443.94
486.209	454.94
486.427	462.94
486.645	462.94
486.863	479.94
487.081	457.94
487.299	451.94
487.517	452.94
487.735	456.94
487.953	452.94
488.171	447.94
488.389	455.94
488.607	483.94
488.825	471.94
489.043	460.94
489.261	471.94
489.479	473.94
489.696	445.94
489.914	480.94
490.132	466.94
490.35	504.94
490.568	491.94
490.786	506.94
491.003	517.94
491.221	522.94
491.439	524.94
491.657	546.94
491.874	544.94
492.092	512.94
492.31	549.94
492.527	528.94
492.745	536.94
492.963	548.94
493.18	540.94
493.398	557.94
493.615	549.94
493.833	555.94
494.05	545.94
494.268	538.94
494.485	551.94
494.703	546.94
494.92	540.94
495.138	542.94
495.355	531.94
495.573	550.94
495.79	564.94
496.008	561.94
496.225	564.94
496.442	542.94
496.66	555.94
496.877	527.94
497.094	540.94
497.312	570.94
497.529	575.94
497.746	594.94
497.963	570.94
498.181	609.94
498.398	575.94
498.615	606.94
498.832	603.94
499.049	609.94
499.267	620.94
499.484	644.94
499.701	655.94
499.918	673.94
500.135	701.94
500.352	697.94
500.569	675.94
500.786	676.94
501.003	699.94
501.22	691.94
501.437	684.94
501.654	657.94
501.871	677.94
502.088	667.94
