Data from 1961.PennyLincolnUp.Lamp.En5.5.200Scan.071719.P1._HRD10591_13-48-45-058.txt Node
Date: Thu Jul 18 13:48:45 EDT 2019
User: cochatt
Spectrometer: HR+D1059
Trigger mode: 1
Integration Time (sec): 1.000000E-1
Scans to average: 1
Electric dark correction enabled: true
Nonlinearity correction enabled: false
Boxcar width: 0
XAxis mode: Wavelengths
Number of Pixels in Spectrum: 2048
>>>>>Begin Spectral Data<<<<<
223.165	-7.56
223.4	-7.56
223.635	-7.56
223.869	-11.56
224.104	-22.56
224.338	-21.56
224.573	-14.56
224.808	-7.56
225.042	-20.56
225.277	-15.56
225.511	16.44
225.746	5.44
225.98	6.44
226.215	6.44
226.449	14.44
226.683	18.44
226.918	28.44
227.152	25.44
227.387	52.44
227.621	36.44
227.856	42.44
228.09	52.44
228.324	40.44
228.559	40.44
228.793	75.44
229.027	100.44
229.262	114.44
229.496	105.44
229.73	126.44
229.964	138.44
230.199	133.44
230.433	108.44
230.667	123.44
230.901	97.44
231.136	94.44
231.37	108.44
231.604	98.44
231.838	104.44
232.072	106.44
232.306	114.44
232.541	100.44
232.775	109.44
233.009	97.44
233.243	109.44
233.477	117.44
233.711	92.44
233.945	93.44
234.179	120.44
234.413	108.44
234.647	102.44
234.881	108.44
235.115	93.44
235.349	117.44
235.583	118.44
235.817	112.44
236.051	125.44
236.285	116.44
236.519	115.44
236.753	116.44
236.987	140.44
237.221	179.44
237.455	224.44
237.689	176.44
237.922	136.44
238.156	124.44
238.39	121.44
238.624	130.44
238.858	124.44
239.091	110.44
239.325	126.44
239.559	121.44
239.793	118.44
240.027	120.44
240.26	135.44
240.494	139.44
240.728	145.44
240.961	148.44
241.195	130.44
241.429	114.44
241.662	119.44
241.896	100.44
242.13	118.44
242.363	131.44
242.597	122.44
242.83	122.44
243.064	122.44
243.298	130.44
243.531	122.44
243.765	137.44
243.998	143.44
244.232	125.44
244.465	123.44
244.699	138.44
244.932	122.44
245.166	120.44
245.399	137.44
245.633	136.44
245.866	129.44
246.099	133.44
246.333	142.44
246.566	139.44
246.8	136.44
247.033	150.44
247.266	140.44
247.5	134.44
247.733	143.44
247.966	142.44
248.2	163.44
248.433	152.44
248.666	152.44
248.899	170.44
249.133	193.44
249.366	186.44
249.599	170.44
249.832	148.44
250.066	158.44
250.299	181.44
250.532	173.44
250.765	171.44
250.998	198.44
251.231	197.44
251.465	205.44
251.698	198.44
251.931	180.44
252.164	165.44
252.397	173.44
252.63	170.44
252.863	178.44
253.096	182.44
253.329	203.44
253.562	209.44
253.795	178.44
254.028	182.44
254.261	194.44
254.494	200.44
254.727	206.44
254.96	232.44
255.193	232.44
255.426	216.44
255.659	207.44
255.892	214.44
256.124	201.44
256.357	214.44
256.59	192.44
256.823	200.44
257.056	201.44
257.289	180.44
257.521	204.44
257.754	189.44
257.987	178.44
258.22	185.44
258.452	194.44
258.685	182.44
258.918	176.44
259.151	188.44
259.383	196.44
259.616	194.44
259.849	187.44
260.081	210.44
260.314	210.44
260.547	218.44
260.779	218.44
261.012	201.44
261.244	204.44
261.477	188.44
261.71	192.44
261.942	209.44
262.175	210.44
262.407	198.44
262.64	188.44
262.872	178.44
263.105	200.44
263.337	194.44
263.57	202.44
263.802	178.44
264.035	178.44
264.267	186.44
264.499	185.44
264.732	169.44
264.964	172.44
265.197	186.44
265.429	177.44
265.661	180.44
265.894	177.44
266.126	188.44
266.358	187.44
266.591	186.44
266.823	205.44
267.055	188.44
267.287	196.44
267.52	185.44
267.752	180.44
267.984	206.44
268.216	199.44
268.448	188.44
268.681	192.44
268.913	198.44
269.145	232.44
269.377	242.44
269.609	231.44
269.841	219.44
270.073	232.44
270.306	257.44
270.538	270.44
270.77	268.44
271.002	262.44
271.234	240.44
271.466	247.44
271.698	266.44
271.93	252.44
272.162	276.44
272.394	262.44
272.626	260.44
272.858	258.44
273.09	244.44
273.322	207.44
273.553	215.44
273.785	235.44
274.017	251.44
274.249	213.44
274.481	232.44
274.713	229.44
274.945	229.44
275.176	215.44
275.408	217.44
275.64	227.44
275.872	216.44
276.104	229.44
276.335	242.44
276.567	242.44
276.799	246.44
277.031	249.44
277.262	261.44
277.494	266.44
277.726	263.44
277.957	246.44
278.189	248.44
278.421	234.44
278.652	217.44
278.884	235.44
279.115	233.44
279.347	229.44
279.579	245.44
279.81	228.44
280.042	218.44
280.273	242.44
280.505	225.44
280.736	222.44
280.968	229.44
281.199	235.44
281.431	237.44
281.662	228.44
281.894	221.44
282.125	225.44
282.356	231.44
282.588	250.44
282.819	268.44
283.051	237.44
283.282	215.44
283.513	224.44
283.745	222.44
283.976	225.44
284.207	210.44
284.439	230.44
284.67	235.44
284.901	233.44
285.132	229.44
285.364	220.44
285.595	222.44
285.826	227.44
286.057	233.44
286.288	250.44
286.52	230.44
286.751	240.44
286.982	243.44
287.213	247.44
287.444	241.44
287.675	230.44
287.906	234.44
288.138	229.44
288.369	235.44
288.6	268.44
288.831	261.44
289.062	250.44
289.293	248.44
289.524	246.44
289.755	236.44
289.986	230.44
290.217	234.44
290.448	231.44
290.679	222.44
290.91	239.44
291.141	235.44
291.371	243.44
291.602	244.44
291.833	242.44
292.064	241.44
292.295	232.44
292.526	244.44
292.757	236.44
292.987	238.44
293.218	224.44
293.449	245.44
293.68	227.44
293.91	242.44
294.141	236.44
294.372	233.44
294.603	248.44
294.833	250.44
295.064	238.44
295.295	249.44
295.525	239.44
295.756	251.44
295.987	268.44
296.217	291.44
296.448	280.44
296.679	249.44
296.909	243.44
297.14	242.44
297.37	250.44
297.601	240.44
297.831	233.44
298.062	244.44
298.292	251.44
298.523	253.44
298.753	253.44
298.984	252.44
299.214	274.44
299.445	252.44
299.675	260.44
299.905	273.44
300.136	281.44
300.366	261.44
300.597	256.44
300.827	274.44
301.057	244.44
301.288	275.44
301.518	282.44
301.748	283.44
301.979	264.44
302.209	265.44
302.439	271.44
302.669	264.44
302.9	271.44
303.13	248.44
303.36	285.44
303.59	282.44
303.82	284.44
304.051	272.44
304.281	259.44
304.511	268.44
304.741	252.44
304.971	273.44
305.201	274.44
305.431	280.44
305.661	275.44
305.891	261.44
306.121	289.44
306.352	294.44
306.582	296.44
306.812	274.44
307.042	285.44
307.272	280.44
307.502	270.44
307.731	268.44
307.961	275.44
308.191	284.44
308.421	282.44
308.651	284.44
308.881	285.44
309.111	290.44
309.341	281.44
309.571	292.44
309.8	300.44
310.03	323.44
310.26	312.44
310.49	316.44
310.72	333.44
310.949	374.44
311.179	357.44
311.409	327.44
311.639	308.44
311.868	325.44
312.098	347.44
312.328	331.44
312.557	348.44
312.787	357.44
313.017	369.44
313.246	340.44
313.476	350.44
313.706	325.44
313.935	331.44
314.165	341.44
314.394	356.44
314.624	360.44
314.853	324.44
315.083	315.44
315.312	322.44
315.542	295.44
315.771	328.44
316.001	321.44
316.23	315.44
316.46	308.44
316.689	326.44
316.919	320.44
317.148	332.44
317.377	339.44
317.607	327.44
317.836	342.44
318.065	318.44
318.295	325.44
318.524	328.44
318.753	319.44
318.983	338.44
319.212	325.44
319.441	331.44
319.67	343.44
319.9	335.44
320.129	313.44
320.358	323.44
320.587	325.44
320.816	346.44
321.046	357.44
321.275	342.44
321.504	347.44
321.733	331.44
321.962	357.44
322.191	367.44
322.42	380.44
322.649	394.44
322.878	397.44
323.108	413.44
323.337	450.44
323.566	461.44
323.795	486.44
324.024	555.44
324.253	666.44
324.482	1020.44
324.71	1602.44
324.939	2239.44
325.168	1889.44
325.397	972.44
325.626	652.44
325.855	554.44
326.084	489.44
326.313	472.44
326.542	490.44
326.77	525.44
326.999	648.44
327.228	944.44
327.457	1405.44
327.686	1625.44
327.914	1050.44
328.143	706.44
328.372	617.44
328.6	570.44
328.829	546.44
329.058	534.44
329.287	564.44
329.515	521.44
329.744	480.44
329.972	465.44
330.201	514.44
330.43	547.44
330.658	561.44
330.887	581.44
331.115	557.44
331.344	482.44
331.572	458.44
331.801	438.44
332.03	416.44
332.258	411.44
332.486	409.44
332.715	407.44
332.943	380.44
333.172	384.44
333.4	393.44
333.629	402.44
333.857	411.44
334.085	428.44
334.314	445.44
334.542	477.44
334.771	492.44
334.999	442.44
335.227	397.44
335.455	388.44
335.684	370.44
335.912	396.44
336.14	357.44
336.369	380.44
336.597	381.44
336.825	386.44
337.053	362.44
337.281	378.44
337.51	361.44
337.738	379.44
337.966	380.44
338.194	361.44
338.422	360.44
338.65	365.44
338.878	369.44
339.106	348.44
339.334	368.44
339.562	362.44
339.79	357.44
340.018	370.44
340.246	353.44
340.474	361.44
340.702	363.44
340.93	363.44
341.158	356.44
341.386	370.44
341.614	361.44
341.842	372.44
342.07	356.44
342.298	356.44
342.526	353.44
342.754	337.44
342.981	350.44
343.209	341.44
343.437	339.44
343.665	346.44
343.893	339.44
344.12	353.44
344.348	350.44
344.576	363.44
344.804	369.44
345.031	368.44
345.259	398.44
345.487	387.44
345.714	378.44
345.942	360.44
346.17	357.44
346.397	370.44
346.625	365.44
346.853	346.44
347.08	347.44
347.308	355.44
347.535	375.44
347.763	376.44
347.99	342.44
348.218	370.44
348.445	368.44
348.673	366.44
348.9	357.44
349.128	362.44
349.355	355.44
349.583	353.44
349.81	347.44
350.037	346.44
350.265	344.44
350.492	349.44
350.72	336.44
350.947	352.44
351.174	371.44
351.402	365.44
351.629	370.44
351.856	375.44
352.083	371.44
352.311	400.44
352.538	389.44
352.765	389.44
352.992	349.44
353.22	360.44
353.447	364.44
353.674	330.44
353.901	348.44
354.128	342.44
354.355	324.44
354.583	355.44
354.81	341.44
355.037	343.44
355.264	331.44
355.491	296.44
355.718	330.44
355.945	326.44
356.172	317.44
356.399	312.44
356.626	332.44
356.853	316.44
357.08	297.44
357.307	304.44
357.534	316.44
357.761	307.44
357.988	332.44
358.215	334.44
358.441	325.44
358.668	322.44
358.895	325.44
359.122	350.44
359.349	361.44
359.576	354.44
359.802	377.44
360.029	420.44
360.256	408.44
360.483	388.44
360.709	374.44
360.936	377.44
361.163	365.44
361.39	375.44
361.616	359.44
361.843	346.44
362.07	347.44
362.296	356.44
362.523	354.44
362.749	355.44
362.976	368.44
363.203	364.44
363.429	331.44
363.656	329.44
363.882	346.44
364.109	342.44
364.335	335.44
364.562	346.44
364.788	329.44
365.015	353.44
365.241	312.44
365.468	324.44
365.694	342.44
365.92	333.44
366.147	337.44
366.373	321.44
366.599	334.44
366.826	332.44
367.052	329.44
367.278	321.44
367.505	353.44
367.731	344.44
367.957	330.44
368.184	349.44
368.41	338.44
368.636	369.44
368.862	360.44
369.089	333.44
369.315	328.44
369.541	339.44
369.767	338.44
369.993	334.44
370.219	341.44
370.445	320.44
370.672	330.44
370.898	323.44
371.124	315.44
371.35	320.44
371.576	308.44
371.802	320.44
372.028	332.44
372.254	332.44
372.48	325.44
372.706	312.44
372.932	323.44
373.158	326.44
373.384	334.44
373.61	338.44
373.835	334.44
374.061	337.44
374.287	356.44
374.513	341.44
374.739	334.44
374.965	327.44
375.191	327.44
375.416	346.44
375.642	316.44
375.868	318.44
376.094	326.44
376.319	320.44
376.545	323.44
376.771	327.44
376.997	329.44
377.222	318.44
377.448	316.44
377.674	330.44
377.899	308.44
378.125	330.44
378.35	301.44
378.576	304.44
378.802	323.44
379.027	306.44
379.253	326.44
379.478	330.44
379.704	317.44
379.929	331.44
380.155	340.44
380.38	324.44
380.606	352.44
380.831	330.44
381.057	334.44
381.282	326.44
381.507	336.44
381.733	330.44
381.958	344.44
382.184	343.44
382.409	344.44
382.634	356.44
382.86	340.44
383.085	323.44
383.31	344.44
383.535	337.44
383.761	344.44
383.986	345.44
384.211	342.44
384.436	332.44
384.662	349.44
384.887	343.44
385.112	333.44
385.337	340.44
385.562	349.44
385.787	340.44
386.013	356.44
386.238	352.44
386.463	362.44
386.688	337.44
386.913	339.44
387.138	343.44
387.363	368.44
387.588	352.44
387.813	350.44
388.038	352.44
388.263	345.44
388.488	350.44
388.713	354.44
388.938	360.44
389.163	363.44
389.387	347.44
389.612	337.44
389.837	351.44
390.062	349.44
390.287	347.44
390.512	363.44
390.736	344.44
390.961	337.44
391.186	354.44
391.411	342.44
391.636	363.44
391.86	372.44
392.085	342.44
392.31	359.44
392.534	358.44
392.759	364.44
392.984	344.44
393.208	368.44
393.433	366.44
393.658	350.44
393.882	356.44
394.107	370.44
394.331	369.44
394.556	375.44
394.78	344.44
395.005	349.44
395.229	346.44
395.454	368.44
395.678	370.44
395.903	402.44
396.127	381.44
396.352	376.44
396.576	363.44
396.801	374.44
397.025	363.44
397.249	346.44
397.474	381.44
397.698	356.44
397.922	380.44
398.147	396.44
398.371	412.44
398.595	380.44
398.82	394.44
399.044	394.44
399.268	417.44
399.492	417.44
399.717	436.44
399.941	449.44
400.165	471.44
400.389	501.44
400.613	472.44
400.837	444.44
401.062	411.44
401.286	406.44
401.51	411.44
401.734	406.44
401.958	420.44
402.182	416.44
402.406	405.44
402.63	406.44
402.854	407.44
403.078	411.44
403.302	393.44
403.526	428.44
403.75	417.44
403.974	401.44
404.198	427.44
404.422	422.44
404.645	423.44
404.869	406.44
405.093	434.44
405.317	488.44
405.541	514.44
405.765	481.44
405.988	446.44
406.212	444.44
406.436	465.44
406.66	473.44
406.883	465.44
407.107	481.44
407.331	501.44
407.555	542.44
407.778	553.44
408.002	485.44
408.226	461.44
408.449	459.44
408.673	449.44
408.896	502.44
409.12	513.44
409.344	474.44
409.567	454.44
409.791	441.44
410.014	406.44
410.238	429.44
410.461	424.44
410.685	439.44
410.908	434.44
411.132	461.44
411.355	511.44
411.578	488.44
411.802	459.44
412.025	413.44
412.249	437.44
412.472	460.44
412.695	483.44
412.919	479.44
413.142	428.44
413.365	434.44
413.589	414.44
413.812	422.44
414.035	400.44
414.258	389.44
414.482	401.44
414.705	404.44
414.928	418.44
415.151	387.44
415.374	386.44
415.597	380.44
415.821	380.44
416.044	377.44
416.267	397.44
416.49	370.44
416.713	388.44
416.936	386.44
417.159	398.44
417.382	389.44
417.605	406.44
417.828	402.44
418.051	414.44
418.274	414.44
418.497	415.44
418.72	406.44
418.943	388.44
419.166	405.44
419.389	421.44
419.611	435.44
419.834	409.44
420.057	440.44
420.28	425.44
420.503	419.44
420.726	416.44
420.948	448.44
421.171	476.44
421.394	491.44
421.617	446.44
421.839	422.44
422.062	416.44
422.285	446.44
422.507	474.44
422.73	547.44
422.953	524.44
423.175	469.44
423.398	437.44
423.621	436.44
423.843	455.44
424.066	456.44
424.288	438.44
424.511	444.44
424.733	534.44
424.956	585.44
425.178	591.44
425.401	571.44
425.623	570.44
425.846	505.44
426.068	484.44
426.291	470.44
426.513	462.44
426.735	472.44
426.958	527.44
427.18	564.44
427.402	696.44
427.625	734.44
427.847	684.44
428.069	606.44
428.292	511.44
428.514	480.44
428.736	464.44
428.958	435.44
429.181	445.44
429.403	418.44
429.625	459.44
429.847	454.44
430.069	528.44
430.292	525.44
430.514	441.44
430.736	409.44
430.958	411.44
431.18	385.44
431.402	416.44
431.624	413.44
431.846	406.44
432.068	397.44
432.29	395.44
432.512	393.44
432.734	422.44
432.956	408.44
433.178	402.44
433.4	435.44
433.622	404.44
433.844	396.44
434.066	415.44
434.287	408.44
434.509	403.44
434.731	433.44
434.953	411.44
435.175	419.44
435.397	458.44
435.618	474.44
435.84	500.44
436.062	606.44
436.284	668.44
436.505	545.44
436.727	496.44
436.949	467.44
437.17	435.44
437.392	441.44
437.614	451.44
437.835	487.44
438.057	578.44
438.278	648.44
438.5	659.44
438.721	704.44
438.943	678.44
439.165	541.44
439.386	482.44
439.608	497.44
439.829	497.44
440.05	529.44
440.272	568.44
440.493	511.44
440.715	452.44
440.936	453.44
441.158	425.44
441.379	421.44
441.6	443.44
441.822	469.44
442.043	487.44
442.264	594.44
442.486	609.44
442.707	530.44
442.928	492.44
443.149	485.44
443.371	488.44
443.592	536.44
443.813	627.44
444.034	653.44
444.255	543.44
444.476	471.44
444.698	477.44
444.919	465.44
445.14	570.44
445.361	521.44
445.582	494.44
445.803	585.44
446.024	663.44
446.245	669.44
446.466	585.44
446.687	545.44
446.908	467.44
447.129	469.44
447.35	450.44
447.571	451.44
447.792	453.44
448.013	441.44
448.234	463.44
448.455	486.44
448.675	604.44
448.896	691.44
449.117	592.44
449.338	568.44
449.559	673.44
449.779	732.44
450	593.44
450.221	494.44
450.442	456.44
450.662	429.44
450.883	445.44
451.104	469.44
451.324	440.44
451.545	446.44
451.766	438.44
451.986	401.44
452.207	379.44
452.428	393.44
452.648	400.44
452.869	396.44
453.089	408.44
453.31	412.44
453.53	388.44
453.751	384.44
453.971	404.44
454.192	414.44
454.412	441.44
454.633	404.44
454.853	380.44
455.073	393.44
455.294	428.44
455.514	470.44
455.734	452.44
455.955	396.44
456.175	396.44
456.395	379.44
456.616	380.44
456.836	381.44
457.056	375.44
457.276	371.44
457.497	377.44
457.717	381.44
457.937	383.44
458.157	380.44
458.377	381.44
458.598	402.44
458.818	457.44
459.038	540.44
459.258	534.44
459.478	450.44
459.698	453.44
459.918	417.44
460.138	395.44
460.358	395.44
460.578	429.44
460.798	408.44
461.018	398.44
461.238	392.44
461.458	412.44
461.678	406.44
461.898	402.44
462.118	410.44
462.338	412.44
462.558	408.44
462.777	428.44
462.997	412.44
463.217	427.44
463.437	421.44
463.657	416.44
463.876	413.44
464.096	429.44
464.316	426.44
464.536	438.44
464.755	419.44
464.975	453.44
465.195	495.44
465.414	582.44
465.634	504.44
465.854	448.44
466.073	420.44
466.293	394.44
466.512	410.44
466.732	386.44
466.951	411.44
467.171	404.44
467.391	416.44
467.61	421.44
467.829	422.44
468.049	416.44
468.268	426.44
468.488	406.44
468.707	422.44
468.927	391.44
469.146	399.44
469.365	374.44
469.585	394.44
469.804	398.44
470.023	412.44
470.243	406.44
470.462	427.44
470.681	430.44
470.901	439.44
471.12	404.44
471.339	406.44
471.558	422.44
471.777	420.44
471.997	443.44
472.216	411.44
472.435	445.44
472.654	453.44
472.873	424.44
473.092	397.44
473.311	396.44
473.53	405.44
473.749	409.44
473.968	452.44
474.187	546.44
474.406	549.44
474.625	466.44
474.844	426.44
475.063	422.44
475.282	414.44
475.501	409.44
475.72	419.44
475.939	397.44
476.158	420.44
476.377	403.44
476.596	407.44
476.814	418.44
477.033	447.44
477.252	421.44
477.471	426.44
477.69	421.44
477.908	433.44
478.127	445.44
478.346	424.44
478.564	432.44
478.783	462.44
479.002	480.44
479.22	465.44
479.439	482.44
479.658	504.44
479.876	492.44
480.095	489.44
480.313	520.44
480.532	506.44
480.751	498.44
480.969	523.44
481.188	584.44
481.406	615.44
481.624	526.44
481.843	506.44
482.061	489.44
482.28	508.44
482.498	474.44
482.717	487.44
482.935	474.44
483.153	466.44
483.372	474.44
483.59	477.44
483.808	445.44
484.027	483.44
484.245	465.44
484.463	470.44
484.681	492.44
484.9	485.44
485.118	458.44
485.336	493.44
485.554	495.44
485.772	498.44
485.99	485.44
486.209	482.44
486.427	515.44
486.645	520.44
486.863	489.44
487.081	514.44
487.299	516.44
487.517	508.44
487.735	509.44
487.953	527.44
488.171	514.44
488.389	511.44
488.607	511.44
488.825	510.44
489.043	514.44
489.261	493.44
489.479	518.44
489.696	515.44
489.914	524.44
490.132	512.44
490.35	525.44
490.568	553.44
490.786	560.44
491.003	553.44
491.221	556.44
491.439	567.44
491.657	569.44
491.874	578.44
492.092	586.44
492.31	585.44
492.527	576.44
492.745	591.44
492.963	587.44
493.18	600.44
493.398	606.44
493.615	588.44
493.833	582.44
494.05	594.44
494.268	575.44
494.485	601.44
494.703	611.44
494.92	618.44
495.138	596.44
495.355	596.44
495.573	605.44
495.79	591.44
496.008	596.44
496.225	616.44
496.442	617.44
496.66	593.44
496.877	628.44
497.094	620.44
497.312	619.44
497.529	614.44
497.746	631.44
497.963	640.44
498.181	648.44
498.398	645.44
498.615	638.44
498.832	660.44
499.049	644.44
499.267	702.44
499.484	666.44
499.701	724.44
499.918	711.44
500.135	709.44
500.352	741.44
500.569	748.44
500.786	760.44
501.003	741.44
501.22	742.44
501.437	741.44
501.654	732.44
501.871	712.44
502.088	706.44
