Data from 1961.PennyLincolnUp.Lamp.En5.5.200Scan.071719.P1._HRD10591_13-47-19-057.txt Node
Date: Thu Jul 18 13:47:19 EDT 2019
User: cochatt
Spectrometer: HR+D1059
Trigger mode: 1
Integration Time (sec): 1.000000E-1
Scans to average: 1
Electric dark correction enabled: true
Nonlinearity correction enabled: false
Boxcar width: 0
XAxis mode: Wavelengths
Number of Pixels in Spectrum: 2048
>>>>>Begin Spectral Data<<<<<
223.165	-19.88
223.4	-19.88
223.635	-19.88
223.869	-18.88
224.104	-23.88
224.338	-18.88
224.573	-28.88
224.808	4.12
225.042	5.12
225.277	-8.88
225.511	-0.88
225.746	14.12
225.98	13.12
226.215	1.12
226.449	7.12
226.683	12.12
226.918	25.12
227.152	38.12
227.387	34.12
227.621	42.12
227.856	49.12
228.09	43.12
228.324	58.12
228.559	47.12
228.793	70.12
229.027	88.12
229.262	87.12
229.496	106.12
229.73	118.12
229.964	144.12
230.199	124.12
230.433	113.12
230.667	114.12
230.901	102.12
231.136	105.12
231.37	104.12
231.604	107.12
231.838	123.12
232.072	96.12
232.306	109.12
232.541	101.12
232.775	111.12
233.009	116.12
233.243	91.12
233.477	110.12
233.711	113.12
233.945	104.12
234.179	117.12
234.413	111.12
234.647	104.12
234.881	107.12
235.115	106.12
235.349	100.12
235.583	106.12
235.817	118.12
236.051	109.12
236.285	112.12
236.519	113.12
236.753	116.12
236.987	145.12
237.221	165.12
237.455	209.12
237.689	164.12
237.922	138.12
238.156	130.12
238.39	122.12
238.624	122.12
238.858	123.12
239.091	109.12
239.325	134.12
239.559	123.12
239.793	126.12
240.027	118.12
240.26	120.12
240.494	136.12
240.728	140.12
240.961	124.12
241.195	130.12
241.429	128.12
241.662	123.12
241.896	124.12
242.13	123.12
242.363	119.12
242.597	121.12
242.83	124.12
243.064	120.12
243.298	129.12
243.531	109.12
243.765	100.12
243.998	120.12
244.232	140.12
244.465	132.12
244.699	115.12
244.932	127.12
245.166	127.12
245.399	135.12
245.633	128.12
245.866	124.12
246.099	117.12
246.333	128.12
246.566	126.12
246.8	130.12
247.033	134.12
247.266	143.12
247.5	130.12
247.733	136.12
247.966	146.12
248.2	151.12
248.433	158.12
248.666	152.12
248.899	160.12
249.133	160.12
249.366	153.12
249.599	163.12
249.832	158.12
250.066	155.12
250.299	162.12
250.532	168.12
250.765	171.12
250.998	192.12
251.231	195.12
251.465	178.12
251.698	168.12
251.931	164.12
252.164	157.12
252.397	163.12
252.63	182.12
252.863	174.12
253.096	180.12
253.329	196.12
253.562	176.12
253.795	204.12
254.028	191.12
254.261	193.12
254.494	209.12
254.727	204.12
254.96	230.12
255.193	235.12
255.426	217.12
255.659	202.12
255.892	194.12
256.124	190.12
256.357	192.12
256.59	185.12
256.823	194.12
257.056	171.12
257.289	191.12
257.521	189.12
257.754	169.12
257.987	176.12
258.22	190.12
258.452	186.12
258.685	178.12
258.918	167.12
259.151	179.12
259.383	194.12
259.616	196.12
259.849	203.12
260.081	177.12
260.314	212.12
260.547	204.12
260.779	194.12
261.012	184.12
261.244	193.12
261.477	195.12
261.71	192.12
261.942	186.12
262.175	209.12
262.407	196.12
262.64	185.12
262.872	174.12
263.105	178.12
263.337	184.12
263.57	177.12
263.802	178.12
264.035	180.12
264.267	183.12
264.499	183.12
264.732	162.12
264.964	170.12
265.197	179.12
265.429	176.12
265.661	165.12
265.894	156.12
266.126	179.12
266.358	184.12
266.591	187.12
266.823	199.12
267.055	187.12
267.287	203.12
267.52	191.12
267.752	182.12
267.984	189.12
268.216	197.12
268.448	183.12
268.681	200.12
268.913	204.12
269.145	221.12
269.377	240.12
269.609	215.12
269.841	215.12
270.073	213.12
270.306	231.12
270.538	244.12
270.77	256.12
271.002	253.12
271.234	232.12
271.466	246.12
271.698	259.12
271.93	266.12
272.162	271.12
272.394	246.12
272.626	230.12
272.858	242.12
273.09	221.12
273.322	220.12
273.553	209.12
273.785	206.12
274.017	211.12
274.249	226.12
274.481	222.12
274.713	225.12
274.945	227.12
275.176	229.12
275.408	252.12
275.64	226.12
275.872	229.12
276.104	226.12
276.335	234.12
276.567	216.12
276.799	231.12
277.031	256.12
277.262	266.12
277.494	277.12
277.726	250.12
277.957	222.12
278.189	237.12
278.421	210.12
278.652	224.12
278.884	226.12
279.115	211.12
279.347	214.12
279.579	224.12
279.81	206.12
280.042	210.12
280.273	214.12
280.505	223.12
280.736	202.12
280.968	221.12
281.199	219.12
281.431	219.12
281.662	204.12
281.894	228.12
282.125	231.12
282.356	246.12
282.588	226.12
282.819	260.12
283.051	233.12
283.282	223.12
283.513	230.12
283.745	232.12
283.976	224.12
284.207	233.12
284.439	234.12
284.67	237.12
284.901	235.12
285.132	221.12
285.364	232.12
285.595	228.12
285.826	224.12
286.057	224.12
286.288	228.12
286.52	228.12
286.751	228.12
286.982	234.12
287.213	236.12
287.444	219.12
287.675	228.12
287.906	240.12
288.138	228.12
288.369	233.12
288.6	233.12
288.831	242.12
289.062	225.12
289.293	234.12
289.524	223.12
289.755	231.12
289.986	221.12
290.217	227.12
290.448	233.12
290.679	221.12
290.91	243.12
291.141	229.12
291.371	227.12
291.602	235.12
291.833	242.12
292.064	238.12
292.295	229.12
292.526	234.12
292.757	219.12
292.987	234.12
293.218	229.12
293.449	241.12
293.68	229.12
293.91	227.12
294.141	232.12
294.372	224.12
294.603	229.12
294.833	245.12
295.064	232.12
295.295	223.12
295.525	234.12
295.756	244.12
295.987	255.12
296.217	277.12
296.448	277.12
296.679	235.12
296.909	244.12
297.14	240.12
297.37	239.12
297.601	240.12
297.831	244.12
298.062	223.12
298.292	223.12
298.523	246.12
298.753	230.12
298.984	248.12
299.214	238.12
299.445	242.12
299.675	228.12
299.905	248.12
300.136	235.12
300.366	258.12
300.597	247.12
300.827	266.12
301.057	269.12
301.288	272.12
301.518	254.12
301.748	249.12
301.979	270.12
302.209	276.12
302.439	281.12
302.669	254.12
302.9	251.12
303.13	261.12
303.36	257.12
303.59	271.12
303.82	270.12
304.051	284.12
304.281	266.12
304.511	262.12
304.741	262.12
304.971	255.12
305.201	249.12
305.431	266.12
305.661	257.12
305.891	264.12
306.121	267.12
306.352	285.12
306.582	274.12
306.812	278.12
307.042	265.12
307.272	261.12
307.502	266.12
307.731	269.12
307.961	270.12
308.191	267.12
308.421	264.12
308.651	274.12
308.881	260.12
309.111	277.12
309.341	270.12
309.571	290.12
309.8	292.12
310.03	310.12
310.26	314.12
310.49	314.12
310.72	330.12
310.949	341.12
311.179	322.12
311.409	319.12
311.639	322.12
311.868	314.12
312.098	298.12
312.328	306.12
312.557	321.12
312.787	336.12
313.017	332.12
313.246	311.12
313.476	312.12
313.706	315.12
313.935	320.12
314.165	315.12
314.394	325.12
314.624	328.12
314.853	317.12
315.083	302.12
315.312	296.12
315.542	324.12
315.771	295.12
316.001	308.12
316.23	311.12
316.46	304.12
316.689	308.12
316.919	316.12
317.148	305.12
317.377	308.12
317.607	320.12
317.836	333.12
318.065	323.12
318.295	301.12
318.524	304.12
318.753	305.12
318.983	313.12
319.212	309.12
319.441	336.12
319.67	328.12
319.9	322.12
320.129	313.12
320.358	309.12
320.587	316.12
320.816	332.12
321.046	343.12
321.275	345.12
321.504	318.12
321.733	330.12
321.962	358.12
322.191	348.12
322.42	382.12
322.649	376.12
322.878	407.12
323.108	404.12
323.337	422.12
323.566	442.12
323.795	481.12
324.024	527.12
324.253	660.12
324.482	963.12
324.71	1470.12
324.939	2116.12
325.168	1749.12
325.397	883.12
325.626	616.12
325.855	480.12
326.084	476.12
326.313	461.12
326.542	448.12
326.77	495.12
326.999	613.12
327.228	842.12
327.457	1283.12
327.686	1488.12
327.914	997.12
328.143	644.12
328.372	576.12
328.6	535.12
328.829	497.12
329.058	497.12
329.287	509.12
329.515	481.12
329.744	452.12
329.972	467.12
330.201	462.12
330.43	503.12
330.658	530.12
330.887	538.12
331.115	519.12
331.344	433.12
331.572	416.12
331.801	421.12
332.03	421.12
332.258	411.12
332.486	380.12
332.715	357.12
332.943	376.12
333.172	362.12
333.4	378.12
333.629	377.12
333.857	381.12
334.085	394.12
334.314	437.12
334.542	441.12
334.771	464.12
334.999	410.12
335.227	366.12
335.455	376.12
335.684	368.12
335.912	354.12
336.14	335.12
336.369	356.12
336.597	371.12
336.825	360.12
337.053	358.12
337.281	357.12
337.51	362.12
337.738	350.12
337.966	349.12
338.194	375.12
338.422	370.12
338.65	360.12
338.878	349.12
339.106	336.12
339.334	341.12
339.562	333.12
339.79	335.12
340.018	370.12
340.246	355.12
340.474	342.12
340.702	343.12
340.93	346.12
341.158	354.12
341.386	348.12
341.614	355.12
341.842	347.12
342.07	348.12
342.298	328.12
342.526	322.12
342.754	316.12
342.981	334.12
343.209	331.12
343.437	317.12
343.665	331.12
343.893	347.12
344.12	341.12
344.348	339.12
344.576	352.12
344.804	345.12
345.031	361.12
345.259	372.12
345.487	369.12
345.714	362.12
345.942	343.12
346.17	337.12
346.397	345.12
346.625	341.12
346.853	346.12
347.08	346.12
347.308	346.12
347.535	355.12
347.763	380.12
347.99	358.12
348.218	368.12
348.445	352.12
348.673	338.12
348.9	333.12
349.128	342.12
349.355	341.12
349.583	334.12
349.81	326.12
350.037	323.12
350.265	346.12
350.492	326.12
350.72	321.12
350.947	328.12
351.174	333.12
351.402	335.12
351.629	352.12
351.856	361.12
352.083	371.12
352.311	363.12
352.538	366.12
352.765	369.12
352.992	368.12
353.22	348.12
353.447	341.12
353.674	341.12
353.901	334.12
354.128	316.12
354.355	308.12
354.583	322.12
354.81	313.12
355.037	303.12
355.264	320.12
355.491	324.12
355.718	319.12
355.945	317.12
356.172	326.12
356.399	304.12
356.626	314.12
356.853	301.12
357.08	306.12
357.307	309.12
357.534	327.12
357.761	304.12
357.988	292.12
358.215	302.12
358.441	311.12
358.668	294.12
358.895	324.12
359.122	330.12
359.349	344.12
359.576	342.12
359.802	353.12
360.029	381.12
360.256	392.12
360.483	384.12
360.709	356.12
360.936	341.12
361.163	341.12
361.39	356.12
361.616	344.12
361.843	333.12
362.07	329.12
362.296	350.12
362.523	341.12
362.749	341.12
362.976	343.12
363.203	325.12
363.429	338.12
363.656	326.12
363.882	328.12
364.109	330.12
364.335	315.12
364.562	326.12
364.788	309.12
365.015	311.12
365.241	311.12
365.468	326.12
365.694	317.12
365.92	326.12
366.147	320.12
366.373	328.12
366.599	323.12
366.826	314.12
367.052	314.12
367.278	315.12
367.505	337.12
367.731	338.12
367.957	331.12
368.184	332.12
368.41	320.12
368.636	326.12
368.862	339.12
369.089	326.12
369.315	330.12
369.541	309.12
369.767	331.12
369.993	300.12
370.219	316.12
370.445	315.12
370.672	322.12
370.898	299.12
371.124	320.12
371.35	314.12
371.576	326.12
371.802	303.12
372.028	323.12
372.254	308.12
372.48	309.12
372.706	310.12
372.932	310.12
373.158	311.12
373.384	316.12
373.61	306.12
373.835	313.12
374.061	329.12
374.287	331.12
374.513	320.12
374.739	317.12
374.965	336.12
375.191	327.12
375.416	329.12
375.642	308.12
375.868	313.12
376.094	342.12
376.319	302.12
376.545	304.12
376.771	329.12
376.997	337.12
377.222	305.12
377.448	318.12
377.674	313.12
377.899	321.12
378.125	286.12
378.35	309.12
378.576	298.12
378.802	314.12
379.027	333.12
379.253	302.12
379.478	311.12
379.704	336.12
379.929	325.12
380.155	316.12
380.38	318.12
380.606	312.12
380.831	328.12
381.057	345.12
381.282	324.12
381.507	330.12
381.733	321.12
381.958	320.12
382.184	320.12
382.409	326.12
382.634	317.12
382.86	337.12
383.085	315.12
383.31	310.12
383.535	322.12
383.761	320.12
383.986	314.12
384.211	326.12
384.436	330.12
384.662	311.12
384.887	311.12
385.112	323.12
385.337	342.12
385.562	313.12
385.787	344.12
386.013	352.12
386.238	353.12
386.463	337.12
386.688	346.12
386.913	326.12
387.138	341.12
387.363	346.12
387.588	339.12
387.813	325.12
388.038	336.12
388.263	348.12
388.488	324.12
388.713	330.12
388.938	337.12
389.163	334.12
389.387	352.12
389.612	323.12
389.837	342.12
390.062	343.12
390.287	340.12
390.512	333.12
390.736	346.12
390.961	356.12
391.186	333.12
391.411	350.12
391.636	328.12
391.86	344.12
392.085	334.12
392.31	338.12
392.534	347.12
392.759	351.12
392.984	341.12
393.208	340.12
393.433	357.12
393.658	338.12
393.882	362.12
394.107	365.12
394.331	355.12
394.556	347.12
394.78	345.12
395.005	346.12
395.229	352.12
395.454	332.12
395.678	363.12
395.903	360.12
396.127	362.12
396.352	384.12
396.576	349.12
396.801	372.12
397.025	358.12
397.249	363.12
397.474	358.12
397.698	366.12
397.922	371.12
398.147	394.12
398.371	375.12
398.595	372.12
398.82	385.12
399.044	387.12
399.268	392.12
399.492	392.12
399.717	413.12
399.941	433.12
400.165	457.12
400.389	470.12
400.613	455.12
400.837	424.12
401.062	400.12
401.286	392.12
401.51	398.12
401.734	393.12
401.958	389.12
402.182	398.12
402.406	398.12
402.63	385.12
402.854	413.12
403.078	420.12
403.302	399.12
403.526	397.12
403.75	396.12
403.974	410.12
404.198	414.12
404.422	407.12
404.645	397.12
404.869	420.12
405.093	456.12
405.317	466.12
405.541	491.12
405.765	462.12
405.988	430.12
406.212	444.12
406.436	467.12
406.66	466.12
406.883	443.12
407.107	451.12
407.331	478.12
407.555	564.12
407.778	526.12
408.002	498.12
408.226	444.12
408.449	455.12
408.673	442.12
408.896	471.12
409.12	492.12
409.344	476.12
409.567	427.12
409.791	428.12
410.014	398.12
410.238	409.12
410.461	392.12
410.685	379.12
410.908	414.12
411.132	448.12
411.355	485.12
411.578	464.12
411.802	422.12
412.025	430.12
412.249	427.12
412.472	429.12
412.695	470.12
412.919	452.12
413.142	428.12
413.365	400.12
413.589	383.12
413.812	385.12
414.035	396.12
414.258	382.12
414.482	382.12
414.705	377.12
414.928	384.12
415.151	386.12
415.374	389.12
415.597	369.12
415.821	392.12
416.044	390.12
416.267	405.12
416.49	379.12
416.713	392.12
416.936	386.12
417.159	404.12
417.382	402.12
417.605	379.12
417.828	409.12
418.051	399.12
418.274	385.12
418.497	377.12
418.72	391.12
418.943	377.12
419.166	392.12
419.389	405.12
419.611	418.12
419.834	394.12
420.057	405.12
420.28	397.12
420.503	398.12
420.726	410.12
420.948	425.12
421.171	455.12
421.394	472.12
421.617	428.12
421.839	404.12
422.062	406.12
422.285	438.12
422.507	455.12
422.73	516.12
422.953	499.12
423.175	428.12
423.398	436.12
423.621	416.12
423.843	441.12
424.066	428.12
424.288	451.12
424.511	454.12
424.733	489.12
424.956	557.12
425.178	550.12
425.401	546.12
425.623	539.12
425.846	477.12
426.068	456.12
426.291	424.12
426.513	450.12
426.735	454.12
426.958	477.12
427.18	574.12
427.402	676.12
427.625	746.12
427.847	659.12
428.069	564.12
428.292	494.12
428.514	458.12
428.736	429.12
428.958	418.12
429.181	404.12
429.403	398.12
429.625	422.12
429.847	474.12
430.069	509.12
430.292	479.12
430.514	425.12
430.736	405.12
430.958	398.12
431.18	402.12
431.402	399.12
431.624	365.12
431.846	384.12
432.068	386.12
432.29	386.12
432.512	385.12
432.734	401.12
432.956	409.12
433.178	417.12
433.4	406.12
433.622	388.12
433.844	376.12
434.066	391.12
434.287	379.12
434.509	396.12
434.731	399.12
434.953	414.12
435.175	413.12
435.397	439.12
435.618	423.12
435.84	463.12
436.062	558.12
436.284	596.12
436.505	508.12
436.727	463.12
436.949	440.12
437.17	415.12
437.392	419.12
437.614	414.12
437.835	458.12
438.057	561.12
438.278	614.12
438.5	605.12
438.721	681.12
438.943	624.12
439.165	492.12
439.386	474.12
439.608	443.12
439.829	461.12
440.05	503.12
440.272	544.12
440.493	492.12
440.715	452.12
440.936	441.12
441.158	418.12
441.379	415.12
441.6	435.12
441.822	464.12
442.043	493.12
442.264	549.12
442.486	592.12
442.707	500.12
442.928	463.12
443.149	471.12
443.371	469.12
443.592	542.12
443.813	585.12
444.034	629.12
444.255	518.12
444.476	475.12
444.698	443.12
444.919	438.12
445.14	519.12
445.361	491.12
445.582	476.12
445.803	582.12
446.024	637.12
446.245	644.12
446.466	584.12
446.687	484.12
446.908	469.12
447.129	448.12
447.35	408.12
447.571	437.12
447.792	425.12
448.013	440.12
448.234	438.12
448.455	467.12
448.675	585.12
448.896	664.12
449.117	561.12
449.338	546.12
449.559	621.12
449.779	685.12
450	545.12
450.221	471.12
450.442	442.12
450.662	435.12
450.883	404.12
451.104	430.12
451.324	429.12
451.545	407.12
451.766	398.12
451.986	377.12
452.207	378.12
452.428	380.12
452.648	380.12
452.869	379.12
453.089	388.12
453.31	386.12
453.53	390.12
453.751	378.12
453.971	362.12
454.192	392.12
454.412	406.12
454.633	380.12
454.853	384.12
455.073	377.12
455.294	402.12
455.514	440.12
455.734	445.12
455.955	382.12
456.175	356.12
456.395	354.12
456.616	376.12
456.836	345.12
457.056	342.12
457.276	357.12
457.497	369.12
457.717	358.12
457.937	372.12
458.157	384.12
458.377	363.12
458.598	408.12
458.818	459.12
459.038	509.12
459.258	515.12
459.478	430.12
459.698	416.12
459.918	391.12
460.138	369.12
460.358	383.12
460.578	391.12
460.798	389.12
461.018	404.12
461.238	394.12
461.458	409.12
461.678	398.12
461.898	408.12
462.118	380.12
462.338	414.12
462.558	394.12
462.777	416.12
462.997	410.12
463.217	412.12
463.437	421.12
463.657	404.12
463.876	394.12
464.096	406.12
464.316	427.12
464.536	402.12
464.755	423.12
464.975	427.12
465.195	475.12
465.414	556.12
465.634	503.12
465.854	430.12
466.073	413.12
466.293	414.12
466.512	413.12
466.732	395.12
466.951	377.12
467.171	373.12
467.391	382.12
467.61	398.12
467.829	391.12
468.049	393.12
468.268	408.12
468.488	394.12
468.707	388.12
468.927	365.12
469.146	364.12
469.365	377.12
469.585	380.12
469.804	382.12
470.023	403.12
470.243	384.12
470.462	405.12
470.681	433.12
470.901	412.12
471.12	384.12
471.339	385.12
471.558	413.12
471.777	389.12
471.997	400.12
472.216	406.12
472.435	436.12
472.654	427.12
472.873	418.12
473.092	394.12
473.311	387.12
473.53	410.12
473.749	400.12
473.968	436.12
474.187	515.12
474.406	560.12
474.625	458.12
474.844	418.12
475.063	386.12
475.282	398.12
475.501	385.12
475.72	390.12
475.939	401.12
476.158	402.12
476.377	408.12
476.596	402.12
476.814	424.12
477.033	412.12
477.252	396.12
477.471	414.12
477.69	417.12
477.908	397.12
478.127	427.12
478.346	443.12
478.564	425.12
478.783	430.12
479.002	448.12
479.22	444.12
479.439	438.12
479.658	473.12
479.876	460.12
480.095	464.12
480.313	504.12
480.532	460.12
480.751	458.12
480.969	486.12
481.188	555.12
481.406	593.12
481.624	539.12
481.843	492.12
482.061	461.12
482.28	457.12
482.498	448.12
482.717	460.12
482.935	454.12
483.153	452.12
483.372	451.12
483.59	462.12
483.808	456.12
484.027	450.12
484.245	472.12
484.463	448.12
484.681	449.12
484.9	473.12
485.118	444.12
485.336	466.12
485.554	457.12
485.772	465.12
485.99	474.12
486.209	469.12
486.427	483.12
486.645	490.12
486.863	512.12
487.081	493.12
487.299	512.12
487.517	521.12
487.735	473.12
487.953	490.12
488.171	481.12
488.389	488.12
488.607	477.12
488.825	484.12
489.043	493.12
489.261	501.12
489.479	496.12
489.696	481.12
489.914	490.12
490.132	500.12
490.35	518.12
490.568	525.12
490.786	547.12
491.003	530.12
491.221	548.12
491.439	556.12
491.657	548.12
491.874	551.12
492.092	545.12
492.31	550.12
492.527	567.12
492.745	570.12
492.963	563.12
493.18	566.12
493.398	587.12
493.615	558.12
493.833	577.12
494.05	560.12
494.268	571.12
494.485	574.12
494.703	574.12
494.92	567.12
495.138	564.12
495.355	568.12
495.573	590.12
495.79	582.12
496.008	575.12
496.225	570.12
496.442	604.12
496.66	576.12
496.877	579.12
497.094	589.12
497.312	568.12
497.529	597.12
497.746	607.12
497.963	588.12
498.181	621.12
498.398	627.12
498.615	610.12
498.832	634.12
499.049	652.12
499.267	648.12
499.484	694.12
499.701	662.12
499.918	690.12
500.135	698.12
500.352	726.12
500.569	727.12
500.786	745.12
501.003	732.12
501.22	725.12
501.437	714.12
501.654	708.12
501.871	717.12
502.088	701.12
