Data from 1961.PennyLincolnUp.Lamp.En5.5.200Scan.071719.P1._HRD10591_13-46-28-057.txt Node
Date: Thu Jul 18 13:46:28 EDT 2019
User: cochatt
Spectrometer: HR+D1059
Trigger mode: 1
Integration Time (sec): 1.000000E-1
Scans to average: 1
Electric dark correction enabled: true
Nonlinearity correction enabled: false
Boxcar width: 0
XAxis mode: Wavelengths
Number of Pixels in Spectrum: 2048
>>>>>Begin Spectral Data<<<<<
223.165	-30.56
223.4	-30.56
223.635	-30.56
223.869	-16.56
224.104	-27.56
224.338	-14.56
224.573	-14.56
224.808	-23.56
225.042	-8.56
225.277	-6.56
225.511	20.44
225.746	5.44
225.98	-0.56
226.215	3.44
226.449	23.44
226.683	33.44
226.918	28.44
227.152	28.44
227.387	37.44
227.621	39.44
227.856	47.44
228.09	38.44
228.324	45.44
228.559	50.44
228.793	75.44
229.027	75.44
229.262	87.44
229.496	95.44
229.73	107.44
229.964	123.44
230.199	113.44
230.433	104.44
230.667	114.44
230.901	100.44
231.136	109.44
231.37	104.44
231.604	90.44
231.838	96.44
232.072	111.44
232.306	98.44
232.541	106.44
232.775	100.44
233.009	96.44
233.243	92.44
233.477	107.44
233.711	83.44
233.945	115.44
234.179	114.44
234.413	106.44
234.647	114.44
234.881	112.44
235.115	108.44
235.349	120.44
235.583	103.44
235.817	96.44
236.051	98.44
236.285	102.44
236.519	104.44
236.753	103.44
236.987	122.44
237.221	125.44
237.455	179.44
237.689	153.44
237.922	125.44
238.156	111.44
238.39	112.44
238.624	87.44
238.858	97.44
239.091	106.44
239.325	117.44
239.559	115.44
239.793	98.44
240.027	110.44
240.26	120.44
240.494	111.44
240.728	122.44
240.961	126.44
241.195	116.44
241.429	114.44
241.662	112.44
241.896	102.44
242.13	122.44
242.363	119.44
242.597	119.44
242.83	103.44
243.064	121.44
243.298	121.44
243.531	113.44
243.765	129.44
243.998	122.44
244.232	119.44
244.465	121.44
244.699	119.44
244.932	101.44
245.166	104.44
245.399	98.44
245.633	111.44
245.866	133.44
246.099	120.44
246.333	123.44
246.566	125.44
246.8	132.44
247.033	120.44
247.266	118.44
247.5	131.44
247.733	135.44
247.966	119.44
248.2	142.44
248.433	122.44
248.666	137.44
248.899	151.44
249.133	141.44
249.366	160.44
249.599	156.44
249.832	135.44
250.066	133.44
250.299	151.44
250.532	157.44
250.765	138.44
250.998	171.44
251.231	154.44
251.465	169.44
251.698	161.44
251.931	136.44
252.164	145.44
252.397	159.44
252.63	141.44
252.863	132.44
253.096	177.44
253.329	154.44
253.562	167.44
253.795	156.44
254.028	162.44
254.261	166.44
254.494	164.44
254.727	171.44
254.96	200.44
255.193	191.44
255.426	188.44
255.659	178.44
255.892	182.44
256.124	169.44
256.357	176.44
256.59	171.44
256.823	156.44
257.056	163.44
257.289	155.44
257.521	172.44
257.754	168.44
257.987	150.44
258.22	158.44
258.452	159.44
258.685	145.44
258.918	155.44
259.151	150.44
259.383	164.44
259.616	175.44
259.849	173.44
260.081	177.44
260.314	191.44
260.547	196.44
260.779	167.44
261.012	169.44
261.244	174.44
261.477	166.44
261.71	150.44
261.942	159.44
262.175	174.44
262.407	164.44
262.64	155.44
262.872	147.44
263.105	156.44
263.337	160.44
263.57	161.44
263.802	158.44
264.035	162.44
264.267	168.44
264.499	170.44
264.732	162.44
264.964	159.44
265.197	166.44
265.429	155.44
265.661	176.44
265.894	169.44
266.126	153.44
266.358	164.44
266.591	163.44
266.823	160.44
267.055	163.44
267.287	181.44
267.52	167.44
267.752	168.44
267.984	159.44
268.216	177.44
268.448	163.44
268.681	175.44
268.913	184.44
269.145	185.44
269.377	194.44
269.609	180.44
269.841	169.44
270.073	198.44
270.306	203.44
270.538	195.44
270.77	214.44
271.002	220.44
271.234	196.44
271.466	214.44
271.698	219.44
271.93	228.44
272.162	222.44
272.394	215.44
272.626	203.44
272.858	193.44
273.09	195.44
273.322	188.44
273.553	192.44
273.785	187.44
274.017	193.44
274.249	175.44
274.481	192.44
274.713	187.44
274.945	209.44
275.176	187.44
275.408	181.44
275.64	197.44
275.872	177.44
276.104	179.44
276.335	193.44
276.567	187.44
276.799	189.44
277.031	219.44
277.262	223.44
277.494	211.44
277.726	190.44
277.957	191.44
278.189	200.44
278.421	215.44
278.652	193.44
278.884	200.44
279.115	193.44
279.347	187.44
279.579	193.44
279.81	184.44
280.042	194.44
280.273	191.44
280.505	188.44
280.736	188.44
280.968	190.44
281.199	195.44
281.431	190.44
281.662	196.44
281.894	188.44
282.125	193.44
282.356	202.44
282.588	199.44
282.819	212.44
283.051	207.44
283.282	197.44
283.513	188.44
283.745	192.44
283.976	202.44
284.207	193.44
284.439	199.44
284.67	195.44
284.901	200.44
285.132	201.44
285.364	201.44
285.595	215.44
285.826	195.44
286.057	196.44
286.288	190.44
286.52	192.44
286.751	193.44
286.982	216.44
287.213	195.44
287.444	199.44
287.675	196.44
287.906	200.44
288.138	216.44
288.369	208.44
288.6	214.44
288.831	211.44
289.062	210.44
289.293	212.44
289.524	216.44
289.755	199.44
289.986	196.44
290.217	204.44
290.448	212.44
290.679	200.44
290.91	216.44
291.141	209.44
291.371	205.44
291.602	193.44
291.833	205.44
292.064	212.44
292.295	214.44
292.526	203.44
292.757	207.44
292.987	223.44
293.218	204.44
293.449	219.44
293.68	212.44
293.91	208.44
294.141	208.44
294.372	201.44
294.603	210.44
294.833	220.44
295.064	209.44
295.295	192.44
295.525	200.44
295.756	211.44
295.987	210.44
296.217	244.44
296.448	241.44
296.679	220.44
296.909	197.44
297.14	203.44
297.37	227.44
297.601	218.44
297.831	223.44
298.062	213.44
298.292	219.44
298.523	218.44
298.753	215.44
298.984	215.44
299.214	222.44
299.445	219.44
299.675	225.44
299.905	219.44
300.136	214.44
300.366	216.44
300.597	209.44
300.827	214.44
301.057	215.44
301.288	232.44
301.518	229.44
301.748	220.44
301.979	232.44
302.209	228.44
302.439	226.44
302.669	232.44
302.9	232.44
303.13	215.44
303.36	218.44
303.59	228.44
303.82	239.44
304.051	244.44
304.281	239.44
304.511	220.44
304.741	217.44
304.971	222.44
305.201	223.44
305.431	224.44
305.661	227.44
305.891	216.44
306.121	225.44
306.352	236.44
306.582	225.44
306.812	236.44
307.042	226.44
307.272	226.44
307.502	225.44
307.731	251.44
307.961	231.44
308.191	249.44
308.421	225.44
308.651	215.44
308.881	240.44
309.111	257.44
309.341	256.44
309.571	262.44
309.8	254.44
310.03	252.44
310.26	266.44
310.49	262.44
310.72	262.44
310.949	270.44
311.179	291.44
311.409	259.44
311.639	251.44
311.868	255.44
312.098	285.44
312.328	266.44
312.557	291.44
312.787	279.44
313.017	255.44
313.246	269.44
313.476	273.44
313.706	272.44
313.935	268.44
314.165	263.44
314.394	278.44
314.624	275.44
314.853	265.44
315.083	280.44
315.312	277.44
315.542	266.44
315.771	244.44
316.001	243.44
316.23	260.44
316.46	277.44
316.689	278.44
316.919	241.44
317.148	290.44
317.377	266.44
317.607	264.44
317.836	280.44
318.065	264.44
318.295	279.44
318.524	259.44
318.753	257.44
318.983	274.44
319.212	269.44
319.441	280.44
319.67	299.44
319.9	259.44
320.129	279.44
320.358	263.44
320.587	271.44
320.816	281.44
321.046	284.44
321.275	298.44
321.504	276.44
321.733	269.44
321.962	275.44
322.191	290.44
322.42	314.44
322.649	319.44
322.878	313.44
323.108	325.44
323.337	330.44
323.566	347.44
323.795	369.44
324.024	405.44
324.253	474.44
324.482	659.44
324.71	1022.44
324.939	1430.44
325.168	1192.44
325.397	632.44
325.626	429.44
325.855	365.44
326.084	343.44
326.313	355.44
326.542	344.44
326.77	378.44
326.999	433.44
327.228	620.44
327.457	913.44
327.686	1046.44
327.914	713.44
328.143	479.44
328.372	426.44
328.6	405.44
328.829	377.44
329.058	404.44
329.287	376.44
329.515	395.44
329.744	352.44
329.972	365.44
330.201	356.44
330.43	385.44
330.658	412.44
330.887	392.44
331.115	385.44
331.344	340.44
331.572	337.44
331.801	323.44
332.03	339.44
332.258	328.44
332.486	309.44
332.715	317.44
332.943	309.44
333.172	311.44
333.4	309.44
333.629	314.44
333.857	339.44
334.085	332.44
334.314	375.44
334.542	375.44
334.771	385.44
334.999	344.44
335.227	328.44
335.455	295.44
335.684	312.44
335.912	305.44
336.14	296.44
336.369	325.44
336.597	324.44
336.825	308.44
337.053	313.44
337.281	299.44
337.51	281.44
337.738	307.44
337.966	303.44
338.194	321.44
338.422	319.44
338.65	310.44
338.878	306.44
339.106	300.44
339.334	308.44
339.562	281.44
339.79	303.44
340.018	284.44
340.246	298.44
340.474	304.44
340.702	310.44
340.93	311.44
341.158	295.44
341.386	308.44
341.614	289.44
341.842	298.44
342.07	290.44
342.298	305.44
342.526	314.44
342.754	304.44
342.981	286.44
343.209	287.44
343.437	281.44
343.665	304.44
343.893	305.44
344.12	301.44
344.348	310.44
344.576	309.44
344.804	300.44
345.031	305.44
345.259	310.44
345.487	303.44
345.714	312.44
345.942	308.44
346.17	309.44
346.397	291.44
346.625	288.44
346.853	283.44
347.08	292.44
347.308	293.44
347.535	296.44
347.763	296.44
347.99	312.44
348.218	311.44
348.445	291.44
348.673	302.44
348.9	291.44
349.128	283.44
349.355	291.44
349.583	297.44
349.81	296.44
350.037	295.44
350.265	295.44
350.492	296.44
350.72	273.44
350.947	296.44
351.174	287.44
351.402	293.44
351.629	313.44
351.856	299.44
352.083	291.44
352.311	308.44
352.538	295.44
352.765	317.44
352.992	318.44
353.22	287.44
353.447	284.44
353.674	285.44
353.901	283.44
354.128	307.44
354.355	279.44
354.583	284.44
354.81	296.44
355.037	273.44
355.264	272.44
355.491	268.44
355.718	264.44
355.945	281.44
356.172	277.44
356.399	285.44
356.626	272.44
356.853	283.44
357.08	268.44
357.307	280.44
357.534	265.44
357.761	268.44
357.988	266.44
358.215	271.44
358.441	287.44
358.668	280.44
358.895	303.44
359.122	290.44
359.349	302.44
359.576	308.44
359.802	307.44
360.029	325.44
360.256	341.44
360.483	312.44
360.709	301.44
360.936	296.44
361.163	285.44
361.39	286.44
361.616	297.44
361.843	293.44
362.07	283.44
362.296	295.44
362.523	307.44
362.749	309.44
362.976	293.44
363.203	315.44
363.429	289.44
363.656	285.44
363.882	288.44
364.109	282.44
364.335	297.44
364.562	269.44
364.788	275.44
365.015	290.44
365.241	283.44
365.468	290.44
365.694	283.44
365.92	285.44
366.147	288.44
366.373	285.44
366.599	291.44
366.826	284.44
367.052	280.44
367.278	274.44
367.505	282.44
367.731	289.44
367.957	289.44
368.184	295.44
368.41	295.44
368.636	300.44
368.862	303.44
369.089	290.44
369.315	282.44
369.541	281.44
369.767	311.44
369.993	287.44
370.219	291.44
370.445	304.44
370.672	295.44
370.898	288.44
371.124	293.44
371.35	287.44
371.576	307.44
371.802	289.44
372.028	280.44
372.254	292.44
372.48	296.44
372.706	315.44
372.932	290.44
373.158	314.44
373.384	297.44
373.61	283.44
373.835	269.44
374.061	293.44
374.287	293.44
374.513	284.44
374.739	294.44
374.965	294.44
375.191	297.44
375.416	296.44
375.642	308.44
375.868	311.44
376.094	291.44
376.319	287.44
376.545	287.44
376.771	292.44
376.997	300.44
377.222	291.44
377.448	296.44
377.674	300.44
377.899	285.44
378.125	294.44
378.35	275.44
378.576	285.44
378.802	293.44
379.027	295.44
379.253	312.44
379.478	278.44
379.704	280.44
379.929	287.44
380.155	303.44
380.38	295.44
380.606	276.44
380.831	301.44
381.057	299.44
381.282	309.44
381.507	294.44
381.733	299.44
381.958	282.44
382.184	295.44
382.409	312.44
382.634	309.44
382.86	303.44
383.085	293.44
383.31	281.44
383.535	280.44
383.761	290.44
383.986	294.44
384.211	311.44
384.436	292.44
384.662	291.44
384.887	301.44
385.112	307.44
385.337	295.44
385.562	307.44
385.787	308.44
386.013	321.44
386.238	325.44
386.463	320.44
386.688	324.44
386.913	315.44
387.138	324.44
387.363	322.44
387.588	319.44
387.813	308.44
388.038	292.44
388.263	324.44
388.488	324.44
388.713	313.44
388.938	325.44
389.163	310.44
389.387	311.44
389.612	319.44
389.837	298.44
390.062	316.44
390.287	320.44
390.512	302.44
390.736	308.44
390.961	320.44
391.186	314.44
391.411	308.44
391.636	335.44
391.86	310.44
392.085	328.44
392.31	329.44
392.534	316.44
392.759	323.44
392.984	313.44
393.208	323.44
393.433	332.44
393.658	330.44
393.882	340.44
394.107	327.44
394.331	319.44
394.556	324.44
394.78	328.44
395.005	335.44
395.229	325.44
395.454	325.44
395.678	332.44
395.903	338.44
396.127	346.44
396.352	333.44
396.576	346.44
396.801	328.44
397.025	344.44
397.249	353.44
397.474	341.44
397.698	346.44
397.922	353.44
398.147	353.44
398.371	372.44
398.595	371.44
398.82	354.44
399.044	348.44
399.268	363.44
399.492	376.44
399.717	399.44
399.941	406.44
400.165	421.44
400.389	420.44
400.613	408.44
400.837	386.44
401.062	378.44
401.286	367.44
401.51	355.44
401.734	362.44
401.958	354.44
402.182	374.44
402.406	367.44
402.63	373.44
402.854	355.44
403.078	363.44
403.302	354.44
403.526	361.44
403.75	357.44
403.974	370.44
404.198	353.44
404.422	361.44
404.645	376.44
404.869	395.44
405.093	403.44
405.317	447.44
405.541	424.44
405.765	388.44
405.988	390.44
406.212	402.44
406.436	407.44
406.66	407.44
406.883	397.44
407.107	412.44
407.331	445.44
407.555	455.44
407.778	460.44
408.002	440.44
408.226	418.44
408.449	403.44
408.673	414.44
408.896	433.44
409.12	455.44
409.344	409.44
409.567	401.44
409.791	381.44
410.014	367.44
410.238	369.44
410.461	389.44
410.685	368.44
410.908	377.44
411.132	410.44
411.355	440.44
411.578	397.44
411.802	374.44
412.025	375.44
412.249	372.44
412.472	413.44
412.695	418.44
412.919	432.44
413.142	387.44
413.365	362.44
413.589	371.44
413.812	357.44
414.035	353.44
414.258	373.44
414.482	367.44
414.705	378.44
414.928	362.44
415.151	345.44
415.374	353.44
415.597	347.44
415.821	348.44
416.044	333.44
416.267	355.44
416.49	351.44
416.713	362.44
416.936	353.44
417.159	377.44
417.382	371.44
417.605	372.44
417.828	369.44
418.051	371.44
418.274	347.44
418.497	329.44
418.72	352.44
418.943	340.44
419.166	368.44
419.389	371.44
419.611	372.44
419.834	371.44
420.057	363.44
420.28	387.44
420.503	352.44
420.726	367.44
420.948	401.44
421.171	391.44
421.394	411.44
421.617	391.44
421.839	365.44
422.062	379.44
422.285	385.44
422.507	421.44
422.73	489.44
422.953	459.44
423.175	392.44
423.398	389.44
423.621	395.44
423.843	376.44
424.066	404.44
424.288	373.44
424.511	393.44
424.733	424.44
424.956	483.44
425.178	462.44
425.401	457.44
425.623	482.44
425.846	402.44
426.068	405.44
426.291	397.44
426.513	394.44
426.735	384.44
426.958	420.44
427.18	476.44
427.402	561.44
427.625	610.44
427.847	532.44
428.069	488.44
428.292	451.44
428.514	381.44
428.736	373.44
428.958	371.44
429.181	381.44
429.403	381.44
429.625	370.44
429.847	400.44
430.069	441.44
430.292	422.44
430.514	376.44
430.736	348.44
430.958	357.44
431.18	365.44
431.402	338.44
431.624	343.44
431.846	347.44
432.068	338.44
432.29	356.44
432.512	341.44
432.734	373.44
432.956	376.44
433.178	367.44
433.4	364.44
433.622	359.44
433.844	365.44
434.066	360.44
434.287	348.44
434.509	372.44
434.731	360.44
434.953	369.44
435.175	367.44
435.397	370.44
435.618	386.44
435.84	432.44
436.062	507.44
436.284	523.44
436.505	460.44
436.727	412.44
436.949	379.44
437.17	383.44
437.392	377.44
437.614	374.44
437.835	388.44
438.057	477.44
438.278	525.44
438.5	522.44
438.721	611.44
438.943	561.44
439.165	453.44
439.386	415.44
439.608	410.44
439.829	397.44
440.05	414.44
440.272	440.44
440.493	422.44
440.715	397.44
440.936	387.44
441.158	373.44
441.379	383.44
441.6	388.44
441.822	395.44
442.043	432.44
442.264	468.44
442.486	477.44
442.707	438.44
442.928	417.44
443.149	401.44
443.371	407.44
443.592	485.44
443.813	522.44
444.034	535.44
444.255	461.44
444.476	415.44
444.698	410.44
444.919	383.44
445.14	551.44
445.361	479.44
445.582	427.44
445.803	469.44
446.024	552.44
446.245	541.44
446.466	519.44
446.687	424.44
446.908	421.44
447.129	389.44
447.35	375.44
447.571	372.44
447.792	369.44
448.013	380.44
448.234	374.44
448.455	434.44
448.675	490.44
448.896	565.44
449.117	484.44
449.338	465.44
449.559	567.44
449.779	614.44
450	493.44
450.221	403.44
450.442	370.44
450.662	365.44
450.883	371.44
451.104	384.44
451.324	361.44
451.545	335.44
451.766	343.44
451.986	332.44
452.207	349.44
452.428	318.44
452.648	366.44
452.869	352.44
453.089	341.44
453.31	353.44
453.53	342.44
453.751	364.44
453.971	341.44
454.192	359.44
454.412	345.44
454.633	337.44
454.853	325.44
455.073	350.44
455.294	354.44
455.514	394.44
455.734	378.44
455.955	340.44
456.175	325.44
456.395	322.44
456.616	320.44
456.836	325.44
457.056	309.44
457.276	311.44
457.497	313.44
457.717	323.44
457.937	330.44
458.157	335.44
458.377	359.44
458.598	378.44
458.818	379.44
459.038	456.44
459.258	446.44
459.478	377.44
459.698	355.44
459.918	361.44
460.138	360.44
460.358	352.44
460.578	353.44
460.798	356.44
461.018	376.44
461.238	369.44
461.458	368.44
461.678	370.44
461.898	347.44
462.118	371.44
462.338	368.44
462.558	375.44
462.777	369.44
462.997	368.44
463.217	379.44
463.437	386.44
463.657	398.44
463.876	390.44
464.096	385.44
464.316	387.44
464.536	377.44
464.755	386.44
464.975	406.44
465.195	418.44
465.414	470.44
465.634	420.44
465.854	384.44
466.073	380.44
466.293	357.44
466.512	345.44
466.732	344.44
466.951	351.44
467.171	329.44
467.391	355.44
467.61	374.44
467.829	353.44
468.049	365.44
468.268	348.44
468.488	348.44
468.707	342.44
468.927	340.44
469.146	349.44
469.365	349.44
469.585	349.44
469.804	347.44
470.023	372.44
470.243	352.44
470.462	357.44
470.681	385.44
470.901	371.44
471.12	360.44
471.339	359.44
471.558	351.44
471.777	359.44
471.997	351.44
472.216	356.44
472.435	382.44
472.654	377.44
472.873	353.44
473.092	353.44
473.311	338.44
473.53	357.44
473.749	372.44
473.968	391.44
474.187	453.44
474.406	456.44
474.625	395.44
474.844	359.44
475.063	364.44
475.282	344.44
475.501	362.44
475.72	368.44
475.939	361.44
476.158	364.44
476.377	378.44
476.596	363.44
476.814	362.44
477.033	370.44
477.252	348.44
477.471	387.44
477.69	367.44
477.908	404.44
478.127	388.44
478.346	388.44
478.564	390.44
478.783	390.44
479.002	405.44
479.22	409.44
479.439	412.44
479.658	425.44
479.876	444.44
480.095	420.44
480.313	441.44
480.532	435.44
480.751	407.44
480.969	433.44
481.188	466.44
481.406	507.44
481.624	451.44
481.843	443.44
482.061	423.44
482.28	411.44
482.498	427.44
482.717	422.44
482.935	432.44
483.153	421.44
483.372	422.44
483.59	413.44
483.808	420.44
484.027	423.44
484.245	439.44
484.463	408.44
484.681	427.44
484.9	411.44
485.118	422.44
485.336	436.44
485.554	428.44
485.772	444.44
485.99	448.44
486.209	434.44
486.427	435.44
486.645	443.44
486.863	432.44
487.081	440.44
487.299	452.44
487.517	431.44
487.735	461.44
487.953	456.44
488.171	443.44
488.389	452.44
488.607	457.44
488.825	438.44
489.043	440.44
489.261	448.44
489.479	442.44
489.696	455.44
489.914	432.44
490.132	452.44
490.35	458.44
490.568	476.44
490.786	469.44
491.003	465.44
491.221	476.44
491.439	487.44
491.657	499.44
491.874	501.44
492.092	484.44
492.31	491.44
492.527	496.44
492.745	503.44
492.963	474.44
493.18	488.44
493.398	495.44
493.615	516.44
493.833	505.44
494.05	523.44
494.268	512.44
494.485	492.44
494.703	483.44
494.92	500.44
495.138	495.44
495.355	523.44
495.573	523.44
495.79	515.44
496.008	540.44
496.225	543.44
496.442	533.44
496.66	508.44
496.877	538.44
497.094	525.44
497.312	563.44
497.529	539.44
497.746	539.44
497.963	540.44
498.181	579.44
498.398	575.44
498.615	571.44
498.832	593.44
499.049	575.44
499.267	593.44
499.484	631.44
499.701	627.44
499.918	635.44
500.135	654.44
500.352	663.44
500.569	681.44
500.786	687.44
501.003	699.44
501.22	667.44
501.437	640.44
501.654	661.44
501.871	632.44
502.088	613.44
