Data from 1961.PennyLincolnUp.Lamp.En5.5.200Scan.071719.P1._HRD10591_13-49-24-058.txt Node
Date: Thu Jul 18 13:49:24 EDT 2019
User: cochatt
Spectrometer: HR+D1059
Trigger mode: 1
Integration Time (sec): 1.000000E-1
Scans to average: 1
Electric dark correction enabled: true
Nonlinearity correction enabled: false
Boxcar width: 0
XAxis mode: Wavelengths
Number of Pixels in Spectrum: 2048
>>>>>Begin Spectral Data<<<<<
223.165	-15.94
223.4	-15.94
223.635	-15.94
223.869	-19.94
224.104	-23.94
224.338	-20.94
224.573	-17.94
224.808	-24.94
225.042	8.06
225.277	6.06
225.511	-0.94
225.746	-8.94
225.98	3.06
226.215	13.06
226.449	33.06
226.683	11.06
226.918	23.06
227.152	36.06
227.387	30.06
227.621	33.06
227.856	31.06
228.09	44.06
228.324	61.06
228.559	48.06
228.793	65.06
229.027	82.06
229.262	94.06
229.496	118.06
229.73	120.06
229.964	139.06
230.199	123.06
230.433	111.06
230.667	112.06
230.901	121.06
231.136	94.06
231.37	106.06
231.604	104.06
231.838	122.06
232.072	110.06
232.306	107.06
232.541	104.06
232.775	101.06
233.009	113.06
233.243	96.06
233.477	105.06
233.711	119.06
233.945	97.06
234.179	104.06
234.413	117.06
234.647	110.06
234.881	98.06
235.115	103.06
235.349	119.06
235.583	117.06
235.817	110.06
236.051	111.06
236.285	103.06
236.519	108.06
236.753	120.06
236.987	128.06
237.221	174.06
237.455	203.06
237.689	166.06
237.922	144.06
238.156	127.06
238.39	119.06
238.624	117.06
238.858	118.06
239.091	121.06
239.325	131.06
239.559	115.06
239.793	127.06
240.027	122.06
240.26	127.06
240.494	148.06
240.728	121.06
240.961	123.06
241.195	137.06
241.429	126.06
241.662	126.06
241.896	135.06
242.13	139.06
242.363	127.06
242.597	122.06
242.83	118.06
243.064	128.06
243.298	138.06
243.531	119.06
243.765	122.06
243.998	126.06
244.232	131.06
244.465	128.06
244.699	126.06
244.932	133.06
245.166	140.06
245.399	131.06
245.633	122.06
245.866	128.06
246.099	129.06
246.333	128.06
246.566	146.06
246.8	136.06
247.033	118.06
247.266	142.06
247.5	133.06
247.733	151.06
247.966	157.06
248.2	148.06
248.433	157.06
248.666	148.06
248.899	180.06
249.133	166.06
249.366	183.06
249.599	187.06
249.832	163.06
250.066	174.06
250.299	162.06
250.532	170.06
250.765	177.06
250.998	197.06
251.231	195.06
251.465	183.06
251.698	186.06
251.931	184.06
252.164	170.06
252.397	160.06
252.63	185.06
252.863	174.06
253.096	190.06
253.329	189.06
253.562	192.06
253.795	182.06
254.028	197.06
254.261	194.06
254.494	176.06
254.727	214.06
254.96	248.06
255.193	229.06
255.426	235.06
255.659	211.06
255.892	204.06
256.124	201.06
256.357	196.06
256.59	197.06
256.823	185.06
257.056	180.06
257.289	192.06
257.521	193.06
257.754	182.06
257.987	175.06
258.22	194.06
258.452	184.06
258.685	183.06
258.918	183.06
259.151	175.06
259.383	183.06
259.616	191.06
259.849	194.06
260.081	175.06
260.314	232.06
260.547	222.06
260.779	227.06
261.012	191.06
261.244	204.06
261.477	190.06
261.71	195.06
261.942	210.06
262.175	212.06
262.407	194.06
262.64	183.06
262.872	195.06
263.105	191.06
263.337	196.06
263.57	192.06
263.802	184.06
264.035	183.06
264.267	197.06
264.499	182.06
264.732	169.06
264.964	177.06
265.197	189.06
265.429	182.06
265.661	196.06
265.894	197.06
266.126	191.06
266.358	189.06
266.591	191.06
266.823	207.06
267.055	185.06
267.287	194.06
267.52	198.06
267.752	198.06
267.984	210.06
268.216	187.06
268.448	184.06
268.681	188.06
268.913	202.06
269.145	231.06
269.377	227.06
269.609	235.06
269.841	227.06
270.073	227.06
270.306	256.06
270.538	279.06
270.77	260.06
271.002	246.06
271.234	271.06
271.466	255.06
271.698	262.06
271.93	276.06
272.162	296.06
272.394	293.06
272.626	268.06
272.858	260.06
273.09	228.06
273.322	246.06
273.553	218.06
273.785	240.06
274.017	222.06
274.249	231.06
274.481	238.06
274.713	235.06
274.945	219.06
275.176	227.06
275.408	209.06
275.64	216.06
275.872	217.06
276.104	233.06
276.335	235.06
276.567	222.06
276.799	258.06
277.031	274.06
277.262	267.06
277.494	262.06
277.726	268.06
277.957	243.06
278.189	224.06
278.421	235.06
278.652	224.06
278.884	230.06
279.115	230.06
279.347	233.06
279.579	229.06
279.81	222.06
280.042	235.06
280.273	228.06
280.505	222.06
280.736	232.06
280.968	219.06
281.199	218.06
281.431	230.06
281.662	219.06
281.894	221.06
282.125	212.06
282.356	248.06
282.588	268.06
282.819	266.06
283.051	231.06
283.282	228.06
283.513	229.06
283.745	225.06
283.976	238.06
284.207	254.06
284.439	220.06
284.67	245.06
284.901	238.06
285.132	241.06
285.364	227.06
285.595	241.06
285.826	225.06
286.057	245.06
286.288	238.06
286.52	234.06
286.751	231.06
286.982	239.06
287.213	235.06
287.444	248.06
287.675	258.06
287.906	258.06
288.138	263.06
288.369	260.06
288.6	234.06
288.831	231.06
289.062	260.06
289.293	255.06
289.524	245.06
289.755	244.06
289.986	238.06
290.217	239.06
290.448	231.06
290.679	230.06
290.91	224.06
291.141	231.06
291.371	230.06
291.602	220.06
291.833	231.06
292.064	230.06
292.295	233.06
292.526	243.06
292.757	240.06
292.987	257.06
293.218	219.06
293.449	240.06
293.68	225.06
293.91	232.06
294.141	235.06
294.372	242.06
294.603	243.06
294.833	247.06
295.064	246.06
295.295	261.06
295.525	250.06
295.756	243.06
295.987	247.06
296.217	272.06
296.448	269.06
296.679	261.06
296.909	232.06
297.14	251.06
297.37	258.06
297.601	254.06
297.831	229.06
298.062	256.06
298.292	245.06
298.523	276.06
298.753	261.06
298.984	251.06
299.214	268.06
299.445	257.06
299.675	267.06
299.905	275.06
300.136	262.06
300.366	258.06
300.597	253.06
300.827	259.06
301.057	286.06
301.288	282.06
301.518	267.06
301.748	262.06
301.979	266.06
302.209	276.06
302.439	267.06
302.669	279.06
302.9	269.06
303.13	274.06
303.36	275.06
303.59	280.06
303.82	292.06
304.051	313.06
304.281	270.06
304.511	271.06
304.741	251.06
304.971	283.06
305.201	262.06
305.431	267.06
305.661	263.06
305.891	264.06
306.121	277.06
306.352	292.06
306.582	292.06
306.812	278.06
307.042	271.06
307.272	271.06
307.502	282.06
307.731	282.06
307.961	290.06
308.191	279.06
308.421	283.06
308.651	280.06
308.881	282.06
309.111	297.06
309.341	294.06
309.571	295.06
309.8	302.06
310.03	306.06
310.26	328.06
310.49	314.06
310.72	351.06
310.949	343.06
311.179	347.06
311.409	331.06
311.639	327.06
311.868	339.06
312.098	344.06
312.328	345.06
312.557	339.06
312.787	347.06
313.017	361.06
313.246	343.06
313.476	322.06
313.706	320.06
313.935	336.06
314.165	347.06
314.394	359.06
314.624	347.06
314.853	351.06
315.083	337.06
315.312	322.06
315.542	322.06
315.771	322.06
316.001	328.06
316.23	320.06
316.46	321.06
316.689	307.06
316.919	300.06
317.148	321.06
317.377	346.06
317.607	321.06
317.836	326.06
318.065	318.06
318.295	326.06
318.524	336.06
318.753	314.06
318.983	331.06
319.212	309.06
319.441	340.06
319.67	345.06
319.9	338.06
320.129	310.06
320.358	330.06
320.587	337.06
320.816	353.06
321.046	342.06
321.275	337.06
321.504	349.06
321.733	347.06
321.962	376.06
322.191	374.06
322.42	402.06
322.649	386.06
322.878	398.06
323.108	412.06
323.337	450.06
323.566	491.06
323.795	524.06
324.024	556.06
324.253	709.06
324.482	1071.06
324.71	1686.06
324.939	2358.06
325.168	1930.06
325.397	993.06
325.626	663.06
325.855	550.06
326.084	505.06
326.313	474.06
326.542	481.06
326.77	531.06
326.999	679.06
327.228	956.06
327.457	1466.06
327.686	1714.06
327.914	1118.06
328.143	708.06
328.372	629.06
328.6	552.06
328.829	530.06
329.058	564.06
329.287	571.06
329.515	522.06
329.744	471.06
329.972	472.06
330.201	535.06
330.43	565.06
330.658	586.06
330.887	585.06
331.115	565.06
331.344	499.06
331.572	454.06
331.801	458.06
332.03	436.06
332.258	439.06
332.486	406.06
332.715	401.06
332.943	389.06
333.172	390.06
333.4	391.06
333.629	409.06
333.857	421.06
334.085	427.06
334.314	443.06
334.542	487.06
334.771	502.06
334.999	444.06
335.227	407.06
335.455	397.06
335.684	384.06
335.912	372.06
336.14	385.06
336.369	393.06
336.597	379.06
336.825	402.06
337.053	376.06
337.281	380.06
337.51	378.06
337.738	373.06
337.966	374.06
338.194	403.06
338.422	391.06
338.65	362.06
338.878	384.06
339.106	348.06
339.334	372.06
339.562	361.06
339.79	352.06
340.018	388.06
340.246	363.06
340.474	374.06
340.702	354.06
340.93	357.06
341.158	378.06
341.386	375.06
341.614	365.06
341.842	371.06
342.07	376.06
342.298	344.06
342.526	370.06
342.754	347.06
342.981	355.06
343.209	348.06
343.437	353.06
343.665	352.06
343.893	353.06
344.12	366.06
344.348	367.06
344.576	367.06
344.804	368.06
345.031	355.06
345.259	400.06
345.487	377.06
345.714	363.06
345.942	362.06
346.17	348.06
346.397	348.06
346.625	363.06
346.853	347.06
347.08	369.06
347.308	353.06
347.535	378.06
347.763	363.06
347.99	370.06
348.218	358.06
348.445	382.06
348.673	370.06
348.9	362.06
349.128	349.06
349.355	355.06
349.583	347.06
349.81	359.06
350.037	328.06
350.265	344.06
350.492	348.06
350.72	362.06
350.947	359.06
351.174	372.06
351.402	374.06
351.629	363.06
351.856	374.06
352.083	373.06
352.311	377.06
352.538	367.06
352.765	383.06
352.992	364.06
353.22	358.06
353.447	347.06
353.674	350.06
353.901	353.06
354.128	340.06
354.355	334.06
354.583	331.06
354.81	336.06
355.037	337.06
355.264	322.06
355.491	327.06
355.718	325.06
355.945	335.06
356.172	321.06
356.399	322.06
356.626	295.06
356.853	329.06
357.08	310.06
357.307	341.06
357.534	323.06
357.761	317.06
357.988	339.06
358.215	340.06
358.441	328.06
358.668	312.06
358.895	322.06
359.122	333.06
359.349	334.06
359.576	360.06
359.802	377.06
360.029	404.06
360.256	422.06
360.483	411.06
360.709	389.06
360.936	356.06
361.163	362.06
361.39	370.06
361.616	344.06
361.843	360.06
362.07	371.06
362.296	367.06
362.523	366.06
362.749	372.06
362.976	337.06
363.203	342.06
363.429	336.06
363.656	358.06
363.882	329.06
364.109	343.06
364.335	352.06
364.562	358.06
364.788	319.06
365.015	326.06
365.241	338.06
365.468	347.06
365.694	354.06
365.92	353.06
366.147	341.06
366.373	338.06
366.599	339.06
366.826	347.06
367.052	341.06
367.278	346.06
367.505	317.06
367.731	329.06
367.957	332.06
368.184	345.06
368.41	345.06
368.636	348.06
368.862	352.06
369.089	334.06
369.315	353.06
369.541	320.06
369.767	346.06
369.993	322.06
370.219	325.06
370.445	326.06
370.672	321.06
370.898	321.06
371.124	308.06
371.35	330.06
371.576	346.06
371.802	333.06
372.028	337.06
372.254	320.06
372.48	343.06
372.706	327.06
372.932	322.06
373.158	323.06
373.384	331.06
373.61	336.06
373.835	338.06
374.061	350.06
374.287	335.06
374.513	339.06
374.739	330.06
374.965	328.06
375.191	316.06
375.416	346.06
375.642	336.06
375.868	336.06
376.094	334.06
376.319	315.06
376.545	318.06
376.771	328.06
376.997	328.06
377.222	331.06
377.448	331.06
377.674	335.06
377.899	317.06
378.125	316.06
378.35	332.06
378.576	327.06
378.802	335.06
379.027	324.06
379.253	332.06
379.478	325.06
379.704	313.06
379.929	306.06
380.155	327.06
380.38	314.06
380.606	338.06
380.831	338.06
381.057	335.06
381.282	324.06
381.507	328.06
381.733	325.06
381.958	332.06
382.184	344.06
382.409	356.06
382.634	334.06
382.86	318.06
383.085	343.06
383.31	340.06
383.535	340.06
383.761	339.06
383.986	359.06
384.211	361.06
384.436	320.06
384.662	351.06
384.887	336.06
385.112	339.06
385.337	345.06
385.562	354.06
385.787	358.06
386.013	356.06
386.238	366.06
386.463	361.06
386.688	359.06
386.913	351.06
387.138	343.06
387.363	339.06
387.588	355.06
387.813	350.06
388.038	342.06
388.263	355.06
388.488	355.06
388.713	343.06
388.938	347.06
389.163	370.06
389.387	350.06
389.612	360.06
389.837	321.06
390.062	366.06
390.287	335.06
390.512	345.06
390.736	332.06
390.961	371.06
391.186	347.06
391.411	366.06
391.636	355.06
391.86	357.06
392.085	354.06
392.31	359.06
392.534	354.06
392.759	367.06
392.984	382.06
393.208	358.06
393.433	351.06
393.658	360.06
393.882	357.06
394.107	342.06
394.331	354.06
394.556	353.06
394.78	357.06
395.005	359.06
395.229	359.06
395.454	363.06
395.678	361.06
395.903	400.06
396.127	398.06
396.352	409.06
396.576	399.06
396.801	386.06
397.025	366.06
397.249	385.06
397.474	377.06
397.698	382.06
397.922	387.06
398.147	421.06
398.371	430.06
398.595	400.06
398.82	405.06
399.044	392.06
399.268	388.06
399.492	409.06
399.717	434.06
399.941	467.06
400.165	510.06
400.389	494.06
400.613	470.06
400.837	440.06
401.062	406.06
401.286	404.06
401.51	397.06
401.734	410.06
401.958	399.06
402.182	402.06
402.406	431.06
402.63	414.06
402.854	394.06
403.078	410.06
403.302	408.06
403.526	407.06
403.75	412.06
403.974	409.06
404.198	423.06
404.422	425.06
404.645	422.06
404.869	452.06
405.093	459.06
405.317	482.06
405.541	505.06
405.765	465.06
405.988	452.06
406.212	462.06
406.436	486.06
406.66	478.06
406.883	469.06
407.107	488.06
407.331	518.06
407.555	588.06
407.778	570.06
408.002	514.06
408.226	470.06
408.449	477.06
408.673	479.06
408.896	504.06
409.12	516.06
409.344	490.06
409.567	450.06
409.791	435.06
410.014	425.06
410.238	420.06
410.461	438.06
410.685	434.06
410.908	453.06
411.132	466.06
411.355	486.06
411.578	464.06
411.802	422.06
412.025	435.06
412.249	427.06
412.472	470.06
412.695	478.06
412.919	494.06
413.142	435.06
413.365	448.06
413.589	422.06
413.812	403.06
414.035	419.06
414.258	408.06
414.482	396.06
414.705	401.06
414.928	395.06
415.151	393.06
415.374	380.06
415.597	394.06
415.821	385.06
416.044	411.06
416.267	426.06
416.49	401.06
416.713	396.06
416.936	405.06
417.159	417.06
417.382	388.06
417.605	397.06
417.828	416.06
418.051	433.06
418.274	416.06
418.497	394.06
418.72	408.06
418.943	420.06
419.166	426.06
419.389	455.06
419.611	423.06
419.834	426.06
420.057	427.06
420.28	425.06
420.503	424.06
420.726	417.06
420.948	434.06
421.171	481.06
421.394	499.06
421.617	447.06
421.839	425.06
422.062	440.06
422.285	444.06
422.507	480.06
422.73	550.06
422.953	544.06
423.175	471.06
423.398	448.06
423.621	455.06
423.843	456.06
424.066	476.06
424.288	459.06
424.511	485.06
424.733	529.06
424.956	584.06
425.178	576.06
425.401	555.06
425.623	586.06
425.846	489.06
426.068	456.06
426.291	470.06
426.513	458.06
426.735	486.06
426.958	540.06
427.18	612.06
427.402	692.06
427.625	771.06
427.847	694.06
428.069	608.06
428.292	547.06
428.514	481.06
428.736	458.06
428.958	463.06
429.181	440.06
429.403	443.06
429.625	440.06
429.847	473.06
430.069	530.06
430.292	519.06
430.514	470.06
430.736	442.06
430.958	428.06
431.18	428.06
431.402	405.06
431.624	407.06
431.846	396.06
432.068	361.06
432.29	417.06
432.512	419.06
432.734	427.06
432.956	411.06
433.178	428.06
433.4	426.06
433.622	419.06
433.844	395.06
434.066	414.06
434.287	395.06
434.509	411.06
434.731	418.06
434.953	424.06
435.175	432.06
435.397	451.06
435.618	486.06
435.84	528.06
436.062	579.06
436.284	656.06
436.505	533.06
436.727	496.06
436.949	438.06
437.17	437.06
437.392	423.06
437.614	463.06
437.835	491.06
438.057	591.06
438.278	669.06
438.5	678.06
438.721	734.06
438.943	687.06
439.165	545.06
439.386	494.06
439.608	488.06
439.829	506.06
440.05	533.06
440.272	571.06
440.493	529.06
440.715	464.06
440.936	454.06
441.158	472.06
441.379	443.06
441.6	456.06
441.822	478.06
442.043	519.06
442.264	584.06
442.486	617.06
442.707	527.06
442.928	471.06
443.149	486.06
443.371	535.06
443.592	560.06
443.813	628.06
444.034	668.06
444.255	562.06
444.476	503.06
444.698	456.06
444.919	464.06
445.14	602.06
445.361	542.06
445.582	508.06
445.803	584.06
446.024	686.06
446.245	713.06
446.466	635.06
446.687	490.06
446.908	485.06
447.129	437.06
447.35	428.06
447.571	433.06
447.792	415.06
448.013	450.06
448.234	470.06
448.455	548.06
448.675	613.06
448.896	696.06
449.117	599.06
449.338	568.06
449.559	682.06
449.779	725.06
450	600.06
450.221	494.06
450.442	472.06
450.662	448.06
450.883	469.06
451.104	456.06
451.324	438.06
451.545	439.06
451.766	407.06
451.986	397.06
452.207	398.06
452.428	388.06
452.648	388.06
452.869	402.06
453.089	419.06
453.31	417.06
453.53	412.06
453.751	407.06
453.971	412.06
454.192	437.06
454.412	430.06
454.633	404.06
454.853	385.06
455.073	394.06
455.294	441.06
455.514	473.06
455.734	459.06
455.955	405.06
456.175	389.06
456.395	393.06
456.616	376.06
456.836	374.06
457.056	369.06
457.276	353.06
457.497	375.06
457.717	374.06
457.937	376.06
458.157	401.06
458.377	373.06
458.598	395.06
458.818	490.06
459.038	556.06
459.258	570.06
459.478	452.06
459.698	425.06
459.918	420.06
460.138	411.06
460.358	422.06
460.578	398.06
460.798	420.06
461.018	409.06
461.238	420.06
461.458	420.06
461.678	403.06
461.898	419.06
462.118	413.06
462.338	392.06
462.558	405.06
462.777	420.06
462.997	418.06
463.217	422.06
463.437	412.06
463.657	416.06
463.876	411.06
464.096	430.06
464.316	419.06
464.536	421.06
464.755	432.06
464.975	453.06
465.195	504.06
465.414	600.06
465.634	524.06
465.854	466.06
466.073	440.06
466.293	427.06
466.512	406.06
466.732	412.06
466.951	411.06
467.171	396.06
467.391	409.06
467.61	410.06
467.829	411.06
468.049	418.06
468.268	416.06
468.488	414.06
468.707	397.06
468.927	401.06
469.146	388.06
469.365	412.06
469.585	381.06
469.804	409.06
470.023	410.06
470.243	428.06
470.462	412.06
470.681	420.06
470.901	426.06
471.12	397.06
471.339	428.06
471.558	413.06
471.777	418.06
471.997	407.06
472.216	419.06
472.435	458.06
472.654	437.06
472.873	432.06
473.092	408.06
473.311	410.06
473.53	412.06
473.749	427.06
473.968	458.06
474.187	560.06
474.406	574.06
474.625	474.06
474.844	426.06
475.063	409.06
475.282	407.06
475.501	409.06
475.72	427.06
475.939	414.06
476.158	422.06
476.377	432.06
476.596	418.06
476.814	462.06
477.033	446.06
477.252	436.06
477.471	435.06
477.69	442.06
477.908	431.06
478.127	444.06
478.346	434.06
478.564	437.06
478.783	458.06
479.002	460.06
479.22	462.06
479.439	479.06
479.658	509.06
479.876	497.06
480.095	488.06
480.313	515.06
480.532	496.06
480.751	520.06
480.969	533.06
481.188	588.06
481.406	624.06
481.624	553.06
481.843	532.06
482.061	515.06
482.28	511.06
482.498	496.06
482.717	483.06
482.935	498.06
483.153	499.06
483.372	487.06
483.59	485.06
483.808	490.06
484.027	481.06
484.245	485.06
484.463	502.06
484.681	478.06
484.9	493.06
485.118	474.06
485.336	501.06
485.554	531.06
485.772	496.06
485.99	510.06
486.209	504.06
486.427	492.06
486.645	508.06
486.863	531.06
487.081	525.06
487.299	506.06
487.517	508.06
487.735	490.06
487.953	530.06
488.171	530.06
488.389	515.06
488.607	515.06
488.825	505.06
489.043	500.06
489.261	533.06
489.479	528.06
489.696	539.06
489.914	553.06
490.132	519.06
490.35	542.06
490.568	540.06
490.786	552.06
491.003	540.06
491.221	562.06
491.439	567.06
491.657	572.06
491.874	596.06
492.092	591.06
492.31	579.06
492.527	584.06
492.745	581.06
492.963	596.06
493.18	598.06
493.398	613.06
493.615	627.06
493.833	605.06
494.05	596.06
494.268	626.06
494.485	629.06
494.703	612.06
494.92	600.06
495.138	635.06
495.355	615.06
495.573	631.06
495.79	643.06
496.008	629.06
496.225	604.06
496.442	627.06
496.66	619.06
496.877	617.06
497.094	608.06
497.312	628.06
497.529	641.06
497.746	638.06
497.963	667.06
498.181	627.06
498.398	660.06
498.615	674.06
498.832	673.06
499.049	650.06
499.267	678.06
499.484	714.06
499.701	702.06
499.918	720.06
500.135	742.06
500.352	764.06
500.569	770.06
500.786	766.06
501.003	729.06
501.22	742.06
501.437	745.06
501.654	739.06
501.871	757.06
502.088	718.06
