Data from 1961.PennyLincolnUp.Lamp.En5.5.200Scan.071719.P1._HRD10591_13-47-20-057.txt Node
Date: Thu Jul 18 13:47:20 EDT 2019
User: cochatt
Spectrometer: HR+D1059
Trigger mode: 1
Integration Time (sec): 1.000000E-1
Scans to average: 1
Electric dark correction enabled: true
Nonlinearity correction enabled: false
Boxcar width: 0
XAxis mode: Wavelengths
Number of Pixels in Spectrum: 2048
>>>>>Begin Spectral Data<<<<<
223.165	0.25
223.4	0.25
223.635	0.25
223.869	-19.75
224.104	-9.75
224.338	-7.75
224.573	-4.75
224.808	-16.75
225.042	-5.75
225.277	2.25
225.511	-6.75
225.746	-6.75
225.98	-0.75
226.215	-11.75
226.449	17.25
226.683	23.25
226.918	25.25
227.152	22.25
227.387	34.25
227.621	42.25
227.856	46.25
228.09	40.25
228.324	57.25
228.559	75.25
228.793	65.25
229.027	90.25
229.262	109.25
229.496	119.25
229.73	138.25
229.964	140.25
230.199	119.25
230.433	116.25
230.667	112.25
230.901	119.25
231.136	103.25
231.37	106.25
231.604	109.25
231.838	110.25
232.072	114.25
232.306	105.25
232.541	113.25
232.775	114.25
233.009	122.25
233.243	111.25
233.477	126.25
233.711	105.25
233.945	106.25
234.179	121.25
234.413	123.25
234.647	107.25
234.881	104.25
235.115	118.25
235.349	104.25
235.583	128.25
235.817	114.25
236.051	121.25
236.285	105.25
236.519	121.25
236.753	121.25
236.987	133.25
237.221	174.25
237.455	190.25
237.689	157.25
237.922	132.25
238.156	124.25
238.39	127.25
238.624	118.25
238.858	116.25
239.091	121.25
239.325	105.25
239.559	126.25
239.793	126.25
240.027	112.25
240.26	138.25
240.494	145.25
240.728	143.25
240.961	140.25
241.195	135.25
241.429	120.25
241.662	107.25
241.896	131.25
242.13	125.25
242.363	122.25
242.597	121.25
242.83	132.25
243.064	123.25
243.298	126.25
243.531	116.25
243.765	126.25
243.998	129.25
244.232	133.25
244.465	138.25
244.699	129.25
244.932	123.25
245.166	143.25
245.399	126.25
245.633	123.25
245.866	127.25
246.099	125.25
246.333	136.25
246.566	142.25
246.8	129.25
247.033	129.25
247.266	134.25
247.5	141.25
247.733	152.25
247.966	150.25
248.2	140.25
248.433	162.25
248.666	148.25
248.899	172.25
249.133	171.25
249.366	179.25
249.599	170.25
249.832	169.25
250.066	159.25
250.299	150.25
250.532	172.25
250.765	181.25
250.998	176.25
251.231	186.25
251.465	188.25
251.698	184.25
251.931	187.25
252.164	171.25
252.397	166.25
252.63	163.25
252.863	169.25
253.096	200.25
253.329	190.25
253.562	206.25
253.795	181.25
254.028	180.25
254.261	181.25
254.494	199.25
254.727	215.25
254.96	212.25
255.193	198.25
255.426	209.25
255.659	221.25
255.892	185.25
256.124	194.25
256.357	198.25
256.59	200.25
256.823	166.25
257.056	165.25
257.289	188.25
257.521	169.25
257.754	176.25
257.987	175.25
258.22	181.25
258.452	171.25
258.685	166.25
258.918	183.25
259.151	177.25
259.383	172.25
259.616	168.25
259.849	185.25
260.081	198.25
260.314	217.25
260.547	231.25
260.779	208.25
261.012	205.25
261.244	199.25
261.477	181.25
261.71	208.25
261.942	184.25
262.175	215.25
262.407	187.25
262.64	191.25
262.872	180.25
263.105	191.25
263.337	185.25
263.57	176.25
263.802	180.25
264.035	184.25
264.267	189.25
264.499	187.25
264.732	187.25
264.964	175.25
265.197	182.25
265.429	165.25
265.661	186.25
265.894	173.25
266.126	186.25
266.358	174.25
266.591	188.25
266.823	173.25
267.055	192.25
267.287	191.25
267.52	191.25
267.752	202.25
267.984	201.25
268.216	181.25
268.448	192.25
268.681	200.25
268.913	182.25
269.145	199.25
269.377	236.25
269.609	226.25
269.841	222.25
270.073	218.25
270.306	260.25
270.538	240.25
270.77	246.25
271.002	238.25
271.234	262.25
271.466	240.25
271.698	256.25
271.93	281.25
272.162	264.25
272.394	274.25
272.626	264.25
272.858	235.25
273.09	237.25
273.322	225.25
273.553	226.25
273.785	224.25
274.017	223.25
274.249	219.25
274.481	212.25
274.713	231.25
274.945	239.25
275.176	203.25
275.408	216.25
275.64	214.25
275.872	207.25
276.104	215.25
276.335	224.25
276.567	238.25
276.799	235.25
277.031	266.25
277.262	273.25
277.494	271.25
277.726	239.25
277.957	235.25
278.189	208.25
278.421	223.25
278.652	233.25
278.884	222.25
279.115	219.25
279.347	232.25
279.579	218.25
279.81	222.25
280.042	222.25
280.273	216.25
280.505	221.25
280.736	211.25
280.968	213.25
281.199	218.25
281.431	219.25
281.662	228.25
281.894	218.25
282.125	215.25
282.356	237.25
282.588	265.25
282.819	266.25
283.051	243.25
283.282	244.25
283.513	225.25
283.745	234.25
283.976	234.25
284.207	226.25
284.439	225.25
284.67	223.25
284.901	225.25
285.132	240.25
285.364	230.25
285.595	225.25
285.826	220.25
286.057	222.25
286.288	222.25
286.52	219.25
286.751	214.25
286.982	222.25
287.213	240.25
287.444	226.25
287.675	227.25
287.906	224.25
288.138	247.25
288.369	220.25
288.6	251.25
288.831	244.25
289.062	240.25
289.293	240.25
289.524	236.25
289.755	247.25
289.986	246.25
290.217	225.25
290.448	229.25
290.679	224.25
290.91	228.25
291.141	224.25
291.371	223.25
291.602	239.25
291.833	229.25
292.064	244.25
292.295	233.25
292.526	236.25
292.757	230.25
292.987	239.25
293.218	246.25
293.449	244.25
293.68	218.25
293.91	227.25
294.141	232.25
294.372	238.25
294.603	215.25
294.833	229.25
295.064	221.25
295.295	238.25
295.525	237.25
295.756	230.25
295.987	253.25
296.217	260.25
296.448	281.25
296.679	257.25
296.909	244.25
297.14	232.25
297.37	230.25
297.601	228.25
297.831	240.25
298.062	249.25
298.292	224.25
298.523	233.25
298.753	237.25
298.984	246.25
299.214	252.25
299.445	251.25
299.675	249.25
299.905	245.25
300.136	231.25
300.366	252.25
300.597	247.25
300.827	241.25
301.057	272.25
301.288	281.25
301.518	275.25
301.748	255.25
301.979	272.25
302.209	266.25
302.439	266.25
302.669	269.25
302.9	260.25
303.13	272.25
303.36	257.25
303.59	269.25
303.82	275.25
304.051	280.25
304.281	276.25
304.511	261.25
304.741	260.25
304.971	253.25
305.201	260.25
305.431	252.25
305.661	272.25
305.891	255.25
306.121	262.25
306.352	273.25
306.582	285.25
306.812	272.25
307.042	258.25
307.272	274.25
307.502	283.25
307.731	270.25
307.961	275.25
308.191	275.25
308.421	279.25
308.651	281.25
308.881	289.25
309.111	295.25
309.341	293.25
309.571	287.25
309.8	301.25
310.03	297.25
310.26	324.25
310.49	314.25
310.72	320.25
310.949	333.25
311.179	332.25
311.409	305.25
311.639	295.25
311.868	306.25
312.098	317.25
312.328	292.25
312.557	329.25
312.787	346.25
313.017	345.25
313.246	319.25
313.476	315.25
313.706	313.25
313.935	305.25
314.165	318.25
314.394	328.25
314.624	363.25
314.853	315.25
315.083	323.25
315.312	329.25
315.542	319.25
315.771	293.25
316.001	280.25
316.23	317.25
316.46	294.25
316.689	312.25
316.919	321.25
317.148	325.25
317.377	335.25
317.607	324.25
317.836	323.25
318.065	310.25
318.295	310.25
318.524	311.25
318.753	316.25
318.983	314.25
319.212	317.25
319.441	308.25
319.67	305.25
319.9	305.25
320.129	309.25
320.358	300.25
320.587	316.25
320.816	298.25
321.046	317.25
321.275	331.25
321.504	323.25
321.733	335.25
321.962	369.25
322.191	375.25
322.42	378.25
322.649	365.25
322.878	398.25
323.108	397.25
323.337	420.25
323.566	454.25
323.795	458.25
324.024	513.25
324.253	655.25
324.482	959.25
324.71	1493.25
324.939	2033.25
325.168	1742.25
325.397	898.25
325.626	621.25
325.855	509.25
326.084	443.25
326.313	432.25
326.542	452.25
326.77	497.25
326.999	590.25
327.228	852.25
327.457	1277.25
327.686	1526.25
327.914	1028.25
328.143	658.25
328.372	582.25
328.6	531.25
328.829	525.25
329.058	530.25
329.287	528.25
329.515	474.25
329.744	460.25
329.972	446.25
330.201	466.25
330.43	501.25
330.658	522.25
330.887	533.25
331.115	502.25
331.344	458.25
331.572	409.25
331.801	428.25
332.03	406.25
332.258	419.25
332.486	391.25
332.715	373.25
332.943	389.25
333.172	366.25
333.4	372.25
333.629	383.25
333.857	383.25
334.085	389.25
334.314	426.25
334.542	465.25
334.771	458.25
334.999	405.25
335.227	400.25
335.455	364.25
335.684	380.25
335.912	374.25
336.14	350.25
336.369	358.25
336.597	378.25
336.825	372.25
337.053	352.25
337.281	367.25
337.51	375.25
337.738	353.25
337.966	358.25
338.194	381.25
338.422	382.25
338.65	343.25
338.878	348.25
339.106	341.25
339.334	342.25
339.562	347.25
339.79	376.25
340.018	336.25
340.246	370.25
340.474	361.25
340.702	370.25
340.93	366.25
341.158	351.25
341.386	346.25
341.614	364.25
341.842	366.25
342.07	337.25
342.298	349.25
342.526	345.25
342.754	347.25
342.981	324.25
343.209	337.25
343.437	340.25
343.665	360.25
343.893	342.25
344.12	352.25
344.348	347.25
344.576	349.25
344.804	370.25
345.031	378.25
345.259	374.25
345.487	361.25
345.714	343.25
345.942	348.25
346.17	344.25
346.397	336.25
346.625	338.25
346.853	351.25
347.08	350.25
347.308	358.25
347.535	339.25
347.763	359.25
347.99	335.25
348.218	344.25
348.445	370.25
348.673	356.25
348.9	355.25
349.128	345.25
349.355	333.25
349.583	340.25
349.81	338.25
350.037	335.25
350.265	348.25
350.492	329.25
350.72	348.25
350.947	346.25
351.174	345.25
351.402	357.25
351.629	346.25
351.856	360.25
352.083	365.25
352.311	366.25
352.538	364.25
352.765	375.25
352.992	351.25
353.22	366.25
353.447	348.25
353.674	325.25
353.901	324.25
354.128	314.25
354.355	348.25
354.583	311.25
354.81	324.25
355.037	323.25
355.264	304.25
355.491	335.25
355.718	315.25
355.945	330.25
356.172	319.25
356.399	315.25
356.626	321.25
356.853	303.25
357.08	305.25
357.307	306.25
357.534	288.25
357.761	322.25
357.988	320.25
358.215	330.25
358.441	327.25
358.668	323.25
358.895	326.25
359.122	326.25
359.349	324.25
359.576	334.25
359.802	354.25
360.029	394.25
360.256	402.25
360.483	395.25
360.709	343.25
360.936	339.25
361.163	335.25
361.39	327.25
361.616	344.25
361.843	346.25
362.07	349.25
362.296	361.25
362.523	341.25
362.749	357.25
362.976	337.25
363.203	343.25
363.429	332.25
363.656	328.25
363.882	321.25
364.109	331.25
364.335	324.25
364.562	334.25
364.788	317.25
365.015	344.25
365.241	348.25
365.468	337.25
365.694	318.25
365.92	332.25
366.147	311.25
366.373	321.25
366.599	304.25
366.826	325.25
367.052	316.25
367.278	332.25
367.505	341.25
367.731	325.25
367.957	333.25
368.184	337.25
368.41	330.25
368.636	344.25
368.862	348.25
369.089	326.25
369.315	330.25
369.541	336.25
369.767	326.25
369.993	329.25
370.219	320.25
370.445	316.25
370.672	333.25
370.898	317.25
371.124	333.25
371.35	320.25
371.576	328.25
371.802	329.25
372.028	305.25
372.254	299.25
372.48	299.25
372.706	326.25
372.932	318.25
373.158	316.25
373.384	328.25
373.61	316.25
373.835	310.25
374.061	321.25
374.287	309.25
374.513	327.25
374.739	329.25
374.965	314.25
375.191	322.25
375.416	321.25
375.642	320.25
375.868	321.25
376.094	324.25
376.319	328.25
376.545	336.25
376.771	325.25
376.997	319.25
377.222	316.25
377.448	321.25
377.674	313.25
377.899	326.25
378.125	308.25
378.35	313.25
378.576	321.25
378.802	312.25
379.027	322.25
379.253	320.25
379.478	327.25
379.704	314.25
379.929	322.25
380.155	311.25
380.38	305.25
380.606	321.25
380.831	302.25
381.057	329.25
381.282	334.25
381.507	329.25
381.733	318.25
381.958	334.25
382.184	317.25
382.409	339.25
382.634	329.25
382.86	318.25
383.085	336.25
383.31	326.25
383.535	335.25
383.761	330.25
383.986	340.25
384.211	326.25
384.436	332.25
384.662	333.25
384.887	317.25
385.112	343.25
385.337	337.25
385.562	344.25
385.787	338.25
386.013	334.25
386.238	348.25
386.463	367.25
386.688	346.25
386.913	346.25
387.138	342.25
387.363	334.25
387.588	350.25
387.813	340.25
388.038	337.25
388.263	331.25
388.488	353.25
388.713	333.25
388.938	319.25
389.163	341.25
389.387	331.25
389.612	341.25
389.837	354.25
390.062	363.25
390.287	344.25
390.512	334.25
390.736	338.25
390.961	348.25
391.186	330.25
391.411	362.25
391.636	370.25
391.86	371.25
392.085	340.25
392.31	344.25
392.534	349.25
392.759	328.25
392.984	363.25
393.208	363.25
393.433	344.25
393.658	358.25
393.882	355.25
394.107	338.25
394.331	341.25
394.556	332.25
394.78	339.25
395.005	338.25
395.229	354.25
395.454	347.25
395.678	366.25
395.903	337.25
396.127	375.25
396.352	386.25
396.576	379.25
396.801	373.25
397.025	354.25
397.249	356.25
397.474	362.25
397.698	382.25
397.922	388.25
398.147	397.25
398.371	403.25
398.595	387.25
398.82	383.25
399.044	389.25
399.268	400.25
399.492	421.25
399.717	426.25
399.941	444.25
400.165	478.25
400.389	465.25
400.613	448.25
400.837	406.25
401.062	404.25
401.286	397.25
401.51	390.25
401.734	396.25
401.958	411.25
402.182	391.25
402.406	420.25
402.63	414.25
402.854	398.25
403.078	389.25
403.302	400.25
403.526	397.25
403.75	379.25
403.974	395.25
404.198	397.25
404.422	400.25
404.645	437.25
404.869	412.25
405.093	444.25
405.317	476.25
405.541	479.25
405.765	452.25
405.988	440.25
406.212	429.25
406.436	444.25
406.66	464.25
406.883	458.25
407.107	473.25
407.331	500.25
407.555	538.25
407.778	546.25
408.002	501.25
408.226	461.25
408.449	462.25
408.673	462.25
408.896	453.25
409.12	497.25
409.344	473.25
409.567	439.25
409.791	429.25
410.014	436.25
410.238	424.25
410.461	435.25
410.685	426.25
410.908	422.25
411.132	466.25
411.355	478.25
411.578	470.25
411.802	435.25
412.025	423.25
412.249	422.25
412.472	421.25
412.695	464.25
412.919	437.25
413.142	431.25
413.365	414.25
413.589	406.25
413.812	388.25
414.035	393.25
414.258	408.25
414.482	377.25
414.705	400.25
414.928	384.25
415.151	378.25
415.374	379.25
415.597	374.25
415.821	380.25
416.044	389.25
416.267	384.25
416.49	380.25
416.713	382.25
416.936	385.25
417.159	391.25
417.382	400.25
417.605	394.25
417.828	397.25
418.051	424.25
418.274	407.25
418.497	396.25
418.72	398.25
418.943	373.25
419.166	377.25
419.389	420.25
419.611	410.25
419.834	382.25
420.057	408.25
420.28	433.25
420.503	400.25
420.726	383.25
420.948	422.25
421.171	459.25
421.394	487.25
421.617	419.25
421.839	423.25
422.062	402.25
422.285	423.25
422.507	485.25
422.73	528.25
422.953	502.25
423.175	457.25
423.398	430.25
423.621	426.25
423.843	444.25
424.066	448.25
424.288	460.25
424.511	471.25
424.733	520.25
424.956	547.25
425.178	538.25
425.401	550.25
425.623	581.25
425.846	486.25
426.068	455.25
426.291	432.25
426.513	440.25
426.735	463.25
426.958	514.25
427.18	562.25
427.402	651.25
427.625	724.25
427.847	658.25
428.069	587.25
428.292	507.25
428.514	453.25
428.736	452.25
428.958	424.25
429.181	421.25
429.403	413.25
429.625	415.25
429.847	449.25
430.069	481.25
430.292	489.25
430.514	441.25
430.736	422.25
430.958	432.25
431.18	391.25
431.402	403.25
431.624	381.25
431.846	388.25
432.068	376.25
432.29	380.25
432.512	397.25
432.734	402.25
432.956	397.25
433.178	391.25
433.4	404.25
433.622	408.25
433.844	391.25
434.066	388.25
434.287	397.25
434.509	408.25
434.731	385.25
434.953	401.25
435.175	423.25
435.397	429.25
435.618	432.25
435.84	465.25
436.062	590.25
436.284	621.25
436.505	522.25
436.727	448.25
436.949	447.25
437.17	424.25
437.392	420.25
437.614	425.25
437.835	478.25
438.057	543.25
438.278	648.25
438.5	620.25
438.721	658.25
438.943	634.25
439.165	531.25
439.386	472.25
439.608	466.25
439.829	472.25
440.05	492.25
440.272	534.25
440.493	491.25
440.715	466.25
440.936	430.25
441.158	418.25
441.379	392.25
441.6	420.25
441.822	436.25
442.043	502.25
442.264	542.25
442.486	584.25
442.707	503.25
442.928	481.25
443.149	470.25
443.371	480.25
443.592	512.25
443.813	625.25
444.034	637.25
444.255	538.25
444.476	450.25
444.698	457.25
444.919	454.25
445.14	517.25
445.361	500.25
445.582	502.25
445.803	553.25
446.024	636.25
446.245	644.25
446.466	582.25
446.687	490.25
446.908	468.25
447.129	438.25
447.35	432.25
447.571	449.25
447.792	424.25
448.013	420.25
448.234	450.25
448.455	478.25
448.675	583.25
448.896	654.25
449.117	581.25
449.338	530.25
449.559	616.25
449.779	705.25
450	589.25
450.221	481.25
450.442	459.25
450.662	423.25
450.883	426.25
451.104	432.25
451.324	422.25
451.545	397.25
451.766	431.25
451.986	365.25
452.207	382.25
452.428	376.25
452.648	383.25
452.869	373.25
453.089	392.25
453.31	388.25
453.53	368.25
453.751	382.25
453.971	398.25
454.192	412.25
454.412	402.25
454.633	372.25
454.853	384.25
455.073	379.25
455.294	417.25
455.514	446.25
455.734	448.25
455.955	368.25
456.175	358.25
456.395	369.25
456.616	338.25
456.836	359.25
457.056	351.25
457.276	361.25
457.497	372.25
457.717	340.25
457.937	356.25
458.157	385.25
458.377	352.25
458.598	391.25
458.818	444.25
459.038	528.25
459.258	512.25
459.478	447.25
459.698	408.25
459.918	378.25
460.138	380.25
460.358	384.25
460.578	379.25
460.798	413.25
461.018	397.25
461.238	383.25
461.458	385.25
461.678	383.25
461.898	391.25
462.118	375.25
462.338	415.25
462.558	419.25
462.777	406.25
462.997	416.25
463.217	405.25
463.437	400.25
463.657	416.25
463.876	419.25
464.096	401.25
464.316	403.25
464.536	422.25
464.755	400.25
464.975	421.25
465.195	462.25
465.414	558.25
465.634	497.25
465.854	440.25
466.073	431.25
466.293	403.25
466.512	393.25
466.732	391.25
466.951	401.25
467.171	384.25
467.391	377.25
467.61	397.25
467.829	406.25
468.049	400.25
468.268	393.25
468.488	389.25
468.707	388.25
468.927	401.25
469.146	374.25
469.365	386.25
469.585	378.25
469.804	381.25
470.023	414.25
470.243	406.25
470.462	413.25
470.681	424.25
470.901	411.25
471.12	409.25
471.339	365.25
471.558	384.25
471.777	404.25
471.997	377.25
472.216	417.25
472.435	460.25
472.654	426.25
472.873	406.25
473.092	394.25
473.311	367.25
473.53	382.25
473.749	390.25
473.968	434.25
474.187	544.25
474.406	545.25
474.625	474.25
474.844	404.25
475.063	422.25
475.282	409.25
475.501	385.25
475.72	393.25
475.939	391.25
476.158	397.25
476.377	415.25
476.596	408.25
476.814	398.25
477.033	393.25
477.252	423.25
477.471	409.25
477.69	394.25
477.908	399.25
478.127	428.25
478.346	409.25
478.564	434.25
478.783	432.25
479.002	423.25
479.22	449.25
479.439	464.25
479.658	476.25
479.876	465.25
480.095	471.25
480.313	481.25
480.532	473.25
480.751	486.25
480.969	504.25
481.188	563.25
481.406	609.25
481.624	530.25
481.843	486.25
482.061	476.25
482.28	456.25
482.498	449.25
482.717	442.25
482.935	452.25
483.153	446.25
483.372	469.25
483.59	458.25
483.808	466.25
484.027	464.25
484.245	457.25
484.463	470.25
484.681	491.25
484.9	465.25
485.118	473.25
485.336	458.25
485.554	502.25
485.772	497.25
485.99	480.25
486.209	491.25
486.427	486.25
486.645	479.25
486.863	500.25
487.081	476.25
487.299	518.25
487.517	484.25
487.735	494.25
487.953	484.25
488.171	512.25
488.389	509.25
488.607	506.25
488.825	492.25
489.043	497.25
489.261	515.25
489.479	500.25
489.696	495.25
489.914	482.25
490.132	518.25
490.35	510.25
490.568	523.25
490.786	540.25
491.003	527.25
491.221	550.25
491.439	550.25
491.657	545.25
491.874	571.25
492.092	578.25
492.31	580.25
492.527	573.25
492.745	568.25
492.963	576.25
493.18	585.25
493.398	582.25
493.615	584.25
493.833	574.25
494.05	578.25
494.268	568.25
494.485	570.25
494.703	575.25
494.92	559.25
495.138	578.25
495.355	581.25
495.573	590.25
495.79	604.25
496.008	575.25
496.225	573.25
496.442	571.25
496.66	584.25
496.877	580.25
497.094	594.25
497.312	610.25
497.529	567.25
497.746	605.25
497.963	617.25
498.181	635.25
498.398	634.25
498.615	628.25
498.832	639.25
499.049	656.25
499.267	651.25
499.484	657.25
499.701	688.25
499.918	704.25
500.135	716.25
500.352	716.25
500.569	752.25
500.786	726.25
501.003	731.25
501.22	722.25
501.437	723.25
501.654	710.25
501.871	747.25
502.088	712.25
