Data from 1961.PennyLincolnUp.Lamp.En5.5.200Scan.071719.P1._HRD10591_13-48-48-058.txt Node
Date: Thu Jul 18 13:48:48 EDT 2019
User: cochatt
Spectrometer: HR+D1059
Trigger mode: 1
Integration Time (sec): 1.000000E-1
Scans to average: 1
Electric dark correction enabled: true
Nonlinearity correction enabled: false
Boxcar width: 0
XAxis mode: Wavelengths
Number of Pixels in Spectrum: 2048
>>>>>Begin Spectral Data<<<<<
223.165	-20.75
223.4	-20.75
223.635	-20.75
223.869	-19.75
224.104	-7.75
224.338	-22.75
224.573	-10.75
224.808	-16.75
225.042	-8.75
225.277	-2.75
225.511	2.25
225.746	10.25
225.98	10.25
226.215	15.25
226.449	6.25
226.683	13.25
226.918	18.25
227.152	34.25
227.387	17.25
227.621	32.25
227.856	40.25
228.09	54.25
228.324	44.25
228.559	39.25
228.793	59.25
229.027	82.25
229.262	88.25
229.496	110.25
229.73	125.25
229.964	141.25
230.199	122.25
230.433	104.25
230.667	101.25
230.901	101.25
231.136	116.25
231.37	95.25
231.604	98.25
231.838	100.25
232.072	89.25
232.306	100.25
232.541	102.25
232.775	99.25
233.009	103.25
233.243	94.25
233.477	100.25
233.711	107.25
233.945	102.25
234.179	123.25
234.413	100.25
234.647	104.25
234.881	105.25
235.115	106.25
235.349	113.25
235.583	104.25
235.817	99.25
236.051	103.25
236.285	119.25
236.519	107.25
236.753	95.25
236.987	130.25
237.221	175.25
237.455	212.25
237.689	173.25
237.922	139.25
238.156	120.25
238.39	126.25
238.624	114.25
238.858	98.25
239.091	110.25
239.325	109.25
239.559	115.25
239.793	104.25
240.027	119.25
240.26	118.25
240.494	136.25
240.728	125.25
240.961	123.25
241.195	119.25
241.429	133.25
241.662	119.25
241.896	113.25
242.13	116.25
242.363	116.25
242.597	110.25
242.83	127.25
243.064	125.25
243.298	127.25
243.531	127.25
243.765	124.25
243.998	116.25
244.232	120.25
244.465	131.25
244.699	116.25
244.932	120.25
245.166	107.25
245.399	127.25
245.633	150.25
245.866	139.25
246.099	111.25
246.333	124.25
246.566	127.25
246.8	124.25
247.033	137.25
247.266	137.25
247.5	155.25
247.733	147.25
247.966	143.25
248.2	142.25
248.433	156.25
248.666	142.25
248.899	153.25
249.133	176.25
249.366	173.25
249.599	172.25
249.832	154.25
250.066	145.25
250.299	151.25
250.532	173.25
250.765	181.25
250.998	192.25
251.231	202.25
251.465	184.25
251.698	151.25
251.931	160.25
252.164	180.25
252.397	164.25
252.63	171.25
252.863	152.25
253.096	186.25
253.329	185.25
253.562	202.25
253.795	198.25
254.028	175.25
254.261	191.25
254.494	206.25
254.727	229.25
254.96	223.25
255.193	228.25
255.426	205.25
255.659	190.25
255.892	200.25
256.124	211.25
256.357	207.25
256.59	197.25
256.823	160.25
257.056	179.25
257.289	185.25
257.521	190.25
257.754	185.25
257.987	175.25
258.22	167.25
258.452	150.25
258.685	180.25
258.918	171.25
259.151	180.25
259.383	183.25
259.616	195.25
259.849	178.25
260.081	199.25
260.314	214.25
260.547	226.25
260.779	213.25
261.012	180.25
261.244	201.25
261.477	197.25
261.71	176.25
261.942	197.25
262.175	209.25
262.407	205.25
262.64	190.25
262.872	195.25
263.105	178.25
263.337	188.25
263.57	203.25
263.802	181.25
264.035	175.25
264.267	179.25
264.499	182.25
264.732	183.25
264.964	172.25
265.197	171.25
265.429	183.25
265.661	181.25
265.894	182.25
266.126	176.25
266.358	163.25
266.591	177.25
266.823	173.25
267.055	199.25
267.287	184.25
267.52	174.25
267.752	190.25
267.984	181.25
268.216	187.25
268.448	181.25
268.681	181.25
268.913	192.25
269.145	216.25
269.377	222.25
269.609	238.25
269.841	223.25
270.073	215.25
270.306	239.25
270.538	248.25
270.77	270.25
271.002	269.25
271.234	265.25
271.466	276.25
271.698	256.25
271.93	278.25
272.162	279.25
272.394	262.25
272.626	256.25
272.858	241.25
273.09	240.25
273.322	240.25
273.553	231.25
273.785	228.25
274.017	214.25
274.249	204.25
274.481	227.25
274.713	244.25
274.945	237.25
275.176	224.25
275.408	211.25
275.64	213.25
275.872	228.25
276.104	230.25
276.335	214.25
276.567	224.25
276.799	246.25
277.031	267.25
277.262	261.25
277.494	253.25
277.726	264.25
277.957	256.25
278.189	240.25
278.421	227.25
278.652	228.25
278.884	224.25
279.115	220.25
279.347	227.25
279.579	222.25
279.81	204.25
280.042	217.25
280.273	229.25
280.505	216.25
280.736	200.25
280.968	207.25
281.199	218.25
281.431	222.25
281.662	225.25
281.894	229.25
282.125	209.25
282.356	239.25
282.588	258.25
282.819	269.25
283.051	229.25
283.282	224.25
283.513	226.25
283.745	220.25
283.976	224.25
284.207	248.25
284.439	235.25
284.67	227.25
284.901	233.25
285.132	217.25
285.364	227.25
285.595	245.25
285.826	234.25
286.057	241.25
286.288	239.25
286.52	221.25
286.751	230.25
286.982	219.25
287.213	243.25
287.444	229.25
287.675	218.25
287.906	224.25
288.138	245.25
288.369	242.25
288.6	224.25
288.831	243.25
289.062	239.25
289.293	237.25
289.524	217.25
289.755	230.25
289.986	233.25
290.217	236.25
290.448	237.25
290.679	238.25
290.91	239.25
291.141	232.25
291.371	226.25
291.602	217.25
291.833	229.25
292.064	226.25
292.295	228.25
292.526	243.25
292.757	229.25
292.987	229.25
293.218	233.25
293.449	228.25
293.68	235.25
293.91	251.25
294.141	240.25
294.372	239.25
294.603	240.25
294.833	246.25
295.064	255.25
295.295	247.25
295.525	248.25
295.756	254.25
295.987	279.25
296.217	266.25
296.448	275.25
296.679	262.25
296.909	246.25
297.14	252.25
297.37	247.25
297.601	242.25
297.831	254.25
298.062	253.25
298.292	249.25
298.523	227.25
298.753	235.25
298.984	235.25
299.214	236.25
299.445	253.25
299.675	248.25
299.905	255.25
300.136	245.25
300.366	268.25
300.597	253.25
300.827	257.25
301.057	262.25
301.288	272.25
301.518	264.25
301.748	264.25
301.979	283.25
302.209	264.25
302.439	288.25
302.669	278.25
302.9	253.25
303.13	263.25
303.36	276.25
303.59	267.25
303.82	295.25
304.051	270.25
304.281	292.25
304.511	288.25
304.741	273.25
304.971	255.25
305.201	258.25
305.431	259.25
305.661	271.25
305.891	273.25
306.121	261.25
306.352	282.25
306.582	271.25
306.812	284.25
307.042	269.25
307.272	274.25
307.502	280.25
307.731	297.25
307.961	281.25
308.191	293.25
308.421	291.25
308.651	279.25
308.881	278.25
309.111	270.25
309.341	287.25
309.571	283.25
309.8	301.25
310.03	325.25
310.26	336.25
310.49	301.25
310.72	312.25
310.949	353.25
311.179	334.25
311.409	321.25
311.639	326.25
311.868	328.25
312.098	328.25
312.328	328.25
312.557	350.25
312.787	376.25
313.017	357.25
313.246	342.25
313.476	321.25
313.706	322.25
313.935	327.25
314.165	336.25
314.394	334.25
314.624	331.25
314.853	326.25
315.083	340.25
315.312	309.25
315.542	289.25
315.771	287.25
316.001	315.25
316.23	298.25
316.46	306.25
316.689	312.25
316.919	317.25
317.148	342.25
317.377	343.25
317.607	337.25
317.836	321.25
318.065	301.25
318.295	309.25
318.524	319.25
318.753	326.25
318.983	333.25
319.212	319.25
319.441	315.25
319.67	336.25
319.9	331.25
320.129	317.25
320.358	329.25
320.587	326.25
320.816	323.25
321.046	353.25
321.275	354.25
321.504	352.25
321.733	351.25
321.962	352.25
322.191	365.25
322.42	361.25
322.649	410.25
322.878	407.25
323.108	414.25
323.337	435.25
323.566	475.25
323.795	479.25
324.024	553.25
324.253	700.25
324.482	1049.25
324.71	1629.25
324.939	2204.25
325.168	1880.25
325.397	943.25
325.626	642.25
325.855	559.25
326.084	492.25
326.313	484.25
326.542	480.25
326.77	549.25
326.999	642.25
327.228	919.25
327.457	1377.25
327.686	1651.25
327.914	1071.25
328.143	697.25
328.372	605.25
328.6	579.25
328.829	542.25
329.058	536.25
329.287	547.25
329.515	507.25
329.744	462.25
329.972	457.25
330.201	490.25
330.43	521.25
330.658	577.25
330.887	572.25
331.115	542.25
331.344	486.25
331.572	431.25
331.801	421.25
332.03	431.25
332.258	412.25
332.486	391.25
332.715	390.25
332.943	379.25
333.172	375.25
333.4	390.25
333.629	395.25
333.857	399.25
334.085	415.25
334.314	441.25
334.542	456.25
334.771	475.25
334.999	438.25
335.227	388.25
335.455	385.25
335.684	396.25
335.912	376.25
336.14	362.25
336.369	376.25
336.597	388.25
336.825	373.25
337.053	368.25
337.281	360.25
337.51	357.25
337.738	370.25
337.966	370.25
338.194	371.25
338.422	379.25
338.65	374.25
338.878	351.25
339.106	355.25
339.334	365.25
339.562	349.25
339.79	359.25
340.018	357.25
340.246	368.25
340.474	377.25
340.702	367.25
340.93	350.25
341.158	361.25
341.386	361.25
341.614	349.25
341.842	356.25
342.07	326.25
342.298	351.25
342.526	350.25
342.754	346.25
342.981	332.25
343.209	337.25
343.437	348.25
343.665	341.25
343.893	363.25
344.12	373.25
344.348	339.25
344.576	366.25
344.804	369.25
345.031	382.25
345.259	383.25
345.487	378.25
345.714	379.25
345.942	360.25
346.17	352.25
346.397	351.25
346.625	358.25
346.853	353.25
347.08	341.25
347.308	346.25
347.535	354.25
347.763	359.25
347.99	357.25
348.218	350.25
348.445	372.25
348.673	367.25
348.9	339.25
349.128	339.25
349.355	358.25
349.583	341.25
349.81	338.25
350.037	341.25
350.265	332.25
350.492	336.25
350.72	319.25
350.947	343.25
351.174	377.25
351.402	381.25
351.629	367.25
351.856	363.25
352.083	350.25
352.311	356.25
352.538	390.25
352.765	387.25
352.992	350.25
353.22	357.25
353.447	337.25
353.674	357.25
353.901	342.25
354.128	327.25
354.355	303.25
354.583	321.25
354.81	332.25
355.037	328.25
355.264	329.25
355.491	325.25
355.718	331.25
355.945	326.25
356.172	319.25
356.399	313.25
356.626	318.25
356.853	328.25
357.08	331.25
357.307	328.25
357.534	315.25
357.761	313.25
357.988	326.25
358.215	322.25
358.441	335.25
358.668	343.25
358.895	324.25
359.122	325.25
359.349	323.25
359.576	360.25
359.802	369.25
360.029	393.25
360.256	419.25
360.483	399.25
360.709	365.25
360.936	367.25
361.163	348.25
361.39	364.25
361.616	356.25
361.843	344.25
362.07	324.25
362.296	356.25
362.523	365.25
362.749	354.25
362.976	365.25
363.203	341.25
363.429	334.25
363.656	344.25
363.882	309.25
364.109	344.25
364.335	317.25
364.562	349.25
364.788	347.25
365.015	336.25
365.241	322.25
365.468	340.25
365.694	345.25
365.92	353.25
366.147	349.25
366.373	326.25
366.599	320.25
366.826	319.25
367.052	327.25
367.278	330.25
367.505	319.25
367.731	348.25
367.957	319.25
368.184	335.25
368.41	349.25
368.636	347.25
368.862	331.25
369.089	337.25
369.315	329.25
369.541	309.25
369.767	328.25
369.993	347.25
370.219	318.25
370.445	304.25
370.672	335.25
370.898	324.25
371.124	328.25
371.35	314.25
371.576	327.25
371.802	313.25
372.028	327.25
372.254	316.25
372.48	308.25
372.706	327.25
372.932	338.25
373.158	325.25
373.384	318.25
373.61	331.25
373.835	331.25
374.061	335.25
374.287	314.25
374.513	323.25
374.739	323.25
374.965	335.25
375.191	313.25
375.416	333.25
375.642	330.25
375.868	316.25
376.094	335.25
376.319	332.25
376.545	325.25
376.771	320.25
376.997	325.25
377.222	301.25
377.448	326.25
377.674	321.25
377.899	324.25
378.125	318.25
378.35	342.25
378.576	322.25
378.802	319.25
379.027	320.25
379.253	315.25
379.478	318.25
379.704	313.25
379.929	322.25
380.155	313.25
380.38	335.25
380.606	345.25
380.831	315.25
381.057	333.25
381.282	323.25
381.507	315.25
381.733	329.25
381.958	339.25
382.184	315.25
382.409	323.25
382.634	318.25
382.86	334.25
383.085	345.25
383.31	328.25
383.535	322.25
383.761	331.25
383.986	348.25
384.211	309.25
384.436	346.25
384.662	358.25
384.887	336.25
385.112	344.25
385.337	340.25
385.562	316.25
385.787	340.25
386.013	349.25
386.238	345.25
386.463	361.25
386.688	349.25
386.913	349.25
387.138	343.25
387.363	356.25
387.588	361.25
387.813	358.25
388.038	347.25
388.263	358.25
388.488	329.25
388.713	355.25
388.938	335.25
389.163	350.25
389.387	360.25
389.612	355.25
389.837	347.25
390.062	349.25
390.287	345.25
390.512	344.25
390.736	362.25
390.961	345.25
391.186	361.25
391.411	350.25
391.636	341.25
391.86	353.25
392.085	358.25
392.31	363.25
392.534	329.25
392.759	361.25
392.984	365.25
393.208	339.25
393.433	351.25
393.658	353.25
393.882	377.25
394.107	364.25
394.331	344.25
394.556	342.25
394.78	352.25
395.005	345.25
395.229	325.25
395.454	352.25
395.678	349.25
395.903	397.25
396.127	394.25
396.352	385.25
396.576	359.25
396.801	354.25
397.025	363.25
397.249	355.25
397.474	360.25
397.698	369.25
397.922	376.25
398.147	389.25
398.371	415.25
398.595	382.25
398.82	384.25
399.044	391.25
399.268	376.25
399.492	419.25
399.717	445.25
399.941	457.25
400.165	469.25
400.389	477.25
400.613	457.25
400.837	428.25
401.062	419.25
401.286	415.25
401.51	394.25
401.734	416.25
401.958	396.25
402.182	396.25
402.406	411.25
402.63	408.25
402.854	413.25
403.078	418.25
403.302	419.25
403.526	408.25
403.75	429.25
403.974	419.25
404.198	417.25
404.422	411.25
404.645	422.25
404.869	451.25
405.093	462.25
405.317	495.25
405.541	526.25
405.765	471.25
405.988	453.25
406.212	447.25
406.436	477.25
406.66	487.25
406.883	446.25
407.107	469.25
407.331	499.25
407.555	537.25
407.778	533.25
408.002	489.25
408.226	456.25
408.449	487.25
408.673	464.25
408.896	473.25
409.12	499.25
409.344	472.25
409.567	437.25
409.791	423.25
410.014	409.25
410.238	427.25
410.461	402.25
410.685	422.25
410.908	442.25
411.132	487.25
411.355	488.25
411.578	486.25
411.802	436.25
412.025	417.25
412.249	421.25
412.472	442.25
412.695	479.25
412.919	461.25
413.142	426.25
413.365	435.25
413.589	403.25
413.812	402.25
414.035	391.25
414.258	401.25
414.482	410.25
414.705	410.25
414.928	396.25
415.151	387.25
415.374	389.25
415.597	367.25
415.821	369.25
416.044	401.25
416.267	390.25
416.49	386.25
416.713	407.25
416.936	414.25
417.159	379.25
417.382	405.25
417.605	413.25
417.828	416.25
418.051	427.25
418.274	417.25
418.497	386.25
418.72	393.25
418.943	388.25
419.166	407.25
419.389	410.25
419.611	431.25
419.834	429.25
420.057	428.25
420.28	429.25
420.503	421.25
420.726	406.25
420.948	436.25
421.171	465.25
421.394	499.25
421.617	437.25
421.839	426.25
422.062	431.25
422.285	423.25
422.507	472.25
422.73	533.25
422.953	502.25
423.175	427.25
423.398	432.25
423.621	429.25
423.843	445.25
424.066	468.25
424.288	450.25
424.511	482.25
424.733	519.25
424.956	598.25
425.178	544.25
425.401	546.25
425.623	544.25
425.846	497.25
426.068	455.25
426.291	453.25
426.513	444.25
426.735	469.25
426.958	507.25
427.18	582.25
427.402	685.25
427.625	749.25
427.847	683.25
428.069	597.25
428.292	496.25
428.514	473.25
428.736	466.25
428.958	451.25
429.181	407.25
429.403	427.25
429.625	427.25
429.847	453.25
430.069	541.25
430.292	504.25
430.514	457.25
430.736	422.25
430.958	414.25
431.18	407.25
431.402	422.25
431.624	398.25
431.846	386.25
432.068	407.25
432.29	391.25
432.512	395.25
432.734	409.25
432.956	408.25
433.178	412.25
433.4	431.25
433.622	401.25
433.844	387.25
434.066	391.25
434.287	406.25
434.509	405.25
434.731	409.25
434.953	428.25
435.175	431.25
435.397	469.25
435.618	473.25
435.84	509.25
436.062	571.25
436.284	638.25
436.505	537.25
436.727	473.25
436.949	453.25
437.17	442.25
437.392	428.25
437.614	465.25
437.835	473.25
438.057	556.25
438.278	636.25
438.5	637.25
438.721	697.25
438.943	651.25
439.165	557.25
439.386	491.25
439.608	474.25
439.829	492.25
440.05	484.25
440.272	583.25
440.493	509.25
440.715	469.25
440.936	461.25
441.158	404.25
441.379	456.25
441.6	468.25
441.822	474.25
442.043	487.25
442.264	565.25
442.486	612.25
442.707	517.25
442.928	464.25
443.149	493.25
443.371	526.25
443.592	535.25
443.813	608.25
444.034	665.25
444.255	551.25
444.476	489.25
444.698	462.25
444.919	479.25
445.14	511.25
445.361	508.25
445.582	495.25
445.803	562.25
446.024	643.25
446.245	657.25
446.466	600.25
446.687	511.25
446.908	469.25
447.129	439.25
447.35	453.25
447.571	439.25
447.792	430.25
448.013	417.25
448.234	453.25
448.455	501.25
448.675	587.25
448.896	677.25
449.117	623.25
449.338	579.25
449.559	654.25
449.779	711.25
450	573.25
450.221	465.25
450.442	453.25
450.662	430.25
450.883	438.25
451.104	467.25
451.324	423.25
451.545	411.25
451.766	389.25
451.986	376.25
452.207	389.25
452.428	392.25
452.648	362.25
452.869	383.25
453.089	409.25
453.31	409.25
453.53	403.25
453.751	384.25
453.971	403.25
454.192	399.25
454.412	406.25
454.633	391.25
454.853	381.25
455.073	394.25
455.294	428.25
455.514	500.25
455.734	463.25
455.955	374.25
456.175	375.25
456.395	352.25
456.616	370.25
456.836	354.25
457.056	356.25
457.276	337.25
457.497	360.25
457.717	354.25
457.937	388.25
458.157	391.25
458.377	386.25
458.598	390.25
458.818	474.25
459.038	546.25
459.258	540.25
459.478	436.25
459.698	429.25
459.918	390.25
460.138	395.25
460.358	399.25
460.578	377.25
460.798	390.25
461.018	412.25
461.238	384.25
461.458	408.25
461.678	376.25
461.898	386.25
462.118	402.25
462.338	396.25
462.558	409.25
462.777	402.25
462.997	427.25
463.217	404.25
463.437	404.25
463.657	418.25
463.876	416.25
464.096	416.25
464.316	413.25
464.536	445.25
464.755	420.25
464.975	421.25
465.195	498.25
465.414	560.25
465.634	490.25
465.854	458.25
466.073	435.25
466.293	407.25
466.512	401.25
466.732	385.25
466.951	391.25
467.171	388.25
467.391	391.25
467.61	421.25
467.829	404.25
468.049	405.25
468.268	399.25
468.488	414.25
468.707	379.25
468.927	371.25
469.146	353.25
469.365	363.25
469.585	378.25
469.804	382.25
470.023	406.25
470.243	402.25
470.462	411.25
470.681	431.25
470.901	405.25
471.12	411.25
471.339	417.25
471.558	397.25
471.777	413.25
471.997	386.25
472.216	420.25
472.435	456.25
472.654	435.25
472.873	406.25
473.092	413.25
473.311	408.25
473.53	390.25
473.749	397.25
473.968	452.25
474.187	534.25
474.406	552.25
474.625	462.25
474.844	446.25
475.063	420.25
475.282	404.25
475.501	389.25
475.72	407.25
475.939	399.25
476.158	415.25
476.377	419.25
476.596	408.25
476.814	427.25
477.033	431.25
477.252	424.25
477.471	432.25
477.69	435.25
477.908	424.25
478.127	429.25
478.346	447.25
478.564	435.25
478.783	441.25
479.002	467.25
479.22	461.25
479.439	458.25
479.658	487.25
479.876	478.25
480.095	491.25
480.313	495.25
480.532	480.25
480.751	497.25
480.969	481.25
481.188	576.25
481.406	616.25
481.624	525.25
481.843	479.25
482.061	485.25
482.28	485.25
482.498	490.25
482.717	486.25
482.935	460.25
483.153	479.25
483.372	471.25
483.59	477.25
483.808	475.25
484.027	485.25
484.245	478.25
484.463	455.25
484.681	473.25
484.9	491.25
485.118	497.25
485.336	482.25
485.554	469.25
485.772	484.25
485.99	495.25
486.209	481.25
486.427	488.25
486.645	481.25
486.863	500.25
487.081	479.25
487.299	495.25
487.517	517.25
487.735	520.25
487.953	497.25
488.171	510.25
488.389	500.25
488.607	496.25
488.825	501.25
489.043	517.25
489.261	514.25
489.479	519.25
489.696	517.25
489.914	505.25
490.132	517.25
490.35	525.25
490.568	536.25
490.786	525.25
491.003	565.25
491.221	553.25
491.439	561.25
491.657	581.25
491.874	579.25
492.092	590.25
492.31	583.25
492.527	575.25
492.745	594.25
492.963	569.25
493.18	591.25
493.398	583.25
493.615	614.25
493.833	612.25
494.05	586.25
494.268	584.25
494.485	595.25
494.703	573.25
494.92	591.25
495.138	597.25
495.355	596.25
495.573	592.25
495.79	570.25
496.008	582.25
496.225	594.25
496.442	603.25
496.66	592.25
496.877	592.25
497.094	589.25
497.312	599.25
497.529	613.25
497.746	619.25
497.963	614.25
498.181	629.25
498.398	649.25
498.615	679.25
498.832	648.25
499.049	680.25
499.267	675.25
499.484	684.25
499.701	664.25
499.918	736.25
500.135	701.25
500.352	748.25
500.569	733.25
500.786	722.25
501.003	751.25
501.22	768.25
501.437	734.25
501.654	747.25
501.871	731.25
502.088	705.25
