Data from 1961.PennyLincolnUp.Lamp.En5.5.200Scan.071719.P1._HRD10591_13-47-13-056.txt Node
Date: Thu Jul 18 13:47:13 EDT 2019
User: cochatt
Spectrometer: HR+D1059
Trigger mode: 1
Integration Time (sec): 1.000000E-1
Scans to average: 1
Electric dark correction enabled: true
Nonlinearity correction enabled: false
Boxcar width: 0
XAxis mode: Wavelengths
Number of Pixels in Spectrum: 2048
>>>>>Begin Spectral Data<<<<<
223.165	-4.25
223.4	-4.25
223.635	-4.25
223.869	-10.25
224.104	-15.25
224.338	-11.25
224.573	-16.25
224.808	-13.25
225.042	-11.25
225.277	0.75
225.511	-6.25
225.746	-0.25
225.98	0.75
226.215	11.75
226.449	10.75
226.683	6.75
226.918	20.75
227.152	36.75
227.387	45.75
227.621	42.75
227.856	39.75
228.09	57.75
228.324	50.75
228.559	58.75
228.793	67.75
229.027	78.75
229.262	94.75
229.496	118.75
229.73	122.75
229.964	154.75
230.199	116.75
230.433	121.75
230.667	106.75
230.901	101.75
231.136	96.75
231.37	100.75
231.604	111.75
231.838	107.75
232.072	100.75
232.306	99.75
232.541	103.75
232.775	112.75
233.009	117.75
233.243	115.75
233.477	103.75
233.711	118.75
233.945	126.75
234.179	90.75
234.413	103.75
234.647	107.75
234.881	98.75
235.115	104.75
235.349	105.75
235.583	96.75
235.817	104.75
236.051	111.75
236.285	103.75
236.519	112.75
236.753	116.75
236.987	138.75
237.221	165.75
237.455	180.75
237.689	155.75
237.922	129.75
238.156	124.75
238.39	126.75
238.624	109.75
238.858	123.75
239.091	108.75
239.325	103.75
239.559	108.75
239.793	117.75
240.027	126.75
240.26	132.75
240.494	122.75
240.728	123.75
240.961	130.75
241.195	130.75
241.429	130.75
241.662	120.75
241.896	124.75
242.13	127.75
242.363	119.75
242.597	114.75
242.83	130.75
243.064	135.75
243.298	122.75
243.531	111.75
243.765	124.75
243.998	118.75
244.232	116.75
244.465	136.75
244.699	123.75
244.932	136.75
245.166	121.75
245.399	150.75
245.633	138.75
245.866	127.75
246.099	116.75
246.333	125.75
246.566	128.75
246.8	111.75
247.033	150.75
247.266	127.75
247.5	131.75
247.733	142.75
247.966	135.75
248.2	149.75
248.433	147.75
248.666	135.75
248.899	151.75
249.133	164.75
249.366	168.75
249.599	163.75
249.832	156.75
250.066	156.75
250.299	152.75
250.532	154.75
250.765	165.75
250.998	173.75
251.231	187.75
251.465	165.75
251.698	167.75
251.931	157.75
252.164	167.75
252.397	168.75
252.63	166.75
252.863	170.75
253.096	178.75
253.329	177.75
253.562	186.75
253.795	187.75
254.028	178.75
254.261	175.75
254.494	174.75
254.727	212.75
254.96	220.75
255.193	228.75
255.426	194.75
255.659	183.75
255.892	198.75
256.124	180.75
256.357	196.75
256.59	189.75
256.823	184.75
257.056	169.75
257.289	186.75
257.521	176.75
257.754	187.75
257.987	176.75
258.22	171.75
258.452	167.75
258.685	156.75
258.918	175.75
259.151	167.75
259.383	185.75
259.616	194.75
259.849	175.75
260.081	196.75
260.314	196.75
260.547	219.75
260.779	188.75
261.012	184.75
261.244	185.75
261.477	182.75
261.71	187.75
261.942	195.75
262.175	192.75
262.407	171.75
262.64	171.75
262.872	189.75
263.105	171.75
263.337	172.75
263.57	179.75
263.802	163.75
264.035	171.75
264.267	175.75
264.499	180.75
264.732	170.75
264.964	164.75
265.197	187.75
265.429	178.75
265.661	184.75
265.894	169.75
266.126	180.75
266.358	175.75
266.591	176.75
266.823	189.75
267.055	190.75
267.287	171.75
267.52	170.75
267.752	198.75
267.984	188.75
268.216	182.75
268.448	182.75
268.681	190.75
268.913	202.75
269.145	213.75
269.377	226.75
269.609	212.75
269.841	184.75
270.073	215.75
270.306	222.75
270.538	252.75
270.77	261.75
271.002	238.75
271.234	225.75
271.466	214.75
271.698	245.75
271.93	244.75
272.162	258.75
272.394	255.75
272.626	242.75
272.858	247.75
273.09	226.75
273.322	228.75
273.553	209.75
273.785	217.75
274.017	211.75
274.249	203.75
274.481	190.75
274.713	216.75
274.945	205.75
275.176	210.75
275.408	223.75
275.64	210.75
275.872	220.75
276.104	218.75
276.335	204.75
276.567	203.75
276.799	213.75
277.031	222.75
277.262	266.75
277.494	254.75
277.726	224.75
277.957	220.75
278.189	227.75
278.421	213.75
278.652	216.75
278.884	214.75
279.115	217.75
279.347	211.75
279.579	198.75
279.81	203.75
280.042	214.75
280.273	211.75
280.505	217.75
280.736	211.75
280.968	220.75
281.199	222.75
281.431	229.75
281.662	219.75
281.894	204.75
282.125	231.75
282.356	228.75
282.588	230.75
282.819	237.75
283.051	228.75
283.282	236.75
283.513	237.75
283.745	220.75
283.976	229.75
284.207	216.75
284.439	212.75
284.67	232.75
284.901	224.75
285.132	225.75
285.364	212.75
285.595	214.75
285.826	208.75
286.057	218.75
286.288	221.75
286.52	211.75
286.751	214.75
286.982	222.75
287.213	220.75
287.444	228.75
287.675	218.75
287.906	223.75
288.138	228.75
288.369	246.75
288.6	242.75
288.831	221.75
289.062	239.75
289.293	226.75
289.524	235.75
289.755	208.75
289.986	230.75
290.217	228.75
290.448	219.75
290.679	221.75
290.91	221.75
291.141	215.75
291.371	221.75
291.602	225.75
291.833	219.75
292.064	227.75
292.295	223.75
292.526	222.75
292.757	232.75
292.987	222.75
293.218	226.75
293.449	212.75
293.68	227.75
293.91	230.75
294.141	231.75
294.372	213.75
294.603	229.75
294.833	220.75
295.064	236.75
295.295	219.75
295.525	212.75
295.756	230.75
295.987	232.75
296.217	255.75
296.448	269.75
296.679	252.75
296.909	228.75
297.14	239.75
297.37	243.75
297.601	228.75
297.831	234.75
298.062	237.75
298.292	217.75
298.523	237.75
298.753	240.75
298.984	224.75
299.214	245.75
299.445	239.75
299.675	254.75
299.905	235.75
300.136	252.75
300.366	229.75
300.597	239.75
300.827	257.75
301.057	226.75
301.288	260.75
301.518	249.75
301.748	247.75
301.979	254.75
302.209	239.75
302.439	250.75
302.669	231.75
302.9	253.75
303.13	254.75
303.36	257.75
303.59	256.75
303.82	253.75
304.051	254.75
304.281	262.75
304.511	258.75
304.741	270.75
304.971	265.75
305.201	249.75
305.431	250.75
305.661	259.75
305.891	260.75
306.121	236.75
306.352	265.75
306.582	269.75
306.812	264.75
307.042	269.75
307.272	263.75
307.502	263.75
307.731	260.75
307.961	251.75
308.191	229.75
308.421	270.75
308.651	266.75
308.881	250.75
309.111	269.75
309.341	255.75
309.571	274.75
309.8	286.75
310.03	304.75
310.26	310.75
310.49	305.75
310.72	293.75
310.949	307.75
311.179	336.75
311.409	318.75
311.639	276.75
311.868	291.75
312.098	296.75
312.328	299.75
312.557	318.75
312.787	315.75
313.017	322.75
313.246	302.75
313.476	298.75
313.706	311.75
313.935	300.75
314.165	298.75
314.394	315.75
314.624	326.75
314.853	323.75
315.083	319.75
315.312	300.75
315.542	298.75
315.771	298.75
316.001	283.75
316.23	277.75
316.46	289.75
316.689	292.75
316.919	307.75
317.148	301.75
317.377	310.75
317.607	315.75
317.836	314.75
318.065	307.75
318.295	308.75
318.524	296.75
318.753	296.75
318.983	302.75
319.212	282.75
319.441	302.75
319.67	291.75
319.9	316.75
320.129	280.75
320.358	285.75
320.587	296.75
320.816	297.75
321.046	312.75
321.275	321.75
321.504	315.75
321.733	325.75
321.962	344.75
322.191	343.75
322.42	376.75
322.649	354.75
322.878	360.75
323.108	372.75
323.337	394.75
323.566	404.75
323.795	452.75
324.024	519.75
324.253	618.75
324.482	903.75
324.71	1381.75
324.939	1940.75
325.168	1617.75
325.397	874.75
325.626	556.75
325.855	471.75
326.084	440.75
326.313	425.75
326.542	438.75
326.77	485.75
326.999	602.75
327.228	812.75
327.457	1206.75
327.686	1406.75
327.914	981.75
328.143	638.75
328.372	568.75
328.6	518.75
328.829	482.75
329.058	484.75
329.287	491.75
329.515	456.75
329.744	439.75
329.972	429.75
330.201	442.75
330.43	496.75
330.658	498.75
330.887	503.75
331.115	513.75
331.344	413.75
331.572	405.75
331.801	399.75
332.03	405.75
332.258	364.75
332.486	370.75
332.715	343.75
332.943	370.75
333.172	355.75
333.4	346.75
333.629	359.75
333.857	366.75
334.085	384.75
334.314	422.75
334.542	436.75
334.771	457.75
334.999	408.75
335.227	375.75
335.455	351.75
335.684	353.75
335.912	373.75
336.14	334.75
336.369	351.75
336.597	365.75
336.825	360.75
337.053	344.75
337.281	342.75
337.51	336.75
337.738	344.75
337.966	329.75
338.194	322.75
338.422	342.75
338.65	337.75
338.878	336.75
339.106	314.75
339.334	323.75
339.562	316.75
339.79	334.75
340.018	321.75
340.246	351.75
340.474	334.75
340.702	344.75
340.93	345.75
341.158	349.75
341.386	332.75
341.614	342.75
341.842	329.75
342.07	330.75
342.298	332.75
342.526	325.75
342.754	328.75
342.981	320.75
343.209	307.75
343.437	322.75
343.665	335.75
343.893	320.75
344.12	358.75
344.348	331.75
344.576	335.75
344.804	341.75
345.031	372.75
345.259	372.75
345.487	345.75
345.714	326.75
345.942	324.75
346.17	343.75
346.397	321.75
346.625	332.75
346.853	314.75
347.08	332.75
347.308	332.75
347.535	331.75
347.763	356.75
347.99	333.75
348.218	333.75
348.445	348.75
348.673	341.75
348.9	323.75
349.128	322.75
349.355	294.75
349.583	318.75
349.81	331.75
350.037	315.75
350.265	298.75
350.492	310.75
350.72	316.75
350.947	318.75
351.174	330.75
351.402	331.75
351.629	333.75
351.856	336.75
352.083	340.75
352.311	341.75
352.538	355.75
352.765	350.75
352.992	339.75
353.22	311.75
353.447	329.75
353.674	334.75
353.901	314.75
354.128	309.75
354.355	313.75
354.583	333.75
354.81	310.75
355.037	285.75
355.264	318.75
355.491	292.75
355.718	272.75
355.945	303.75
356.172	306.75
356.399	295.75
356.626	306.75
356.853	296.75
357.08	291.75
357.307	296.75
357.534	289.75
357.761	309.75
357.988	299.75
358.215	316.75
358.441	312.75
358.668	300.75
358.895	314.75
359.122	307.75
359.349	322.75
359.576	337.75
359.802	362.75
360.029	377.75
360.256	382.75
360.483	368.75
360.709	344.75
360.936	330.75
361.163	341.75
361.39	342.75
361.616	354.75
361.843	334.75
362.07	336.75
362.296	337.75
362.523	341.75
362.749	333.75
362.976	327.75
363.203	303.75
363.429	330.75
363.656	313.75
363.882	325.75
364.109	304.75
364.335	298.75
364.562	306.75
364.788	324.75
365.015	325.75
365.241	316.75
365.468	322.75
365.694	331.75
365.92	334.75
366.147	311.75
366.373	311.75
366.599	319.75
366.826	318.75
367.052	296.75
367.278	318.75
367.505	326.75
367.731	316.75
367.957	296.75
368.184	325.75
368.41	313.75
368.636	310.75
368.862	321.75
369.089	328.75
369.315	311.75
369.541	285.75
369.767	327.75
369.993	304.75
370.219	320.75
370.445	308.75
370.672	300.75
370.898	306.75
371.124	295.75
371.35	306.75
371.576	309.75
371.802	322.75
372.028	291.75
372.254	311.75
372.48	302.75
372.706	326.75
372.932	299.75
373.158	296.75
373.384	325.75
373.61	310.75
373.835	322.75
374.061	298.75
374.287	311.75
374.513	314.75
374.739	304.75
374.965	322.75
375.191	312.75
375.416	308.75
375.642	321.75
375.868	292.75
376.094	316.75
376.319	293.75
376.545	314.75
376.771	317.75
376.997	295.75
377.222	311.75
377.448	294.75
377.674	295.75
377.899	304.75
378.125	295.75
378.35	314.75
378.576	295.75
378.802	313.75
379.027	294.75
379.253	300.75
379.478	310.75
379.704	314.75
379.929	310.75
380.155	301.75
380.38	323.75
380.606	312.75
380.831	303.75
381.057	300.75
381.282	315.75
381.507	310.75
381.733	299.75
381.958	309.75
382.184	304.75
382.409	316.75
382.634	305.75
382.86	332.75
383.085	309.75
383.31	329.75
383.535	322.75
383.761	319.75
383.986	319.75
384.211	323.75
384.436	337.75
384.662	317.75
384.887	337.75
385.112	329.75
385.337	312.75
385.562	336.75
385.787	319.75
386.013	350.75
386.238	326.75
386.463	345.75
386.688	334.75
386.913	314.75
387.138	313.75
387.363	320.75
387.588	326.75
387.813	326.75
388.038	334.75
388.263	319.75
388.488	355.75
388.713	333.75
388.938	354.75
389.163	331.75
389.387	328.75
389.612	332.75
389.837	328.75
390.062	318.75
390.287	316.75
390.512	308.75
390.736	327.75
390.961	326.75
391.186	330.75
391.411	324.75
391.636	349.75
391.86	320.75
392.085	323.75
392.31	329.75
392.534	318.75
392.759	333.75
392.984	343.75
393.208	320.75
393.433	343.75
393.658	332.75
393.882	339.75
394.107	339.75
394.331	353.75
394.556	324.75
394.78	335.75
395.005	323.75
395.229	341.75
395.454	334.75
395.678	333.75
395.903	362.75
396.127	370.75
396.352	366.75
396.576	347.75
396.801	342.75
397.025	343.75
397.249	341.75
397.474	358.75
397.698	351.75
397.922	376.75
398.147	372.75
398.371	392.75
398.595	365.75
398.82	371.75
399.044	362.75
399.268	388.75
399.492	386.75
399.717	408.75
399.941	443.75
400.165	461.75
400.389	467.75
400.613	406.75
400.837	394.75
401.062	388.75
401.286	375.75
401.51	376.75
401.734	384.75
401.958	379.75
402.182	373.75
402.406	406.75
402.63	378.75
402.854	409.75
403.078	371.75
403.302	395.75
403.526	404.75
403.75	402.75
403.974	400.75
404.198	380.75
404.422	391.75
404.645	407.75
404.869	398.75
405.093	432.75
405.317	470.75
405.541	474.75
405.765	438.75
405.988	410.75
406.212	445.75
406.436	440.75
406.66	444.75
406.883	428.75
407.107	440.75
407.331	463.75
407.555	521.75
407.778	514.75
408.002	475.75
408.226	444.75
408.449	441.75
408.673	418.75
408.896	450.75
409.12	461.75
409.344	445.75
409.567	431.75
409.791	416.75
410.014	410.75
410.238	405.75
410.461	389.75
410.685	395.75
410.908	393.75
411.132	444.75
411.355	470.75
411.578	422.75
411.802	418.75
412.025	382.75
412.249	416.75
412.472	410.75
412.695	442.75
412.919	434.75
413.142	412.75
413.365	376.75
413.589	382.75
413.812	391.75
414.035	381.75
414.258	384.75
414.482	377.75
414.705	379.75
414.928	356.75
415.151	384.75
415.374	366.75
415.597	373.75
415.821	362.75
416.044	362.75
416.267	378.75
416.49	364.75
416.713	362.75
416.936	384.75
417.159	358.75
417.382	354.75
417.605	370.75
417.828	392.75
418.051	386.75
418.274	379.75
418.497	358.75
418.72	392.75
418.943	390.75
419.166	386.75
419.389	399.75
419.611	403.75
419.834	394.75
420.057	384.75
420.28	401.75
420.503	410.75
420.726	392.75
420.948	408.75
421.171	462.75
421.394	455.75
421.617	418.75
421.839	389.75
422.062	392.75
422.285	397.75
422.507	452.75
422.73	522.75
422.953	482.75
423.175	426.75
423.398	414.75
423.621	408.75
423.843	438.75
424.066	418.75
424.288	446.75
424.511	419.75
424.733	488.75
424.956	534.75
425.178	519.75
425.401	532.75
425.623	535.75
425.846	457.75
426.068	436.75
426.291	446.75
426.513	425.75
426.735	422.75
426.958	464.75
427.18	541.75
427.402	634.75
427.625	697.75
427.847	635.75
428.069	539.75
428.292	483.75
428.514	448.75
428.736	426.75
428.958	412.75
429.181	419.75
429.403	407.75
429.625	423.75
429.847	450.75
430.069	465.75
430.292	483.75
430.514	430.75
430.736	394.75
430.958	405.75
431.18	384.75
431.402	410.75
431.624	383.75
431.846	372.75
432.068	372.75
432.29	370.75
432.512	368.75
432.734	384.75
432.956	394.75
433.178	403.75
433.4	396.75
433.622	371.75
433.844	381.75
434.066	366.75
434.287	369.75
434.509	376.75
434.731	377.75
434.953	380.75
435.175	389.75
435.397	408.75
435.618	440.75
435.84	468.75
436.062	540.75
436.284	600.75
436.505	492.75
436.727	436.75
436.949	406.75
437.17	406.75
437.392	395.75
437.614	414.75
437.835	466.75
438.057	514.75
438.278	611.75
438.5	590.75
438.721	648.75
438.943	591.75
439.165	491.75
439.386	470.75
439.608	475.75
439.829	468.75
440.05	482.75
440.272	486.75
440.493	484.75
440.715	429.75
440.936	410.75
441.158	398.75
441.379	411.75
441.6	419.75
441.822	438.75
442.043	452.75
442.264	528.75
442.486	550.75
442.707	460.75
442.928	456.75
443.149	466.75
443.371	464.75
443.592	520.75
443.813	599.75
444.034	610.75
444.255	501.75
444.476	451.75
444.698	441.75
444.919	434.75
445.14	519.75
445.361	474.75
445.582	487.75
445.803	541.75
446.024	624.75
446.245	642.75
446.466	552.75
446.687	494.75
446.908	458.75
447.129	423.75
447.35	423.75
447.571	406.75
447.792	404.75
448.013	412.75
448.234	424.75
448.455	479.75
448.675	564.75
448.896	636.75
449.117	559.75
449.338	516.75
449.559	597.75
449.779	658.75
450	548.75
450.221	449.75
450.442	424.75
450.662	399.75
450.883	416.75
451.104	423.75
451.324	391.75
451.545	382.75
451.766	387.75
451.986	380.75
452.207	371.75
452.428	379.75
452.648	362.75
452.869	355.75
453.089	367.75
453.31	394.75
453.53	399.75
453.751	356.75
453.971	374.75
454.192	377.75
454.412	400.75
454.633	382.75
454.853	367.75
455.073	369.75
455.294	389.75
455.514	455.75
455.734	441.75
455.955	377.75
456.175	371.75
456.395	334.75
456.616	347.75
456.836	338.75
457.056	354.75
457.276	335.75
457.497	335.75
457.717	359.75
457.937	347.75
458.157	340.75
458.377	349.75
458.598	387.75
458.818	446.75
459.038	510.75
459.258	517.75
459.478	427.75
459.698	382.75
459.918	383.75
460.138	373.75
460.358	373.75
460.578	383.75
460.798	392.75
461.018	397.75
461.238	376.75
461.458	375.75
461.678	360.75
461.898	390.75
462.118	374.75
462.338	387.75
462.558	392.75
462.777	391.75
462.997	388.75
463.217	395.75
463.437	385.75
463.657	399.75
463.876	412.75
464.096	428.75
464.316	419.75
464.536	422.75
464.755	400.75
464.975	431.75
465.195	466.75
465.414	534.75
465.634	464.75
465.854	424.75
466.073	428.75
466.293	382.75
466.512	384.75
466.732	375.75
466.951	380.75
467.171	371.75
467.391	374.75
467.61	376.75
467.829	395.75
468.049	384.75
468.268	395.75
468.488	382.75
468.707	374.75
468.927	360.75
469.146	361.75
469.365	372.75
469.585	365.75
469.804	366.75
470.023	386.75
470.243	366.75
470.462	398.75
470.681	416.75
470.901	402.75
471.12	386.75
471.339	387.75
471.558	370.75
471.777	380.75
471.997	377.75
472.216	379.75
472.435	422.75
472.654	408.75
472.873	379.75
473.092	381.75
473.311	378.75
473.53	384.75
473.749	394.75
473.968	451.75
474.187	470.75
474.406	508.75
474.625	463.75
474.844	403.75
475.063	391.75
475.282	384.75
475.501	398.75
475.72	417.75
475.939	392.75
476.158	385.75
476.377	404.75
476.596	388.75
476.814	374.75
477.033	390.75
477.252	397.75
477.471	410.75
477.69	388.75
477.908	417.75
478.127	390.75
478.346	410.75
478.564	412.75
478.783	406.75
479.002	430.75
479.22	409.75
479.439	442.75
479.658	461.75
479.876	464.75
480.095	456.75
480.313	460.75
480.532	442.75
480.751	442.75
480.969	474.75
481.188	522.75
481.406	570.75
481.624	521.75
481.843	471.75
482.061	458.75
482.28	442.75
482.498	438.75
482.717	454.75
482.935	445.75
483.153	430.75
483.372	460.75
483.59	431.75
483.808	447.75
484.027	438.75
484.245	456.75
484.463	434.75
484.681	450.75
484.9	462.75
485.118	479.75
485.336	457.75
485.554	444.75
485.772	438.75
485.99	460.75
486.209	475.75
486.427	470.75
486.645	479.75
486.863	491.75
487.081	485.75
487.299	454.75
487.517	491.75
487.735	471.75
487.953	472.75
488.171	476.75
488.389	471.75
488.607	480.75
488.825	474.75
489.043	466.75
489.261	495.75
489.479	488.75
489.696	498.75
489.914	477.75
490.132	498.75
490.35	500.75
490.568	486.75
490.786	530.75
491.003	500.75
491.221	512.75
491.439	524.75
491.657	510.75
491.874	526.75
492.092	528.75
492.31	541.75
492.527	565.75
492.745	540.75
492.963	538.75
493.18	542.75
493.398	556.75
493.615	557.75
493.833	558.75
494.05	543.75
494.268	560.75
494.485	546.75
494.703	551.75
494.92	548.75
495.138	573.75
495.355	568.75
495.573	556.75
495.79	557.75
496.008	534.75
496.225	585.75
496.442	586.75
496.66	569.75
496.877	559.75
497.094	605.75
497.312	580.75
497.529	568.75
497.746	600.75
497.963	603.75
498.181	607.75
498.398	599.75
498.615	600.75
498.832	614.75
499.049	621.75
499.267	615.75
499.484	630.75
499.701	665.75
499.918	663.75
500.135	674.75
500.352	718.75
500.569	678.75
500.786	696.75
501.003	685.75
501.22	696.75
501.437	692.75
501.654	663.75
501.871	716.75
502.088	671.75
