Data from 1961.PennyLincolnUp.Lamp.En5.5.200Scan.071719.P1._HRD10591_13-45-51-057.txt Node
Date: Thu Jul 18 13:45:51 EDT 2019
User: cochatt
Spectrometer: HR+D1059
Trigger mode: 1
Integration Time (sec): 1.000000E-1
Scans to average: 1
Electric dark correction enabled: true
Nonlinearity correction enabled: false
Boxcar width: 0
XAxis mode: Wavelengths
Number of Pixels in Spectrum: 2048
>>>>>Begin Spectral Data<<<<<
223.165	-16.94
223.4	-16.94
223.635	-16.94
223.869	-31.94
224.104	-13.94
224.338	4.06
224.573	-10.94
224.808	-14.94
225.042	-8.94
225.277	-0.94
225.511	3.06
225.746	1.06
225.98	19.06
226.215	5.06
226.449	8.06
226.683	15.06
226.918	24.06
227.152	19.06
227.387	25.06
227.621	33.06
227.856	32.06
228.09	43.06
228.324	48.06
228.559	52.06
228.793	65.06
229.027	71.06
229.262	85.06
229.496	73.06
229.73	91.06
229.964	87.06
230.199	85.06
230.433	92.06
230.667	91.06
230.901	75.06
231.136	88.06
231.37	81.06
231.604	92.06
231.838	88.06
232.072	89.06
232.306	74.06
232.541	96.06
232.775	99.06
233.009	89.06
233.243	106.06
233.477	88.06
233.711	98.06
233.945	105.06
234.179	99.06
234.413	89.06
234.647	90.06
234.881	91.06
235.115	103.06
235.349	96.06
235.583	99.06
235.817	75.06
236.051	93.06
236.285	95.06
236.519	95.06
236.753	95.06
236.987	97.06
237.221	124.06
237.455	140.06
237.689	102.06
237.922	111.06
238.156	93.06
238.39	95.06
238.624	113.06
238.858	97.06
239.091	107.06
239.325	97.06
239.559	104.06
239.793	103.06
240.027	107.06
240.26	113.06
240.494	125.06
240.728	119.06
240.961	106.06
241.195	99.06
241.429	117.06
241.662	103.06
241.896	101.06
242.13	102.06
242.363	115.06
242.597	113.06
242.83	97.06
243.064	100.06
243.298	110.06
243.531	116.06
243.765	109.06
243.998	115.06
244.232	111.06
244.465	110.06
244.699	124.06
244.932	118.06
245.166	110.06
245.399	112.06
245.633	112.06
245.866	105.06
246.099	119.06
246.333	123.06
246.566	113.06
246.8	110.06
247.033	116.06
247.266	136.06
247.5	142.06
247.733	131.06
247.966	146.06
248.2	122.06
248.433	118.06
248.666	141.06
248.899	125.06
249.133	128.06
249.366	141.06
249.599	143.06
249.832	128.06
250.066	125.06
250.299	119.06
250.532	135.06
250.765	139.06
250.998	141.06
251.231	144.06
251.465	133.06
251.698	149.06
251.931	140.06
252.164	145.06
252.397	160.06
252.63	153.06
252.863	153.06
253.096	156.06
253.329	147.06
253.562	139.06
253.795	162.06
254.028	157.06
254.261	161.06
254.494	151.06
254.727	160.06
254.96	168.06
255.193	159.06
255.426	153.06
255.659	163.06
255.892	156.06
256.124	157.06
256.357	145.06
256.59	160.06
256.823	148.06
257.056	157.06
257.289	147.06
257.521	144.06
257.754	134.06
257.987	149.06
258.22	155.06
258.452	148.06
258.685	147.06
258.918	156.06
259.151	147.06
259.383	147.06
259.616	162.06
259.849	148.06
260.081	147.06
260.314	169.06
260.547	163.06
260.779	150.06
261.012	162.06
261.244	150.06
261.477	163.06
261.71	166.06
261.942	152.06
262.175	169.06
262.407	166.06
262.64	151.06
262.872	173.06
263.105	169.06
263.337	147.06
263.57	152.06
263.802	151.06
264.035	152.06
264.267	163.06
264.499	158.06
264.732	171.06
264.964	161.06
265.197	148.06
265.429	157.06
265.661	156.06
265.894	162.06
266.126	164.06
266.358	169.06
266.591	167.06
266.823	183.06
267.055	177.06
267.287	172.06
267.52	156.06
267.752	164.06
267.984	168.06
268.216	175.06
268.448	169.06
268.681	169.06
268.913	175.06
269.145	178.06
269.377	175.06
269.609	182.06
269.841	184.06
270.073	196.06
270.306	195.06
270.538	191.06
270.77	208.06
271.002	205.06
271.234	188.06
271.466	197.06
271.698	200.06
271.93	190.06
272.162	211.06
272.394	196.06
272.626	198.06
272.858	197.06
273.09	204.06
273.322	188.06
273.553	193.06
273.785	196.06
274.017	193.06
274.249	188.06
274.481	195.06
274.713	191.06
274.945	188.06
275.176	198.06
275.408	200.06
275.64	198.06
275.872	207.06
276.104	201.06
276.335	213.06
276.567	215.06
276.799	213.06
277.031	217.06
277.262	210.06
277.494	210.06
277.726	205.06
277.957	201.06
278.189	200.06
278.421	195.06
278.652	205.06
278.884	190.06
279.115	215.06
279.347	203.06
279.579	201.06
279.81	197.06
280.042	199.06
280.273	200.06
280.505	182.06
280.736	196.06
280.968	209.06
281.199	189.06
281.431	186.06
281.662	209.06
281.894	221.06
282.125	184.06
282.356	215.06
282.588	215.06
282.819	226.06
283.051	204.06
283.282	208.06
283.513	224.06
283.745	217.06
283.976	204.06
284.207	221.06
284.439	225.06
284.67	215.06
284.901	231.06
285.132	201.06
285.364	206.06
285.595	200.06
285.826	200.06
286.057	219.06
286.288	211.06
286.52	220.06
286.751	203.06
286.982	196.06
287.213	212.06
287.444	237.06
287.675	209.06
287.906	212.06
288.138	215.06
288.369	222.06
288.6	213.06
288.831	214.06
289.062	211.06
289.293	210.06
289.524	216.06
289.755	209.06
289.986	219.06
290.217	240.06
290.448	223.06
290.679	206.06
290.91	239.06
291.141	199.06
291.371	226.06
291.602	223.06
291.833	245.06
292.064	216.06
292.295	221.06
292.526	234.06
292.757	229.06
292.987	232.06
293.218	214.06
293.449	222.06
293.68	219.06
293.91	206.06
294.141	236.06
294.372	232.06
294.603	213.06
294.833	223.06
295.064	225.06
295.295	211.06
295.525	228.06
295.756	214.06
295.987	223.06
296.217	231.06
296.448	229.06
296.679	241.06
296.909	228.06
297.14	228.06
297.37	226.06
297.601	218.06
297.831	254.06
298.062	221.06
298.292	251.06
298.523	247.06
298.753	243.06
298.984	229.06
299.214	239.06
299.445	232.06
299.675	228.06
299.905	228.06
300.136	231.06
300.366	235.06
300.597	231.06
300.827	245.06
301.057	244.06
301.288	236.06
301.518	229.06
301.748	231.06
301.979	236.06
302.209	235.06
302.439	242.06
302.669	235.06
302.9	251.06
303.13	240.06
303.36	238.06
303.59	255.06
303.82	240.06
304.051	256.06
304.281	251.06
304.511	251.06
304.741	257.06
304.971	260.06
305.201	244.06
305.431	251.06
305.661	247.06
305.891	241.06
306.121	257.06
306.352	240.06
306.582	251.06
306.812	232.06
307.042	255.06
307.272	242.06
307.502	244.06
307.731	259.06
307.961	253.06
308.191	258.06
308.421	250.06
308.651	263.06
308.881	266.06
309.111	257.06
309.341	256.06
309.571	270.06
309.8	260.06
310.03	270.06
310.26	270.06
310.49	271.06
310.72	261.06
310.949	261.06
311.179	262.06
311.409	268.06
311.639	265.06
311.868	239.06
312.098	272.06
312.328	278.06
312.557	270.06
312.787	272.06
313.017	285.06
313.246	274.06
313.476	267.06
313.706	269.06
313.935	281.06
314.165	292.06
314.394	273.06
314.624	294.06
314.853	280.06
315.083	268.06
315.312	273.06
315.542	282.06
315.771	273.06
316.001	273.06
316.23	263.06
316.46	266.06
316.689	271.06
316.919	274.06
317.148	273.06
317.377	283.06
317.607	296.06
317.836	262.06
318.065	276.06
318.295	270.06
318.524	285.06
318.753	268.06
318.983	274.06
319.212	273.06
319.441	257.06
319.67	284.06
319.9	264.06
320.129	280.06
320.358	285.06
320.587	272.06
320.816	289.06
321.046	290.06
321.275	287.06
321.504	284.06
321.733	288.06
321.962	263.06
322.191	301.06
322.42	288.06
322.649	289.06
322.878	307.06
323.108	289.06
323.337	300.06
323.566	299.06
323.795	336.06
324.024	344.06
324.253	372.06
324.482	515.06
324.71	714.06
324.939	916.06
325.168	788.06
325.397	439.06
325.626	335.06
325.855	315.06
326.084	326.06
326.313	314.06
326.542	320.06
326.77	339.06
326.999	369.06
327.228	464.06
327.457	627.06
327.686	712.06
327.914	480.06
328.143	364.06
328.372	357.06
328.6	347.06
328.829	303.06
329.058	325.06
329.287	329.06
329.515	337.06
329.744	321.06
329.972	306.06
330.201	325.06
330.43	333.06
330.658	348.06
330.887	335.06
331.115	342.06
331.344	319.06
331.572	322.06
331.801	311.06
332.03	312.06
332.258	320.06
332.486	300.06
332.715	312.06
332.943	337.06
333.172	321.06
333.4	321.06
333.629	329.06
333.857	351.06
334.085	327.06
334.314	323.06
334.542	342.06
334.771	337.06
334.999	315.06
335.227	347.06
335.455	317.06
335.684	325.06
335.912	328.06
336.14	315.06
336.369	326.06
336.597	303.06
336.825	303.06
337.053	318.06
337.281	305.06
337.51	327.06
337.738	313.06
337.966	305.06
338.194	314.06
338.422	319.06
338.65	304.06
338.878	307.06
339.106	295.06
339.334	308.06
339.562	299.06
339.79	302.06
340.018	289.06
340.246	288.06
340.474	304.06
340.702	314.06
340.93	312.06
341.158	317.06
341.386	303.06
341.614	286.06
341.842	294.06
342.07	299.06
342.298	301.06
342.526	292.06
342.754	295.06
342.981	316.06
343.209	288.06
343.437	311.06
343.665	311.06
343.893	310.06
344.12	312.06
344.348	328.06
344.576	317.06
344.804	301.06
345.031	317.06
345.259	311.06
345.487	296.06
345.714	295.06
345.942	299.06
346.17	301.06
346.397	295.06
346.625	301.06
346.853	283.06
347.08	296.06
347.308	291.06
347.535	280.06
347.763	301.06
347.99	287.06
348.218	280.06
348.445	299.06
348.673	279.06
348.9	291.06
349.128	275.06
349.355	287.06
349.583	277.06
349.81	284.06
350.037	281.06
350.265	292.06
350.492	269.06
350.72	277.06
350.947	286.06
351.174	284.06
351.402	283.06
351.629	285.06
351.856	280.06
352.083	298.06
352.311	299.06
352.538	281.06
352.765	277.06
352.992	275.06
353.22	279.06
353.447	288.06
353.674	264.06
353.901	293.06
354.128	281.06
354.355	272.06
354.583	268.06
354.81	269.06
355.037	296.06
355.264	287.06
355.491	280.06
355.718	277.06
355.945	271.06
356.172	279.06
356.399	262.06
356.626	265.06
356.853	278.06
357.08	284.06
357.307	267.06
357.534	271.06
357.761	274.06
357.988	279.06
358.215	278.06
358.441	284.06
358.668	283.06
358.895	261.06
359.122	288.06
359.349	279.06
359.576	277.06
359.802	288.06
360.029	290.06
360.256	271.06
360.483	287.06
360.709	279.06
360.936	277.06
361.163	288.06
361.39	271.06
361.616	295.06
361.843	289.06
362.07	292.06
362.296	288.06
362.523	275.06
362.749	276.06
362.976	272.06
363.203	261.06
363.429	269.06
363.656	262.06
363.882	261.06
364.109	277.06
364.335	266.06
364.562	276.06
364.788	263.06
365.015	297.06
365.241	246.06
365.468	276.06
365.694	264.06
365.92	293.06
366.147	278.06
366.373	251.06
366.599	264.06
366.826	264.06
367.052	273.06
367.278	271.06
367.505	289.06
367.731	284.06
367.957	272.06
368.184	270.06
368.41	266.06
368.636	279.06
368.862	288.06
369.089	279.06
369.315	263.06
369.541	267.06
369.767	266.06
369.993	276.06
370.219	262.06
370.445	287.06
370.672	284.06
370.898	269.06
371.124	270.06
371.35	285.06
371.576	297.06
371.802	299.06
372.028	275.06
372.254	258.06
372.48	277.06
372.706	273.06
372.932	289.06
373.158	264.06
373.384	277.06
373.61	275.06
373.835	277.06
374.061	275.06
374.287	289.06
374.513	276.06
374.739	272.06
374.965	308.06
375.191	268.06
375.416	275.06
375.642	290.06
375.868	283.06
376.094	294.06
376.319	292.06
376.545	257.06
376.771	263.06
376.997	274.06
377.222	284.06
377.448	262.06
377.674	281.06
377.899	290.06
378.125	283.06
378.35	282.06
378.576	280.06
378.802	283.06
379.027	284.06
379.253	262.06
379.478	276.06
379.704	272.06
379.929	283.06
380.155	264.06
380.38	279.06
380.606	291.06
380.831	296.06
381.057	260.06
381.282	257.06
381.507	276.06
381.733	275.06
381.958	289.06
382.184	284.06
382.409	269.06
382.634	268.06
382.86	262.06
383.085	266.06
383.31	278.06
383.535	272.06
383.761	292.06
383.986	289.06
384.211	289.06
384.436	294.06
384.662	292.06
384.887	309.06
385.112	287.06
385.337	286.06
385.562	309.06
385.787	299.06
386.013	318.06
386.238	316.06
386.463	310.06
386.688	306.06
386.913	312.06
387.138	308.06
387.363	307.06
387.588	301.06
387.813	311.06
388.038	299.06
388.263	322.06
388.488	291.06
388.713	306.06
388.938	308.06
389.163	280.06
389.387	283.06
389.612	293.06
389.837	289.06
390.062	299.06
390.287	311.06
390.512	294.06
390.736	299.06
390.961	291.06
391.186	303.06
391.411	291.06
391.636	285.06
391.86	304.06
392.085	316.06
392.31	310.06
392.534	316.06
392.759	294.06
392.984	305.06
393.208	311.06
393.433	325.06
393.658	311.06
393.882	316.06
394.107	287.06
394.331	298.06
394.556	317.06
394.78	304.06
395.005	297.06
395.229	316.06
395.454	305.06
395.678	317.06
395.903	300.06
396.127	311.06
396.352	321.06
396.576	294.06
396.801	289.06
397.025	306.06
397.249	316.06
397.474	332.06
397.698	320.06
397.922	321.06
398.147	310.06
398.371	343.06
398.595	319.06
398.82	319.06
399.044	322.06
399.268	357.06
399.492	379.06
399.717	391.06
399.941	399.06
400.165	424.06
400.389	401.06
400.613	377.06
400.837	339.06
401.062	358.06
401.286	325.06
401.51	321.06
401.734	328.06
401.958	320.06
402.182	329.06
402.406	325.06
402.63	340.06
402.854	347.06
403.078	304.06
403.302	330.06
403.526	329.06
403.75	324.06
403.974	343.06
404.198	339.06
404.422	328.06
404.645	360.06
404.869	328.06
405.093	375.06
405.317	374.06
405.541	378.06
405.765	376.06
405.988	331.06
406.212	349.06
406.436	342.06
406.66	361.06
406.883	364.06
407.107	363.06
407.331	384.06
407.555	413.06
407.778	405.06
408.002	392.06
408.226	370.06
408.449	359.06
408.673	351.06
408.896	385.06
409.12	407.06
409.344	391.06
409.567	338.06
409.791	335.06
410.014	354.06
410.238	333.06
410.461	331.06
410.685	339.06
410.908	329.06
411.132	361.06
411.355	368.06
411.578	375.06
411.802	323.06
412.025	339.06
412.249	323.06
412.472	353.06
412.695	356.06
412.919	342.06
413.142	342.06
413.365	334.06
413.589	328.06
413.812	317.06
414.035	333.06
414.258	324.06
414.482	321.06
414.705	324.06
414.928	336.06
415.151	321.06
415.374	315.06
415.597	329.06
415.821	304.06
416.044	305.06
416.267	310.06
416.49	304.06
416.713	326.06
416.936	321.06
417.159	311.06
417.382	322.06
417.605	320.06
417.828	333.06
418.051	333.06
418.274	329.06
418.497	305.06
418.72	318.06
418.943	328.06
419.166	334.06
419.389	351.06
419.611	335.06
419.834	320.06
420.057	310.06
420.28	337.06
420.503	324.06
420.726	307.06
420.948	320.06
421.171	339.06
421.394	357.06
421.617	340.06
421.839	345.06
422.062	329.06
422.285	345.06
422.507	347.06
422.73	407.06
422.953	353.06
423.175	343.06
423.398	349.06
423.621	325.06
423.843	332.06
424.066	362.06
424.288	330.06
424.511	334.06
424.733	360.06
424.956	402.06
425.178	367.06
425.401	369.06
425.623	376.06
425.846	343.06
426.068	335.06
426.291	322.06
426.513	329.06
426.735	338.06
426.958	365.06
427.18	383.06
427.402	475.06
427.625	482.06
427.847	417.06
428.069	366.06
428.292	337.06
428.514	324.06
428.736	323.06
428.958	312.06
429.181	311.06
429.403	311.06
429.625	301.06
429.847	315.06
430.069	334.06
430.292	331.06
430.514	319.06
430.736	304.06
430.958	314.06
431.18	287.06
431.402	313.06
431.624	298.06
431.846	306.06
432.068	316.06
432.29	303.06
432.512	313.06
432.734	301.06
432.956	324.06
433.178	317.06
433.4	316.06
433.622	318.06
433.844	300.06
434.066	301.06
434.287	309.06
434.509	306.06
434.731	323.06
434.953	320.06
435.175	327.06
435.397	328.06
435.618	327.06
435.84	340.06
436.062	384.06
436.284	398.06
436.505	372.06
436.727	344.06
436.949	320.06
437.17	317.06
437.392	317.06
437.614	319.06
437.835	334.06
438.057	361.06
438.278	399.06
438.5	403.06
438.721	443.06
438.943	439.06
439.165	328.06
439.386	323.06
439.608	341.06
439.829	323.06
440.05	347.06
440.272	360.06
440.493	335.06
440.715	320.06
440.936	319.06
441.158	322.06
441.379	295.06
441.6	312.06
441.822	315.06
442.043	348.06
442.264	375.06
442.486	387.06
442.707	351.06
442.928	320.06
443.149	336.06
443.371	332.06
443.592	365.06
443.813	408.06
444.034	433.06
444.255	356.06
444.476	336.06
444.698	348.06
444.919	334.06
445.14	457.06
445.361	386.06
445.582	348.06
445.803	363.06
446.024	436.06
446.245	409.06
446.466	388.06
446.687	328.06
446.908	324.06
447.129	280.06
447.35	281.06
447.571	314.06
447.792	292.06
448.013	306.06
448.234	319.06
448.455	331.06
448.675	395.06
448.896	421.06
449.117	368.06
449.338	344.06
449.559	405.06
449.779	440.06
450	351.06
450.221	321.06
450.442	310.06
450.662	292.06
450.883	292.06
451.104	286.06
451.324	287.06
451.545	280.06
451.766	273.06
451.986	271.06
452.207	256.06
452.428	259.06
452.648	279.06
452.869	276.06
453.089	261.06
453.31	301.06
453.53	278.06
453.751	285.06
453.971	288.06
454.192	287.06
454.412	273.06
454.633	277.06
454.853	280.06
455.073	277.06
455.294	297.06
455.514	294.06
455.734	316.06
455.955	273.06
456.175	264.06
456.395	264.06
456.616	271.06
456.836	264.06
457.056	265.06
457.276	250.06
457.497	279.06
457.717	278.06
457.937	282.06
458.157	262.06
458.377	275.06
458.598	270.06
458.818	302.06
459.038	314.06
459.258	328.06
459.478	292.06
459.698	283.06
459.918	307.06
460.138	289.06
460.358	304.06
460.578	300.06
460.798	317.06
461.018	327.06
461.238	328.06
461.458	309.06
461.678	321.06
461.898	319.06
462.118	325.06
462.338	325.06
462.558	330.06
462.777	331.06
462.997	336.06
463.217	347.06
463.437	333.06
463.657	335.06
463.876	344.06
464.096	332.06
464.316	331.06
464.536	331.06
464.755	328.06
464.975	347.06
465.195	327.06
465.414	353.06
465.634	306.06
465.854	311.06
466.073	308.06
466.293	303.06
466.512	304.06
466.732	292.06
466.951	303.06
467.171	287.06
467.391	296.06
467.61	285.06
467.829	293.06
468.049	275.06
468.268	284.06
468.488	279.06
468.707	284.06
468.927	299.06
469.146	274.06
469.365	265.06
469.585	284.06
469.804	291.06
470.023	308.06
470.243	292.06
470.462	301.06
470.681	292.06
470.901	288.06
471.12	295.06
471.339	286.06
471.558	294.06
471.777	282.06
471.997	287.06
472.216	276.06
472.435	301.06
472.654	286.06
472.873	290.06
473.092	295.06
473.311	286.06
473.53	288.06
473.749	293.06
473.968	317.06
474.187	328.06
474.406	352.06
474.625	299.06
474.844	298.06
475.063	297.06
475.282	293.06
475.501	305.06
475.72	307.06
475.939	289.06
476.158	307.06
476.377	301.06
476.596	306.06
476.814	303.06
477.033	293.06
477.252	320.06
477.471	308.06
477.69	318.06
477.908	329.06
478.127	334.06
478.346	321.06
478.564	324.06
478.783	333.06
479.002	328.06
479.22	334.06
479.439	358.06
479.658	329.06
479.876	330.06
480.095	359.06
480.313	355.06
480.532	365.06
480.751	349.06
480.969	364.06
481.188	347.06
481.406	346.06
481.624	333.06
481.843	341.06
482.061	325.06
482.28	334.06
482.498	328.06
482.717	329.06
482.935	326.06
483.153	332.06
483.372	339.06
483.59	321.06
483.808	330.06
484.027	330.06
484.245	326.06
484.463	340.06
484.681	339.06
484.9	339.06
485.118	348.06
485.336	357.06
485.554	350.06
485.772	336.06
485.99	348.06
486.209	355.06
486.427	367.06
486.645	343.06
486.863	356.06
487.081	325.06
487.299	357.06
487.517	354.06
487.735	358.06
487.953	371.06
488.171	369.06
488.389	348.06
488.607	339.06
488.825	347.06
489.043	338.06
489.261	365.06
489.479	367.06
489.696	358.06
489.914	365.06
490.132	371.06
490.35	353.06
490.568	375.06
490.786	354.06
491.003	377.06
491.221	385.06
491.439	376.06
491.657	375.06
491.874	375.06
492.092	368.06
492.31	383.06
492.527	371.06
492.745	376.06
492.963	406.06
493.18	384.06
493.398	397.06
493.615	385.06
493.833	412.06
494.05	401.06
494.268	385.06
494.485	388.06
494.703	388.06
494.92	406.06
495.138	386.06
495.355	391.06
495.573	400.06
495.79	390.06
496.008	390.06
496.225	404.06
496.442	409.06
496.66	392.06
496.877	417.06
497.094	398.06
497.312	413.06
497.529	424.06
497.746	419.06
497.963	413.06
498.181	435.06
498.398	442.06
498.615	442.06
498.832	473.06
499.049	472.06
499.267	494.06
499.484	503.06
499.701	524.06
499.918	540.06
500.135	572.06
500.352	609.06
500.569	620.06
500.786	637.06
501.003	576.06
501.22	566.06
501.437	559.06
501.654	518.06
501.871	515.06
502.088	457.06
502.305	481.06
502.522	464.06
