Data from 1961.PennyLincolnUp.Lamp.En5.5.200Scan.071719.P1._HRD10591_13-48-28-058.txt Node
Date: Thu Jul 18 13:48:28 EDT 2019
User: cochatt
Spectrometer: HR+D1059
Trigger mode: 1
Integration Time (sec): 1.000000E-1
Scans to average: 1
Electric dark correction enabled: true
Nonlinearity correction enabled: false
Boxcar width: 0
XAxis mode: Wavelengths
Number of Pixels in Spectrum: 2048
>>>>>Begin Spectral Data<<<<<
223.165	-21.5
223.4	-21.5
223.635	-21.5
223.869	-28.5
224.104	-25.5
224.338	9.5
224.573	-25.5
224.808	-4.5
225.042	-18.5
225.277	-0.5
225.511	-6.5
225.746	3.5
225.98	17.5
226.215	7.5
226.449	16.5
226.683	29.5
226.918	19.5
227.152	27.5
227.387	22.5
227.621	30.5
227.856	34.5
228.09	42.5
228.324	48.5
228.559	49.5
228.793	80.5
229.027	94.5
229.262	98.5
229.496	122.5
229.73	122.5
229.964	139.5
230.199	112.5
230.433	95.5
230.667	110.5
230.901	105.5
231.136	89.5
231.37	106.5
231.604	116.5
231.838	113.5
232.072	106.5
232.306	103.5
232.541	122.5
232.775	103.5
233.009	119.5
233.243	101.5
233.477	101.5
233.711	99.5
233.945	102.5
234.179	108.5
234.413	109.5
234.647	111.5
234.881	97.5
235.115	93.5
235.349	108.5
235.583	100.5
235.817	121.5
236.051	116.5
236.285	115.5
236.519	116.5
236.753	123.5
236.987	117.5
237.221	155.5
237.455	211.5
237.689	169.5
237.922	131.5
238.156	123.5
238.39	113.5
238.624	111.5
238.858	118.5
239.091	104.5
239.325	109.5
239.559	99.5
239.793	105.5
240.027	116.5
240.26	115.5
240.494	128.5
240.728	142.5
240.961	152.5
241.195	123.5
241.429	129.5
241.662	125.5
241.896	122.5
242.13	115.5
242.363	125.5
242.597	123.5
242.83	114.5
243.064	132.5
243.298	124.5
243.531	120.5
243.765	105.5
243.998	109.5
244.232	115.5
244.465	130.5
244.699	127.5
244.932	123.5
245.166	114.5
245.399	118.5
245.633	117.5
245.866	133.5
246.099	115.5
246.333	131.5
246.566	121.5
246.8	123.5
247.033	127.5
247.266	135.5
247.5	126.5
247.733	144.5
247.966	133.5
248.2	140.5
248.433	151.5
248.666	158.5
248.899	163.5
249.133	164.5
249.366	190.5
249.599	175.5
249.832	175.5
250.066	161.5
250.299	163.5
250.532	163.5
250.765	167.5
250.998	185.5
251.231	187.5
251.465	181.5
251.698	166.5
251.931	169.5
252.164	181.5
252.397	170.5
252.63	136.5
252.863	162.5
253.096	183.5
253.329	184.5
253.562	187.5
253.795	186.5
254.028	184.5
254.261	186.5
254.494	199.5
254.727	185.5
254.96	224.5
255.193	218.5
255.426	213.5
255.659	213.5
255.892	213.5
256.124	192.5
256.357	195.5
256.59	180.5
256.823	199.5
257.056	162.5
257.289	177.5
257.521	181.5
257.754	185.5
257.987	162.5
258.22	161.5
258.452	180.5
258.685	155.5
258.918	182.5
259.151	165.5
259.383	178.5
259.616	181.5
259.849	189.5
260.081	190.5
260.314	210.5
260.547	208.5
260.779	203.5
261.012	186.5
261.244	189.5
261.477	187.5
261.71	179.5
261.942	193.5
262.175	192.5
262.407	194.5
262.64	184.5
262.872	175.5
263.105	192.5
263.337	183.5
263.57	187.5
263.802	167.5
264.035	173.5
264.267	173.5
264.499	151.5
264.732	166.5
264.964	167.5
265.197	164.5
265.429	172.5
265.661	168.5
265.894	161.5
266.126	163.5
266.358	169.5
266.591	173.5
266.823	183.5
267.055	178.5
267.287	173.5
267.52	185.5
267.752	185.5
267.984	186.5
268.216	170.5
268.448	175.5
268.681	191.5
268.913	191.5
269.145	213.5
269.377	227.5
269.609	216.5
269.841	219.5
270.073	212.5
270.306	226.5
270.538	242.5
270.77	228.5
271.002	257.5
271.234	225.5
271.466	250.5
271.698	253.5
271.93	253.5
272.162	246.5
272.394	239.5
272.626	238.5
272.858	208.5
273.09	224.5
273.322	209.5
273.553	209.5
273.785	212.5
274.017	217.5
274.249	223.5
274.481	210.5
274.713	205.5
274.945	213.5
275.176	214.5
275.408	206.5
275.64	220.5
275.872	191.5
276.104	207.5
276.335	215.5
276.567	214.5
276.799	221.5
277.031	253.5
277.262	247.5
277.494	265.5
277.726	232.5
277.957	242.5
278.189	207.5
278.421	227.5
278.652	218.5
278.884	215.5
279.115	197.5
279.347	199.5
279.579	217.5
279.81	218.5
280.042	213.5
280.273	221.5
280.505	206.5
280.736	196.5
280.968	207.5
281.199	205.5
281.431	207.5
281.662	206.5
281.894	221.5
282.125	218.5
282.356	226.5
282.588	243.5
282.819	260.5
283.051	233.5
283.282	223.5
283.513	214.5
283.745	226.5
283.976	210.5
284.207	201.5
284.439	221.5
284.67	194.5
284.901	225.5
285.132	205.5
285.364	210.5
285.595	218.5
285.826	221.5
286.057	210.5
286.288	203.5
286.52	198.5
286.751	214.5
286.982	200.5
287.213	202.5
287.444	206.5
287.675	209.5
287.906	221.5
288.138	243.5
288.369	214.5
288.6	229.5
288.831	219.5
289.062	226.5
289.293	225.5
289.524	244.5
289.755	228.5
289.986	229.5
290.217	209.5
290.448	215.5
290.679	207.5
290.91	229.5
291.141	214.5
291.371	202.5
291.602	209.5
291.833	222.5
292.064	212.5
292.295	221.5
292.526	216.5
292.757	217.5
292.987	228.5
293.218	229.5
293.449	229.5
293.68	208.5
293.91	207.5
294.141	214.5
294.372	218.5
294.603	226.5
294.833	224.5
295.064	226.5
295.295	247.5
295.525	224.5
295.756	217.5
295.987	237.5
296.217	253.5
296.448	268.5
296.679	243.5
296.909	231.5
297.14	217.5
297.37	207.5
297.601	238.5
297.831	231.5
298.062	216.5
298.292	227.5
298.523	227.5
298.753	230.5
298.984	246.5
299.214	213.5
299.445	213.5
299.675	232.5
299.905	252.5
300.136	232.5
300.366	246.5
300.597	237.5
300.827	233.5
301.057	242.5
301.288	253.5
301.518	240.5
301.748	243.5
301.979	261.5
302.209	242.5
302.439	263.5
302.669	241.5
302.9	251.5
303.13	251.5
303.36	249.5
303.59	265.5
303.82	271.5
304.051	263.5
304.281	247.5
304.511	245.5
304.741	240.5
304.971	244.5
305.201	221.5
305.431	233.5
305.661	247.5
305.891	249.5
306.121	267.5
306.352	265.5
306.582	257.5
306.812	248.5
307.042	259.5
307.272	258.5
307.502	251.5
307.731	253.5
307.961	256.5
308.191	241.5
308.421	241.5
308.651	258.5
308.881	263.5
309.111	260.5
309.341	267.5
309.571	286.5
309.8	284.5
310.03	288.5
310.26	304.5
310.49	310.5
310.72	303.5
310.949	322.5
311.179	331.5
311.409	311.5
311.639	297.5
311.868	305.5
312.098	301.5
312.328	300.5
312.557	314.5
312.787	334.5
313.017	350.5
313.246	312.5
313.476	305.5
313.706	285.5
313.935	294.5
314.165	305.5
314.394	323.5
314.624	318.5
314.853	314.5
315.083	311.5
315.312	308.5
315.542	293.5
315.771	289.5
316.001	299.5
316.23	287.5
316.46	294.5
316.689	297.5
316.919	314.5
317.148	303.5
317.377	293.5
317.607	313.5
317.836	290.5
318.065	278.5
318.295	290.5
318.524	276.5
318.753	302.5
318.983	291.5
319.212	310.5
319.441	305.5
319.67	299.5
319.9	309.5
320.129	309.5
320.358	313.5
320.587	298.5
320.816	307.5
321.046	318.5
321.275	329.5
321.504	317.5
321.733	329.5
321.962	344.5
322.191	349.5
322.42	365.5
322.649	389.5
322.878	375.5
323.108	374.5
323.337	427.5
323.566	424.5
323.795	475.5
324.024	551.5
324.253	666.5
324.482	987.5
324.71	1537.5
324.939	2131.5
325.168	1791.5
325.397	937.5
325.626	598.5
325.855	509.5
326.084	465.5
326.313	442.5
326.542	451.5
326.77	519.5
326.999	617.5
327.228	868.5
327.457	1329.5
327.686	1497.5
327.914	1067.5
328.143	686.5
328.372	571.5
328.6	532.5
328.829	511.5
329.058	510.5
329.287	534.5
329.515	488.5
329.744	434.5
329.972	463.5
330.201	472.5
330.43	520.5
330.658	552.5
330.887	564.5
331.115	529.5
331.344	445.5
331.572	402.5
331.801	419.5
332.03	392.5
332.258	389.5
332.486	358.5
332.715	359.5
332.943	371.5
333.172	360.5
333.4	377.5
333.629	358.5
333.857	385.5
334.085	389.5
334.314	414.5
334.542	440.5
334.771	463.5
334.999	398.5
335.227	382.5
335.455	362.5
335.684	360.5
335.912	340.5
336.14	343.5
336.369	347.5
336.597	340.5
336.825	355.5
337.053	336.5
337.281	342.5
337.51	350.5
337.738	341.5
337.966	341.5
338.194	325.5
338.422	353.5
338.65	345.5
338.878	310.5
339.106	324.5
339.334	340.5
339.562	319.5
339.79	330.5
340.018	325.5
340.246	360.5
340.474	338.5
340.702	331.5
340.93	342.5
341.158	320.5
341.386	336.5
341.614	349.5
341.842	334.5
342.07	330.5
342.298	324.5
342.526	320.5
342.754	306.5
342.981	306.5
343.209	296.5
343.437	325.5
343.665	314.5
343.893	306.5
344.12	329.5
344.348	332.5
344.576	323.5
344.804	332.5
345.031	338.5
345.259	346.5
345.487	347.5
345.714	336.5
345.942	329.5
346.17	320.5
346.397	326.5
346.625	326.5
346.853	332.5
347.08	334.5
347.308	331.5
347.535	340.5
347.763	357.5
347.99	330.5
348.218	326.5
348.445	351.5
348.673	357.5
348.9	334.5
349.128	333.5
349.355	304.5
349.583	341.5
349.81	309.5
350.037	306.5
350.265	325.5
350.492	312.5
350.72	311.5
350.947	306.5
351.174	347.5
351.402	334.5
351.629	330.5
351.856	326.5
352.083	336.5
352.311	339.5
352.538	354.5
352.765	348.5
352.992	335.5
353.22	330.5
353.447	323.5
353.674	323.5
353.901	310.5
354.128	308.5
354.355	284.5
354.583	308.5
354.81	287.5
355.037	283.5
355.264	296.5
355.491	290.5
355.718	299.5
355.945	302.5
356.172	317.5
356.399	287.5
356.626	301.5
356.853	293.5
357.08	298.5
357.307	296.5
357.534	309.5
357.761	277.5
357.988	301.5
358.215	305.5
358.441	304.5
358.668	302.5
358.895	280.5
359.122	320.5
359.349	316.5
359.576	322.5
359.802	329.5
360.029	371.5
360.256	391.5
360.483	372.5
360.709	338.5
360.936	327.5
361.163	332.5
361.39	326.5
361.616	343.5
361.843	332.5
362.07	324.5
362.296	319.5
362.523	330.5
362.749	340.5
362.976	313.5
363.203	303.5
363.429	313.5
363.656	314.5
363.882	319.5
364.109	291.5
364.335	303.5
364.562	313.5
364.788	309.5
365.015	321.5
365.241	303.5
365.468	327.5
365.694	318.5
365.92	314.5
366.147	321.5
366.373	291.5
366.599	307.5
366.826	307.5
367.052	306.5
367.278	314.5
367.505	299.5
367.731	307.5
367.957	298.5
368.184	297.5
368.41	314.5
368.636	310.5
368.862	329.5
369.089	315.5
369.315	305.5
369.541	310.5
369.767	307.5
369.993	305.5
370.219	287.5
370.445	283.5
370.672	299.5
370.898	328.5
371.124	298.5
371.35	282.5
371.576	277.5
371.802	296.5
372.028	296.5
372.254	285.5
372.48	280.5
372.706	280.5
372.932	291.5
373.158	306.5
373.384	293.5
373.61	303.5
373.835	309.5
374.061	288.5
374.287	303.5
374.513	303.5
374.739	309.5
374.965	307.5
375.191	293.5
375.416	305.5
375.642	314.5
375.868	289.5
376.094	287.5
376.319	284.5
376.545	312.5
376.771	301.5
376.997	290.5
377.222	279.5
377.448	309.5
377.674	279.5
377.899	301.5
378.125	297.5
378.35	298.5
378.576	289.5
378.802	310.5
379.027	292.5
379.253	288.5
379.478	280.5
379.704	304.5
379.929	277.5
380.155	289.5
380.38	289.5
380.606	301.5
380.831	287.5
381.057	296.5
381.282	303.5
381.507	307.5
381.733	285.5
381.958	299.5
382.184	317.5
382.409	297.5
382.634	288.5
382.86	307.5
383.085	289.5
383.31	309.5
383.535	306.5
383.761	287.5
383.986	286.5
384.211	307.5
384.436	287.5
384.662	311.5
384.887	303.5
385.112	318.5
385.337	318.5
385.562	294.5
385.787	313.5
386.013	320.5
386.238	337.5
386.463	314.5
386.688	294.5
386.913	314.5
387.138	313.5
387.363	324.5
387.588	315.5
387.813	314.5
388.038	316.5
388.263	329.5
388.488	312.5
388.713	323.5
388.938	311.5
389.163	331.5
389.387	318.5
389.612	313.5
389.837	315.5
390.062	327.5
390.287	296.5
390.512	319.5
390.736	313.5
390.961	314.5
391.186	341.5
391.411	314.5
391.636	311.5
391.86	324.5
392.085	316.5
392.31	329.5
392.534	306.5
392.759	306.5
392.984	312.5
393.208	304.5
393.433	310.5
393.658	319.5
393.882	321.5
394.107	327.5
394.331	323.5
394.556	303.5
394.78	294.5
395.005	319.5
395.229	317.5
395.454	325.5
395.678	339.5
395.903	362.5
396.127	354.5
396.352	354.5
396.576	335.5
396.801	328.5
397.025	338.5
397.249	341.5
397.474	321.5
397.698	324.5
397.922	336.5
398.147	365.5
398.371	357.5
398.595	365.5
398.82	361.5
399.044	361.5
399.268	363.5
399.492	378.5
399.717	395.5
399.941	413.5
400.165	439.5
400.389	429.5
400.613	398.5
400.837	382.5
401.062	381.5
401.286	350.5
401.51	359.5
401.734	360.5
401.958	357.5
402.182	345.5
402.406	347.5
402.63	377.5
402.854	389.5
403.078	382.5
403.302	351.5
403.526	349.5
403.75	381.5
403.974	367.5
404.198	357.5
404.422	361.5
404.645	397.5
404.869	386.5
405.093	396.5
405.317	448.5
405.541	454.5
405.765	406.5
405.988	395.5
406.212	412.5
406.436	422.5
406.66	433.5
406.883	424.5
407.107	420.5
407.331	455.5
407.555	490.5
407.778	493.5
408.002	448.5
408.226	424.5
408.449	418.5
408.673	419.5
408.896	436.5
409.12	442.5
409.344	453.5
409.567	391.5
409.791	380.5
410.014	361.5
410.238	355.5
410.461	390.5
410.685	383.5
410.908	401.5
411.132	429.5
411.355	430.5
411.578	433.5
411.802	417.5
412.025	383.5
412.249	371.5
412.472	411.5
412.695	421.5
412.919	414.5
413.142	395.5
413.365	366.5
413.589	366.5
413.812	352.5
414.035	354.5
414.258	358.5
414.482	362.5
414.705	360.5
414.928	366.5
415.151	334.5
415.374	336.5
415.597	354.5
415.821	345.5
416.044	335.5
416.267	355.5
416.49	339.5
416.713	334.5
416.936	357.5
417.159	379.5
417.382	369.5
417.605	384.5
417.828	351.5
418.051	376.5
418.274	377.5
418.497	336.5
418.72	346.5
418.943	357.5
419.166	369.5
419.389	373.5
419.611	376.5
419.834	366.5
420.057	372.5
420.28	374.5
420.503	349.5
420.726	371.5
420.948	378.5
421.171	413.5
421.394	453.5
421.617	398.5
421.839	381.5
422.062	377.5
422.285	388.5
422.507	443.5
422.73	495.5
422.953	501.5
423.175	438.5
423.398	405.5
423.621	382.5
423.843	394.5
424.066	406.5
424.288	403.5
424.511	421.5
424.733	472.5
424.956	524.5
425.178	510.5
425.401	504.5
425.623	513.5
425.846	450.5
426.068	417.5
426.291	429.5
426.513	420.5
426.735	432.5
426.958	451.5
427.18	530.5
427.402	612.5
427.625	689.5
427.847	656.5
428.069	537.5
428.292	470.5
428.514	422.5
428.736	411.5
428.958	389.5
429.181	405.5
429.403	383.5
429.625	391.5
429.847	421.5
430.069	474.5
430.292	481.5
430.514	411.5
430.736	357.5
430.958	373.5
431.18	362.5
431.402	369.5
431.624	367.5
431.846	351.5
432.068	376.5
432.29	363.5
432.512	361.5
432.734	377.5
432.956	374.5
433.178	388.5
433.4	374.5
433.622	375.5
433.844	367.5
434.066	366.5
434.287	369.5
434.509	374.5
434.731	365.5
434.953	390.5
435.175	387.5
435.397	419.5
435.618	400.5
435.84	460.5
436.062	531.5
436.284	572.5
436.505	490.5
436.727	421.5
436.949	419.5
437.17	406.5
437.392	394.5
437.614	416.5
437.835	462.5
438.057	540.5
438.278	593.5
438.5	566.5
438.721	621.5
438.943	599.5
439.165	489.5
439.386	450.5
439.608	436.5
439.829	441.5
440.05	463.5
440.272	507.5
440.493	477.5
440.715	415.5
440.936	391.5
441.158	404.5
441.379	391.5
441.6	401.5
441.822	426.5
442.043	471.5
442.264	524.5
442.486	557.5
442.707	482.5
442.928	446.5
443.149	453.5
443.371	460.5
443.592	497.5
443.813	549.5
444.034	608.5
444.255	510.5
444.476	438.5
444.698	405.5
444.919	418.5
445.14	499.5
445.361	461.5
445.582	469.5
445.803	531.5
446.024	619.5
446.245	602.5
446.466	570.5
446.687	471.5
446.908	437.5
447.129	418.5
447.35	410.5
447.571	397.5
447.792	379.5
448.013	386.5
448.234	423.5
448.455	481.5
448.675	541.5
448.896	624.5
449.117	549.5
449.338	516.5
449.559	603.5
449.779	651.5
450	537.5
450.221	447.5
450.442	405.5
450.662	406.5
450.883	410.5
451.104	399.5
451.324	410.5
451.545	376.5
451.766	358.5
451.986	372.5
452.207	375.5
452.428	356.5
452.648	362.5
452.869	356.5
453.089	379.5
453.31	379.5
453.53	353.5
453.751	365.5
453.971	360.5
454.192	380.5
454.412	374.5
454.633	343.5
454.853	355.5
455.073	355.5
455.294	370.5
455.514	428.5
455.734	425.5
455.955	355.5
456.175	328.5
456.395	341.5
456.616	338.5
456.836	348.5
457.056	339.5
457.276	337.5
457.497	329.5
457.717	347.5
457.937	354.5
458.157	335.5
458.377	340.5
458.598	360.5
458.818	417.5
459.038	476.5
459.258	477.5
459.478	413.5
459.698	376.5
459.918	379.5
460.138	347.5
460.358	346.5
460.578	375.5
460.798	354.5
461.018	350.5
461.238	363.5
461.458	368.5
461.678	367.5
461.898	362.5
462.118	358.5
462.338	369.5
462.558	338.5
462.777	373.5
462.997	368.5
463.217	361.5
463.437	373.5
463.657	355.5
463.876	365.5
464.096	385.5
464.316	383.5
464.536	398.5
464.755	391.5
464.975	408.5
465.195	448.5
465.414	547.5
465.634	472.5
465.854	404.5
466.073	379.5
466.293	376.5
466.512	365.5
466.732	361.5
466.951	350.5
467.171	356.5
467.391	365.5
467.61	367.5
467.829	374.5
468.049	392.5
468.268	388.5
468.488	344.5
468.707	356.5
468.927	345.5
469.146	359.5
469.365	343.5
469.585	346.5
469.804	359.5
470.023	403.5
470.243	370.5
470.462	395.5
470.681	410.5
470.901	374.5
471.12	378.5
471.339	341.5
471.558	375.5
471.777	377.5
471.997	375.5
472.216	385.5
472.435	399.5
472.654	411.5
472.873	384.5
473.092	372.5
473.311	378.5
473.53	380.5
473.749	366.5
473.968	420.5
474.187	533.5
474.406	512.5
474.625	430.5
474.844	376.5
475.063	367.5
475.282	357.5
475.501	372.5
475.72	378.5
475.939	362.5
476.158	379.5
476.377	375.5
476.596	394.5
476.814	370.5
477.033	399.5
477.252	387.5
477.471	386.5
477.69	377.5
477.908	389.5
478.127	378.5
478.346	386.5
478.564	383.5
478.783	413.5
479.002	404.5
479.22	410.5
479.439	413.5
479.658	440.5
479.876	453.5
480.095	438.5
480.313	455.5
480.532	441.5
480.751	460.5
480.969	474.5
481.188	531.5
481.406	579.5
481.624	505.5
481.843	452.5
482.061	424.5
482.28	418.5
482.498	424.5
482.717	441.5
482.935	434.5
483.153	438.5
483.372	425.5
483.59	420.5
483.808	423.5
484.027	434.5
484.245	414.5
484.463	450.5
484.681	435.5
484.9	420.5
485.118	423.5
485.336	435.5
485.554	438.5
485.772	448.5
485.99	448.5
486.209	439.5
486.427	438.5
486.645	443.5
486.863	480.5
487.081	469.5
487.299	453.5
487.517	445.5
487.735	449.5
487.953	465.5
488.171	470.5
488.389	469.5
488.607	471.5
488.825	473.5
489.043	456.5
489.261	483.5
489.479	476.5
489.696	473.5
489.914	472.5
490.132	466.5
490.35	479.5
490.568	500.5
490.786	477.5
491.003	493.5
491.221	495.5
491.439	519.5
491.657	532.5
491.874	527.5
492.092	534.5
492.31	542.5
492.527	536.5
492.745	524.5
492.963	534.5
493.18	537.5
493.398	554.5
493.615	560.5
493.833	565.5
494.05	545.5
494.268	542.5
494.485	533.5
494.703	518.5
494.92	544.5
495.138	561.5
495.355	547.5
495.573	543.5
495.79	538.5
496.008	559.5
496.225	547.5
496.442	542.5
496.66	553.5
496.877	567.5
497.094	557.5
497.312	542.5
497.529	570.5
497.746	576.5
497.963	561.5
498.181	605.5
498.398	608.5
498.615	614.5
498.832	580.5
499.049	603.5
499.267	579.5
499.484	618.5
499.701	611.5
499.918	667.5
500.135	650.5
500.352	634.5
500.569	660.5
500.786	679.5
501.003	656.5
501.22	681.5
501.437	647.5
501.654	650.5
501.871	674.5
502.088	662.5
502.305	608.5
502.522	604.5
502.739	621.5
502.956	599.5
503.172	603.5
503.389	544.5
503.606	598.5
503.823	544.5
504.04	555.5
504.256	577.5
504.473	556.5
504.69	556.5
504.907	538.5
505.123	552.5
505.34	535.5
505.557	543.5
505.773	519.5
505.99	532.5
506.207	541.5
506.423	545.5
506.64	549.5
506.856	522.5
507.073	538.5
507.289	515.5
507.506	511.5
507.722	501.5
507.939	580.5
508.155	535.5
508.372	519.5
508.588	531.5
508.805	528.5
509.021	493.5
509.238	548.5
509.454	529.5
509.67	526.5
509.887	522.5
510.103	536.5
510.319	531.5
510.536	641.5
510.752	1160.5
510.968	893.5
511.184	548.5
511.401	517.5
511.617	504.5
511.833	501.5
512.049	500.5
512.265	504.5
512.481	500.5
512.698	481.5
512.914	492.5
513.13	493.5
513.346	512.5
513.562	509.5
513.778	522.5
513.994	499.5
514.21	527.5
514.426	545.5
514.642	599.5
514.858	646.5
515.074	655.5
515.29	821.5
515.506	1285.5
515.721	1001.5
515.937	641.5
516.153	581.5
516.369	531.5
516.585	523.5
516.801	517.5
517.016	515.5
517.232	518.5
517.448	519.5
517.664	521.5
517.879	499.5
518.095	507.5
518.311	492.5
518.527	488.5
518.742	488.5
518.958	486.5
519.173	510.5
519.389	493.5
519.605	518.5
519.82	521.5
520.036	506.5
