Data from 1961.PennyLincolnUp.Lamp.En5.5.200Scan.071719.P1._HRD10591_13-48-58-058.txt Node
Date: Thu Jul 18 13:48:58 EDT 2019
User: cochatt
Spectrometer: HR+D1059
Trigger mode: 1
Integration Time (sec): 1.000000E-1
Scans to average: 1
Electric dark correction enabled: true
Nonlinearity correction enabled: false
Boxcar width: 0
XAxis mode: Wavelengths
Number of Pixels in Spectrum: 2048
>>>>>Begin Spectral Data<<<<<
223.165	-21.38
223.4	-21.38
223.635	-21.38
223.869	-14.38
224.104	-7.38
224.338	-6.38
224.573	2.62
224.808	-18.38
225.042	-16.38
225.277	-11.38
225.511	-5.38
225.746	-3.38
225.98	-6.38
226.215	7.62
226.449	11.62
226.683	39.62
226.918	24.62
227.152	24.62
227.387	38.62
227.621	41.62
227.856	51.62
228.09	28.62
228.324	36.62
228.559	49.62
228.793	67.62
229.027	94.62
229.262	111.62
229.496	103.62
229.73	132.62
229.964	134.62
230.199	104.62
230.433	103.62
230.667	91.62
230.901	94.62
231.136	95.62
231.37	106.62
231.604	106.62
231.838	113.62
232.072	102.62
232.306	100.62
232.541	88.62
232.775	98.62
233.009	111.62
233.243	106.62
233.477	94.62
233.711	97.62
233.945	103.62
234.179	122.62
234.413	110.62
234.647	111.62
234.881	100.62
235.115	103.62
235.349	105.62
235.583	131.62
235.817	130.62
236.051	128.62
236.285	102.62
236.519	103.62
236.753	127.62
236.987	137.62
237.221	182.62
237.455	205.62
237.689	170.62
237.922	136.62
238.156	127.62
238.39	104.62
238.624	114.62
238.858	109.62
239.091	119.62
239.325	128.62
239.559	115.62
239.793	121.62
240.027	118.62
240.26	124.62
240.494	139.62
240.728	131.62
240.961	142.62
241.195	138.62
241.429	130.62
241.662	118.62
241.896	122.62
242.13	124.62
242.363	115.62
242.597	113.62
242.83	111.62
243.064	130.62
243.298	118.62
243.531	121.62
243.765	124.62
243.998	124.62
244.232	132.62
244.465	130.62
244.699	135.62
244.932	119.62
245.166	124.62
245.399	134.62
245.633	131.62
245.866	137.62
246.099	142.62
246.333	135.62
246.566	120.62
246.8	135.62
247.033	139.62
247.266	124.62
247.5	129.62
247.733	150.62
247.966	147.62
248.2	133.62
248.433	153.62
248.666	150.62
248.899	139.62
249.133	174.62
249.366	191.62
249.599	167.62
249.832	161.62
250.066	148.62
250.299	160.62
250.532	170.62
250.765	175.62
250.998	199.62
251.231	196.62
251.465	189.62
251.698	178.62
251.931	184.62
252.164	174.62
252.397	177.62
252.63	180.62
252.863	181.62
253.096	183.62
253.329	198.62
253.562	184.62
253.795	180.62
254.028	192.62
254.261	189.62
254.494	213.62
254.727	206.62
254.96	233.62
255.193	244.62
255.426	229.62
255.659	211.62
255.892	189.62
256.124	209.62
256.357	206.62
256.59	197.62
256.823	180.62
257.056	169.62
257.289	186.62
257.521	177.62
257.754	176.62
257.987	165.62
258.22	174.62
258.452	182.62
258.685	185.62
258.918	179.62
259.151	177.62
259.383	194.62
259.616	192.62
259.849	201.62
260.081	206.62
260.314	212.62
260.547	207.62
260.779	215.62
261.012	207.62
261.244	181.62
261.477	201.62
261.71	198.62
261.942	189.62
262.175	203.62
262.407	198.62
262.64	202.62
262.872	190.62
263.105	191.62
263.337	190.62
263.57	183.62
263.802	184.62
264.035	182.62
264.267	168.62
264.499	170.62
264.732	171.62
264.964	188.62
265.197	181.62
265.429	178.62
265.661	158.62
265.894	189.62
266.126	188.62
266.358	164.62
266.591	178.62
266.823	186.62
267.055	169.62
267.287	198.62
267.52	197.62
267.752	182.62
267.984	189.62
268.216	205.62
268.448	200.62
268.681	201.62
268.913	202.62
269.145	221.62
269.377	213.62
269.609	218.62
269.841	225.62
270.073	225.62
270.306	248.62
270.538	263.62
270.77	265.62
271.002	262.62
271.234	266.62
271.466	231.62
271.698	258.62
271.93	249.62
272.162	261.62
272.394	244.62
272.626	239.62
272.858	244.62
273.09	242.62
273.322	215.62
273.553	208.62
273.785	223.62
274.017	226.62
274.249	215.62
274.481	227.62
274.713	223.62
274.945	214.62
275.176	211.62
275.408	220.62
275.64	223.62
275.872	235.62
276.104	216.62
276.335	205.62
276.567	239.62
276.799	248.62
277.031	280.62
277.262	262.62
277.494	258.62
277.726	269.62
277.957	254.62
278.189	228.62
278.421	229.62
278.652	244.62
278.884	234.62
279.115	222.62
279.347	227.62
279.579	213.62
279.81	209.62
280.042	210.62
280.273	214.62
280.505	210.62
280.736	212.62
280.968	218.62
281.199	223.62
281.431	216.62
281.662	207.62
281.894	216.62
282.125	224.62
282.356	249.62
282.588	272.62
282.819	244.62
283.051	223.62
283.282	221.62
283.513	230.62
283.745	213.62
283.976	219.62
284.207	229.62
284.439	226.62
284.67	229.62
284.901	227.62
285.132	230.62
285.364	217.62
285.595	214.62
285.826	226.62
286.057	213.62
286.288	213.62
286.52	225.62
286.751	244.62
286.982	215.62
287.213	237.62
287.444	238.62
287.675	241.62
287.906	253.62
288.138	242.62
288.369	246.62
288.6	244.62
288.831	242.62
289.062	217.62
289.293	222.62
289.524	237.62
289.755	227.62
289.986	217.62
290.217	234.62
290.448	254.62
290.679	218.62
290.91	215.62
291.141	252.62
291.371	236.62
291.602	227.62
291.833	254.62
292.064	239.62
292.295	221.62
292.526	228.62
292.757	232.62
292.987	229.62
293.218	214.62
293.449	231.62
293.68	227.62
293.91	221.62
294.141	219.62
294.372	232.62
294.603	236.62
294.833	246.62
295.064	221.62
295.295	232.62
295.525	231.62
295.756	255.62
295.987	247.62
296.217	264.62
296.448	271.62
296.679	252.62
296.909	245.62
297.14	223.62
297.37	254.62
297.601	231.62
297.831	240.62
298.062	229.62
298.292	264.62
298.523	242.62
298.753	252.62
298.984	245.62
299.214	256.62
299.445	241.62
299.675	266.62
299.905	255.62
300.136	236.62
300.366	240.62
300.597	256.62
300.827	258.62
301.057	273.62
301.288	257.62
301.518	281.62
301.748	261.62
301.979	256.62
302.209	261.62
302.439	265.62
302.669	248.62
302.9	262.62
303.13	251.62
303.36	273.62
303.59	281.62
303.82	257.62
304.051	277.62
304.281	258.62
304.511	266.62
304.741	257.62
304.971	266.62
305.201	269.62
305.431	261.62
305.661	265.62
305.891	253.62
306.121	255.62
306.352	274.62
306.582	264.62
306.812	286.62
307.042	272.62
307.272	266.62
307.502	266.62
307.731	267.62
307.961	259.62
308.191	267.62
308.421	263.62
308.651	271.62
308.881	269.62
309.111	277.62
309.341	289.62
309.571	288.62
309.8	314.62
310.03	297.62
310.26	309.62
310.49	326.62
310.72	316.62
310.949	337.62
311.179	320.62
311.409	327.62
311.639	330.62
311.868	325.62
312.098	330.62
312.328	320.62
312.557	333.62
312.787	336.62
313.017	352.62
313.246	329.62
313.476	302.62
313.706	313.62
313.935	319.62
314.165	328.62
314.394	325.62
314.624	339.62
314.853	304.62
315.083	312.62
315.312	328.62
315.542	323.62
315.771	308.62
316.001	305.62
316.23	306.62
316.46	320.62
316.689	319.62
316.919	320.62
317.148	353.62
317.377	313.62
317.607	331.62
317.836	329.62
318.065	307.62
318.295	303.62
318.524	311.62
318.753	320.62
318.983	317.62
319.212	319.62
319.441	336.62
319.67	331.62
319.9	316.62
320.129	320.62
320.358	339.62
320.587	335.62
320.816	326.62
321.046	328.62
321.275	347.62
321.504	346.62
321.733	334.62
321.962	351.62
322.191	354.62
322.42	374.62
322.649	405.62
322.878	391.62
323.108	390.62
323.337	448.62
323.566	454.62
323.795	477.62
324.024	544.62
324.253	693.62
324.482	1024.62
324.71	1596.62
324.939	2210.62
325.168	1860.62
325.397	977.62
325.626	647.62
325.855	526.62
326.084	468.62
326.313	479.62
326.542	478.62
326.77	518.62
326.999	610.62
327.228	916.62
327.457	1368.62
327.686	1622.62
327.914	1029.62
328.143	693.62
328.372	622.62
328.6	560.62
328.829	526.62
329.058	544.62
329.287	527.62
329.515	489.62
329.744	455.62
329.972	476.62
330.201	480.62
330.43	536.62
330.658	542.62
330.887	574.62
331.115	553.62
331.344	448.62
331.572	421.62
331.801	416.62
332.03	436.62
332.258	415.62
332.486	389.62
332.715	384.62
332.943	384.62
333.172	382.62
333.4	377.62
333.629	380.62
333.857	405.62
334.085	410.62
334.314	448.62
334.542	446.62
334.771	469.62
334.999	412.62
335.227	382.62
335.455	378.62
335.684	382.62
335.912	359.62
336.14	361.62
336.369	349.62
336.597	379.62
336.825	349.62
337.053	369.62
337.281	361.62
337.51	359.62
337.738	351.62
337.966	372.62
338.194	384.62
338.422	368.62
338.65	362.62
338.878	363.62
339.106	368.62
339.334	353.62
339.562	390.62
339.79	362.62
340.018	348.62
340.246	359.62
340.474	376.62
340.702	352.62
340.93	356.62
341.158	360.62
341.386	348.62
341.614	362.62
341.842	357.62
342.07	332.62
342.298	335.62
342.526	334.62
342.754	354.62
342.981	326.62
343.209	347.62
343.437	329.62
343.665	317.62
343.893	339.62
344.12	376.62
344.348	336.62
344.576	351.62
344.804	367.62
345.031	349.62
345.259	366.62
345.487	380.62
345.714	336.62
345.942	351.62
346.17	338.62
346.397	333.62
346.625	328.62
346.853	342.62
347.08	345.62
347.308	343.62
347.535	374.62
347.763	362.62
347.99	362.62
348.218	357.62
348.445	334.62
348.673	364.62
348.9	351.62
349.128	343.62
349.355	340.62
349.583	326.62
349.81	329.62
350.037	337.62
350.265	334.62
350.492	321.62
350.72	352.62
350.947	334.62
351.174	344.62
351.402	360.62
351.629	346.62
351.856	336.62
352.083	353.62
352.311	360.62
352.538	359.62
352.765	354.62
352.992	366.62
353.22	346.62
353.447	355.62
353.674	337.62
353.901	326.62
354.128	320.62
354.355	321.62
354.583	332.62
354.81	327.62
355.037	317.62
355.264	306.62
355.491	300.62
355.718	299.62
355.945	296.62
356.172	319.62
356.399	320.62
356.626	327.62
356.853	311.62
357.08	304.62
357.307	326.62
357.534	311.62
357.761	319.62
357.988	309.62
358.215	320.62
358.441	308.62
358.668	320.62
358.895	312.62
359.122	329.62
359.349	335.62
359.576	333.62
359.802	382.62
360.029	382.62
360.256	404.62
360.483	392.62
360.709	357.62
360.936	350.62
361.163	342.62
361.39	340.62
361.616	354.62
361.843	344.62
362.07	361.62
362.296	351.62
362.523	340.62
362.749	341.62
362.976	337.62
363.203	337.62
363.429	336.62
363.656	341.62
363.882	342.62
364.109	337.62
364.335	332.62
364.562	336.62
364.788	312.62
365.015	316.62
365.241	329.62
365.468	350.62
365.694	363.62
365.92	338.62
366.147	334.62
366.373	334.62
366.599	324.62
366.826	311.62
367.052	324.62
367.278	312.62
367.505	317.62
367.731	326.62
367.957	321.62
368.184	330.62
368.41	351.62
368.636	346.62
368.862	358.62
369.089	332.62
369.315	328.62
369.541	341.62
369.767	325.62
369.993	300.62
370.219	341.62
370.445	323.62
370.672	308.62
370.898	302.62
371.124	320.62
371.35	330.62
371.576	323.62
371.802	311.62
372.028	327.62
372.254	338.62
372.48	319.62
372.706	310.62
372.932	316.62
373.158	336.62
373.384	329.62
373.61	333.62
373.835	332.62
374.061	332.62
374.287	318.62
374.513	325.62
374.739	326.62
374.965	349.62
375.191	328.62
375.416	322.62
375.642	330.62
375.868	333.62
376.094	309.62
376.319	328.62
376.545	331.62
376.771	318.62
376.997	318.62
377.222	328.62
377.448	317.62
377.674	316.62
377.899	317.62
378.125	327.62
378.35	305.62
378.576	309.62
378.802	311.62
379.027	315.62
379.253	312.62
379.478	300.62
379.704	327.62
379.929	323.62
380.155	315.62
380.38	338.62
380.606	324.62
380.831	331.62
381.057	333.62
381.282	320.62
381.507	321.62
381.733	325.62
381.958	326.62
382.184	325.62
382.409	325.62
382.634	315.62
382.86	312.62
383.085	327.62
383.31	327.62
383.535	342.62
383.761	321.62
383.986	323.62
384.211	317.62
384.436	337.62
384.662	323.62
384.887	324.62
385.112	330.62
385.337	324.62
385.562	331.62
385.787	330.62
386.013	356.62
386.238	369.62
386.463	342.62
386.688	333.62
386.913	335.62
387.138	336.62
387.363	342.62
387.588	348.62
387.813	352.62
388.038	350.62
388.263	332.62
388.488	330.62
388.713	337.62
388.938	350.62
389.163	328.62
389.387	331.62
389.612	354.62
389.837	360.62
390.062	350.62
390.287	347.62
390.512	342.62
390.736	343.62
390.961	352.62
391.186	341.62
391.411	346.62
391.636	362.62
391.86	338.62
392.085	330.62
392.31	347.62
392.534	338.62
392.759	327.62
392.984	336.62
393.208	335.62
393.433	341.62
393.658	351.62
393.882	349.62
394.107	345.62
394.331	342.62
394.556	350.62
394.78	346.62
395.005	341.62
395.229	342.62
395.454	348.62
395.678	354.62
395.903	361.62
396.127	382.62
396.352	382.62
396.576	368.62
396.801	367.62
397.025	358.62
397.249	366.62
397.474	373.62
397.698	356.62
397.922	364.62
398.147	380.62
398.371	397.62
398.595	387.62
398.82	377.62
399.044	390.62
399.268	395.62
399.492	404.62
399.717	434.62
399.941	446.62
400.165	461.62
400.389	476.62
400.613	439.62
400.837	419.62
401.062	405.62
401.286	405.62
401.51	383.62
401.734	396.62
401.958	392.62
402.182	402.62
402.406	406.62
402.63	407.62
402.854	401.62
403.078	394.62
403.302	413.62
403.526	397.62
403.75	402.62
403.974	417.62
404.198	402.62
404.422	387.62
404.645	402.62
404.869	408.62
405.093	430.62
405.317	492.62
405.541	494.62
405.765	462.62
405.988	435.62
406.212	423.62
406.436	462.62
406.66	469.62
406.883	413.62
407.107	461.62
407.331	505.62
407.555	548.62
407.778	566.62
408.002	473.62
408.226	476.62
408.449	455.62
408.673	436.62
408.896	470.62
409.12	484.62
409.344	484.62
409.567	405.62
409.791	408.62
410.014	416.62
410.238	390.62
410.461	421.62
410.685	430.62
410.908	427.62
411.132	462.62
411.355	481.62
411.578	472.62
411.802	416.62
412.025	419.62
412.249	416.62
412.472	455.62
412.695	491.62
412.919	454.62
413.142	412.62
413.365	416.62
413.589	412.62
413.812	392.62
414.035	389.62
414.258	398.62
414.482	407.62
414.705	385.62
414.928	399.62
415.151	364.62
415.374	384.62
415.597	384.62
415.821	387.62
416.044	374.62
416.267	377.62
416.49	366.62
416.713	385.62
416.936	395.62
417.159	399.62
417.382	374.62
417.605	386.62
417.828	406.62
418.051	405.62
418.274	408.62
418.497	385.62
418.72	388.62
418.943	376.62
419.166	406.62
419.389	431.62
419.611	395.62
419.834	412.62
420.057	413.62
420.28	417.62
420.503	389.62
420.726	417.62
420.948	418.62
421.171	441.62
421.394	474.62
421.617	410.62
421.839	418.62
422.062	424.62
422.285	421.62
422.507	458.62
422.73	535.62
422.953	517.62
423.175	442.62
423.398	436.62
423.621	417.62
423.843	446.62
424.066	444.62
424.288	435.62
424.511	443.62
424.733	497.62
424.956	564.62
425.178	538.62
425.401	559.62
425.623	559.62
425.846	492.62
426.068	450.62
426.291	459.62
426.513	440.62
426.735	483.62
426.958	486.62
427.18	570.62
427.402	652.62
427.625	767.62
427.847	655.62
428.069	587.62
428.292	522.62
428.514	477.62
428.736	435.62
428.958	441.62
429.181	431.62
429.403	433.62
429.625	438.62
429.847	473.62
430.069	532.62
430.292	501.62
430.514	447.62
430.736	434.62
430.958	413.62
431.18	401.62
431.402	389.62
431.624	400.62
431.846	375.62
432.068	381.62
432.29	380.62
432.512	409.62
432.734	394.62
432.956	397.62
433.178	410.62
433.4	414.62
433.622	399.62
433.844	395.62
434.066	402.62
434.287	391.62
434.509	392.62
434.731	406.62
434.953	400.62
435.175	414.62
435.397	430.62
435.618	451.62
435.84	494.62
436.062	565.62
436.284	629.62
436.505	522.62
436.727	490.62
436.949	452.62
437.17	435.62
437.392	432.62
437.614	446.62
437.835	466.62
438.057	572.62
438.278	643.62
438.5	636.62
438.721	688.62
438.943	648.62
439.165	530.62
439.386	486.62
439.608	472.62
439.829	494.62
440.05	522.62
440.272	536.62
440.493	520.62
440.715	458.62
440.936	440.62
441.158	416.62
441.379	428.62
441.6	442.62
441.822	442.62
442.043	487.62
442.264	559.62
442.486	597.62
442.707	534.62
442.928	470.62
443.149	490.62
443.371	508.62
443.592	524.62
443.813	598.62
444.034	640.62
444.255	528.62
444.476	489.62
444.698	468.62
444.919	446.62
445.14	522.62
445.361	506.62
445.582	502.62
445.803	585.62
446.024	649.62
446.245	648.62
446.466	589.62
446.687	501.62
446.908	462.62
447.129	439.62
447.35	434.62
447.571	432.62
447.792	437.62
448.013	428.62
448.234	444.62
448.455	481.62
448.675	593.62
448.896	680.62
449.117	598.62
449.338	558.62
449.559	642.62
449.779	682.62
450	583.62
450.221	480.62
450.442	438.62
450.662	441.62
450.883	414.62
451.104	443.62
451.324	433.62
451.545	434.62
451.766	416.62
451.986	388.62
452.207	368.62
452.428	389.62
452.648	382.62
452.869	394.62
453.089	399.62
453.31	399.62
453.53	390.62
453.751	394.62
453.971	405.62
454.192	420.62
454.412	400.62
454.633	395.62
454.853	368.62
455.073	388.62
455.294	400.62
455.514	489.62
455.734	452.62
455.955	372.62
456.175	344.62
456.395	373.62
456.616	376.62
456.836	360.62
457.056	353.62
457.276	344.62
457.497	376.62
457.717	370.62
457.937	364.62
458.157	369.62
458.377	370.62
458.598	373.62
458.818	456.62
459.038	508.62
459.258	536.62
459.478	444.62
459.698	418.62
459.918	377.62
460.138	395.62
460.358	395.62
460.578	400.62
460.798	409.62
461.018	413.62
461.238	394.62
461.458	396.62
461.678	400.62
461.898	403.62
462.118	386.62
462.338	403.62
462.558	388.62
462.777	378.62
462.997	415.62
463.217	407.62
463.437	416.62
463.657	400.62
463.876	403.62
464.096	409.62
464.316	410.62
464.536	434.62
464.755	425.62
464.975	423.62
465.195	490.62
465.414	573.62
465.634	478.62
465.854	441.62
466.073	414.62
466.293	408.62
466.512	399.62
466.732	389.62
466.951	397.62
467.171	382.62
467.391	406.62
467.61	412.62
467.829	403.62
468.049	409.62
468.268	413.62
468.488	393.62
468.707	372.62
468.927	378.62
469.146	385.62
469.365	377.62
469.585	389.62
469.804	404.62
470.023	406.62
470.243	391.62
470.462	402.62
470.681	424.62
470.901	430.62
471.12	420.62
471.339	380.62
471.558	406.62
471.777	401.62
471.997	392.62
472.216	412.62
472.435	466.62
472.654	442.62
472.873	403.62
473.092	376.62
473.311	409.62
473.53	403.62
473.749	418.62
473.968	450.62
474.187	558.62
474.406	553.62
474.625	461.62
474.844	425.62
475.063	398.62
475.282	404.62
475.501	400.62
475.72	406.62
475.939	423.62
476.158	411.62
476.377	400.62
476.596	410.62
476.814	402.62
477.033	408.62
477.252	426.62
477.471	421.62
477.69	423.62
477.908	419.62
478.127	440.62
478.346	416.62
478.564	407.62
478.783	439.62
479.002	432.62
479.22	456.62
479.439	466.62
479.658	467.62
479.876	475.62
480.095	478.62
480.313	482.62
480.532	479.62
480.751	485.62
480.969	515.62
481.188	562.62
481.406	602.62
481.624	552.62
481.843	514.62
482.061	494.62
482.28	488.62
482.498	496.62
482.717	451.62
482.935	449.62
483.153	473.62
483.372	476.62
483.59	456.62
483.808	451.62
484.027	472.62
484.245	480.62
484.463	461.62
484.681	476.62
484.9	466.62
485.118	493.62
485.336	489.62
485.554	470.62
485.772	476.62
485.99	481.62
486.209	497.62
486.427	473.62
486.645	498.62
486.863	533.62
487.081	520.62
487.299	508.62
487.517	510.62
487.735	494.62
487.953	500.62
488.171	497.62
488.389	531.62
488.607	508.62
488.825	502.62
489.043	501.62
489.261	484.62
489.479	511.62
489.696	503.62
489.914	504.62
490.132	529.62
490.35	519.62
490.568	512.62
490.786	521.62
491.003	552.62
491.221	546.62
491.439	582.62
491.657	579.62
491.874	564.62
492.092	612.62
492.31	561.62
492.527	546.62
492.745	575.62
492.963	567.62
493.18	584.62
493.398	596.62
493.615	591.62
493.833	591.62
494.05	572.62
494.268	577.62
494.485	583.62
494.703	583.62
494.92	589.62
495.138	572.62
495.355	599.62
495.573	599.62
495.79	581.62
496.008	590.62
496.225	560.62
496.442	591.62
496.66	586.62
496.877	594.62
497.094	597.62
497.312	580.62
497.529	599.62
497.746	603.62
497.963	609.62
498.181	651.62
498.398	632.62
498.615	664.62
498.832	642.62
499.049	657.62
499.267	680.62
499.484	663.62
499.701	691.62
499.918	694.62
500.135	716.62
500.352	734.62
500.569	709.62
500.786	726.62
501.003	751.62
501.22	734.62
501.437	744.62
501.654	726.62
501.871	743.62
502.088	719.62
