Data from 1961.PennyLincolnUp.Lamp.En5.5.200Scan.071719.P1._HRD10591_13-47-28-058.txt Node
Date: Thu Jul 18 13:47:28 EDT 2019
User: cochatt
Spectrometer: HR+D1059
Trigger mode: 1
Integration Time (sec): 1.000000E-1
Scans to average: 1
Electric dark correction enabled: true
Nonlinearity correction enabled: false
Boxcar width: 0
XAxis mode: Wavelengths
Number of Pixels in Spectrum: 2048
>>>>>Begin Spectral Data<<<<<
223.165	-11.38
223.4	-11.38
223.635	-11.38
223.869	-21.38
224.104	-27.38
224.338	-18.38
224.573	-14.38
224.808	-7.38
225.042	-12.38
225.277	9.62
225.511	1.62
225.746	-6.38
225.98	12.62
226.215	2.62
226.449	17.62
226.683	17.62
226.918	30.62
227.152	26.62
227.387	39.62
227.621	31.62
227.856	50.62
228.09	50.62
228.324	48.62
228.559	53.62
228.793	66.62
229.027	74.62
229.262	98.62
229.496	118.62
229.73	106.62
229.964	134.62
230.199	116.62
230.433	98.62
230.667	94.62
230.901	105.62
231.136	100.62
231.37	99.62
231.604	98.62
231.838	112.62
232.072	118.62
232.306	120.62
232.541	118.62
232.775	108.62
233.009	106.62
233.243	113.62
233.477	110.62
233.711	105.62
233.945	95.62
234.179	115.62
234.413	108.62
234.647	101.62
234.881	115.62
235.115	106.62
235.349	101.62
235.583	99.62
235.817	114.62
236.051	114.62
236.285	101.62
236.519	107.62
236.753	119.62
236.987	130.62
237.221	162.62
237.455	190.62
237.689	156.62
237.922	120.62
238.156	125.62
238.39	124.62
238.624	118.62
238.858	121.62
239.091	108.62
239.325	110.62
239.559	119.62
239.793	99.62
240.027	115.62
240.26	120.62
240.494	128.62
240.728	120.62
240.961	127.62
241.195	138.62
241.429	117.62
241.662	103.62
241.896	116.62
242.13	117.62
242.363	110.62
242.597	134.62
242.83	126.62
243.064	121.62
243.298	143.62
243.531	116.62
243.765	112.62
243.998	117.62
244.232	126.62
244.465	129.62
244.699	114.62
244.932	121.62
245.166	125.62
245.399	125.62
245.633	123.62
245.866	110.62
246.099	129.62
246.333	120.62
246.566	124.62
246.8	117.62
247.033	130.62
247.266	141.62
247.5	134.62
247.733	143.62
247.966	144.62
248.2	139.62
248.433	161.62
248.666	142.62
248.899	161.62
249.133	167.62
249.366	168.62
249.599	158.62
249.832	160.62
250.066	170.62
250.299	157.62
250.532	160.62
250.765	169.62
250.998	178.62
251.231	181.62
251.465	177.62
251.698	165.62
251.931	157.62
252.164	158.62
252.397	154.62
252.63	155.62
252.863	177.62
253.096	174.62
253.329	200.62
253.562	182.62
253.795	177.62
254.028	173.62
254.261	189.62
254.494	180.62
254.727	193.62
254.96	229.62
255.193	213.62
255.426	202.62
255.659	194.62
255.892	193.62
256.124	188.62
256.357	190.62
256.59	184.62
256.823	184.62
257.056	191.62
257.289	177.62
257.521	183.62
257.754	184.62
257.987	181.62
258.22	149.62
258.452	172.62
258.685	167.62
258.918	180.62
259.151	162.62
259.383	170.62
259.616	184.62
259.849	162.62
260.081	182.62
260.314	202.62
260.547	204.62
260.779	188.62
261.012	179.62
261.244	189.62
261.477	185.62
261.71	185.62
261.942	182.62
262.175	194.62
262.407	180.62
262.64	187.62
262.872	184.62
263.105	168.62
263.337	161.62
263.57	176.62
263.802	183.62
264.035	164.62
264.267	180.62
264.499	167.62
264.732	168.62
264.964	177.62
265.197	168.62
265.429	156.62
265.661	168.62
265.894	168.62
266.126	176.62
266.358	174.62
266.591	188.62
266.823	164.62
267.055	190.62
267.287	185.62
267.52	200.62
267.752	194.62
267.984	177.62
268.216	191.62
268.448	189.62
268.681	178.62
268.913	178.62
269.145	200.62
269.377	214.62
269.609	200.62
269.841	227.62
270.073	216.62
270.306	224.62
270.538	258.62
270.77	248.62
271.002	240.62
271.234	216.62
271.466	227.62
271.698	264.62
271.93	247.62
272.162	242.62
272.394	233.62
272.626	234.62
272.858	220.62
273.09	217.62
273.322	227.62
273.553	209.62
273.785	211.62
274.017	204.62
274.249	215.62
274.481	202.62
274.713	209.62
274.945	215.62
275.176	221.62
275.408	208.62
275.64	204.62
275.872	215.62
276.104	208.62
276.335	231.62
276.567	209.62
276.799	236.62
277.031	261.62
277.262	272.62
277.494	245.62
277.726	237.62
277.957	213.62
278.189	213.62
278.421	214.62
278.652	206.62
278.884	212.62
279.115	207.62
279.347	210.62
279.579	209.62
279.81	205.62
280.042	215.62
280.273	214.62
280.505	214.62
280.736	210.62
280.968	221.62
281.199	208.62
281.431	191.62
281.662	223.62
281.894	208.62
282.125	221.62
282.356	233.62
282.588	238.62
282.819	260.62
283.051	224.62
283.282	238.62
283.513	214.62
283.745	199.62
283.976	210.62
284.207	210.62
284.439	204.62
284.67	200.62
284.901	208.62
285.132	200.62
285.364	198.62
285.595	221.62
285.826	218.62
286.057	217.62
286.288	205.62
286.52	215.62
286.751	218.62
286.982	238.62
287.213	213.62
287.444	212.62
287.675	218.62
287.906	220.62
288.138	226.62
288.369	237.62
288.6	231.62
288.831	229.62
289.062	229.62
289.293	228.62
289.524	236.62
289.755	237.62
289.986	222.62
290.217	248.62
290.448	241.62
290.679	237.62
290.91	222.62
291.141	241.62
291.371	226.62
291.602	229.62
291.833	217.62
292.064	228.62
292.295	222.62
292.526	222.62
292.757	221.62
292.987	222.62
293.218	236.62
293.449	231.62
293.68	218.62
293.91	222.62
294.141	218.62
294.372	218.62
294.603	222.62
294.833	227.62
295.064	226.62
295.295	217.62
295.525	231.62
295.756	225.62
295.987	247.62
296.217	256.62
296.448	266.62
296.679	212.62
296.909	236.62
297.14	233.62
297.37	211.62
297.601	232.62
297.831	219.62
298.062	222.62
298.292	228.62
298.523	246.62
298.753	249.62
298.984	230.62
299.214	228.62
299.445	221.62
299.675	242.62
299.905	241.62
300.136	255.62
300.366	248.62
300.597	226.62
300.827	254.62
301.057	261.62
301.288	261.62
301.518	257.62
301.748	233.62
301.979	245.62
302.209	265.62
302.439	242.62
302.669	257.62
302.9	249.62
303.13	258.62
303.36	250.62
303.59	252.62
303.82	258.62
304.051	255.62
304.281	258.62
304.511	249.62
304.741	252.62
304.971	253.62
305.201	250.62
305.431	259.62
305.661	254.62
305.891	240.62
306.121	236.62
306.352	261.62
306.582	270.62
306.812	271.62
307.042	254.62
307.272	257.62
307.502	265.62
307.731	264.62
307.961	259.62
308.191	261.62
308.421	253.62
308.651	253.62
308.881	272.62
309.111	254.62
309.341	258.62
309.571	279.62
309.8	270.62
310.03	311.62
310.26	313.62
310.49	305.62
310.72	314.62
310.949	339.62
311.179	314.62
311.409	321.62
311.639	300.62
311.868	308.62
312.098	298.62
312.328	292.62
312.557	330.62
312.787	343.62
313.017	348.62
313.246	321.62
313.476	314.62
313.706	293.62
313.935	306.62
314.165	310.62
314.394	318.62
314.624	318.62
314.853	310.62
315.083	285.62
315.312	300.62
315.542	293.62
315.771	294.62
316.001	282.62
316.23	303.62
316.46	289.62
316.689	304.62
316.919	290.62
317.148	319.62
317.377	304.62
317.607	308.62
317.836	306.62
318.065	290.62
318.295	282.62
318.524	300.62
318.753	301.62
318.983	311.62
319.212	310.62
319.441	294.62
319.67	314.62
319.9	307.62
320.129	308.62
320.358	303.62
320.587	305.62
320.816	311.62
321.046	337.62
321.275	318.62
321.504	314.62
321.733	330.62
321.962	322.62
322.191	353.62
322.42	347.62
322.649	360.62
322.878	372.62
323.108	374.62
323.337	404.62
323.566	414.62
323.795	468.62
324.024	502.62
324.253	641.62
324.482	944.62
324.71	1448.62
324.939	2021.62
325.168	1711.62
325.397	914.62
325.626	583.62
325.855	481.62
326.084	452.62
326.313	439.62
326.542	440.62
326.77	495.62
326.999	574.62
327.228	831.62
327.457	1294.62
327.686	1473.62
327.914	960.62
328.143	660.62
328.372	567.62
328.6	522.62
328.829	459.62
329.058	518.62
329.287	532.62
329.515	484.62
329.744	446.62
329.972	429.62
330.201	452.62
330.43	499.62
330.658	509.62
330.887	534.62
331.115	530.62
331.344	451.62
331.572	398.62
331.801	418.62
332.03	395.62
332.258	385.62
332.486	379.62
332.715	335.62
332.943	346.62
333.172	343.62
333.4	367.62
333.629	358.62
333.857	380.62
334.085	387.62
334.314	396.62
334.542	417.62
334.771	449.62
334.999	416.62
335.227	394.62
335.455	360.62
335.684	347.62
335.912	357.62
336.14	347.62
336.369	341.62
336.597	353.62
336.825	358.62
337.053	354.62
337.281	353.62
337.51	333.62
337.738	334.62
337.966	335.62
338.194	355.62
338.422	354.62
338.65	335.62
338.878	352.62
339.106	334.62
339.334	342.62
339.562	321.62
339.79	314.62
340.018	321.62
340.246	328.62
340.474	344.62
340.702	330.62
340.93	334.62
341.158	336.62
341.386	326.62
341.614	347.62
341.842	324.62
342.07	322.62
342.298	337.62
342.526	318.62
342.754	313.62
342.981	305.62
343.209	322.62
343.437	316.62
343.665	320.62
343.893	330.62
344.12	336.62
344.348	337.62
344.576	348.62
344.804	340.62
345.031	345.62
345.259	344.62
345.487	342.62
345.714	344.62
345.942	342.62
346.17	339.62
346.397	328.62
346.625	322.62
346.853	336.62
347.08	321.62
347.308	331.62
347.535	330.62
347.763	355.62
347.99	329.62
348.218	329.62
348.445	331.62
348.673	354.62
348.9	330.62
349.128	324.62
349.355	309.62
349.583	323.62
349.81	305.62
350.037	322.62
350.265	324.62
350.492	317.62
350.72	312.62
350.947	322.62
351.174	349.62
351.402	340.62
351.629	338.62
351.856	341.62
352.083	327.62
352.311	371.62
352.538	338.62
352.765	342.62
352.992	328.62
353.22	338.62
353.447	336.62
353.674	318.62
353.901	313.62
354.128	298.62
354.355	296.62
354.583	303.62
354.81	325.62
355.037	302.62
355.264	309.62
355.491	300.62
355.718	279.62
355.945	296.62
356.172	317.62
356.399	308.62
356.626	292.62
356.853	295.62
357.08	300.62
357.307	293.62
357.534	302.62
357.761	297.62
357.988	302.62
358.215	327.62
358.441	294.62
358.668	297.62
358.895	304.62
359.122	300.62
359.349	312.62
359.576	343.62
359.802	360.62
360.029	373.62
360.256	384.62
360.483	373.62
360.709	341.62
360.936	331.62
361.163	326.62
361.39	337.62
361.616	335.62
361.843	321.62
362.07	336.62
362.296	334.62
362.523	322.62
362.749	320.62
362.976	327.62
363.203	322.62
363.429	304.62
363.656	301.62
363.882	306.62
364.109	311.62
364.335	316.62
364.562	301.62
364.788	312.62
365.015	320.62
365.241	318.62
365.468	321.62
365.694	320.62
365.92	301.62
366.147	304.62
366.373	319.62
366.599	309.62
366.826	323.62
367.052	306.62
367.278	318.62
367.505	308.62
367.731	312.62
367.957	327.62
368.184	293.62
368.41	308.62
368.636	320.62
368.862	327.62
369.089	326.62
369.315	316.62
369.541	321.62
369.767	319.62
369.993	305.62
370.219	303.62
370.445	303.62
370.672	314.62
370.898	318.62
371.124	321.62
371.35	294.62
371.576	308.62
371.802	294.62
372.028	306.62
372.254	294.62
372.48	307.62
372.706	298.62
372.932	317.62
373.158	289.62
373.384	301.62
373.61	326.62
373.835	310.62
374.061	292.62
374.287	329.62
374.513	297.62
374.739	303.62
374.965	296.62
375.191	314.62
375.416	325.62
375.642	310.62
375.868	287.62
376.094	306.62
376.319	307.62
376.545	313.62
376.771	302.62
376.997	302.62
377.222	308.62
377.448	307.62
377.674	305.62
377.899	313.62
378.125	300.62
378.35	297.62
378.576	300.62
378.802	302.62
379.027	309.62
379.253	306.62
379.478	290.62
379.704	314.62
379.929	319.62
380.155	306.62
380.38	309.62
380.606	301.62
380.831	310.62
381.057	295.62
381.282	294.62
381.507	307.62
381.733	293.62
381.958	302.62
382.184	318.62
382.409	312.62
382.634	306.62
382.86	312.62
383.085	303.62
383.31	311.62
383.535	281.62
383.761	313.62
383.986	305.62
384.211	303.62
384.436	302.62
384.662	322.62
384.887	311.62
385.112	318.62
385.337	302.62
385.562	329.62
385.787	310.62
386.013	337.62
386.238	302.62
386.463	335.62
386.688	328.62
386.913	327.62
387.138	330.62
387.363	312.62
387.588	328.62
387.813	323.62
388.038	310.62
388.263	314.62
388.488	316.62
388.713	331.62
388.938	322.62
389.163	322.62
389.387	321.62
389.612	313.62
389.837	340.62
390.062	340.62
390.287	313.62
390.512	326.62
390.736	321.62
390.961	321.62
391.186	329.62
391.411	344.62
391.636	333.62
391.86	333.62
392.085	344.62
392.31	332.62
392.534	340.62
392.759	327.62
392.984	322.62
393.208	324.62
393.433	334.62
393.658	355.62
393.882	321.62
394.107	326.62
394.331	335.62
394.556	321.62
394.78	321.62
395.005	343.62
395.229	329.62
395.454	324.62
395.678	334.62
395.903	353.62
396.127	367.62
396.352	373.62
396.576	348.62
396.801	348.62
397.025	338.62
397.249	337.62
397.474	323.62
397.698	351.62
397.922	356.62
398.147	366.62
398.371	364.62
398.595	367.62
398.82	351.62
399.044	360.62
399.268	367.62
399.492	390.62
399.717	410.62
399.941	436.62
400.165	442.62
400.389	462.62
400.613	431.62
400.837	384.62
401.062	375.62
401.286	385.62
401.51	377.62
401.734	361.62
401.958	374.62
402.182	390.62
402.406	375.62
402.63	385.62
402.854	387.62
403.078	385.62
403.302	383.62
403.526	406.62
403.75	403.62
403.974	382.62
404.198	393.62
404.422	381.62
404.645	388.62
404.869	398.62
405.093	408.62
405.317	450.62
405.541	500.62
405.765	429.62
405.988	422.62
406.212	428.62
406.436	437.62
406.66	455.62
406.883	437.62
407.107	437.62
407.331	461.62
407.555	516.62
407.778	506.62
408.002	466.62
408.226	441.62
408.449	438.62
408.673	448.62
408.896	452.62
409.12	483.62
409.344	455.62
409.567	413.62
409.791	415.62
410.014	400.62
410.238	377.62
410.461	412.62
410.685	396.62
410.908	431.62
411.132	422.62
411.355	459.62
411.578	430.62
411.802	405.62
412.025	388.62
412.249	406.62
412.472	452.62
412.695	456.62
412.919	444.62
413.142	391.62
413.365	378.62
413.589	374.62
413.812	376.62
414.035	373.62
414.258	384.62
414.482	389.62
414.705	377.62
414.928	388.62
415.151	372.62
415.374	367.62
415.597	377.62
415.821	369.62
416.044	368.62
416.267	375.62
416.49	373.62
416.713	347.62
416.936	376.62
417.159	385.62
417.382	385.62
417.605	378.62
417.828	400.62
418.051	385.62
418.274	393.62
418.497	368.62
418.72	371.62
418.943	360.62
419.166	364.62
419.389	416.62
419.611	410.62
419.834	398.62
420.057	394.62
420.28	376.62
420.503	386.62
420.726	361.62
420.948	400.62
421.171	430.62
421.394	450.62
421.617	431.62
421.839	382.62
422.062	401.62
422.285	404.62
422.507	448.62
422.73	502.62
422.953	482.62
423.175	428.62
423.398	398.62
423.621	401.62
423.843	396.62
424.066	423.62
424.288	416.62
424.511	436.62
424.733	481.62
424.956	551.62
425.178	526.62
425.401	520.62
425.623	506.62
425.846	467.62
426.068	432.62
426.291	400.62
426.513	426.62
426.735	434.62
426.958	465.62
427.18	560.62
427.402	645.62
427.625	711.62
427.847	638.62
428.069	551.62
428.292	467.62
428.514	445.62
428.736	404.62
428.958	422.62
429.181	376.62
429.403	372.62
429.625	400.62
429.847	418.62
430.069	516.62
430.292	481.62
430.514	446.62
430.736	410.62
430.958	376.62
431.18	385.62
431.402	381.62
431.624	374.62
431.846	358.62
432.068	368.62
432.29	384.62
432.512	374.62
432.734	383.62
432.956	395.62
433.178	393.62
433.4	393.62
433.622	393.62
433.844	387.62
434.066	386.62
434.287	370.62
434.509	374.62
434.731	386.62
434.953	373.62
435.175	392.62
435.397	420.62
435.618	429.62
435.84	462.62
436.062	520.62
436.284	591.62
436.505	501.62
436.727	456.62
436.949	422.62
437.17	402.62
437.392	390.62
437.614	432.62
437.835	440.62
438.057	533.62
438.278	615.62
438.5	613.62
438.721	646.62
438.943	608.62
439.165	506.62
439.386	442.62
439.608	447.62
439.829	459.62
440.05	487.62
440.272	504.62
440.493	482.62
440.715	441.62
440.936	419.62
441.158	405.62
441.379	396.62
441.6	408.62
441.822	456.62
442.043	465.62
442.264	545.62
442.486	552.62
442.707	487.62
442.928	453.62
443.149	458.62
443.371	471.62
443.592	489.62
443.813	584.62
444.034	635.62
444.255	502.62
444.476	456.62
444.698	433.62
444.919	446.62
445.14	485.62
445.361	478.62
445.582	454.62
445.803	527.62
446.024	620.62
446.245	608.62
446.466	572.62
446.687	520.62
446.908	442.62
447.129	440.62
447.35	378.62
447.571	398.62
447.792	392.62
448.013	420.62
448.234	415.62
448.455	465.62
448.675	544.62
448.896	647.62
449.117	572.62
449.338	527.62
449.559	617.62
449.779	682.62
450	571.62
450.221	456.62
450.442	416.62
450.662	387.62
450.883	410.62
451.104	434.62
451.324	411.62
451.545	394.62
451.766	396.62
451.986	362.62
452.207	368.62
452.428	366.62
452.648	375.62
452.869	364.62
453.089	390.62
453.31	376.62
453.53	375.62
453.751	373.62
453.971	385.62
454.192	407.62
454.412	388.62
454.633	392.62
454.853	353.62
455.073	344.62
455.294	394.62
455.514	465.62
455.734	444.62
455.955	380.62
456.175	364.62
456.395	343.62
456.616	350.62
456.836	335.62
457.056	355.62
457.276	344.62
457.497	353.62
457.717	338.62
457.937	336.62
458.157	347.62
458.377	357.62
458.598	368.62
458.818	433.62
459.038	498.62
459.258	522.62
459.478	424.62
459.698	395.62
459.918	374.62
460.138	366.62
460.358	386.62
460.578	380.62
460.798	391.62
461.018	393.62
461.238	375.62
461.458	368.62
461.678	382.62
461.898	378.62
462.118	372.62
462.338	375.62
462.558	390.62
462.777	395.62
462.997	385.62
463.217	383.62
463.437	412.62
463.657	388.62
463.876	391.62
464.096	383.62
464.316	410.62
464.536	399.62
464.755	397.62
464.975	425.62
465.195	447.62
465.414	528.62
465.634	450.62
465.854	412.62
466.073	386.62
466.293	389.62
466.512	384.62
466.732	374.62
466.951	366.62
467.171	368.62
467.391	374.62
467.61	389.62
467.829	388.62
468.049	392.62
468.268	393.62
468.488	377.62
468.707	354.62
468.927	338.62
469.146	355.62
469.365	359.62
469.585	361.62
469.804	376.62
470.023	386.62
470.243	374.62
470.462	374.62
470.681	416.62
470.901	396.62
471.12	394.62
471.339	381.62
471.558	396.62
471.777	393.62
471.997	365.62
472.216	379.62
472.435	435.62
472.654	404.62
472.873	394.62
473.092	375.62
473.311	388.62
473.53	392.62
473.749	396.62
473.968	395.62
474.187	495.62
474.406	534.62
474.625	442.62
474.844	409.62
475.063	390.62
475.282	379.62
475.501	380.62
475.72	385.62
475.939	381.62
476.158	421.62
476.377	392.62
476.596	385.62
476.814	394.62
477.033	385.62
477.252	402.62
477.471	407.62
477.69	385.62
477.908	414.62
478.127	399.62
478.346	403.62
478.564	409.62
478.783	409.62
479.002	420.62
479.22	413.62
479.439	451.62
479.658	460.62
479.876	450.62
480.095	448.62
480.313	467.62
480.532	453.62
480.751	465.62
480.969	467.62
481.188	513.62
481.406	582.62
481.624	514.62
481.843	465.62
482.061	445.62
482.28	454.62
482.498	460.62
482.717	462.62
482.935	444.62
483.153	444.62
483.372	444.62
483.59	444.62
483.808	441.62
484.027	449.62
484.245	451.62
484.463	431.62
484.681	453.62
484.9	455.62
485.118	455.62
485.336	467.62
485.554	463.62
485.772	465.62
485.99	466.62
486.209	468.62
486.427	460.62
486.645	454.62
486.863	476.62
487.081	510.62
487.299	480.62
487.517	486.62
487.735	487.62
487.953	489.62
488.171	475.62
488.389	474.62
488.607	466.62
488.825	485.62
489.043	496.62
489.261	478.62
489.479	460.62
489.696	489.62
489.914	480.62
490.132	467.62
490.35	492.62
490.568	497.62
490.786	510.62
491.003	511.62
491.221	517.62
491.439	520.62
491.657	520.62
491.874	526.62
492.092	526.62
492.31	543.62
492.527	536.62
492.745	529.62
492.963	537.62
493.18	538.62
493.398	560.62
493.615	574.62
493.833	564.62
494.05	543.62
494.268	558.62
494.485	553.62
494.703	556.62
494.92	560.62
495.138	564.62
495.355	554.62
495.573	585.62
495.79	562.62
496.008	574.62
496.225	572.62
496.442	575.62
496.66	555.62
496.877	562.62
497.094	579.62
497.312	570.62
497.529	568.62
497.746	574.62
497.963	581.62
498.181	603.62
498.398	592.62
498.615	608.62
498.832	597.62
499.049	617.62
499.267	649.62
499.484	633.62
499.701	663.62
499.918	666.62
500.135	675.62
500.352	716.62
500.569	710.62
500.786	717.62
501.003	691.62
501.22	694.62
501.437	691.62
501.654	690.62
501.871	693.62
502.088	669.62
