Data from 1961.PennyLincolnUp.Lamp.En5.5.200Scan.071719.P1._HRD10591_13-48-47-058.txt Node
Date: Thu Jul 18 13:48:47 EDT 2019
User: cochatt
Spectrometer: HR+D1059
Trigger mode: 1
Integration Time (sec): 1.000000E-1
Scans to average: 1
Electric dark correction enabled: true
Nonlinearity correction enabled: false
Boxcar width: 0
XAxis mode: Wavelengths
Number of Pixels in Spectrum: 2048
>>>>>Begin Spectral Data<<<<<
223.165	-8.56
223.4	-8.56
223.635	-8.56
223.869	-19.56
224.104	-1.56
224.338	-11.56
224.573	-24.56
224.808	-22.56
225.042	-7.56
225.277	-17.56
225.511	-0.56
225.746	1.44
225.98	1.44
226.215	19.44
226.449	25.44
226.683	16.44
226.918	30.44
227.152	19.44
227.387	21.44
227.621	28.44
227.856	33.44
228.09	44.44
228.324	57.44
228.559	54.44
228.793	82.44
229.027	94.44
229.262	103.44
229.496	85.44
229.73	128.44
229.964	144.44
230.199	124.44
230.433	111.44
230.667	89.44
230.901	94.44
231.136	97.44
231.37	110.44
231.604	117.44
231.838	101.44
232.072	114.44
232.306	102.44
232.541	97.44
232.775	91.44
233.009	114.44
233.243	103.44
233.477	94.44
233.711	110.44
233.945	102.44
234.179	91.44
234.413	103.44
234.647	119.44
234.881	111.44
235.115	109.44
235.349	118.44
235.583	117.44
235.817	114.44
236.051	124.44
236.285	118.44
236.519	115.44
236.753	133.44
236.987	132.44
237.221	162.44
237.455	219.44
237.689	176.44
237.922	146.44
238.156	117.44
238.39	135.44
238.624	101.44
238.858	103.44
239.091	97.44
239.325	110.44
239.559	124.44
239.793	130.44
240.027	119.44
240.26	123.44
240.494	141.44
240.728	135.44
240.961	126.44
241.195	155.44
241.429	109.44
241.662	102.44
241.896	114.44
242.13	116.44
242.363	108.44
242.597	120.44
242.83	125.44
243.064	121.44
243.298	113.44
243.531	127.44
243.765	137.44
243.998	135.44
244.232	121.44
244.465	122.44
244.699	130.44
244.932	119.44
245.166	132.44
245.399	124.44
245.633	137.44
245.866	138.44
246.099	125.44
246.333	125.44
246.566	118.44
246.8	153.44
247.033	136.44
247.266	143.44
247.5	148.44
247.733	136.44
247.966	150.44
248.2	147.44
248.433	160.44
248.666	129.44
248.899	151.44
249.133	167.44
249.366	183.44
249.599	167.44
249.832	156.44
250.066	167.44
250.299	170.44
250.532	160.44
250.765	182.44
250.998	187.44
251.231	195.44
251.465	181.44
251.698	161.44
251.931	156.44
252.164	170.44
252.397	180.44
252.63	165.44
252.863	173.44
253.096	185.44
253.329	191.44
253.562	192.44
253.795	189.44
254.028	176.44
254.261	193.44
254.494	205.44
254.727	216.44
254.96	247.44
255.193	236.44
255.426	218.44
255.659	192.44
255.892	212.44
256.124	221.44
256.357	209.44
256.59	192.44
256.823	197.44
257.056	174.44
257.289	183.44
257.521	195.44
257.754	186.44
257.987	179.44
258.22	172.44
258.452	160.44
258.685	188.44
258.918	163.44
259.151	187.44
259.383	168.44
259.616	184.44
259.849	197.44
260.081	207.44
260.314	240.44
260.547	224.44
260.779	207.44
261.012	185.44
261.244	183.44
261.477	217.44
261.71	206.44
261.942	204.44
262.175	208.44
262.407	193.44
262.64	180.44
262.872	191.44
263.105	192.44
263.337	195.44
263.57	187.44
263.802	182.44
264.035	161.44
264.267	190.44
264.499	174.44
264.732	162.44
264.964	201.44
265.197	180.44
265.429	181.44
265.661	174.44
265.894	199.44
266.126	182.44
266.358	174.44
266.591	190.44
266.823	191.44
267.055	177.44
267.287	185.44
267.52	201.44
267.752	186.44
267.984	184.44
268.216	197.44
268.448	208.44
268.681	201.44
268.913	218.44
269.145	216.44
269.377	229.44
269.609	234.44
269.841	230.44
270.073	258.44
270.306	274.44
270.538	277.44
270.77	264.44
271.002	240.44
271.234	246.44
271.466	262.44
271.698	250.44
271.93	273.44
272.162	262.44
272.394	257.44
272.626	261.44
272.858	244.44
273.09	240.44
273.322	229.44
273.553	232.44
273.785	225.44
274.017	250.44
274.249	229.44
274.481	215.44
274.713	236.44
274.945	228.44
275.176	224.44
275.408	220.44
275.64	221.44
275.872	219.44
276.104	217.44
276.335	233.44
276.567	224.44
276.799	238.44
277.031	262.44
277.262	267.44
277.494	265.44
277.726	266.44
277.957	239.44
278.189	242.44
278.421	244.44
278.652	250.44
278.884	231.44
279.115	218.44
279.347	204.44
279.579	221.44
279.81	226.44
280.042	221.44
280.273	215.44
280.505	230.44
280.736	219.44
280.968	215.44
281.199	211.44
281.431	224.44
281.662	232.44
281.894	215.44
282.125	228.44
282.356	253.44
282.588	268.44
282.819	245.44
283.051	225.44
283.282	211.44
283.513	244.44
283.745	244.44
283.976	237.44
284.207	242.44
284.439	230.44
284.67	236.44
284.901	230.44
285.132	229.44
285.364	221.44
285.595	223.44
285.826	238.44
286.057	233.44
286.288	220.44
286.52	235.44
286.751	221.44
286.982	216.44
287.213	232.44
287.444	226.44
287.675	230.44
287.906	230.44
288.138	233.44
288.369	251.44
288.6	254.44
288.831	263.44
289.062	246.44
289.293	269.44
289.524	233.44
289.755	221.44
289.986	222.44
290.217	254.44
290.448	240.44
290.679	224.44
290.91	235.44
291.141	232.44
291.371	240.44
291.602	225.44
291.833	238.44
292.064	225.44
292.295	241.44
292.526	225.44
292.757	248.44
292.987	224.44
293.218	236.44
293.449	231.44
293.68	234.44
293.91	227.44
294.141	218.44
294.372	242.44
294.603	238.44
294.833	217.44
295.064	237.44
295.295	220.44
295.525	239.44
295.756	226.44
295.987	264.44
296.217	287.44
296.448	267.44
296.679	257.44
296.909	243.44
297.14	230.44
297.37	234.44
297.601	259.44
297.831	229.44
298.062	240.44
298.292	250.44
298.523	257.44
298.753	238.44
298.984	253.44
299.214	244.44
299.445	247.44
299.675	255.44
299.905	256.44
300.136	239.44
300.366	252.44
300.597	251.44
300.827	263.44
301.057	256.44
301.288	259.44
301.518	287.44
301.748	257.44
301.979	258.44
302.209	268.44
302.439	265.44
302.669	256.44
302.9	276.44
303.13	270.44
303.36	262.44
303.59	265.44
303.82	272.44
304.051	282.44
304.281	278.44
304.511	284.44
304.741	266.44
304.971	270.44
305.201	288.44
305.431	270.44
305.661	270.44
305.891	267.44
306.121	274.44
306.352	269.44
306.582	272.44
306.812	283.44
307.042	273.44
307.272	259.44
307.502	274.44
307.731	270.44
307.961	275.44
308.191	272.44
308.421	277.44
308.651	284.44
308.881	284.44
309.111	273.44
309.341	287.44
309.571	291.44
309.8	293.44
310.03	308.44
310.26	316.44
310.49	318.44
310.72	333.44
310.949	337.44
311.179	341.44
311.409	320.44
311.639	322.44
311.868	323.44
312.098	325.44
312.328	331.44
312.557	331.44
312.787	349.44
313.017	345.44
313.246	337.44
313.476	330.44
313.706	324.44
313.935	334.44
314.165	336.44
314.394	346.44
314.624	345.44
314.853	316.44
315.083	312.44
315.312	333.44
315.542	302.44
315.771	288.44
316.001	290.44
316.23	307.44
316.46	316.44
316.689	328.44
316.919	322.44
317.148	320.44
317.377	344.44
317.607	318.44
317.836	356.44
318.065	307.44
318.295	328.44
318.524	297.44
318.753	314.44
318.983	309.44
319.212	323.44
319.441	335.44
319.67	351.44
319.9	339.44
320.129	334.44
320.358	307.44
320.587	326.44
320.816	346.44
321.046	346.44
321.275	352.44
321.504	335.44
321.733	335.44
321.962	353.44
322.191	376.44
322.42	390.44
322.649	386.44
322.878	405.44
323.108	415.44
323.337	461.44
323.566	456.44
323.795	521.44
324.024	580.44
324.253	713.44
324.482	1081.44
324.71	1681.44
324.939	2301.44
325.168	1921.44
325.397	975.44
325.626	655.44
325.855	533.44
326.084	485.44
326.313	473.44
326.542	472.44
326.77	541.44
326.999	644.44
327.228	942.44
327.457	1424.44
327.686	1686.44
327.914	1113.44
328.143	727.44
328.372	615.44
328.6	569.44
328.829	558.44
329.058	547.44
329.287	556.44
329.515	510.44
329.744	472.44
329.972	486.44
330.201	505.44
330.43	525.44
330.658	569.44
330.887	597.44
331.115	573.44
331.344	472.44
331.572	446.44
331.801	446.44
332.03	431.44
332.258	412.44
332.486	399.44
332.715	393.44
332.943	382.44
333.172	372.44
333.4	366.44
333.629	387.44
333.857	389.44
334.085	447.44
334.314	418.44
334.542	476.44
334.771	514.44
334.999	430.44
335.227	409.44
335.455	400.44
335.684	369.44
335.912	372.44
336.14	358.44
336.369	376.44
336.597	384.44
336.825	395.44
337.053	382.44
337.281	371.44
337.51	358.44
337.738	356.44
337.966	371.44
338.194	364.44
338.422	371.44
338.65	377.44
338.878	373.44
339.106	349.44
339.334	352.44
339.562	341.44
339.79	353.44
340.018	343.44
340.246	372.44
340.474	391.44
340.702	366.44
340.93	371.44
341.158	342.44
341.386	347.44
341.614	359.44
341.842	351.44
342.07	354.44
342.298	329.44
342.526	344.44
342.754	353.44
342.981	350.44
343.209	356.44
343.437	345.44
343.665	349.44
343.893	354.44
344.12	360.44
344.348	333.44
344.576	362.44
344.804	373.44
345.031	387.44
345.259	369.44
345.487	360.44
345.714	381.44
345.942	372.44
346.17	361.44
346.397	345.44
346.625	323.44
346.853	366.44
347.08	348.44
347.308	358.44
347.535	353.44
347.763	377.44
347.99	365.44
348.218	366.44
348.445	371.44
348.673	351.44
348.9	340.44
349.128	349.44
349.355	337.44
349.583	351.44
349.81	326.44
350.037	343.44
350.265	330.44
350.492	340.44
350.72	361.44
350.947	353.44
351.174	376.44
351.402	351.44
351.629	370.44
351.856	355.44
352.083	372.44
352.311	388.44
352.538	352.44
352.765	379.44
352.992	387.44
353.22	343.44
353.447	347.44
353.674	337.44
353.901	344.44
354.128	322.44
354.355	328.44
354.583	346.44
354.81	324.44
355.037	320.44
355.264	321.44
355.491	309.44
355.718	306.44
355.945	288.44
356.172	313.44
356.399	294.44
356.626	320.44
356.853	320.44
357.08	310.44
357.307	310.44
357.534	315.44
357.761	321.44
357.988	314.44
358.215	332.44
358.441	328.44
358.668	302.44
358.895	324.44
359.122	335.44
359.349	346.44
359.576	355.44
359.802	370.44
360.029	420.44
360.256	400.44
360.483	378.44
360.709	376.44
360.936	365.44
361.163	332.44
361.39	345.44
361.616	366.44
361.843	355.44
362.07	361.44
362.296	360.44
362.523	349.44
362.749	343.44
362.976	343.44
363.203	326.44
363.429	327.44
363.656	331.44
363.882	331.44
364.109	345.44
364.335	318.44
364.562	338.44
364.788	334.44
365.015	338.44
365.241	351.44
365.468	342.44
365.694	336.44
365.92	330.44
366.147	325.44
366.373	339.44
366.599	319.44
366.826	313.44
367.052	330.44
367.278	329.44
367.505	322.44
367.731	335.44
367.957	328.44
368.184	309.44
368.41	334.44
368.636	336.44
368.862	352.44
369.089	341.44
369.315	330.44
369.541	320.44
369.767	310.44
369.993	308.44
370.219	326.44
370.445	333.44
370.672	306.44
370.898	324.44
371.124	316.44
371.35	325.44
371.576	318.44
371.802	327.44
372.028	300.44
372.254	325.44
372.48	332.44
372.706	339.44
372.932	332.44
373.158	317.44
373.384	303.44
373.61	328.44
373.835	334.44
374.061	338.44
374.287	324.44
374.513	309.44
374.739	325.44
374.965	335.44
375.191	337.44
375.416	312.44
375.642	321.44
375.868	316.44
376.094	314.44
376.319	326.44
376.545	324.44
376.771	316.44
376.997	301.44
377.222	329.44
377.448	317.44
377.674	308.44
377.899	312.44
378.125	333.44
378.35	302.44
378.576	293.44
378.802	306.44
379.027	307.44
379.253	322.44
379.478	298.44
379.704	306.44
379.929	304.44
380.155	338.44
380.38	332.44
380.606	329.44
380.831	316.44
381.057	329.44
381.282	310.44
381.507	325.44
381.733	326.44
381.958	288.44
382.184	328.44
382.409	320.44
382.634	336.44
382.86	315.44
383.085	310.44
383.31	336.44
383.535	337.44
383.761	324.44
383.986	323.44
384.211	336.44
384.436	347.44
384.662	326.44
384.887	327.44
385.112	319.44
385.337	327.44
385.562	335.44
385.787	342.44
386.013	343.44
386.238	350.44
386.463	356.44
386.688	341.44
386.913	349.44
387.138	339.44
387.363	332.44
387.588	344.44
387.813	343.44
388.038	341.44
388.263	346.44
388.488	342.44
388.713	340.44
388.938	344.44
389.163	361.44
389.387	344.44
389.612	355.44
389.837	358.44
390.062	346.44
390.287	357.44
390.512	329.44
390.736	334.44
390.961	329.44
391.186	341.44
391.411	344.44
391.636	351.44
391.86	342.44
392.085	343.44
392.31	350.44
392.534	329.44
392.759	327.44
392.984	335.44
393.208	325.44
393.433	354.44
393.658	345.44
393.882	341.44
394.107	344.44
394.331	344.44
394.556	349.44
394.78	336.44
395.005	337.44
395.229	343.44
395.454	351.44
395.678	355.44
395.903	362.44
396.127	371.44
396.352	391.44
396.576	358.44
396.801	376.44
397.025	358.44
397.249	361.44
397.474	371.44
397.698	382.44
397.922	388.44
398.147	400.44
398.371	383.44
398.595	380.44
398.82	389.44
399.044	388.44
399.268	396.44
399.492	411.44
399.717	428.44
399.941	443.44
400.165	480.44
400.389	482.44
400.613	437.44
400.837	414.44
401.062	413.44
401.286	395.44
401.51	397.44
401.734	397.44
401.958	401.44
402.182	405.44
402.406	399.44
402.63	409.44
402.854	397.44
403.078	399.44
403.302	409.44
403.526	416.44
403.75	398.44
403.974	414.44
404.198	391.44
404.422	422.44
404.645	430.44
404.869	428.44
405.093	457.44
405.317	474.44
405.541	476.44
405.765	455.44
405.988	436.44
406.212	450.44
406.436	460.44
406.66	474.44
406.883	468.44
407.107	459.44
407.331	486.44
407.555	550.44
407.778	553.44
408.002	470.44
408.226	473.44
408.449	470.44
408.673	451.44
408.896	478.44
409.12	496.44
409.344	487.44
409.567	422.44
409.791	400.44
410.014	420.44
410.238	415.44
410.461	404.44
410.685	412.44
410.908	434.44
411.132	487.44
411.355	522.44
411.578	460.44
411.802	440.44
412.025	423.44
412.249	414.44
412.472	454.44
412.695	497.44
412.919	492.44
413.142	426.44
413.365	412.44
413.589	387.44
413.812	393.44
414.035	406.44
414.258	410.44
414.482	399.44
414.705	377.44
414.928	384.44
415.151	397.44
415.374	370.44
415.597	388.44
415.821	384.44
416.044	387.44
416.267	392.44
416.49	383.44
416.713	384.44
416.936	377.44
417.159	386.44
417.382	379.44
417.605	386.44
417.828	400.44
418.051	428.44
418.274	398.44
418.497	409.44
418.72	391.44
418.943	410.44
419.166	406.44
419.389	413.44
419.611	418.44
419.834	398.44
420.057	399.44
420.28	391.44
420.503	401.44
420.726	418.44
420.948	445.44
421.171	462.44
421.394	456.44
421.617	437.44
421.839	404.44
422.062	416.44
422.285	416.44
422.507	468.44
422.73	535.44
422.953	495.44
423.175	439.44
423.398	425.44
423.621	433.44
423.843	429.44
424.066	443.44
424.288	461.44
424.511	465.44
424.733	535.44
424.956	588.44
425.178	546.44
425.401	574.44
425.623	580.44
425.846	498.44
426.068	460.44
426.291	425.44
426.513	463.44
426.735	435.44
426.958	518.44
427.18	583.44
427.402	680.44
427.625	762.44
427.847	681.44
428.069	596.44
428.292	519.44
428.514	480.44
428.736	452.44
428.958	455.44
429.181	422.44
429.403	448.44
429.625	432.44
429.847	459.44
430.069	514.44
430.292	519.44
430.514	445.44
430.736	418.44
430.958	394.44
431.18	402.44
431.402	382.44
431.624	398.44
431.846	388.44
432.068	382.44
432.29	406.44
432.512	401.44
432.734	384.44
432.956	399.44
433.178	426.44
433.4	419.44
433.622	409.44
433.844	404.44
434.066	380.44
434.287	393.44
434.509	398.44
434.731	407.44
434.953	404.44
435.175	425.44
435.397	439.44
435.618	438.44
435.84	506.44
436.062	579.44
436.284	637.44
436.505	519.44
436.727	466.44
436.949	450.44
437.17	431.44
437.392	430.44
437.614	432.44
437.835	466.44
438.057	588.44
438.278	652.44
438.5	653.44
438.721	689.44
438.943	642.44
439.165	549.44
439.386	481.44
439.608	502.44
439.829	474.44
440.05	522.44
440.272	547.44
440.493	514.44
440.715	468.44
440.936	447.44
441.158	433.44
441.379	430.44
441.6	441.44
441.822	450.44
442.043	511.44
442.264	574.44
442.486	589.44
442.707	513.44
442.928	486.44
443.149	464.44
443.371	529.44
443.592	558.44
443.813	626.44
444.034	655.44
444.255	548.44
444.476	487.44
444.698	473.44
444.919	460.44
445.14	544.44
445.361	508.44
445.582	506.44
445.803	575.44
446.024	670.44
446.245	655.44
446.466	621.44
446.687	533.44
446.908	466.44
447.129	432.44
447.35	453.44
447.571	453.44
447.792	418.44
448.013	451.44
448.234	444.44
448.455	485.44
448.675	612.44
448.896	695.44
449.117	584.44
449.338	589.44
449.559	659.44
449.779	706.44
450	576.44
450.221	485.44
450.442	445.44
450.662	425.44
450.883	446.44
451.104	483.44
451.324	455.44
451.545	429.44
451.766	386.44
451.986	415.44
452.207	370.44
452.428	376.44
452.648	394.44
452.869	404.44
453.089	401.44
453.31	406.44
453.53	405.44
453.751	393.44
453.971	387.44
454.192	415.44
454.412	404.44
454.633	420.44
454.853	383.44
455.073	389.44
455.294	422.44
455.514	469.44
455.734	462.44
455.955	397.44
456.175	381.44
456.395	368.44
456.616	384.44
456.836	349.44
457.056	356.44
457.276	344.44
457.497	381.44
457.717	351.44
457.937	348.44
458.157	365.44
458.377	372.44
458.598	414.44
458.818	451.44
459.038	582.44
459.258	554.44
459.478	451.44
459.698	434.44
459.918	405.44
460.138	396.44
460.358	398.44
460.578	394.44
460.798	400.44
461.018	411.44
461.238	396.44
461.458	394.44
461.678	401.44
461.898	391.44
462.118	394.44
462.338	397.44
462.558	410.44
462.777	402.44
462.997	405.44
463.217	393.44
463.437	428.44
463.657	412.44
463.876	428.44
464.096	419.44
464.316	398.44
464.536	410.44
464.755	402.44
464.975	453.44
465.195	486.44
465.414	566.44
465.634	476.44
465.854	434.44
466.073	450.44
466.293	413.44
466.512	395.44
466.732	384.44
466.951	394.44
467.171	401.44
467.391	394.44
467.61	425.44
467.829	404.44
468.049	413.44
468.268	431.44
468.488	407.44
468.707	393.44
468.927	390.44
469.146	380.44
469.365	362.44
469.585	380.44
469.804	383.44
470.023	407.44
470.243	406.44
470.462	415.44
470.681	428.44
470.901	412.44
471.12	375.44
471.339	407.44
471.558	401.44
471.777	395.44
471.997	377.44
472.216	403.44
472.435	440.44
472.654	423.44
472.873	421.44
473.092	382.44
473.311	402.44
473.53	410.44
473.749	411.44
473.968	453.44
474.187	537.44
474.406	567.44
474.625	463.44
474.844	413.44
475.063	393.44
475.282	410.44
475.501	387.44
475.72	397.44
475.939	420.44
476.158	408.44
476.377	392.44
476.596	420.44
476.814	415.44
477.033	444.44
477.252	433.44
477.471	428.44
477.69	432.44
477.908	439.44
478.127	442.44
478.346	418.44
478.564	451.44
478.783	430.44
479.002	464.44
479.22	440.44
479.439	438.44
479.658	481.44
479.876	495.44
480.095	487.44
480.313	501.44
480.532	484.44
480.751	478.44
480.969	506.44
481.188	605.44
481.406	616.44
481.624	552.44
481.843	507.44
482.061	500.44
482.28	494.44
482.498	465.44
482.717	493.44
482.935	460.44
483.153	495.44
483.372	473.44
483.59	457.44
483.808	442.44
484.027	450.44
484.245	471.44
484.463	476.44
484.681	473.44
484.9	463.44
485.118	482.44
485.336	492.44
485.554	474.44
485.772	472.44
485.99	467.44
486.209	476.44
486.427	496.44
486.645	502.44
486.863	559.44
487.081	535.44
487.299	508.44
487.517	518.44
487.735	499.44
487.953	502.44
488.171	514.44
488.389	495.44
488.607	517.44
488.825	512.44
489.043	483.44
489.261	523.44
489.479	534.44
489.696	527.44
489.914	501.44
490.132	500.44
490.35	523.44
490.568	532.44
490.786	521.44
491.003	528.44
491.221	569.44
491.439	543.44
491.657	574.44
491.874	576.44
492.092	566.44
492.31	606.44
492.527	592.44
492.745	566.44
492.963	585.44
493.18	585.44
493.398	596.44
493.615	605.44
493.833	592.44
494.05	585.44
494.268	589.44
494.485	585.44
494.703	606.44
494.92	585.44
495.138	601.44
495.355	585.44
495.573	586.44
495.79	608.44
496.008	599.44
496.225	595.44
496.442	602.44
496.66	623.44
496.877	601.44
497.094	604.44
497.312	596.44
497.529	589.44
497.746	632.44
497.963	639.44
498.181	630.44
498.398	641.44
498.615	639.44
498.832	656.44
499.049	645.44
499.267	665.44
499.484	687.44
499.701	705.44
499.918	703.44
500.135	695.44
500.352	729.44
500.569	743.44
500.786	758.44
501.003	753.44
501.22	734.44
501.437	749.44
501.654	733.44
501.871	749.44
502.088	682.44
