Data from 1961.PennyLincolnUp.Lamp.En5.5.200Scan.071719.P1._HRD10591_13-46-55-057.txt Node
Date: Thu Jul 18 13:46:55 EDT 2019
User: cochatt
Spectrometer: HR+D1059
Trigger mode: 1
Integration Time (sec): 1.000000E-1
Scans to average: 1
Electric dark correction enabled: true
Nonlinearity correction enabled: false
Boxcar width: 0
XAxis mode: Wavelengths
Number of Pixels in Spectrum: 2048
>>>>>Begin Spectral Data<<<<<
223.165	4.31
223.4	4.31
223.635	4.31
223.869	-20.69
224.104	-13.69
224.338	-25.69
224.573	-23.69
224.808	-11.69
225.042	0.31
225.277	-0.69
225.511	-15.69
225.746	-5.69
225.98	7.31
226.215	17.31
226.449	20.31
226.683	11.31
226.918	22.31
227.152	34.31
227.387	37.31
227.621	40.31
227.856	45.31
228.09	44.31
228.324	48.31
228.559	55.31
228.793	59.31
229.027	76.31
229.262	99.31
229.496	103.31
229.73	120.31
229.964	124.31
230.199	125.31
230.433	105.31
230.667	91.31
230.901	89.31
231.136	108.31
231.37	96.31
231.604	105.31
231.838	98.31
232.072	101.31
232.306	98.31
232.541	116.31
232.775	99.31
233.009	106.31
233.243	96.31
233.477	116.31
233.711	111.31
233.945	102.31
234.179	110.31
234.413	110.31
234.647	101.31
234.881	104.31
235.115	94.31
235.349	103.31
235.583	120.31
235.817	110.31
236.051	104.31
236.285	120.31
236.519	109.31
236.753	113.31
236.987	143.31
237.221	158.31
237.455	199.31
237.689	158.31
237.922	124.31
238.156	116.31
238.39	111.31
238.624	111.31
238.858	115.31
239.091	116.31
239.325	103.31
239.559	98.31
239.793	120.31
240.027	126.31
240.26	116.31
240.494	127.31
240.728	133.31
240.961	135.31
241.195	105.31
241.429	105.31
241.662	123.31
241.896	112.31
242.13	120.31
242.363	120.31
242.597	123.31
242.83	118.31
243.064	118.31
243.298	133.31
243.531	112.31
243.765	132.31
243.998	124.31
244.232	131.31
244.465	115.31
244.699	127.31
244.932	138.31
245.166	112.31
245.399	132.31
245.633	130.31
245.866	130.31
246.099	131.31
246.333	132.31
246.566	136.31
246.8	128.31
247.033	133.31
247.266	122.31
247.5	139.31
247.733	132.31
247.966	140.31
248.2	139.31
248.433	139.31
248.666	144.31
248.899	160.31
249.133	151.31
249.366	167.31
249.599	159.31
249.832	148.31
250.066	151.31
250.299	148.31
250.532	151.31
250.765	156.31
250.998	190.31
251.231	176.31
251.465	178.31
251.698	166.31
251.931	170.31
252.164	156.31
252.397	160.31
252.63	163.31
252.863	154.31
253.096	170.31
253.329	185.31
253.562	166.31
253.795	183.31
254.028	164.31
254.261	168.31
254.494	178.31
254.727	207.31
254.96	229.31
255.193	203.31
255.426	171.31
255.659	191.31
255.892	182.31
256.124	184.31
256.357	192.31
256.59	183.31
256.823	182.31
257.056	164.31
257.289	170.31
257.521	178.31
257.754	160.31
257.987	157.31
258.22	165.31
258.452	162.31
258.685	164.31
258.918	146.31
259.151	178.31
259.383	184.31
259.616	176.31
259.849	184.31
260.081	202.31
260.314	191.31
260.547	194.31
260.779	196.31
261.012	185.31
261.244	181.31
261.477	182.31
261.71	188.31
261.942	182.31
262.175	185.31
262.407	180.31
262.64	175.31
262.872	174.31
263.105	171.31
263.337	206.31
263.57	182.31
263.802	166.31
264.035	187.31
264.267	180.31
264.499	171.31
264.732	183.31
264.964	168.31
265.197	187.31
265.429	168.31
265.661	174.31
265.894	166.31
266.126	196.31
266.358	179.31
266.591	182.31
266.823	182.31
267.055	181.31
267.287	170.31
267.52	182.31
267.752	184.31
267.984	190.31
268.216	185.31
268.448	200.31
268.681	195.31
268.913	196.31
269.145	203.31
269.377	208.31
269.609	207.31
269.841	208.31
270.073	210.31
270.306	232.31
270.538	256.31
270.77	232.31
271.002	248.31
271.234	215.31
271.466	222.31
271.698	246.31
271.93	241.31
272.162	239.31
272.394	245.31
272.626	225.31
272.858	213.31
273.09	226.31
273.322	210.31
273.553	216.31
273.785	188.31
274.017	215.31
274.249	212.31
274.481	209.31
274.713	206.31
274.945	204.31
275.176	210.31
275.408	202.31
275.64	215.31
275.872	203.31
276.104	204.31
276.335	206.31
276.567	228.31
276.799	205.31
277.031	233.31
277.262	238.31
277.494	244.31
277.726	231.31
277.957	220.31
278.189	213.31
278.421	213.31
278.652	214.31
278.884	211.31
279.115	229.31
279.347	217.31
279.579	219.31
279.81	203.31
280.042	213.31
280.273	206.31
280.505	199.31
280.736	195.31
280.968	197.31
281.199	215.31
281.431	198.31
281.662	216.31
281.894	190.31
282.125	218.31
282.356	229.31
282.588	231.31
282.819	230.31
283.051	225.31
283.282	201.31
283.513	227.31
283.745	208.31
283.976	212.31
284.207	222.31
284.439	219.31
284.67	228.31
284.901	209.31
285.132	209.31
285.364	217.31
285.595	204.31
285.826	218.31
286.057	203.31
286.288	210.31
286.52	214.31
286.751	209.31
286.982	201.31
287.213	214.31
287.444	204.31
287.675	214.31
287.906	214.31
288.138	218.31
288.369	233.31
288.6	232.31
288.831	226.31
289.062	239.31
289.293	224.31
289.524	226.31
289.755	231.31
289.986	214.31
290.217	211.31
290.448	221.31
290.679	212.31
290.91	219.31
291.141	211.31
291.371	220.31
291.602	231.31
291.833	226.31
292.064	226.31
292.295	230.31
292.526	236.31
292.757	207.31
292.987	218.31
293.218	227.31
293.449	210.31
293.68	217.31
293.91	228.31
294.141	210.31
294.372	220.31
294.603	205.31
294.833	216.31
295.064	229.31
295.295	217.31
295.525	219.31
295.756	214.31
295.987	226.31
296.217	265.31
296.448	266.31
296.679	245.31
296.909	229.31
297.14	233.31
297.37	210.31
297.601	235.31
297.831	219.31
298.062	211.31
298.292	231.31
298.523	227.31
298.753	238.31
298.984	239.31
299.214	225.31
299.445	225.31
299.675	235.31
299.905	236.31
300.136	242.31
300.366	243.31
300.597	242.31
300.827	238.31
301.057	258.31
301.288	247.31
301.518	241.31
301.748	248.31
301.979	247.31
302.209	264.31
302.439	226.31
302.669	243.31
302.9	254.31
303.13	233.31
303.36	260.31
303.59	248.31
303.82	263.31
304.051	255.31
304.281	242.31
304.511	226.31
304.741	254.31
304.971	250.31
305.201	257.31
305.431	263.31
305.661	248.31
305.891	257.31
306.121	251.31
306.352	232.31
306.582	253.31
306.812	268.31
307.042	253.31
307.272	245.31
307.502	254.31
307.731	244.31
307.961	259.31
308.191	244.31
308.421	262.31
308.651	270.31
308.881	257.31
309.111	268.31
309.341	266.31
309.571	274.31
309.8	296.31
310.03	282.31
310.26	303.31
310.49	289.31
310.72	281.31
310.949	280.31
311.179	300.31
311.409	296.31
311.639	291.31
311.868	318.31
312.098	310.31
312.328	310.31
312.557	310.31
312.787	317.31
313.017	314.31
313.246	320.31
313.476	292.31
313.706	299.31
313.935	292.31
314.165	311.31
314.394	308.31
314.624	306.31
314.853	299.31
315.083	284.31
315.312	294.31
315.542	289.31
315.771	283.31
316.001	287.31
316.23	258.31
316.46	278.31
316.689	299.31
316.919	292.31
317.148	288.31
317.377	310.31
317.607	304.31
317.836	296.31
318.065	306.31
318.295	299.31
318.524	299.31
318.753	312.31
318.983	297.31
319.212	289.31
319.441	295.31
319.67	296.31
319.9	297.31
320.129	305.31
320.358	292.31
320.587	293.31
320.816	310.31
321.046	315.31
321.275	309.31
321.504	305.31
321.733	339.31
321.962	311.31
322.191	323.31
322.42	350.31
322.649	368.31
322.878	356.31
323.108	364.31
323.337	400.31
323.566	408.31
323.795	427.31
324.024	454.31
324.253	583.31
324.482	840.31
324.71	1315.31
324.939	1810.31
325.168	1578.31
325.397	819.31
325.626	536.31
325.855	463.31
326.084	411.31
326.313	413.31
326.542	410.31
326.77	454.31
326.999	549.31
327.228	801.31
327.457	1107.31
327.686	1363.31
327.914	896.31
328.143	601.31
328.372	528.31
328.6	497.31
328.829	476.31
329.058	478.31
329.287	479.31
329.515	474.31
329.744	400.31
329.972	414.31
330.201	438.31
330.43	453.31
330.658	478.31
330.887	496.31
331.115	468.31
331.344	413.31
331.572	396.31
331.801	400.31
332.03	398.31
332.258	380.31
332.486	348.31
332.715	352.31
332.943	352.31
333.172	360.31
333.4	361.31
333.629	345.31
333.857	363.31
334.085	378.31
334.314	384.31
334.542	414.31
334.771	451.31
334.999	386.31
335.227	366.31
335.455	357.31
335.684	374.31
335.912	355.31
336.14	324.31
336.369	328.31
336.597	346.31
336.825	343.31
337.053	349.31
337.281	344.31
337.51	336.31
337.738	343.31
337.966	308.31
338.194	332.31
338.422	348.31
338.65	339.31
338.878	332.31
339.106	329.31
339.334	306.31
339.562	343.31
339.79	325.31
340.018	332.31
340.246	336.31
340.474	364.31
340.702	330.31
340.93	342.31
341.158	334.31
341.386	335.31
341.614	347.31
341.842	340.31
342.07	341.31
342.298	324.31
342.526	319.31
342.754	321.31
342.981	294.31
343.209	308.31
343.437	320.31
343.665	322.31
343.893	331.31
344.12	327.31
344.348	319.31
344.576	317.31
344.804	347.31
345.031	334.31
345.259	360.31
345.487	340.31
345.714	340.31
345.942	328.31
346.17	326.31
346.397	333.31
346.625	316.31
346.853	322.31
347.08	329.31
347.308	322.31
347.535	350.31
347.763	347.31
347.99	343.31
348.218	330.31
348.445	318.31
348.673	331.31
348.9	320.31
349.128	315.31
349.355	314.31
349.583	312.31
349.81	336.31
350.037	320.31
350.265	311.31
350.492	306.31
350.72	302.31
350.947	337.31
351.174	330.31
351.402	328.31
351.629	326.31
351.856	320.31
352.083	330.31
352.311	339.31
352.538	343.31
352.765	352.31
352.992	360.31
353.22	339.31
353.447	317.31
353.674	319.31
353.901	299.31
354.128	312.31
354.355	314.31
354.583	307.31
354.81	314.31
355.037	298.31
355.264	289.31
355.491	311.31
355.718	300.31
355.945	286.31
356.172	292.31
356.399	279.31
356.626	284.31
356.853	281.31
357.08	299.31
357.307	285.31
357.534	300.31
357.761	281.31
357.988	280.31
358.215	317.31
358.441	296.31
358.668	302.31
358.895	302.31
359.122	314.31
359.349	297.31
359.576	330.31
359.802	342.31
360.029	369.31
360.256	374.31
360.483	354.31
360.709	330.31
360.936	316.31
361.163	330.31
361.39	315.31
361.616	308.31
361.843	330.31
362.07	327.31
362.296	348.31
362.523	319.31
362.749	322.31
362.976	312.31
363.203	319.31
363.429	315.31
363.656	307.31
363.882	320.31
364.109	296.31
364.335	310.31
364.562	315.31
364.788	333.31
365.015	326.31
365.241	334.31
365.468	318.31
365.694	322.31
365.92	301.31
366.147	300.31
366.373	312.31
366.599	322.31
366.826	318.31
367.052	294.31
367.278	313.31
367.505	291.31
367.731	322.31
367.957	315.31
368.184	330.31
368.41	312.31
368.636	329.31
368.862	330.31
369.089	320.31
369.315	308.31
369.541	306.31
369.767	300.31
369.993	297.31
370.219	295.31
370.445	312.31
370.672	294.31
370.898	297.31
371.124	295.31
371.35	313.31
371.576	316.31
371.802	284.31
372.028	303.31
372.254	316.31
372.48	296.31
372.706	295.31
372.932	302.31
373.158	306.31
373.384	311.31
373.61	303.31
373.835	309.31
374.061	283.31
374.287	306.31
374.513	304.31
374.739	291.31
374.965	310.31
375.191	304.31
375.416	302.31
375.642	316.31
375.868	316.31
376.094	313.31
376.319	301.31
376.545	326.31
376.771	309.31
376.997	305.31
377.222	311.31
377.448	299.31
377.674	316.31
377.899	313.31
378.125	305.31
378.35	291.31
378.576	306.31
378.802	302.31
379.027	302.31
379.253	323.31
379.478	307.31
379.704	302.31
379.929	295.31
380.155	294.31
380.38	322.31
380.606	306.31
380.831	299.31
381.057	310.31
381.282	309.31
381.507	327.31
381.733	315.31
381.958	312.31
382.184	293.31
382.409	320.31
382.634	308.31
382.86	294.31
383.085	306.31
383.31	318.31
383.535	310.31
383.761	314.31
383.986	325.31
384.211	324.31
384.436	318.31
384.662	322.31
384.887	316.31
385.112	319.31
385.337	306.31
385.562	320.31
385.787	317.31
386.013	326.31
386.238	346.31
386.463	331.31
386.688	363.31
386.913	329.31
387.138	341.31
387.363	306.31
387.588	331.31
387.813	327.31
388.038	329.31
388.263	357.31
388.488	329.31
388.713	342.31
388.938	334.31
389.163	335.31
389.387	357.31
389.612	330.31
389.837	328.31
390.062	335.31
390.287	330.31
390.512	318.31
390.736	324.31
390.961	331.31
391.186	333.31
391.411	334.31
391.636	316.31
391.86	324.31
392.085	326.31
392.31	341.31
392.534	341.31
392.759	349.31
392.984	352.31
393.208	339.31
393.433	335.31
393.658	333.31
393.882	331.31
394.107	323.31
394.331	346.31
394.556	315.31
394.78	350.31
395.005	338.31
395.229	333.31
395.454	345.31
395.678	354.31
395.903	360.31
396.127	356.31
396.352	364.31
396.576	358.31
396.801	376.31
397.025	357.31
397.249	347.31
397.474	360.31
397.698	363.31
397.922	358.31
398.147	363.31
398.371	361.31
398.595	361.31
398.82	351.31
399.044	363.31
399.268	373.31
399.492	375.31
399.717	417.31
399.941	428.31
400.165	465.31
400.389	446.31
400.613	408.31
400.837	393.31
401.062	377.31
401.286	383.31
401.51	382.31
401.734	387.31
401.958	382.31
402.182	372.31
402.406	397.31
402.63	397.31
402.854	366.31
403.078	372.31
403.302	376.31
403.526	398.31
403.75	378.31
403.974	355.31
404.198	380.31
404.422	410.31
404.645	391.31
404.869	390.31
405.093	423.31
405.317	454.31
405.541	448.31
405.765	425.31
405.988	410.31
406.212	408.31
406.436	442.31
406.66	458.31
406.883	414.31
407.107	442.31
407.331	489.31
407.555	494.31
407.778	510.31
408.002	461.31
408.226	421.31
408.449	426.31
408.673	432.31
408.896	446.31
409.12	475.31
409.344	458.31
409.567	390.31
409.791	409.31
410.014	405.31
410.238	394.31
410.461	399.31
410.685	384.31
410.908	404.31
411.132	444.31
411.355	457.31
411.578	440.31
411.802	396.31
412.025	384.31
412.249	399.31
412.472	437.31
412.695	453.31
412.919	441.31
413.142	389.31
413.365	382.31
413.589	386.31
413.812	383.31
414.035	379.31
414.258	377.31
414.482	368.31
414.705	366.31
414.928	376.31
415.151	359.31
415.374	356.31
415.597	374.31
415.821	375.31
416.044	356.31
416.267	385.31
416.49	381.31
416.713	357.31
416.936	386.31
417.159	374.31
417.382	366.31
417.605	368.31
417.828	376.31
418.051	388.31
418.274	392.31
418.497	377.31
418.72	364.31
418.943	376.31
419.166	387.31
419.389	386.31
419.611	399.31
419.834	404.31
420.057	398.31
420.28	396.31
420.503	381.31
420.726	400.31
420.948	416.31
421.171	407.31
421.394	460.31
421.617	421.31
421.839	383.31
422.062	404.31
422.285	409.31
422.507	465.31
422.73	506.31
422.953	474.31
423.175	431.31
423.398	430.31
423.621	395.31
423.843	423.31
424.066	419.31
424.288	405.31
424.511	417.31
424.733	470.31
424.956	527.31
425.178	520.31
425.401	471.31
425.623	515.31
425.846	442.31
426.068	424.31
426.291	421.31
426.513	432.31
426.735	427.31
426.958	482.31
427.18	528.31
427.402	630.31
427.625	664.31
427.847	623.31
428.069	523.31
428.292	469.31
428.514	436.31
428.736	408.31
428.958	414.31
429.181	395.31
429.403	395.31
429.625	408.31
429.847	439.31
430.069	500.31
430.292	472.31
430.514	405.31
430.736	390.31
430.958	384.31
431.18	391.31
431.402	396.31
431.624	373.31
431.846	355.31
432.068	382.31
432.29	383.31
432.512	358.31
432.734	377.31
432.956	377.31
433.178	390.31
433.4	404.31
433.622	392.31
433.844	376.31
434.066	374.31
434.287	378.31
434.509	388.31
434.731	372.31
434.953	369.31
435.175	404.31
435.397	426.31
435.618	410.31
435.84	466.31
436.062	522.31
436.284	590.31
436.505	486.31
436.727	428.31
436.949	403.31
437.17	402.31
437.392	410.31
437.614	396.31
437.835	458.31
438.057	525.31
438.278	614.31
438.5	622.31
438.721	628.31
438.943	617.31
439.165	502.31
439.386	462.31
439.608	433.31
439.829	445.31
440.05	455.31
440.272	499.31
440.493	464.31
440.715	433.31
440.936	414.31
441.158	419.31
441.379	412.31
441.6	415.31
441.822	419.31
442.043	454.31
442.264	526.31
442.486	553.31
442.707	465.31
442.928	436.31
443.149	461.31
443.371	468.31
443.592	514.31
443.813	551.31
444.034	602.31
444.255	514.31
444.476	456.31
444.698	430.31
444.919	416.31
445.14	551.31
445.361	519.31
445.582	452.31
445.803	521.31
446.024	607.31
446.245	619.31
446.466	549.31
446.687	459.31
446.908	432.31
447.129	404.31
447.35	398.31
447.571	410.31
447.792	400.31
448.013	418.31
448.234	425.31
448.455	457.31
448.675	549.31
448.896	604.31
449.117	538.31
449.338	512.31
449.559	603.31
449.779	646.31
450	532.31
450.221	458.31
450.442	391.31
450.662	405.31
450.883	412.31
451.104	394.31
451.324	414.31
451.545	374.31
451.766	380.31
451.986	361.31
452.207	375.31
452.428	362.31
452.648	372.31
452.869	357.31
453.089	359.31
453.31	367.31
453.53	370.31
453.751	366.31
453.971	361.31
454.192	378.31
454.412	372.31
454.633	374.31
454.853	356.31
455.073	345.31
455.294	390.31
455.514	433.31
455.734	415.31
455.955	378.31
456.175	360.31
456.395	340.31
456.616	326.31
456.836	363.31
457.056	337.31
457.276	333.31
457.497	325.31
457.717	350.31
457.937	337.31
458.157	340.31
458.377	355.31
458.598	364.31
458.818	430.31
459.038	488.31
459.258	504.31
459.478	421.31
459.698	381.31
459.918	378.31
460.138	378.31
460.358	379.31
460.578	378.31
460.798	387.31
461.018	396.31
461.238	373.31
461.458	376.31
461.678	383.31
461.898	382.31
462.118	385.31
462.338	384.31
462.558	397.31
462.777	371.31
462.997	392.31
463.217	397.31
463.437	405.31
463.657	402.31
463.876	400.31
464.096	386.31
464.316	424.31
464.536	419.31
464.755	397.31
464.975	392.31
465.195	437.31
465.414	524.31
465.634	468.31
465.854	422.31
466.073	408.31
466.293	391.31
466.512	373.31
466.732	374.31
466.951	369.31
467.171	375.31
467.391	350.31
467.61	386.31
467.829	387.31
468.049	385.31
468.268	411.31
468.488	362.31
468.707	358.31
468.927	368.31
469.146	362.31
469.365	376.31
469.585	370.31
469.804	384.31
470.023	373.31
470.243	359.31
470.462	374.31
470.681	398.31
470.901	379.31
471.12	376.31
471.339	370.31
471.558	371.31
471.777	374.31
471.997	387.31
472.216	379.31
472.435	414.31
472.654	402.31
472.873	366.31
473.092	376.31
473.311	383.31
473.53	392.31
473.749	386.31
473.968	413.31
474.187	488.31
474.406	520.31
474.625	406.31
474.844	403.31
475.063	388.31
475.282	366.31
475.501	385.31
475.72	400.31
475.939	381.31
476.158	394.31
476.377	386.31
476.596	393.31
476.814	399.31
477.033	391.31
477.252	414.31
477.471	410.31
477.69	398.31
477.908	401.31
478.127	407.31
478.346	385.31
478.564	426.31
478.783	410.31
479.002	427.31
479.22	422.31
479.439	423.31
479.658	444.31
479.876	456.31
480.095	447.31
480.313	467.31
480.532	464.31
480.751	466.31
480.969	450.31
481.188	544.31
481.406	544.31
481.624	507.31
481.843	470.31
482.061	463.31
482.28	464.31
482.498	426.31
482.717	436.31
482.935	436.31
483.153	448.31
483.372	453.31
483.59	446.31
483.808	445.31
484.027	467.31
484.245	430.31
484.463	452.31
484.681	451.31
484.9	428.31
485.118	443.31
485.336	462.31
485.554	438.31
485.772	442.31
485.99	467.31
486.209	463.31
486.427	465.31
486.645	495.31
486.863	497.31
487.081	487.31
487.299	455.31
487.517	466.31
487.735	472.31
487.953	482.31
488.171	482.31
488.389	478.31
488.607	460.31
488.825	481.31
489.043	470.31
489.261	478.31
489.479	483.31
489.696	487.31
489.914	486.31
490.132	484.31
490.35	487.31
490.568	492.31
490.786	502.31
491.003	514.31
491.221	509.31
491.439	529.31
491.657	526.31
491.874	546.31
492.092	530.31
492.31	520.31
492.527	560.31
492.745	541.31
492.963	517.31
493.18	543.31
493.398	550.31
493.615	560.31
493.833	546.31
494.05	530.31
494.268	531.31
494.485	548.31
494.703	558.31
494.92	545.31
495.138	553.31
495.355	553.31
495.573	545.31
495.79	565.31
496.008	570.31
496.225	541.31
496.442	546.31
496.66	556.31
496.877	545.31
497.094	560.31
497.312	564.31
497.529	570.31
497.746	563.31
497.963	606.31
498.181	600.31
498.398	608.31
498.615	607.31
498.832	619.31
499.049	637.31
499.267	617.31
499.484	640.31
499.701	649.31
499.918	679.31
500.135	708.31
500.352	688.31
500.569	701.31
500.786	728.31
501.003	717.31
501.22	706.31
501.437	691.31
501.654	695.31
501.871	670.31
502.088	676.31
