Data from 1961.PennyLincolnUp.Lamp.En5.5.200Scan.071719.P1._HRD10591_13-45-50-057.txt Node
Date: Thu Jul 18 13:45:50 EDT 2019
User: cochatt
Spectrometer: HR+D1059
Trigger mode: 1
Integration Time (sec): 1.000000E-1
Scans to average: 1
Electric dark correction enabled: true
Nonlinearity correction enabled: false
Boxcar width: 0
XAxis mode: Wavelengths
Number of Pixels in Spectrum: 2048
>>>>>Begin Spectral Data<<<<<
223.165	-11.12
223.4	-11.12
223.635	-11.12
223.869	-19.12
224.104	-8.12
224.338	0.88
224.573	-12.12
224.808	-11.12
225.042	-4.12
225.277	-6.12
225.511	-8.12
225.746	1.88
225.98	10.88
226.215	-5.12
226.449	-1.12
226.683	20.88
226.918	24.88
227.152	26.88
227.387	39.88
227.621	38.88
227.856	42.88
228.09	40.88
228.324	24.88
228.559	55.88
228.793	63.88
229.027	77.88
229.262	87.88
229.496	96.88
229.73	84.88
229.964	99.88
230.199	95.88
230.433	92.88
230.667	98.88
230.901	97.88
231.136	112.88
231.37	87.88
231.604	90.88
231.838	88.88
232.072	91.88
232.306	77.88
232.541	102.88
232.775	99.88
233.009	99.88
233.243	99.88
233.477	104.88
233.711	108.88
233.945	90.88
234.179	106.88
234.413	100.88
234.647	112.88
234.881	101.88
235.115	109.88
235.349	112.88
235.583	105.88
235.817	100.88
236.051	112.88
236.285	108.88
236.519	97.88
236.753	111.88
236.987	115.88
237.221	121.88
237.455	140.88
237.689	131.88
237.922	105.88
238.156	115.88
238.39	92.88
238.624	104.88
238.858	114.88
239.091	100.88
239.325	104.88
239.559	95.88
239.793	111.88
240.027	104.88
240.26	109.88
240.494	122.88
240.728	123.88
240.961	104.88
241.195	105.88
241.429	124.88
241.662	106.88
241.896	97.88
242.13	115.88
242.363	113.88
242.597	92.88
242.83	115.88
243.064	119.88
243.298	111.88
243.531	107.88
243.765	109.88
243.998	123.88
244.232	123.88
244.465	119.88
244.699	122.88
244.932	124.88
245.166	115.88
245.399	117.88
245.633	119.88
245.866	117.88
246.099	102.88
246.333	105.88
246.566	118.88
246.8	137.88
247.033	141.88
247.266	136.88
247.5	139.88
247.733	133.88
247.966	138.88
248.2	143.88
248.433	143.88
248.666	127.88
248.899	147.88
249.133	131.88
249.366	135.88
249.599	136.88
249.832	146.88
250.066	144.88
250.299	137.88
250.532	127.88
250.765	147.88
250.998	141.88
251.231	142.88
251.465	166.88
251.698	139.88
251.931	135.88
252.164	158.88
252.397	142.88
252.63	146.88
252.863	152.88
253.096	154.88
253.329	142.88
253.562	152.88
253.795	148.88
254.028	152.88
254.261	163.88
254.494	154.88
254.727	168.88
254.96	164.88
255.193	162.88
255.426	198.88
255.659	147.88
255.892	162.88
256.124	162.88
256.357	151.88
256.59	153.88
256.823	166.88
257.056	150.88
257.289	155.88
257.521	144.88
257.754	170.88
257.987	163.88
258.22	147.88
258.452	149.88
258.685	144.88
258.918	158.88
259.151	156.88
259.383	172.88
259.616	153.88
259.849	147.88
260.081	164.88
260.314	178.88
260.547	166.88
260.779	167.88
261.012	177.88
261.244	169.88
261.477	167.88
261.71	158.88
261.942	171.88
262.175	169.88
262.407	172.88
262.64	163.88
262.872	175.88
263.105	164.88
263.337	163.88
263.57	176.88
263.802	173.88
264.035	165.88
264.267	163.88
264.499	160.88
264.732	172.88
264.964	165.88
265.197	175.88
265.429	170.88
265.661	167.88
265.894	172.88
266.126	175.88
266.358	167.88
266.591	167.88
266.823	171.88
267.055	185.88
267.287	180.88
267.52	177.88
267.752	173.88
267.984	191.88
268.216	186.88
268.448	179.88
268.681	173.88
268.913	187.88
269.145	169.88
269.377	194.88
269.609	181.88
269.841	183.88
270.073	192.88
270.306	205.88
270.538	206.88
270.77	212.88
271.002	217.88
271.234	210.88
271.466	216.88
271.698	195.88
271.93	210.88
272.162	210.88
272.394	224.88
272.626	211.88
272.858	198.88
273.09	184.88
273.322	193.88
273.553	196.88
273.785	189.88
274.017	198.88
274.249	213.88
274.481	197.88
274.713	195.88
274.945	199.88
275.176	197.88
275.408	181.88
275.64	193.88
275.872	191.88
276.104	194.88
276.335	205.88
276.567	217.88
276.799	201.88
277.031	220.88
277.262	200.88
277.494	219.88
277.726	212.88
277.957	214.88
278.189	237.88
278.421	204.88
278.652	207.88
278.884	210.88
279.115	196.88
279.347	210.88
279.579	226.88
279.81	203.88
280.042	205.88
280.273	211.88
280.505	208.88
280.736	208.88
280.968	193.88
281.199	202.88
281.431	203.88
281.662	194.88
281.894	201.88
282.125	204.88
282.356	199.88
282.588	217.88
282.819	209.88
283.051	217.88
283.282	223.88
283.513	218.88
283.745	206.88
283.976	212.88
284.207	213.88
284.439	234.88
284.67	220.88
284.901	209.88
285.132	203.88
285.364	223.88
285.595	222.88
285.826	212.88
286.057	222.88
286.288	227.88
286.52	217.88
286.751	227.88
286.982	229.88
287.213	221.88
287.444	213.88
287.675	228.88
287.906	228.88
288.138	228.88
288.369	231.88
288.6	239.88
288.831	235.88
289.062	229.88
289.293	216.88
289.524	226.88
289.755	211.88
289.986	221.88
290.217	224.88
290.448	231.88
290.679	239.88
290.91	218.88
291.141	223.88
291.371	216.88
291.602	217.88
291.833	221.88
292.064	235.88
292.295	219.88
292.526	220.88
292.757	228.88
292.987	221.88
293.218	240.88
293.449	239.88
293.68	243.88
293.91	228.88
294.141	224.88
294.372	235.88
294.603	254.88
294.833	243.88
295.064	227.88
295.295	233.88
295.525	236.88
295.756	226.88
295.987	247.88
296.217	236.88
296.448	245.88
296.679	213.88
296.909	235.88
297.14	233.88
297.37	233.88
297.601	241.88
297.831	257.88
298.062	234.88
298.292	233.88
298.523	232.88
298.753	242.88
298.984	230.88
299.214	259.88
299.445	239.88
299.675	232.88
299.905	234.88
300.136	233.88
300.366	240.88
300.597	242.88
300.827	233.88
301.057	246.88
301.288	253.88
301.518	250.88
301.748	228.88
301.979	259.88
302.209	261.88
302.439	253.88
302.669	263.88
302.9	267.88
303.13	256.88
303.36	266.88
303.59	243.88
303.82	262.88
304.051	241.88
304.281	246.88
304.511	269.88
304.741	243.88
304.971	265.88
305.201	243.88
305.431	247.88
305.661	242.88
305.891	226.88
306.121	263.88
306.352	244.88
306.582	258.88
306.812	265.88
307.042	259.88
307.272	251.88
307.502	240.88
307.731	259.88
307.961	239.88
308.191	256.88
308.421	231.88
308.651	255.88
308.881	242.88
309.111	261.88
309.341	248.88
309.571	270.88
309.8	269.88
310.03	282.88
310.26	275.88
310.49	275.88
310.72	283.88
310.949	279.88
311.179	276.88
311.409	281.88
311.639	276.88
311.868	271.88
312.098	279.88
312.328	265.88
312.557	268.88
312.787	284.88
313.017	288.88
313.246	281.88
313.476	287.88
313.706	287.88
313.935	272.88
314.165	293.88
314.394	273.88
314.624	286.88
314.853	273.88
315.083	291.88
315.312	275.88
315.542	277.88
315.771	275.88
316.001	282.88
316.23	260.88
316.46	289.88
316.689	283.88
316.919	286.88
317.148	269.88
317.377	290.88
317.607	279.88
317.836	279.88
318.065	295.88
318.295	258.88
318.524	289.88
318.753	276.88
318.983	285.88
319.212	300.88
319.441	289.88
319.67	304.88
319.9	279.88
320.129	283.88
320.358	289.88
320.587	285.88
320.816	273.88
321.046	280.88
321.275	285.88
321.504	283.88
321.733	300.88
321.962	312.88
322.191	314.88
322.42	289.88
322.649	305.88
322.878	291.88
323.108	306.88
323.337	306.88
323.566	309.88
323.795	336.88
324.024	342.88
324.253	394.88
324.482	528.88
324.71	720.88
324.939	951.88
325.168	781.88
325.397	476.88
325.626	361.88
325.855	343.88
326.084	316.88
326.313	334.88
326.542	327.88
326.77	350.88
326.999	394.88
327.228	478.88
327.457	676.88
327.686	712.88
327.914	498.88
328.143	367.88
328.372	358.88
328.6	359.88
328.829	346.88
329.058	333.88
329.287	326.88
329.515	331.88
329.744	325.88
329.972	314.88
330.201	321.88
330.43	340.88
330.658	348.88
330.887	352.88
331.115	350.88
331.344	323.88
331.572	327.88
331.801	335.88
332.03	335.88
332.258	333.88
332.486	311.88
332.715	309.88
332.943	321.88
333.172	317.88
333.4	336.88
333.629	348.88
333.857	332.88
334.085	356.88
334.314	343.88
334.542	369.88
334.771	355.88
334.999	344.88
335.227	351.88
335.455	324.88
335.684	327.88
335.912	341.88
336.14	331.88
336.369	341.88
336.597	344.88
336.825	341.88
337.053	315.88
337.281	309.88
337.51	322.88
337.738	304.88
337.966	311.88
338.194	327.88
338.422	314.88
338.65	330.88
338.878	319.88
339.106	324.88
339.334	300.88
339.562	310.88
339.79	317.88
340.018	323.88
340.246	328.88
340.474	315.88
340.702	305.88
340.93	313.88
341.158	299.88
341.386	311.88
341.614	311.88
341.842	296.88
342.07	294.88
342.298	306.88
342.526	308.88
342.754	300.88
342.981	313.88
343.209	314.88
343.437	327.88
343.665	321.88
343.893	319.88
344.12	328.88
344.348	330.88
344.576	338.88
344.804	313.88
345.031	307.88
345.259	312.88
345.487	303.88
345.714	298.88
345.942	323.88
346.17	306.88
346.397	294.88
346.625	309.88
346.853	273.88
347.08	299.88
347.308	299.88
347.535	295.88
347.763	300.88
347.99	288.88
348.218	299.88
348.445	280.88
348.673	311.88
348.9	303.88
349.128	291.88
349.355	291.88
349.583	281.88
349.81	294.88
350.037	272.88
350.265	294.88
350.492	291.88
350.72	300.88
350.947	292.88
351.174	310.88
351.402	291.88
351.629	268.88
351.856	301.88
352.083	301.88
352.311	280.88
352.538	284.88
352.765	290.88
352.992	262.88
353.22	292.88
353.447	276.88
353.674	300.88
353.901	301.88
354.128	292.88
354.355	291.88
354.583	293.88
354.81	276.88
355.037	279.88
355.264	275.88
355.491	280.88
355.718	273.88
355.945	253.88
356.172	276.88
356.399	285.88
356.626	294.88
356.853	277.88
357.08	277.88
357.307	285.88
357.534	284.88
357.761	291.88
357.988	282.88
358.215	289.88
358.441	281.88
358.668	292.88
358.895	287.88
359.122	281.88
359.349	282.88
359.576	287.88
359.802	291.88
360.029	305.88
360.256	272.88
360.483	299.88
360.709	282.88
360.936	297.88
361.163	280.88
361.39	306.88
361.616	273.88
361.843	285.88
362.07	279.88
362.296	296.88
362.523	297.88
362.749	274.88
362.976	284.88
363.203	290.88
363.429	271.88
363.656	282.88
363.882	269.88
364.109	296.88
364.335	287.88
364.562	283.88
364.788	269.88
365.015	284.88
365.241	292.88
365.468	279.88
365.694	277.88
365.92	284.88
366.147	296.88
366.373	296.88
366.599	278.88
366.826	279.88
367.052	276.88
367.278	267.88
367.505	291.88
367.731	280.88
367.957	287.88
368.184	260.88
368.41	288.88
368.636	291.88
368.862	286.88
369.089	285.88
369.315	283.88
369.541	284.88
369.767	287.88
369.993	285.88
370.219	285.88
370.445	291.88
370.672	265.88
370.898	277.88
371.124	267.88
371.35	290.88
371.576	279.88
371.802	284.88
372.028	276.88
372.254	274.88
372.48	295.88
372.706	277.88
372.932	280.88
373.158	275.88
373.384	276.88
373.61	298.88
373.835	305.88
374.061	292.88
374.287	283.88
374.513	280.88
374.739	292.88
374.965	294.88
375.191	291.88
375.416	282.88
375.642	284.88
375.868	278.88
376.094	288.88
376.319	259.88
376.545	290.88
376.771	284.88
376.997	285.88
377.222	297.88
377.448	280.88
377.674	283.88
377.899	248.88
378.125	271.88
378.35	277.88
378.576	282.88
378.802	267.88
379.027	283.88
379.253	304.88
379.478	285.88
379.704	277.88
379.929	284.88
380.155	284.88
380.38	268.88
380.606	279.88
380.831	255.88
381.057	301.88
381.282	272.88
381.507	270.88
381.733	290.88
381.958	297.88
382.184	290.88
382.409	279.88
382.634	256.88
382.86	277.88
383.085	275.88
383.31	290.88
383.535	301.88
383.761	277.88
383.986	295.88
384.211	281.88
384.436	278.88
384.662	291.88
384.887	313.88
385.112	289.88
385.337	302.88
385.562	294.88
385.787	311.88
386.013	300.88
386.238	284.88
386.463	286.88
386.688	295.88
386.913	308.88
387.138	316.88
387.363	305.88
387.588	315.88
387.813	298.88
388.038	303.88
388.263	308.88
388.488	323.88
388.713	306.88
388.938	293.88
389.163	322.88
389.387	308.88
389.612	303.88
389.837	287.88
390.062	305.88
390.287	282.88
390.512	296.88
390.736	296.88
390.961	300.88
391.186	305.88
391.411	295.88
391.636	307.88
391.86	309.88
392.085	336.88
392.31	312.88
392.534	321.88
392.759	298.88
392.984	307.88
393.208	323.88
393.433	321.88
393.658	322.88
393.882	305.88
394.107	297.88
394.331	307.88
394.556	291.88
394.78	309.88
395.005	313.88
395.229	309.88
395.454	329.88
395.678	327.88
395.903	317.88
396.127	344.88
396.352	304.88
396.576	310.88
396.801	324.88
397.025	336.88
397.249	311.88
397.474	319.88
397.698	330.88
397.922	312.88
398.147	323.88
398.371	318.88
398.595	327.88
398.82	348.88
399.044	359.88
399.268	348.88
399.492	370.88
399.717	369.88
399.941	388.88
400.165	418.88
400.389	394.88
400.613	383.88
400.837	339.88
401.062	336.88
401.286	348.88
401.51	351.88
401.734	333.88
401.958	333.88
402.182	320.88
402.406	343.88
402.63	348.88
402.854	326.88
403.078	327.88
403.302	328.88
403.526	335.88
403.75	353.88
403.974	322.88
404.198	333.88
404.422	340.88
404.645	338.88
404.869	355.88
405.093	364.88
405.317	377.88
405.541	387.88
405.765	363.88
405.988	357.88
406.212	352.88
406.436	351.88
406.66	357.88
406.883	356.88
407.107	378.88
407.331	407.88
407.555	417.88
407.778	416.88
408.002	392.88
408.226	377.88
408.449	386.88
408.673	354.88
408.896	372.88
409.12	391.88
409.344	377.88
409.567	334.88
409.791	339.88
410.014	352.88
410.238	349.88
410.461	354.88
410.685	332.88
410.908	350.88
411.132	372.88
411.355	387.88
411.578	378.88
411.802	354.88
412.025	324.88
412.249	339.88
412.472	348.88
412.695	346.88
412.919	367.88
413.142	343.88
413.365	331.88
413.589	352.88
413.812	326.88
414.035	332.88
414.258	327.88
414.482	315.88
414.705	322.88
414.928	325.88
415.151	330.88
415.374	345.88
415.597	332.88
415.821	312.88
416.044	329.88
416.267	325.88
416.49	327.88
416.713	326.88
416.936	326.88
417.159	321.88
417.382	333.88
417.605	331.88
417.828	316.88
418.051	333.88
418.274	344.88
418.497	320.88
418.72	319.88
418.943	325.88
419.166	320.88
419.389	340.88
419.611	342.88
419.834	317.88
420.057	323.88
420.28	343.88
420.503	330.88
420.726	333.88
420.948	333.88
421.171	354.88
421.394	346.88
421.617	316.88
421.839	303.88
422.062	332.88
422.285	342.88
422.507	370.88
422.73	414.88
422.953	370.88
423.175	346.88
423.398	333.88
423.621	335.88
423.843	337.88
424.066	334.88
424.288	345.88
424.511	344.88
424.733	377.88
424.956	416.88
425.178	410.88
425.401	399.88
425.623	399.88
425.846	339.88
426.068	329.88
426.291	353.88
426.513	314.88
426.735	345.88
426.958	365.88
427.18	388.88
427.402	443.88
427.625	472.88
427.847	411.88
428.069	377.88
428.292	370.88
428.514	322.88
428.736	319.88
428.958	303.88
429.181	316.88
429.403	300.88
429.625	305.88
429.847	330.88
430.069	357.88
430.292	361.88
430.514	304.88
430.736	324.88
430.958	311.88
431.18	315.88
431.402	299.88
431.624	293.88
431.846	290.88
432.068	315.88
432.29	298.88
432.512	322.88
432.734	312.88
432.956	308.88
433.178	295.88
433.4	321.88
433.622	303.88
433.844	300.88
434.066	298.88
434.287	325.88
434.509	326.88
434.731	320.88
434.953	321.88
435.175	321.88
435.397	330.88
435.618	319.88
435.84	361.88
436.062	367.88
436.284	409.88
436.505	352.88
436.727	335.88
436.949	308.88
437.17	297.88
437.392	315.88
437.614	311.88
437.835	333.88
438.057	380.88
438.278	405.88
438.5	423.88
438.721	442.88
438.943	427.88
439.165	353.88
439.386	321.88
439.608	331.88
439.829	327.88
440.05	328.88
440.272	348.88
440.493	330.88
440.715	321.88
440.936	319.88
441.158	331.88
441.379	322.88
441.6	339.88
441.822	330.88
442.043	358.88
442.264	383.88
442.486	407.88
442.707	353.88
442.928	349.88
443.149	330.88
443.371	331.88
443.592	370.88
443.813	410.88
444.034	431.88
444.255	389.88
444.476	328.88
444.698	329.88
444.919	340.88
445.14	457.88
445.361	393.88
445.582	338.88
445.803	362.88
446.024	411.88
446.245	420.88
446.466	393.88
446.687	340.88
446.908	325.88
447.129	321.88
447.35	293.88
447.571	323.88
447.792	313.88
448.013	308.88
448.234	326.88
448.455	325.88
448.675	390.88
448.896	446.88
449.117	376.88
449.338	367.88
449.559	415.88
449.779	455.88
450	377.88
450.221	309.88
450.442	303.88
450.662	316.88
450.883	287.88
451.104	291.88
451.324	289.88
451.545	298.88
451.766	290.88
451.986	293.88
452.207	295.88
452.428	280.88
452.648	283.88
452.869	287.88
453.089	267.88
453.31	263.88
453.53	287.88
453.751	274.88
453.971	274.88
454.192	291.88
454.412	296.88
454.633	283.88
454.853	285.88
455.073	278.88
455.294	285.88
455.514	312.88
455.734	304.88
455.955	287.88
456.175	271.88
456.395	266.88
456.616	264.88
456.836	272.88
457.056	294.88
457.276	278.88
457.497	277.88
457.717	287.88
457.937	288.88
458.157	280.88
458.377	275.88
458.598	285.88
458.818	325.88
459.038	309.88
459.258	328.88
459.478	340.88
459.698	311.88
459.918	320.88
460.138	296.88
460.358	309.88
460.578	322.88
460.798	310.88
461.018	316.88
461.238	321.88
461.458	291.88
461.678	320.88
461.898	315.88
462.118	318.88
462.338	335.88
462.558	345.88
462.777	347.88
462.997	351.88
463.217	344.88
463.437	344.88
463.657	341.88
463.876	343.88
464.096	345.88
464.316	327.88
464.536	334.88
464.755	332.88
464.975	337.88
465.195	328.88
465.414	354.88
465.634	319.88
465.854	319.88
466.073	296.88
466.293	303.88
466.512	300.88
466.732	303.88
466.951	283.88
467.171	288.88
467.391	286.88
467.61	301.88
467.829	289.88
468.049	298.88
468.268	288.88
468.488	303.88
468.707	287.88
468.927	263.88
469.146	295.88
469.365	270.88
469.585	295.88
469.804	292.88
470.023	302.88
470.243	295.88
470.462	314.88
470.681	295.88
470.901	292.88
471.12	312.88
471.339	310.88
471.558	310.88
471.777	287.88
471.997	303.88
472.216	289.88
472.435	314.88
472.654	317.88
472.873	297.88
473.092	284.88
473.311	306.88
473.53	280.88
473.749	274.88
473.968	301.88
474.187	342.88
474.406	340.88
474.625	310.88
474.844	291.88
475.063	299.88
475.282	308.88
475.501	301.88
475.72	316.88
475.939	307.88
476.158	300.88
476.377	307.88
476.596	322.88
476.814	324.88
477.033	296.88
477.252	326.88
477.471	340.88
477.69	333.88
477.908	319.88
478.127	327.88
478.346	313.88
478.564	323.88
478.783	333.88
479.002	349.88
479.22	346.88
479.439	331.88
479.658	341.88
479.876	328.88
480.095	332.88
480.313	364.88
480.532	357.88
480.751	353.88
480.969	359.88
481.188	344.88
481.406	357.88
481.624	351.88
481.843	342.88
482.061	343.88
482.28	346.88
482.498	343.88
482.717	332.88
482.935	333.88
483.153	336.88
483.372	345.88
483.59	336.88
483.808	345.88
484.027	336.88
484.245	355.88
484.463	340.88
484.681	349.88
484.9	340.88
485.118	332.88
485.336	351.88
485.554	339.88
485.772	351.88
485.99	341.88
486.209	346.88
486.427	352.88
486.645	366.88
486.863	361.88
487.081	356.88
487.299	373.88
487.517	361.88
487.735	349.88
487.953	363.88
488.171	335.88
488.389	358.88
488.607	355.88
488.825	363.88
489.043	364.88
489.261	375.88
489.479	373.88
489.696	358.88
489.914	365.88
490.132	373.88
490.35	360.88
490.568	381.88
490.786	362.88
491.003	369.88
491.221	369.88
491.439	389.88
491.657	387.88
491.874	397.88
492.092	381.88
492.31	373.88
492.527	382.88
492.745	368.88
492.963	388.88
493.18	379.88
493.398	401.88
493.615	380.88
493.833	392.88
494.05	408.88
494.268	397.88
494.485	412.88
494.703	393.88
494.92	384.88
495.138	395.88
495.355	404.88
495.573	400.88
495.79	389.88
496.008	420.88
496.225	407.88
496.442	418.88
496.66	395.88
496.877	408.88
497.094	425.88
497.312	417.88
497.529	411.88
497.746	424.88
497.963	422.88
498.181	450.88
498.398	465.88
498.615	462.88
498.832	462.88
499.049	483.88
499.267	515.88
499.484	514.88
499.701	537.88
499.918	566.88
500.135	584.88
500.352	608.88
500.569	637.88
500.786	620.88
501.003	609.88
501.22	570.88
501.437	561.88
501.654	535.88
501.871	533.88
502.088	492.88
502.305	487.88
