Data from 1961.PennyLincolnUp.Lamp.En5.5.200Scan.071719.P1._HRD10591_13-47-54-057.txt Node
Date: Thu Jul 18 13:47:54 EDT 2019
User: cochatt
Spectrometer: HR+D1059
Trigger mode: 1
Integration Time (sec): 1.000000E-1
Scans to average: 1
Electric dark correction enabled: true
Nonlinearity correction enabled: false
Boxcar width: 0
XAxis mode: Wavelengths
Number of Pixels in Spectrum: 2048
>>>>>Begin Spectral Data<<<<<
223.165	-13.62
223.4	-13.62
223.635	-13.62
223.869	-27.62
224.104	-26.62
224.338	-11.62
224.573	-14.62
224.808	-17.62
225.042	-8.62
225.277	-2.62
225.511	8.38
225.746	9.38
225.98	1.38
226.215	5.38
226.449	13.38
226.683	21.38
226.918	30.38
227.152	33.38
227.387	25.38
227.621	30.38
227.856	46.38
228.09	37.38
228.324	55.38
228.559	62.38
228.793	69.38
229.027	97.38
229.262	86.38
229.496	120.38
229.73	123.38
229.964	144.38
230.199	132.38
230.433	102.38
230.667	113.38
230.901	121.38
231.136	98.38
231.37	104.38
231.604	103.38
231.838	114.38
232.072	109.38
232.306	115.38
232.541	100.38
232.775	122.38
233.009	107.38
233.243	106.38
233.477	106.38
233.711	117.38
233.945	101.38
234.179	109.38
234.413	117.38
234.647	103.38
234.881	94.38
235.115	98.38
235.349	107.38
235.583	111.38
235.817	123.38
236.051	122.38
236.285	109.38
236.519	123.38
236.753	129.38
236.987	132.38
237.221	158.38
237.455	206.38
237.689	179.38
237.922	129.38
238.156	122.38
238.39	132.38
238.624	123.38
238.858	125.38
239.091	125.38
239.325	117.38
239.559	125.38
239.793	111.38
240.027	125.38
240.26	122.38
240.494	151.38
240.728	129.38
240.961	131.38
241.195	122.38
241.429	129.38
241.662	137.38
241.896	130.38
242.13	113.38
242.363	125.38
242.597	119.38
242.83	136.38
243.064	130.38
243.298	133.38
243.531	125.38
243.765	125.38
243.998	134.38
244.232	131.38
244.465	129.38
244.699	128.38
244.932	130.38
245.166	129.38
245.399	115.38
245.633	143.38
245.866	117.38
246.099	143.38
246.333	125.38
246.566	141.38
246.8	120.38
247.033	132.38
247.266	131.38
247.5	146.38
247.733	156.38
247.966	135.38
248.2	157.38
248.433	138.38
248.666	161.38
248.899	167.38
249.133	148.38
249.366	191.38
249.599	168.38
249.832	163.38
250.066	162.38
250.299	155.38
250.532	171.38
250.765	178.38
250.998	181.38
251.231	184.38
251.465	195.38
251.698	172.38
251.931	177.38
252.164	170.38
252.397	175.38
252.63	177.38
252.863	181.38
253.096	180.38
253.329	192.38
253.562	197.38
253.795	181.38
254.028	203.38
254.261	187.38
254.494	184.38
254.727	198.38
254.96	246.38
255.193	219.38
255.426	212.38
255.659	180.38
255.892	193.38
256.124	197.38
256.357	191.38
256.59	210.38
256.823	204.38
257.056	179.38
257.289	181.38
257.521	195.38
257.754	173.38
257.987	157.38
258.22	179.38
258.452	177.38
258.685	175.38
258.918	185.38
259.151	186.38
259.383	187.38
259.616	192.38
259.849	195.38
260.081	195.38
260.314	201.38
260.547	216.38
260.779	204.38
261.012	204.38
261.244	196.38
261.477	217.38
261.71	185.38
261.942	206.38
262.175	205.38
262.407	209.38
262.64	177.38
262.872	180.38
263.105	179.38
263.337	186.38
263.57	186.38
263.802	189.38
264.035	188.38
264.267	187.38
264.499	169.38
264.732	189.38
264.964	184.38
265.197	181.38
265.429	193.38
265.661	174.38
265.894	181.38
266.126	170.38
266.358	182.38
266.591	184.38
266.823	197.38
267.055	206.38
267.287	193.38
267.52	191.38
267.752	191.38
267.984	202.38
268.216	186.38
268.448	206.38
268.681	195.38
268.913	209.38
269.145	219.38
269.377	239.38
269.609	229.38
269.841	224.38
270.073	244.38
270.306	243.38
270.538	274.38
270.77	264.38
271.002	251.38
271.234	263.38
271.466	268.38
271.698	251.38
271.93	258.38
272.162	263.38
272.394	275.38
272.626	255.38
272.858	250.38
273.09	240.38
273.322	218.38
273.553	219.38
273.785	218.38
274.017	233.38
274.249	217.38
274.481	233.38
274.713	225.38
274.945	202.38
275.176	232.38
275.408	251.38
275.64	241.38
275.872	220.38
276.104	228.38
276.335	202.38
276.567	233.38
276.799	229.38
277.031	257.38
277.262	259.38
277.494	261.38
277.726	243.38
277.957	242.38
278.189	214.38
278.421	222.38
278.652	239.38
278.884	229.38
279.115	207.38
279.347	211.38
279.579	213.38
279.81	227.38
280.042	209.38
280.273	216.38
280.505	229.38
280.736	230.38
280.968	215.38
281.199	218.38
281.431	210.38
281.662	236.38
281.894	222.38
282.125	217.38
282.356	244.38
282.588	277.38
282.819	255.38
283.051	226.38
283.282	220.38
283.513	225.38
283.745	220.38
283.976	235.38
284.207	232.38
284.439	224.38
284.67	241.38
284.901	238.38
285.132	241.38
285.364	235.38
285.595	233.38
285.826	218.38
286.057	228.38
286.288	213.38
286.52	238.38
286.751	236.38
286.982	230.38
287.213	232.38
287.444	231.38
287.675	226.38
287.906	263.38
288.138	247.38
288.369	240.38
288.6	242.38
288.831	246.38
289.062	250.38
289.293	245.38
289.524	234.38
289.755	213.38
289.986	233.38
290.217	220.38
290.448	218.38
290.679	227.38
290.91	232.38
291.141	232.38
291.371	248.38
291.602	236.38
291.833	238.38
292.064	230.38
292.295	249.38
292.526	244.38
292.757	219.38
292.987	242.38
293.218	215.38
293.449	233.38
293.68	220.38
293.91	228.38
294.141	240.38
294.372	241.38
294.603	240.38
294.833	238.38
295.064	243.38
295.295	250.38
295.525	252.38
295.756	234.38
295.987	256.38
296.217	268.38
296.448	270.38
296.679	254.38
296.909	241.38
297.14	239.38
297.37	252.38
297.601	231.38
297.831	238.38
298.062	241.38
298.292	251.38
298.523	236.38
298.753	239.38
298.984	244.38
299.214	260.38
299.445	258.38
299.675	264.38
299.905	255.38
300.136	254.38
300.366	254.38
300.597	253.38
300.827	251.38
301.057	272.38
301.288	275.38
301.518	273.38
301.748	253.38
301.979	250.38
302.209	269.38
302.439	283.38
302.669	285.38
302.9	280.38
303.13	285.38
303.36	266.38
303.59	279.38
303.82	288.38
304.051	268.38
304.281	271.38
304.511	264.38
304.741	257.38
304.971	261.38
305.201	263.38
305.431	259.38
305.661	262.38
305.891	263.38
306.121	273.38
306.352	281.38
306.582	276.38
306.812	283.38
307.042	268.38
307.272	270.38
307.502	279.38
307.731	285.38
307.961	274.38
308.191	282.38
308.421	268.38
308.651	284.38
308.881	272.38
309.111	271.38
309.341	280.38
309.571	275.38
309.8	294.38
310.03	300.38
310.26	302.38
310.49	322.38
310.72	323.38
310.949	331.38
311.179	335.38
311.409	314.38
311.639	307.38
311.868	305.38
312.098	315.38
312.328	313.38
312.557	326.38
312.787	357.38
313.017	344.38
313.246	306.38
313.476	305.38
313.706	318.38
313.935	331.38
314.165	326.38
314.394	349.38
314.624	339.38
314.853	324.38
315.083	315.38
315.312	313.38
315.542	309.38
315.771	312.38
316.001	311.38
316.23	325.38
316.46	314.38
316.689	313.38
316.919	333.38
317.148	329.38
317.377	320.38
317.607	332.38
317.836	328.38
318.065	307.38
318.295	297.38
318.524	303.38
318.753	318.38
318.983	325.38
319.212	310.38
319.441	327.38
319.67	322.38
319.9	325.38
320.129	328.38
320.358	315.38
320.587	309.38
320.816	342.38
321.046	325.38
321.275	325.38
321.504	338.38
321.733	344.38
321.962	350.38
322.191	379.38
322.42	371.38
322.649	388.38
322.878	419.38
323.108	419.38
323.337	439.38
323.566	446.38
323.795	493.38
324.024	545.38
324.253	685.38
324.482	985.38
324.71	1512.38
324.939	2158.38
325.168	1800.38
325.397	942.38
325.626	635.38
325.855	520.38
326.084	464.38
326.313	460.38
326.542	471.38
326.77	521.38
326.999	629.38
327.228	915.38
327.457	1346.38
327.686	1601.38
327.914	1079.38
328.143	697.38
328.372	602.38
328.6	563.38
328.829	498.38
329.058	532.38
329.287	536.38
329.515	506.38
329.744	474.38
329.972	457.38
330.201	488.38
330.43	540.38
330.658	532.38
330.887	573.38
331.115	546.38
331.344	475.38
331.572	430.38
331.801	436.38
332.03	441.38
332.258	392.38
332.486	377.38
332.715	387.38
332.943	377.38
333.172	392.38
333.4	388.38
333.629	393.38
333.857	387.38
334.085	413.38
334.314	458.38
334.542	461.38
334.771	475.38
334.999	441.38
335.227	398.38
335.455	394.38
335.684	380.38
335.912	372.38
336.14	362.38
336.369	383.38
336.597	363.38
336.825	379.38
337.053	349.38
337.281	349.38
337.51	355.38
337.738	356.38
337.966	379.38
338.194	375.38
338.422	361.38
338.65	360.38
338.878	374.38
339.106	373.38
339.334	364.38
339.562	347.38
339.79	347.38
340.018	355.38
340.246	357.38
340.474	359.38
340.702	356.38
340.93	362.38
341.158	371.38
341.386	348.38
341.614	348.38
341.842	375.38
342.07	349.38
342.298	352.38
342.526	350.38
342.754	330.38
342.981	342.38
343.209	354.38
343.437	341.38
343.665	359.38
343.893	361.38
344.12	358.38
344.348	356.38
344.576	340.38
344.804	360.38
345.031	361.38
345.259	367.38
345.487	353.38
345.714	347.38
345.942	369.38
346.17	364.38
346.397	346.38
346.625	343.38
346.853	346.38
347.08	342.38
347.308	347.38
347.535	356.38
347.763	367.38
347.99	355.38
348.218	355.38
348.445	377.38
348.673	359.38
348.9	345.38
349.128	345.38
349.355	339.38
349.583	331.38
349.81	333.38
350.037	336.38
350.265	348.38
350.492	328.38
350.72	340.38
350.947	341.38
351.174	328.38
351.402	381.38
351.629	360.38
351.856	344.38
352.083	372.38
352.311	364.38
352.538	364.38
352.765	364.38
352.992	353.38
353.22	350.38
353.447	364.38
353.674	350.38
353.901	318.38
354.128	343.38
354.355	333.38
354.583	339.38
354.81	320.38
355.037	325.38
355.264	311.38
355.491	302.38
355.718	336.38
355.945	316.38
356.172	311.38
356.399	324.38
356.626	322.38
356.853	302.38
357.08	322.38
357.307	309.38
357.534	316.38
357.761	291.38
357.988	301.38
358.215	317.38
358.441	335.38
358.668	338.38
358.895	319.38
359.122	323.38
359.349	315.38
359.576	365.38
359.802	369.38
360.029	403.38
360.256	406.38
360.483	396.38
360.709	347.38
360.936	372.38
361.163	347.38
361.39	351.38
361.616	369.38
361.843	345.38
362.07	359.38
362.296	365.38
362.523	353.38
362.749	339.38
362.976	367.38
363.203	345.38
363.429	344.38
363.656	337.38
363.882	324.38
364.109	336.38
364.335	333.38
364.562	342.38
364.788	321.38
365.015	363.38
365.241	343.38
365.468	345.38
365.694	330.38
365.92	347.38
366.147	320.38
366.373	325.38
366.599	326.38
366.826	329.38
367.052	329.38
367.278	352.38
367.505	338.38
367.731	316.38
367.957	326.38
368.184	323.38
368.41	317.38
368.636	343.38
368.862	332.38
369.089	344.38
369.315	340.38
369.541	326.38
369.767	326.38
369.993	336.38
370.219	327.38
370.445	335.38
370.672	361.38
370.898	334.38
371.124	330.38
371.35	321.38
371.576	343.38
371.802	330.38
372.028	330.38
372.254	316.38
372.48	334.38
372.706	339.38
372.932	331.38
373.158	305.38
373.384	318.38
373.61	326.38
373.835	317.38
374.061	316.38
374.287	324.38
374.513	325.38
374.739	336.38
374.965	332.38
375.191	337.38
375.416	321.38
375.642	310.38
375.868	332.38
376.094	309.38
376.319	329.38
376.545	331.38
376.771	310.38
376.997	322.38
377.222	292.38
377.448	311.38
377.674	318.38
377.899	337.38
378.125	322.38
378.35	321.38
378.576	321.38
378.802	318.38
379.027	327.38
379.253	312.38
379.478	308.38
379.704	310.38
379.929	325.38
380.155	325.38
380.38	326.38
380.606	318.38
380.831	314.38
381.057	330.38
381.282	328.38
381.507	325.38
381.733	332.38
381.958	333.38
382.184	346.38
382.409	317.38
382.634	330.38
382.86	317.38
383.085	332.38
383.31	341.38
383.535	336.38
383.761	341.38
383.986	333.38
384.211	329.38
384.436	357.38
384.662	344.38
384.887	355.38
385.112	331.38
385.337	333.38
385.562	332.38
385.787	335.38
386.013	362.38
386.238	354.38
386.463	348.38
386.688	346.38
386.913	343.38
387.138	344.38
387.363	325.38
387.588	341.38
387.813	364.38
388.038	335.38
388.263	333.38
388.488	347.38
388.713	332.38
388.938	363.38
389.163	364.38
389.387	358.38
389.612	346.38
389.837	356.38
390.062	354.38
390.287	344.38
390.512	325.38
390.736	362.38
390.961	350.38
391.186	338.38
391.411	364.38
391.636	336.38
391.86	353.38
392.085	362.38
392.31	351.38
392.534	365.38
392.759	350.38
392.984	335.38
393.208	335.38
393.433	359.38
393.658	360.38
393.882	349.38
394.107	354.38
394.331	341.38
394.556	343.38
394.78	355.38
395.005	346.38
395.229	373.38
395.454	359.38
395.678	365.38
395.903	371.38
396.127	381.38
396.352	377.38
396.576	360.38
396.801	374.38
397.025	357.38
397.249	352.38
397.474	373.38
397.698	369.38
397.922	386.38
398.147	378.38
398.371	386.38
398.595	400.38
398.82	374.38
399.044	401.38
399.268	393.38
399.492	423.38
399.717	422.38
399.941	430.38
400.165	461.38
400.389	473.38
400.613	455.38
400.837	420.38
401.062	406.38
401.286	413.38
401.51	419.38
401.734	395.38
401.958	413.38
402.182	412.38
402.406	422.38
402.63	411.38
402.854	395.38
403.078	422.38
403.302	406.38
403.526	394.38
403.75	408.38
403.974	419.38
404.198	413.38
404.422	409.38
404.645	416.38
404.869	423.38
405.093	451.38
405.317	467.38
405.541	487.38
405.765	472.38
405.988	446.38
406.212	449.38
406.436	466.38
406.66	477.38
406.883	454.38
407.107	470.38
407.331	510.38
407.555	539.38
407.778	540.38
408.002	477.38
408.226	487.38
408.449	472.38
408.673	469.38
408.896	486.38
409.12	512.38
409.344	487.38
409.567	449.38
409.791	429.38
410.014	425.38
410.238	431.38
410.461	402.38
410.685	417.38
410.908	420.38
411.132	463.38
411.355	479.38
411.578	464.38
411.802	429.38
412.025	417.38
412.249	418.38
412.472	449.38
412.695	464.38
412.919	469.38
413.142	452.38
413.365	422.38
413.589	406.38
413.812	405.38
414.035	393.38
414.258	405.38
414.482	395.38
414.705	393.38
414.928	376.38
415.151	376.38
415.374	407.38
415.597	391.38
415.821	394.38
416.044	398.38
416.267	385.38
416.49	392.38
416.713	394.38
416.936	384.38
417.159	383.38
417.382	390.38
417.605	393.38
417.828	415.38
418.051	418.38
418.274	401.38
418.497	394.38
418.72	388.38
418.943	411.38
419.166	385.38
419.389	411.38
419.611	427.38
419.834	417.38
420.057	395.38
420.28	409.38
420.503	422.38
420.726	426.38
420.948	435.38
421.171	450.38
421.394	471.38
421.617	421.38
421.839	413.38
422.062	435.38
422.285	438.38
422.507	470.38
422.73	537.38
422.953	535.38
423.175	462.38
423.398	443.38
423.621	427.38
423.843	456.38
424.066	439.38
424.288	451.38
424.511	455.38
424.733	515.38
424.956	585.38
425.178	533.38
425.401	536.38
425.623	577.38
425.846	495.38
426.068	463.38
426.291	448.38
426.513	452.38
426.735	451.38
426.958	490.38
427.18	574.38
427.402	695.38
427.625	740.38
427.847	679.38
428.069	603.38
428.292	509.38
428.514	477.38
428.736	440.38
428.958	434.38
429.181	424.38
429.403	429.38
429.625	443.38
429.847	462.38
430.069	505.38
430.292	519.38
430.514	449.38
430.736	417.38
430.958	406.38
431.18	410.38
431.402	422.38
431.624	402.38
431.846	386.38
432.068	380.38
432.29	429.38
432.512	389.38
432.734	412.38
432.956	397.38
433.178	416.38
433.4	415.38
433.622	406.38
433.844	404.38
434.066	395.38
434.287	403.38
434.509	387.38
434.731	403.38
434.953	413.38
435.175	414.38
435.397	454.38
435.618	449.38
435.84	497.38
436.062	582.38
436.284	649.38
436.505	527.38
436.727	461.38
436.949	463.38
437.17	444.38
437.392	438.38
437.614	439.38
437.835	465.38
438.057	562.38
438.278	638.38
438.5	640.38
438.721	658.38
438.943	673.38
439.165	569.38
439.386	471.38
439.608	462.38
439.829	464.38
440.05	506.38
440.272	553.38
440.493	506.38
440.715	462.38
440.936	435.38
441.158	439.38
441.379	446.38
441.6	438.38
441.822	450.38
442.043	489.38
442.264	563.38
442.486	603.38
442.707	518.38
442.928	461.38
443.149	466.38
443.371	503.38
443.592	509.38
443.813	599.38
444.034	646.38
444.255	543.38
444.476	467.38
444.698	443.38
444.919	459.38
445.14	570.38
445.361	516.38
445.582	511.38
445.803	569.38
446.024	643.38
446.245	659.38
446.466	604.38
446.687	508.38
446.908	467.38
447.129	439.38
447.35	420.38
447.571	424.38
447.792	445.38
448.013	429.38
448.234	447.38
448.455	491.38
448.675	597.38
448.896	676.38
449.117	584.38
449.338	561.38
449.559	635.38
449.779	719.38
450	565.38
450.221	485.38
450.442	445.38
450.662	430.38
450.883	433.38
451.104	441.38
451.324	447.38
451.545	418.38
451.766	389.38
451.986	396.38
452.207	374.38
452.428	373.38
452.648	398.38
452.869	398.38
453.089	397.38
453.31	409.38
453.53	390.38
453.751	403.38
453.971	403.38
454.192	415.38
454.412	405.38
454.633	390.38
454.853	383.38
455.073	389.38
455.294	410.38
455.514	483.38
455.734	447.38
455.955	394.38
456.175	363.38
456.395	361.38
456.616	373.38
456.836	356.38
457.056	359.38
457.276	355.38
457.497	381.38
457.717	381.38
457.937	372.38
458.157	361.38
458.377	379.38
458.598	386.38
458.818	471.38
459.038	548.38
459.258	549.38
459.478	473.38
459.698	425.38
459.918	396.38
460.138	417.38
460.358	409.38
460.578	389.38
460.798	397.38
461.018	425.38
461.238	411.38
461.458	400.38
461.678	395.38
461.898	400.38
462.118	391.38
462.338	395.38
462.558	418.38
462.777	404.38
462.997	395.38
463.217	399.38
463.437	425.38
463.657	417.38
463.876	409.38
464.096	430.38
464.316	422.38
464.536	430.38
464.755	429.38
464.975	426.38
465.195	491.38
465.414	558.38
465.634	521.38
465.854	468.38
466.073	433.38
466.293	410.38
466.512	390.38
466.732	397.38
466.951	398.38
467.171	383.38
467.391	397.38
467.61	403.38
467.829	407.38
468.049	437.38
468.268	415.38
468.488	397.38
468.707	408.38
468.927	401.38
469.146	393.38
469.365	382.38
469.585	362.38
469.804	383.38
470.023	409.38
470.243	396.38
470.462	431.38
470.681	445.38
470.901	420.38
471.12	407.38
471.339	393.38
471.558	403.38
471.777	396.38
471.997	405.38
472.216	410.38
472.435	452.38
472.654	439.38
472.873	414.38
473.092	416.38
473.311	407.38
473.53	389.38
473.749	414.38
473.968	457.38
474.187	539.38
474.406	557.38
474.625	458.38
474.844	417.38
475.063	395.38
475.282	402.38
475.501	412.38
475.72	417.38
475.939	413.38
476.158	415.38
476.377	398.38
476.596	442.38
476.814	418.38
477.033	426.38
477.252	418.38
477.471	436.38
477.69	443.38
477.908	423.38
478.127	443.38
478.346	414.38
478.564	444.38
478.783	443.38
479.002	455.38
479.22	443.38
479.439	454.38
479.658	487.38
479.876	490.38
480.095	494.38
480.313	522.38
480.532	508.38
480.751	492.38
480.969	520.38
481.188	559.38
481.406	601.38
481.624	520.38
481.843	513.38
482.061	493.38
482.28	458.38
482.498	491.38
482.717	485.38
482.935	479.38
483.153	476.38
483.372	470.38
483.59	469.38
483.808	471.38
484.027	470.38
484.245	463.38
484.463	474.38
484.681	485.38
484.9	468.38
485.118	499.38
485.336	483.38
485.554	494.38
485.772	474.38
485.99	478.38
486.209	477.38
486.427	478.38
486.645	499.38
486.863	511.38
487.081	513.38
487.299	505.38
487.517	500.38
487.735	498.38
487.953	487.38
488.171	507.38
488.389	486.38
488.607	508.38
488.825	522.38
489.043	524.38
489.261	527.38
489.479	500.38
489.696	509.38
489.914	519.38
490.132	510.38
490.35	516.38
490.568	524.38
490.786	546.38
491.003	558.38
491.221	545.38
491.439	555.38
491.657	589.38
491.874	568.38
492.092	571.38
492.31	573.38
492.527	589.38
492.745	577.38
492.963	583.38
493.18	579.38
493.398	591.38
493.615	584.38
493.833	557.38
494.05	578.38
494.268	603.38
494.485	579.38
494.703	572.38
494.92	588.38
495.138	575.38
495.355	587.38
495.573	604.38
495.79	598.38
496.008	590.38
496.225	590.38
496.442	600.38
496.66	586.38
496.877	615.38
497.094	607.38
497.312	598.38
497.529	615.38
497.746	621.38
497.963	619.38
498.181	625.38
498.398	636.38
498.615	664.38
498.832	672.38
499.049	677.38
499.267	660.38
499.484	673.38
499.701	700.38
499.918	693.38
500.135	717.38
500.352	710.38
500.569	762.38
500.786	744.38
501.003	737.38
501.22	756.38
501.437	730.38
501.654	723.38
501.871	763.38
502.088	696.38
