Data from 1961.PennyLincolnUp.Lamp.En5.5.200Scan.071719.P1._HRD10591_13-46-31-057.txt Node
Date: Thu Jul 18 13:46:31 EDT 2019
User: cochatt
Spectrometer: HR+D1059
Trigger mode: 1
Integration Time (sec): 1.000000E-1
Scans to average: 1
Electric dark correction enabled: true
Nonlinearity correction enabled: false
Boxcar width: 0
XAxis mode: Wavelengths
Number of Pixels in Spectrum: 2048
>>>>>Begin Spectral Data<<<<<
223.165	-11.12
223.4	-11.12
223.635	-11.12
223.869	-13.12
224.104	-14.12
224.338	-9.12
224.573	-3.12
224.808	-19.12
225.042	5.88
225.277	-23.12
225.511	-7.12
225.746	1.88
225.98	8.88
226.215	12.88
226.449	10.88
226.683	15.88
226.918	12.88
227.152	30.88
227.387	39.88
227.621	34.88
227.856	58.88
228.09	56.88
228.324	56.88
228.559	56.88
228.793	51.88
229.027	68.88
229.262	82.88
229.496	97.88
229.73	112.88
229.964	119.88
230.199	98.88
230.433	95.88
230.667	101.88
230.901	84.88
231.136	103.88
231.37	107.88
231.604	95.88
231.838	101.88
232.072	100.88
232.306	104.88
232.541	102.88
232.775	99.88
233.009	100.88
233.243	100.88
233.477	104.88
233.711	115.88
233.945	113.88
234.179	103.88
234.413	104.88
234.647	92.88
234.881	97.88
235.115	99.88
235.349	113.88
235.583	95.88
235.817	103.88
236.051	116.88
236.285	115.88
236.519	110.88
236.753	104.88
236.987	116.88
237.221	140.88
237.455	184.88
237.689	136.88
237.922	115.88
238.156	120.88
238.39	106.88
238.624	114.88
238.858	116.88
239.091	116.88
239.325	93.88
239.559	106.88
239.793	107.88
240.027	98.88
240.26	126.88
240.494	129.88
240.728	115.88
240.961	106.88
241.195	105.88
241.429	115.88
241.662	114.88
241.896	112.88
242.13	97.88
242.363	118.88
242.597	107.88
242.83	108.88
243.064	121.88
243.298	120.88
243.531	122.88
243.765	118.88
243.998	123.88
244.232	115.88
244.465	125.88
244.699	139.88
244.932	120.88
245.166	109.88
245.399	120.88
245.633	128.88
245.866	128.88
246.099	123.88
246.333	109.88
246.566	116.88
246.8	119.88
247.033	124.88
247.266	121.88
247.5	128.88
247.733	122.88
247.966	129.88
248.2	141.88
248.433	121.88
248.666	125.88
248.899	137.88
249.133	142.88
249.366	150.88
249.599	148.88
249.832	145.88
250.066	131.88
250.299	145.88
250.532	146.88
250.765	151.88
250.998	161.88
251.231	155.88
251.465	156.88
251.698	149.88
251.931	147.88
252.164	142.88
252.397	147.88
252.63	140.88
252.863	149.88
253.096	173.88
253.329	165.88
253.562	180.88
253.795	158.88
254.028	165.88
254.261	156.88
254.494	168.88
254.727	176.88
254.96	193.88
255.193	177.88
255.426	186.88
255.659	160.88
255.892	166.88
256.124	187.88
256.357	168.88
256.59	167.88
256.823	162.88
257.056	167.88
257.289	167.88
257.521	148.88
257.754	182.88
257.987	171.88
258.22	142.88
258.452	139.88
258.685	161.88
258.918	156.88
259.151	166.88
259.383	165.88
259.616	162.88
259.849	176.88
260.081	171.88
260.314	181.88
260.547	182.88
260.779	179.88
261.012	182.88
261.244	166.88
261.477	178.88
261.71	156.88
261.942	172.88
262.175	172.88
262.407	186.88
262.64	173.88
262.872	177.88
263.105	156.88
263.337	162.88
263.57	157.88
263.802	149.88
264.035	149.88
264.267	163.88
264.499	177.88
264.732	160.88
264.964	148.88
265.197	132.88
265.429	142.88
265.661	154.88
265.894	155.88
266.126	163.88
266.358	171.88
266.591	163.88
266.823	197.88
267.055	168.88
267.287	170.88
267.52	163.88
267.752	166.88
267.984	164.88
268.216	163.88
268.448	162.88
268.681	186.88
268.913	186.88
269.145	184.88
269.377	196.88
269.609	191.88
269.841	180.88
270.073	179.88
270.306	197.88
270.538	194.88
270.77	198.88
271.002	204.88
271.234	203.88
271.466	209.88
271.698	215.88
271.93	203.88
272.162	217.88
272.394	197.88
272.626	198.88
272.858	203.88
273.09	190.88
273.322	188.88
273.553	196.88
273.785	188.88
274.017	198.88
274.249	208.88
274.481	196.88
274.713	178.88
274.945	193.88
275.176	186.88
275.408	187.88
275.64	189.88
275.872	187.88
276.104	203.88
276.335	188.88
276.567	192.88
276.799	200.88
277.031	185.88
277.262	218.88
277.494	207.88
277.726	198.88
277.957	211.88
278.189	196.88
278.421	196.88
278.652	189.88
278.884	208.88
279.115	186.88
279.347	196.88
279.579	184.88
279.81	184.88
280.042	180.88
280.273	190.88
280.505	179.88
280.736	188.88
280.968	198.88
281.199	195.88
281.431	193.88
281.662	185.88
281.894	183.88
282.125	186.88
282.356	208.88
282.588	229.88
282.819	219.88
283.051	206.88
283.282	192.88
283.513	208.88
283.745	170.88
283.976	184.88
284.207	203.88
284.439	196.88
284.67	199.88
284.901	187.88
285.132	203.88
285.364	202.88
285.595	204.88
285.826	193.88
286.057	199.88
286.288	198.88
286.52	178.88
286.751	198.88
286.982	209.88
287.213	206.88
287.444	211.88
287.675	207.88
287.906	207.88
288.138	201.88
288.369	211.88
288.6	204.88
288.831	208.88
289.062	212.88
289.293	202.88
289.524	194.88
289.755	193.88
289.986	208.88
290.217	195.88
290.448	201.88
290.679	196.88
290.91	196.88
291.141	203.88
291.371	200.88
291.602	205.88
291.833	204.88
292.064	203.88
292.295	199.88
292.526	192.88
292.757	194.88
292.987	193.88
293.218	198.88
293.449	207.88
293.68	190.88
293.91	205.88
294.141	208.88
294.372	196.88
294.603	199.88
294.833	206.88
295.064	208.88
295.295	214.88
295.525	202.88
295.756	212.88
295.987	218.88
296.217	225.88
296.448	218.88
296.679	235.88
296.909	220.88
297.14	193.88
297.37	219.88
297.601	195.88
297.831	208.88
298.062	217.88
298.292	211.88
298.523	205.88
298.753	218.88
298.984	190.88
299.214	211.88
299.445	217.88
299.675	193.88
299.905	212.88
300.136	213.88
300.366	212.88
300.597	218.88
300.827	233.88
301.057	230.88
301.288	220.88
301.518	231.88
301.748	240.88
301.979	211.88
302.209	234.88
302.439	214.88
302.669	215.88
302.9	232.88
303.13	227.88
303.36	218.88
303.59	231.88
303.82	240.88
304.051	221.88
304.281	244.88
304.511	229.88
304.741	240.88
304.971	220.88
305.201	249.88
305.431	216.88
305.661	238.88
305.891	227.88
306.121	231.88
306.352	221.88
306.582	216.88
306.812	221.88
307.042	218.88
307.272	231.88
307.502	213.88
307.731	228.88
307.961	220.88
308.191	242.88
308.421	228.88
308.651	256.88
308.881	232.88
309.111	235.88
309.341	252.88
309.571	251.88
309.8	241.88
310.03	248.88
310.26	262.88
310.49	246.88
310.72	248.88
310.949	278.88
311.179	271.88
311.409	248.88
311.639	251.88
311.868	235.88
312.098	257.88
312.328	282.88
312.557	278.88
312.787	288.88
313.017	266.88
313.246	266.88
313.476	252.88
313.706	267.88
313.935	269.88
314.165	254.88
314.394	277.88
314.624	267.88
314.853	267.88
315.083	258.88
315.312	243.88
315.542	264.88
315.771	243.88
316.001	253.88
316.23	259.88
316.46	279.88
316.689	259.88
316.919	275.88
317.148	268.88
317.377	254.88
317.607	259.88
317.836	262.88
318.065	253.88
318.295	252.88
318.524	253.88
318.753	253.88
318.983	261.88
319.212	278.88
319.441	294.88
319.67	265.88
319.9	263.88
320.129	257.88
320.358	278.88
320.587	284.88
320.816	280.88
321.046	251.88
321.275	261.88
321.504	273.88
321.733	286.88
321.962	272.88
322.191	293.88
322.42	300.88
322.649	316.88
322.878	316.88
323.108	337.88
323.337	322.88
323.566	337.88
323.795	373.88
324.024	394.88
324.253	474.88
324.482	674.88
324.71	1032.88
324.939	1407.88
325.168	1221.88
325.397	626.88
325.626	458.88
325.855	374.88
326.084	368.88
326.313	361.88
326.542	347.88
326.77	385.88
326.999	436.88
327.228	616.88
327.457	956.88
327.686	1091.88
327.914	708.88
328.143	464.88
328.372	434.88
328.6	408.88
328.829	383.88
329.058	368.88
329.287	374.88
329.515	364.88
329.744	353.88
329.972	356.88
330.201	370.88
330.43	370.88
330.658	401.88
330.887	425.88
331.115	396.88
331.344	348.88
331.572	325.88
331.801	326.88
332.03	325.88
332.258	326.88
332.486	325.88
332.715	293.88
332.943	304.88
333.172	310.88
333.4	332.88
333.629	310.88
333.857	321.88
334.085	329.88
334.314	352.88
334.542	358.88
334.771	369.88
334.999	338.88
335.227	314.88
335.455	320.88
335.684	327.88
335.912	316.88
336.14	306.88
336.369	305.88
336.597	308.88
336.825	296.88
337.053	299.88
337.281	298.88
337.51	300.88
337.738	307.88
337.966	288.88
338.194	300.88
338.422	299.88
338.65	294.88
338.878	297.88
339.106	279.88
339.334	289.88
339.562	283.88
339.79	290.88
340.018	294.88
340.246	293.88
340.474	306.88
340.702	288.88
340.93	284.88
341.158	276.88
341.386	308.88
341.614	286.88
341.842	308.88
342.07	290.88
342.298	267.88
342.526	284.88
342.754	273.88
342.981	279.88
343.209	281.88
343.437	274.88
343.665	292.88
343.893	288.88
344.12	294.88
344.348	290.88
344.576	289.88
344.804	297.88
345.031	304.88
345.259	321.88
345.487	302.88
345.714	292.88
345.942	284.88
346.17	275.88
346.397	282.88
346.625	296.88
346.853	276.88
347.08	280.88
347.308	300.88
347.535	283.88
347.763	289.88
347.99	302.88
348.218	295.88
348.445	294.88
348.673	304.88
348.9	306.88
349.128	281.88
349.355	267.88
349.583	280.88
349.81	274.88
350.037	283.88
350.265	288.88
350.492	288.88
350.72	277.88
350.947	272.88
351.174	285.88
351.402	297.88
351.629	278.88
351.856	305.88
352.083	294.88
352.311	304.88
352.538	284.88
352.765	298.88
352.992	290.88
353.22	287.88
353.447	288.88
353.674	288.88
353.901	275.88
354.128	270.88
354.355	269.88
354.583	275.88
354.81	272.88
355.037	278.88
355.264	260.88
355.491	286.88
355.718	293.88
355.945	275.88
356.172	271.88
356.399	272.88
356.626	289.88
356.853	270.88
357.08	277.88
357.307	269.88
357.534	272.88
357.761	262.88
357.988	263.88
358.215	276.88
358.441	284.88
358.668	277.88
358.895	260.88
359.122	281.88
359.349	275.88
359.576	285.88
359.802	311.88
360.029	315.88
360.256	317.88
360.483	290.88
360.709	282.88
360.936	295.88
361.163	295.88
361.39	294.88
361.616	298.88
361.843	281.88
362.07	308.88
362.296	294.88
362.523	285.88
362.749	292.88
362.976	279.88
363.203	270.88
363.429	272.88
363.656	291.88
363.882	281.88
364.109	279.88
364.335	273.88
364.562	279.88
364.788	256.88
365.015	289.88
365.241	278.88
365.468	257.88
365.694	289.88
365.92	283.88
366.147	306.88
366.373	285.88
366.599	280.88
366.826	266.88
367.052	279.88
367.278	273.88
367.505	288.88
367.731	299.88
367.957	292.88
368.184	290.88
368.41	275.88
368.636	281.88
368.862	306.88
369.089	282.88
369.315	280.88
369.541	273.88
369.767	265.88
369.993	279.88
370.219	272.88
370.445	278.88
370.672	274.88
370.898	274.88
371.124	256.88
371.35	285.88
371.576	264.88
371.802	276.88
372.028	266.88
372.254	285.88
372.48	261.88
372.706	262.88
372.932	280.88
373.158	276.88
373.384	295.88
373.61	271.88
373.835	274.88
374.061	262.88
374.287	279.88
374.513	278.88
374.739	273.88
374.965	273.88
375.191	272.88
375.416	275.88
375.642	276.88
375.868	271.88
376.094	278.88
376.319	287.88
376.545	288.88
376.771	284.88
376.997	267.88
377.222	277.88
377.448	276.88
377.674	268.88
377.899	273.88
378.125	269.88
378.35	269.88
378.576	277.88
378.802	285.88
379.027	281.88
379.253	268.88
379.478	280.88
379.704	267.88
379.929	278.88
380.155	275.88
380.38	281.88
380.606	266.88
380.831	280.88
381.057	299.88
381.282	267.88
381.507	270.88
381.733	284.88
381.958	295.88
382.184	276.88
382.409	276.88
382.634	274.88
382.86	298.88
383.085	285.88
383.31	276.88
383.535	285.88
383.761	307.88
383.986	297.88
384.211	299.88
384.436	291.88
384.662	300.88
384.887	288.88
385.112	283.88
385.337	300.88
385.562	290.88
385.787	281.88
386.013	307.88
386.238	308.88
386.463	305.88
386.688	299.88
386.913	297.88
387.138	307.88
387.363	292.88
387.588	287.88
387.813	304.88
388.038	285.88
388.263	299.88
388.488	307.88
388.713	305.88
388.938	300.88
389.163	317.88
389.387	298.88
389.612	288.88
389.837	282.88
390.062	298.88
390.287	284.88
390.512	298.88
390.736	301.88
390.961	300.88
391.186	304.88
391.411	318.88
391.636	318.88
391.86	310.88
392.085	296.88
392.31	312.88
392.534	302.88
392.759	306.88
392.984	301.88
393.208	319.88
393.433	313.88
393.658	338.88
393.882	314.88
394.107	302.88
394.331	305.88
394.556	298.88
394.78	306.88
395.005	316.88
395.229	309.88
395.454	328.88
395.678	312.88
395.903	332.88
396.127	303.88
396.352	329.88
396.576	324.88
396.801	332.88
397.025	324.88
397.249	305.88
397.474	327.88
397.698	341.88
397.922	331.88
398.147	337.88
398.371	343.88
398.595	339.88
398.82	352.88
399.044	332.88
399.268	353.88
399.492	374.88
399.717	365.88
399.941	388.88
400.165	404.88
400.389	410.88
400.613	397.88
400.837	361.88
401.062	352.88
401.286	357.88
401.51	339.88
401.734	331.88
401.958	339.88
402.182	349.88
402.406	348.88
402.63	342.88
402.854	337.88
403.078	339.88
403.302	364.88
403.526	347.88
403.75	384.88
403.974	346.88
404.198	333.88
404.422	336.88
404.645	342.88
404.869	376.88
405.093	374.88
405.317	406.88
405.541	435.88
405.765	392.88
405.988	384.88
406.212	363.88
406.436	395.88
406.66	388.88
406.883	381.88
407.107	385.88
407.331	440.88
407.555	458.88
407.778	470.88
408.002	424.88
408.226	390.88
408.449	389.88
408.673	391.88
408.896	387.88
409.12	421.88
409.344	406.88
409.567	368.88
409.791	372.88
410.014	361.88
410.238	368.88
410.461	362.88
410.685	356.88
410.908	383.88
411.132	390.88
411.355	406.88
411.578	398.88
411.802	369.88
412.025	351.88
412.249	378.88
412.472	371.88
412.695	397.88
412.919	402.88
413.142	372.88
413.365	365.88
413.589	351.88
413.812	334.88
414.035	348.88
414.258	332.88
414.482	345.88
414.705	328.88
414.928	342.88
415.151	336.88
415.374	344.88
415.597	335.88
415.821	335.88
416.044	316.88
416.267	343.88
416.49	314.88
416.713	342.88
416.936	326.88
417.159	328.88
417.382	342.88
417.605	337.88
417.828	348.88
418.051	355.88
418.274	345.88
418.497	345.88
418.72	341.88
418.943	347.88
419.166	333.88
419.389	363.88
419.611	361.88
419.834	350.88
420.057	354.88
420.28	337.88
420.503	341.88
420.726	338.88
420.948	365.88
421.171	398.88
421.394	395.88
421.617	371.88
421.839	351.88
422.062	357.88
422.285	372.88
422.507	393.88
422.73	443.88
422.953	404.88
423.175	380.88
423.398	361.88
423.621	352.88
423.843	380.88
424.066	371.88
424.288	358.88
424.511	398.88
424.733	416.88
424.956	459.88
425.178	473.88
425.401	441.88
425.623	454.88
425.846	414.88
426.068	386.88
426.291	386.88
426.513	366.88
426.735	388.88
426.958	411.88
427.18	488.88
427.402	524.88
427.625	590.88
427.847	535.88
428.069	471.88
428.292	433.88
428.514	398.88
428.736	370.88
428.958	352.88
429.181	353.88
429.403	364.88
429.625	364.88
429.847	397.88
430.069	424.88
430.292	434.88
430.514	358.88
430.736	364.88
430.958	345.88
431.18	342.88
431.402	333.88
431.624	330.88
431.846	329.88
432.068	325.88
432.29	341.88
432.512	333.88
432.734	351.88
432.956	340.88
433.178	330.88
433.4	363.88
433.622	345.88
433.844	344.88
434.066	355.88
434.287	339.88
434.509	349.88
434.731	358.88
434.953	364.88
435.175	361.88
435.397	370.88
435.618	397.88
435.84	425.88
436.062	459.88
436.284	513.88
436.505	440.88
436.727	399.88
436.949	395.88
437.17	363.88
437.392	370.88
437.614	368.88
437.835	374.88
438.057	458.88
438.278	525.88
438.5	496.88
438.721	560.88
438.943	521.88
439.165	443.88
439.386	402.88
439.608	392.88
439.829	396.88
440.05	411.88
440.272	426.88
440.493	401.88
440.715	374.88
440.936	385.88
441.158	372.88
441.379	352.88
441.6	376.88
441.822	364.88
442.043	394.88
442.264	466.88
442.486	484.88
442.707	408.88
442.928	396.88
443.149	403.88
443.371	409.88
443.592	445.88
443.813	478.88
444.034	542.88
444.255	430.88
444.476	380.88
444.698	376.88
444.919	372.88
445.14	526.88
445.361	450.88
445.582	436.88
445.803	466.88
446.024	543.88
446.245	530.88
446.466	477.88
446.687	409.88
446.908	394.88
447.129	380.88
447.35	384.88
447.571	359.88
447.792	365.88
448.013	358.88
448.234	373.88
448.455	398.88
448.675	485.88
448.896	573.88
449.117	460.88
449.338	458.88
449.559	544.88
449.779	590.88
450	458.88
450.221	399.88
450.442	368.88
450.662	355.88
450.883	345.88
451.104	374.88
451.324	354.88
451.545	350.88
451.766	347.88
451.986	336.88
452.207	327.88
452.428	338.88
452.648	324.88
452.869	320.88
453.089	323.88
453.31	352.88
453.53	335.88
453.751	321.88
453.971	340.88
454.192	345.88
454.412	330.88
454.633	308.88
454.853	334.88
455.073	342.88
455.294	347.88
455.514	363.88
455.734	373.88
455.955	340.88
456.175	325.88
456.395	301.88
456.616	321.88
456.836	324.88
457.056	328.88
457.276	314.88
457.497	320.88
457.717	315.88
457.937	312.88
458.157	314.88
458.377	322.88
458.598	334.88
458.818	387.88
459.038	438.88
459.258	437.88
459.478	384.88
459.698	347.88
459.918	349.88
460.138	343.88
460.358	358.88
460.578	344.88
460.798	339.88
461.018	340.88
461.238	336.88
461.458	366.88
461.678	356.88
461.898	331.88
462.118	357.88
462.338	334.88
462.558	341.88
462.777	369.88
462.997	369.88
463.217	397.88
463.437	395.88
463.657	352.88
463.876	359.88
464.096	363.88
464.316	347.88
464.536	371.88
464.755	348.88
464.975	374.88
465.195	406.88
465.414	445.88
465.634	411.88
465.854	389.88
466.073	360.88
466.293	346.88
466.512	341.88
466.732	339.88
466.951	332.88
467.171	338.88
467.391	334.88
467.61	345.88
467.829	361.88
468.049	344.88
468.268	333.88
468.488	333.88
468.707	325.88
468.927	338.88
469.146	331.88
469.365	346.88
469.585	324.88
469.804	326.88
470.023	347.88
470.243	337.88
470.462	348.88
470.681	365.88
470.901	352.88
471.12	333.88
471.339	341.88
471.558	340.88
471.777	334.88
471.997	331.88
472.216	337.88
472.435	378.88
472.654	358.88
472.873	351.88
473.092	334.88
473.311	334.88
473.53	340.88
473.749	359.88
473.968	362.88
474.187	435.88
474.406	456.88
474.625	363.88
474.844	339.88
475.063	352.88
475.282	347.88
475.501	344.88
475.72	334.88
475.939	347.88
476.158	351.88
476.377	352.88
476.596	368.88
476.814	354.88
477.033	360.88
477.252	364.88
477.471	373.88
477.69	371.88
477.908	373.88
478.127	368.88
478.346	351.88
478.564	373.88
478.783	366.88
479.002	393.88
479.22	363.88
479.439	380.88
479.658	408.88
479.876	396.88
480.095	403.88
480.313	432.88
480.532	408.88
480.751	419.88
480.969	411.88
481.188	453.88
481.406	488.88
481.624	418.88
481.843	406.88
482.061	392.88
482.28	404.88
482.498	399.88
482.717	393.88
482.935	400.88
483.153	380.88
483.372	408.88
483.59	391.88
483.808	407.88
484.027	389.88
484.245	398.88
484.463	393.88
484.681	401.88
484.9	436.88
485.118	398.88
485.336	399.88
485.554	412.88
485.772	416.88
485.99	421.88
486.209	422.88
486.427	417.88
486.645	438.88
486.863	430.88
487.081	424.88
487.299	420.88
487.517	427.88
487.735	435.88
487.953	436.88
488.171	427.88
488.389	441.88
488.607	418.88
488.825	422.88
489.043	424.88
489.261	428.88
489.479	435.88
489.696	428.88
489.914	432.88
490.132	424.88
490.35	429.88
490.568	444.88
490.786	446.88
491.003	469.88
491.221	463.88
491.439	467.88
491.657	461.88
491.874	467.88
492.092	481.88
492.31	457.88
492.527	474.88
492.745	453.88
492.963	470.88
493.18	486.88
493.398	480.88
493.615	481.88
493.833	496.88
494.05	515.88
494.268	493.88
494.485	480.88
494.703	478.88
494.92	487.88
495.138	464.88
495.355	505.88
495.573	493.88
495.79	477.88
496.008	478.88
496.225	499.88
496.442	499.88
496.66	504.88
496.877	506.88
497.094	506.88
497.312	533.88
497.529	526.88
497.746	522.88
497.963	530.88
498.181	528.88
498.398	529.88
498.615	550.88
498.832	567.88
499.049	571.88
499.267	572.88
499.484	589.88
499.701	630.88
499.918	589.88
500.135	627.88
500.352	641.88
500.569	628.88
500.786	616.88
501.003	636.88
501.22	624.88
501.437	632.88
501.654	616.88
501.871	605.88
502.088	592.88
