Data from 1961.PennyLincolnUp.Lamp.En5.5.200Scan.071719.P1._HRD10591_13-46-20-057.txt Node
Date: Thu Jul 18 13:46:20 EDT 2019
User: cochatt
Spectrometer: HR+D1059
Trigger mode: 1
Integration Time (sec): 1.000000E-1
Scans to average: 1
Electric dark correction enabled: true
Nonlinearity correction enabled: false
Boxcar width: 0
XAxis mode: Wavelengths
Number of Pixels in Spectrum: 2048
>>>>>Begin Spectral Data<<<<<
223.165	-14.94
223.4	-14.94
223.635	-14.94
223.869	-9.94
224.104	-7.94
224.338	-19.94
224.573	-1.94
224.808	-11.94
225.042	-16.94
225.277	-7.94
225.511	-14.94
225.746	3.06
225.98	6.06
226.215	14.06
226.449	11.06
226.683	29.06
226.918	15.06
227.152	28.06
227.387	29.06
227.621	32.06
227.856	41.06
228.09	24.06
228.324	39.06
228.559	46.06
228.793	68.06
229.027	76.06
229.262	94.06
229.496	76.06
229.73	97.06
229.964	114.06
230.199	100.06
230.433	77.06
230.667	89.06
230.901	110.06
231.136	88.06
231.37	87.06
231.604	89.06
231.838	92.06
232.072	101.06
232.306	89.06
232.541	97.06
232.775	79.06
233.009	94.06
233.243	104.06
233.477	92.06
233.711	107.06
233.945	103.06
234.179	96.06
234.413	104.06
234.647	102.06
234.881	98.06
235.115	91.06
235.349	97.06
235.583	106.06
235.817	91.06
236.051	94.06
236.285	96.06
236.519	104.06
236.753	108.06
236.987	110.06
237.221	121.06
237.455	144.06
237.689	132.06
237.922	98.06
238.156	96.06
238.39	108.06
238.624	93.06
238.858	105.06
239.091	98.06
239.325	96.06
239.559	115.06
239.793	108.06
240.027	100.06
240.26	94.06
240.494	111.06
240.728	114.06
240.961	95.06
241.195	120.06
241.429	107.06
241.662	108.06
241.896	91.06
242.13	110.06
242.363	109.06
242.597	117.06
242.83	110.06
243.064	101.06
243.298	93.06
243.531	112.06
243.765	101.06
243.998	103.06
244.232	110.06
244.465	95.06
244.699	117.06
244.932	115.06
245.166	123.06
245.399	106.06
245.633	120.06
245.866	110.06
246.099	122.06
246.333	114.06
246.566	123.06
246.8	117.06
247.033	104.06
247.266	123.06
247.5	113.06
247.733	128.06
247.966	136.06
248.2	135.06
248.433	108.06
248.666	139.06
248.899	124.06
249.133	140.06
249.366	146.06
249.599	124.06
249.832	140.06
250.066	115.06
250.299	129.06
250.532	130.06
250.765	129.06
250.998	134.06
251.231	145.06
251.465	144.06
251.698	140.06
251.931	121.06
252.164	140.06
252.397	126.06
252.63	145.06
252.863	140.06
253.096	148.06
253.329	156.06
253.562	149.06
253.795	138.06
254.028	146.06
254.261	140.06
254.494	153.06
254.727	161.06
254.96	167.06
255.193	176.06
255.426	171.06
255.659	140.06
255.892	148.06
256.124	153.06
256.357	150.06
256.59	173.06
256.823	168.06
257.056	169.06
257.289	162.06
257.521	150.06
257.754	156.06
257.987	145.06
258.22	141.06
258.452	142.06
258.685	145.06
258.918	138.06
259.151	145.06
259.383	159.06
259.616	162.06
259.849	163.06
260.081	157.06
260.314	165.06
260.547	157.06
260.779	140.06
261.012	151.06
261.244	144.06
261.477	149.06
261.71	151.06
261.942	134.06
262.175	164.06
262.407	162.06
262.64	154.06
262.872	157.06
263.105	146.06
263.337	154.06
263.57	144.06
263.802	148.06
264.035	144.06
264.267	140.06
264.499	138.06
264.732	142.06
264.964	140.06
265.197	146.06
265.429	158.06
265.661	151.06
265.894	140.06
266.126	141.06
266.358	151.06
266.591	161.06
266.823	155.06
267.055	159.06
267.287	151.06
267.52	130.06
267.752	149.06
267.984	157.06
268.216	151.06
268.448	165.06
268.681	155.06
268.913	146.06
269.145	149.06
269.377	173.06
269.609	169.06
269.841	172.06
270.073	170.06
270.306	182.06
270.538	200.06
270.77	180.06
271.002	186.06
271.234	168.06
271.466	185.06
271.698	187.06
271.93	188.06
272.162	196.06
272.394	193.06
272.626	194.06
272.858	188.06
273.09	162.06
273.322	161.06
273.553	185.06
273.785	185.06
274.017	193.06
274.249	171.06
274.481	166.06
274.713	166.06
274.945	176.06
275.176	174.06
275.408	165.06
275.64	183.06
275.872	170.06
276.104	170.06
276.335	186.06
276.567	179.06
276.799	184.06
277.031	185.06
277.262	206.06
277.494	195.06
277.726	186.06
277.957	173.06
278.189	161.06
278.421	184.06
278.652	180.06
278.884	176.06
279.115	172.06
279.347	163.06
279.579	180.06
279.81	177.06
280.042	178.06
280.273	179.06
280.505	196.06
280.736	171.06
280.968	168.06
281.199	163.06
281.431	184.06
281.662	172.06
281.894	174.06
282.125	190.06
282.356	197.06
282.588	202.06
282.819	192.06
283.051	149.06
283.282	169.06
283.513	187.06
283.745	177.06
283.976	187.06
284.207	174.06
284.439	186.06
284.67	196.06
284.901	178.06
285.132	175.06
285.364	181.06
285.595	189.06
285.826	189.06
286.057	181.06
286.288	187.06
286.52	188.06
286.751	187.06
286.982	195.06
287.213	197.06
287.444	184.06
287.675	184.06
287.906	189.06
288.138	189.06
288.369	186.06
288.6	192.06
288.831	186.06
289.062	195.06
289.293	186.06
289.524	179.06
289.755	192.06
289.986	181.06
290.217	198.06
290.448	187.06
290.679	211.06
290.91	200.06
291.141	198.06
291.371	203.06
291.602	180.06
291.833	208.06
292.064	177.06
292.295	192.06
292.526	184.06
292.757	209.06
292.987	188.06
293.218	188.06
293.449	189.06
293.68	188.06
293.91	174.06
294.141	186.06
294.372	188.06
294.603	184.06
294.833	213.06
295.064	187.06
295.295	203.06
295.525	206.06
295.756	197.06
295.987	204.06
296.217	192.06
296.448	210.06
296.679	193.06
296.909	194.06
297.14	191.06
297.37	206.06
297.601	187.06
297.831	206.06
298.062	197.06
298.292	200.06
298.523	204.06
298.753	196.06
298.984	182.06
299.214	197.06
299.445	198.06
299.675	194.06
299.905	206.06
300.136	190.06
300.366	189.06
300.597	208.06
300.827	207.06
301.057	203.06
301.288	210.06
301.518	207.06
301.748	210.06
301.979	207.06
302.209	216.06
302.439	208.06
302.669	213.06
302.9	214.06
303.13	217.06
303.36	213.06
303.59	208.06
303.82	223.06
304.051	204.06
304.281	213.06
304.511	211.06
304.741	234.06
304.971	214.06
305.201	202.06
305.431	204.06
305.661	211.06
305.891	208.06
306.121	203.06
306.352	216.06
306.582	211.06
306.812	215.06
307.042	194.06
307.272	198.06
307.502	219.06
307.731	206.06
307.961	223.06
308.191	205.06
308.421	211.06
308.651	211.06
308.881	201.06
309.111	229.06
309.341	220.06
309.571	217.06
309.8	237.06
310.03	268.06
310.26	240.06
310.49	250.06
310.72	249.06
310.949	230.06
311.179	242.06
311.409	226.06
311.639	239.06
311.868	244.06
312.098	243.06
312.328	236.06
312.557	248.06
312.787	251.06
313.017	267.06
313.246	257.06
313.476	249.06
313.706	231.06
313.935	255.06
314.165	245.06
314.394	271.06
314.624	243.06
314.853	236.06
315.083	224.06
315.312	256.06
315.542	244.06
315.771	230.06
316.001	239.06
316.23	232.06
316.46	229.06
316.689	236.06
316.919	224.06
317.148	259.06
317.377	252.06
317.607	239.06
317.836	236.06
318.065	242.06
318.295	252.06
318.524	248.06
318.753	237.06
318.983	268.06
319.212	235.06
319.441	233.06
319.67	252.06
319.9	227.06
320.129	243.06
320.358	251.06
320.587	244.06
320.816	254.06
321.046	267.06
321.275	241.06
321.504	242.06
321.733	255.06
321.962	273.06
322.191	262.06
322.42	283.06
322.649	288.06
322.878	282.06
323.108	304.06
323.337	285.06
323.566	325.06
323.795	318.06
324.024	339.06
324.253	411.06
324.482	563.06
324.71	866.06
324.939	1211.06
325.168	1028.06
325.397	554.06
325.626	370.06
325.855	341.06
326.084	327.06
326.313	310.06
326.542	312.06
326.77	337.06
326.999	399.06
327.228	546.06
327.457	767.06
327.686	884.06
327.914	601.06
328.143	422.06
328.372	375.06
328.6	367.06
328.829	339.06
329.058	349.06
329.287	345.06
329.515	312.06
329.744	334.06
329.972	313.06
330.201	322.06
330.43	340.06
330.658	353.06
330.887	373.06
331.115	337.06
331.344	332.06
331.572	312.06
331.801	296.06
332.03	312.06
332.258	293.06
332.486	296.06
332.715	295.06
332.943	294.06
333.172	276.06
333.4	297.06
333.629	304.06
333.857	281.06
334.085	308.06
334.314	314.06
334.542	326.06
334.771	320.06
334.999	312.06
335.227	292.06
335.455	302.06
335.684	291.06
335.912	269.06
336.14	296.06
336.369	287.06
336.597	296.06
336.825	293.06
337.053	278.06
337.281	274.06
337.51	278.06
337.738	266.06
337.966	254.06
338.194	290.06
338.422	275.06
338.65	296.06
338.878	282.06
339.106	277.06
339.334	276.06
339.562	285.06
339.79	250.06
340.018	285.06
340.246	258.06
340.474	274.06
340.702	281.06
340.93	286.06
341.158	262.06
341.386	275.06
341.614	282.06
341.842	291.06
342.07	273.06
342.298	273.06
342.526	280.06
342.754	268.06
342.981	273.06
343.209	273.06
343.437	288.06
343.665	270.06
343.893	275.06
344.12	291.06
344.348	284.06
344.576	280.06
344.804	281.06
345.031	275.06
345.259	285.06
345.487	294.06
345.714	292.06
345.942	268.06
346.17	280.06
346.397	254.06
346.625	292.06
346.853	279.06
347.08	276.06
347.308	269.06
347.535	274.06
347.763	273.06
347.99	278.06
348.218	284.06
348.445	285.06
348.673	259.06
348.9	278.06
349.128	270.06
349.355	257.06
349.583	254.06
349.81	265.06
350.037	266.06
350.265	273.06
350.492	254.06
350.72	260.06
350.947	269.06
351.174	268.06
351.402	282.06
351.629	264.06
351.856	275.06
352.083	275.06
352.311	267.06
352.538	284.06
352.765	270.06
352.992	269.06
353.22	281.06
353.447	280.06
353.674	265.06
353.901	260.06
354.128	273.06
354.355	262.06
354.583	274.06
354.81	261.06
355.037	267.06
355.264	267.06
355.491	237.06
355.718	275.06
355.945	250.06
356.172	268.06
356.399	262.06
356.626	267.06
356.853	241.06
357.08	259.06
357.307	260.06
357.534	265.06
357.761	270.06
357.988	285.06
358.215	227.06
358.441	256.06
358.668	250.06
358.895	252.06
359.122	267.06
359.349	260.06
359.576	252.06
359.802	257.06
360.029	291.06
360.256	298.06
360.483	289.06
360.709	275.06
360.936	262.06
361.163	291.06
361.39	266.06
361.616	262.06
361.843	265.06
362.07	263.06
362.296	276.06
362.523	276.06
362.749	271.06
362.976	257.06
363.203	258.06
363.429	257.06
363.656	255.06
363.882	267.06
364.109	251.06
364.335	270.06
364.562	259.06
364.788	257.06
365.015	256.06
365.241	264.06
365.468	272.06
365.694	271.06
365.92	273.06
366.147	268.06
366.373	261.06
366.599	287.06
366.826	272.06
367.052	273.06
367.278	259.06
367.505	269.06
367.731	261.06
367.957	262.06
368.184	253.06
368.41	260.06
368.636	261.06
368.862	277.06
369.089	274.06
369.315	257.06
369.541	267.06
369.767	266.06
369.993	271.06
370.219	268.06
370.445	257.06
370.672	287.06
370.898	263.06
371.124	256.06
371.35	277.06
371.576	258.06
371.802	268.06
372.028	262.06
372.254	272.06
372.48	258.06
372.706	277.06
372.932	273.06
373.158	280.06
373.384	271.06
373.61	260.06
373.835	273.06
374.061	258.06
374.287	266.06
374.513	262.06
374.739	290.06
374.965	277.06
375.191	267.06
375.416	276.06
375.642	250.06
375.868	272.06
376.094	281.06
376.319	256.06
376.545	280.06
376.771	257.06
376.997	267.06
377.222	274.06
377.448	266.06
377.674	262.06
377.899	250.06
378.125	292.06
378.35	275.06
378.576	262.06
378.802	287.06
379.027	263.06
379.253	248.06
379.478	266.06
379.704	272.06
379.929	288.06
380.155	261.06
380.38	273.06
380.606	258.06
380.831	275.06
381.057	306.06
381.282	266.06
381.507	279.06
381.733	270.06
381.958	241.06
382.184	285.06
382.409	298.06
382.634	280.06
382.86	263.06
383.085	300.06
383.31	284.06
383.535	272.06
383.761	304.06
383.986	290.06
384.211	289.06
384.436	278.06
384.662	275.06
384.887	282.06
385.112	263.06
385.337	289.06
385.562	296.06
385.787	281.06
386.013	301.06
386.238	300.06
386.463	283.06
386.688	282.06
386.913	277.06
387.138	297.06
387.363	306.06
387.588	310.06
387.813	277.06
388.038	306.06
388.263	288.06
388.488	302.06
388.713	300.06
388.938	275.06
389.163	283.06
389.387	318.06
389.612	293.06
389.837	309.06
390.062	285.06
390.287	294.06
390.512	289.06
390.736	281.06
390.961	303.06
391.186	309.06
391.411	297.06
391.636	297.06
391.86	291.06
392.085	302.06
392.31	302.06
392.534	325.06
392.759	286.06
392.984	310.06
393.208	313.06
393.433	307.06
393.658	324.06
393.882	296.06
394.107	292.06
394.331	290.06
394.556	314.06
394.78	296.06
395.005	285.06
395.229	293.06
395.454	285.06
395.678	321.06
395.903	322.06
396.127	310.06
396.352	321.06
396.576	313.06
396.801	312.06
397.025	314.06
397.249	313.06
397.474	310.06
397.698	312.06
397.922	322.06
398.147	336.06
398.371	324.06
398.595	319.06
398.82	318.06
399.044	330.06
399.268	352.06
399.492	366.06
399.717	362.06
399.941	379.06
400.165	409.06
400.389	392.06
400.613	370.06
400.837	348.06
401.062	348.06
401.286	337.06
401.51	332.06
401.734	331.06
401.958	326.06
402.182	334.06
402.406	352.06
402.63	317.06
402.854	332.06
403.078	345.06
403.302	332.06
403.526	354.06
403.75	350.06
403.974	329.06
404.198	333.06
404.422	352.06
404.645	340.06
404.869	345.06
405.093	376.06
405.317	380.06
405.541	400.06
405.765	368.06
405.988	362.06
406.212	361.06
406.436	370.06
406.66	368.06
406.883	359.06
407.107	372.06
407.331	396.06
407.555	446.06
407.778	420.06
408.002	387.06
408.226	379.06
408.449	393.06
408.673	367.06
408.896	381.06
409.12	407.06
409.344	416.06
409.567	373.06
409.791	369.06
410.014	353.06
410.238	361.06
410.461	350.06
410.685	350.06
410.908	361.06
411.132	374.06
411.355	396.06
411.578	408.06
411.802	345.06
412.025	358.06
412.249	352.06
412.472	379.06
412.695	372.06
412.919	387.06
413.142	357.06
413.365	356.06
413.589	353.06
413.812	344.06
414.035	341.06
414.258	339.06
414.482	341.06
414.705	341.06
414.928	335.06
415.151	320.06
415.374	312.06
415.597	332.06
415.821	333.06
416.044	317.06
416.267	316.06
416.49	317.06
416.713	325.06
416.936	321.06
417.159	318.06
417.382	332.06
417.605	317.06
417.828	327.06
418.051	344.06
418.274	348.06
418.497	324.06
418.72	327.06
418.943	325.06
419.166	355.06
419.389	351.06
419.611	349.06
419.834	357.06
420.057	314.06
420.28	344.06
420.503	334.06
420.726	344.06
420.948	363.06
421.171	373.06
421.394	395.06
421.617	353.06
421.839	342.06
422.062	349.06
422.285	351.06
422.507	370.06
422.73	420.06
422.953	424.06
423.175	373.06
423.398	360.06
423.621	365.06
423.843	351.06
424.066	355.06
424.288	366.06
424.511	372.06
424.733	405.06
424.956	451.06
425.178	429.06
425.401	460.06
425.623	442.06
425.846	384.06
426.068	361.06
426.291	372.06
426.513	366.06
426.735	370.06
426.958	364.06
427.18	453.06
427.402	510.06
427.625	576.06
427.847	477.06
428.069	428.06
428.292	404.06
428.514	372.06
428.736	366.06
428.958	366.06
429.181	357.06
429.403	348.06
429.625	351.06
429.847	376.06
430.069	406.06
430.292	406.06
430.514	350.06
430.736	355.06
430.958	346.06
431.18	332.06
431.402	320.06
431.624	321.06
431.846	323.06
432.068	321.06
432.29	336.06
432.512	330.06
432.734	334.06
432.956	326.06
433.178	324.06
433.4	342.06
433.622	334.06
433.844	304.06
434.066	334.06
434.287	341.06
434.509	326.06
434.731	339.06
434.953	351.06
435.175	338.06
435.397	364.06
435.618	372.06
435.84	400.06
436.062	443.06
436.284	502.06
436.505	413.06
436.727	378.06
436.949	361.06
437.17	366.06
437.392	350.06
437.614	343.06
437.835	381.06
438.057	426.06
438.278	485.06
438.5	507.06
438.721	552.06
438.943	504.06
439.165	404.06
439.386	367.06
439.608	376.06
439.829	378.06
440.05	388.06
440.272	428.06
440.493	382.06
440.715	363.06
440.936	363.06
441.158	365.06
441.379	344.06
441.6	364.06
441.822	366.06
442.043	388.06
442.264	436.06
442.486	460.06
442.707	418.06
442.928	368.06
443.149	380.06
443.371	394.06
443.592	436.06
443.813	484.06
444.034	506.06
444.255	430.06
444.476	380.06
444.698	381.06
444.919	363.06
445.14	489.06
445.361	436.06
445.582	389.06
445.803	416.06
446.024	491.06
446.245	480.06
446.466	456.06
446.687	399.06
446.908	353.06
447.129	364.06
447.35	340.06
447.571	339.06
447.792	342.06
448.013	364.06
448.234	345.06
448.455	372.06
448.675	462.06
448.896	517.06
449.117	460.06
449.338	424.06
449.559	501.06
449.779	551.06
450	432.06
450.221	384.06
450.442	341.06
450.662	321.06
450.883	345.06
451.104	348.06
451.324	330.06
451.545	332.06
451.766	332.06
451.986	309.06
452.207	321.06
452.428	325.06
452.648	300.06
452.869	285.06
453.089	323.06
453.31	313.06
453.53	314.06
453.751	289.06
453.971	317.06
454.192	321.06
454.412	312.06
454.633	311.06
454.853	296.06
455.073	304.06
455.294	317.06
455.514	376.06
455.734	364.06
455.955	305.06
456.175	330.06
456.395	302.06
456.616	317.06
456.836	297.06
457.056	298.06
457.276	307.06
457.497	295.06
457.717	317.06
457.937	317.06
458.157	309.06
458.377	305.06
458.598	325.06
458.818	374.06
459.038	374.06
459.258	409.06
459.478	346.06
459.698	334.06
459.918	332.06
460.138	332.06
460.358	328.06
460.578	326.06
460.798	327.06
461.018	349.06
461.238	345.06
461.458	344.06
461.678	336.06
461.898	334.06
462.118	344.06
462.338	334.06
462.558	353.06
462.777	338.06
462.997	344.06
463.217	352.06
463.437	333.06
463.657	361.06
463.876	353.06
464.096	351.06
464.316	361.06
464.536	358.06
464.755	374.06
464.975	347.06
465.195	372.06
465.414	388.06
465.634	382.06
465.854	368.06
466.073	345.06
466.293	337.06
466.512	334.06
466.732	321.06
466.951	339.06
467.171	326.06
467.391	323.06
467.61	333.06
467.829	339.06
468.049	326.06
468.268	334.06
468.488	321.06
468.707	323.06
468.927	339.06
469.146	320.06
469.365	310.06
469.585	321.06
469.804	323.06
470.023	339.06
470.243	326.06
470.462	329.06
470.681	346.06
470.901	336.06
471.12	304.06
471.339	330.06
471.558	336.06
471.777	304.06
471.997	319.06
472.216	336.06
472.435	358.06
472.654	334.06
472.873	331.06
473.092	329.06
473.311	351.06
473.53	333.06
473.749	348.06
473.968	354.06
474.187	394.06
474.406	393.06
474.625	359.06
474.844	342.06
475.063	355.06
475.282	333.06
475.501	340.06
475.72	333.06
475.939	339.06
476.158	340.06
476.377	329.06
476.596	335.06
476.814	348.06
477.033	341.06
477.252	335.06
477.471	353.06
477.69	362.06
477.908	368.06
478.127	369.06
478.346	364.06
478.564	371.06
478.783	353.06
479.002	358.06
479.22	369.06
479.439	386.06
479.658	370.06
479.876	398.06
480.095	373.06
480.313	412.06
480.532	427.06
480.751	398.06
480.969	388.06
481.188	440.06
481.406	478.06
481.624	402.06
481.843	402.06
482.061	408.06
482.28	409.06
482.498	391.06
482.717	397.06
482.935	373.06
483.153	389.06
483.372	367.06
483.59	387.06
483.808	388.06
484.027	403.06
484.245	375.06
484.463	388.06
484.681	391.06
484.9	401.06
485.118	406.06
485.336	401.06
485.554	417.06
485.772	401.06
485.99	411.06
486.209	390.06
486.427	389.06
486.645	398.06
486.863	421.06
487.081	412.06
487.299	409.06
487.517	385.06
487.735	397.06
487.953	398.06
488.171	401.06
488.389	384.06
488.607	406.06
488.825	405.06
489.043	408.06
489.261	402.06
489.479	429.06
489.696	436.06
489.914	419.06
490.132	424.06
490.35	414.06
490.568	440.06
490.786	443.06
491.003	423.06
491.221	439.06
491.439	457.06
491.657	444.06
491.874	442.06
492.092	450.06
492.31	460.06
492.527	462.06
492.745	481.06
492.963	488.06
493.18	467.06
493.398	451.06
493.615	485.06
493.833	472.06
494.05	461.06
494.268	476.06
494.485	471.06
494.703	463.06
494.92	468.06
495.138	480.06
495.355	481.06
495.573	477.06
495.79	492.06
496.008	486.06
496.225	501.06
496.442	483.06
496.66	477.06
496.877	499.06
497.094	505.06
497.312	496.06
497.529	516.06
497.746	500.06
497.963	522.06
498.181	534.06
498.398	538.06
498.615	557.06
498.832	552.06
499.049	556.06
499.267	582.06
499.484	583.06
499.701	592.06
499.918	594.06
500.135	627.06
500.352	623.06
500.569	630.06
500.786	645.06
501.003	624.06
501.22	601.06
501.437	597.06
501.654	595.06
501.871	605.06
502.088	593.06
502.305	570.06
