Data from 1961.PennyLincolnUp.Lamp.En5.5.200Scan.071719.P1._HRD10591_13-46-27-057.txt Node
Date: Thu Jul 18 13:46:27 EDT 2019
User: cochatt
Spectrometer: HR+D1059
Trigger mode: 1
Integration Time (sec): 1.000000E-1
Scans to average: 1
Electric dark correction enabled: true
Nonlinearity correction enabled: false
Boxcar width: 0
XAxis mode: Wavelengths
Number of Pixels in Spectrum: 2048
>>>>>Begin Spectral Data<<<<<
223.165	-9.81
223.4	-9.81
223.635	-9.81
223.869	-10.81
224.104	-12.81
224.338	-6.81
224.573	-18.81
224.808	-7.81
225.042	-6.81
225.277	-3.81
225.511	-18.81
225.746	6.19
225.98	3.19
226.215	6.19
226.449	12.19
226.683	22.19
226.918	24.19
227.152	22.19
227.387	23.19
227.621	36.19
227.856	33.19
228.09	43.19
228.324	44.19
228.559	48.19
228.793	67.19
229.027	86.19
229.262	80.19
229.496	91.19
229.73	107.19
229.964	111.19
230.199	105.19
230.433	91.19
230.667	99.19
230.901	89.19
231.136	90.19
231.37	104.19
231.604	106.19
231.838	96.19
232.072	106.19
232.306	101.19
232.541	103.19
232.775	99.19
233.009	102.19
233.243	99.19
233.477	93.19
233.711	111.19
233.945	115.19
234.179	92.19
234.413	108.19
234.647	113.19
234.881	101.19
235.115	100.19
235.349	105.19
235.583	86.19
235.817	105.19
236.051	113.19
236.285	118.19
236.519	94.19
236.753	97.19
236.987	114.19
237.221	131.19
237.455	159.19
237.689	141.19
237.922	106.19
238.156	101.19
238.39	112.19
238.624	107.19
238.858	107.19
239.091	102.19
239.325	92.19
239.559	105.19
239.793	103.19
240.027	106.19
240.26	100.19
240.494	127.19
240.728	107.19
240.961	117.19
241.195	122.19
241.429	133.19
241.662	119.19
241.896	111.19
242.13	93.19
242.363	111.19
242.597	115.19
242.83	116.19
243.064	102.19
243.298	117.19
243.531	115.19
243.765	99.19
243.998	111.19
244.232	125.19
244.465	111.19
244.699	112.19
244.932	123.19
245.166	115.19
245.399	125.19
245.633	124.19
245.866	123.19
246.099	120.19
246.333	122.19
246.566	125.19
246.8	122.19
247.033	129.19
247.266	119.19
247.5	118.19
247.733	138.19
247.966	133.19
248.2	119.19
248.433	130.19
248.666	131.19
248.899	134.19
249.133	124.19
249.366	155.19
249.599	149.19
249.832	150.19
250.066	136.19
250.299	145.19
250.532	146.19
250.765	140.19
250.998	173.19
251.231	155.19
251.465	170.19
251.698	164.19
251.931	153.19
252.164	132.19
252.397	154.19
252.63	165.19
252.863	147.19
253.096	161.19
253.329	164.19
253.562	159.19
253.795	167.19
254.028	143.19
254.261	166.19
254.494	174.19
254.727	169.19
254.96	198.19
255.193	184.19
255.426	172.19
255.659	177.19
255.892	184.19
256.124	180.19
256.357	179.19
256.59	170.19
256.823	160.19
257.056	167.19
257.289	147.19
257.521	159.19
257.754	168.19
257.987	152.19
258.22	164.19
258.452	148.19
258.685	164.19
258.918	147.19
259.151	159.19
259.383	167.19
259.616	166.19
259.849	155.19
260.081	152.19
260.314	188.19
260.547	167.19
260.779	165.19
261.012	161.19
261.244	176.19
261.477	167.19
261.71	169.19
261.942	168.19
262.175	172.19
262.407	184.19
262.64	167.19
262.872	171.19
263.105	153.19
263.337	168.19
263.57	153.19
263.802	155.19
264.035	148.19
264.267	160.19
264.499	158.19
264.732	153.19
264.964	176.19
265.197	165.19
265.429	166.19
265.661	155.19
265.894	161.19
266.126	157.19
266.358	157.19
266.591	165.19
266.823	160.19
267.055	151.19
267.287	191.19
267.52	164.19
267.752	177.19
267.984	158.19
268.216	168.19
268.448	173.19
268.681	185.19
268.913	180.19
269.145	182.19
269.377	186.19
269.609	183.19
269.841	192.19
270.073	175.19
270.306	199.19
270.538	207.19
270.77	207.19
271.002	203.19
271.234	206.19
271.466	209.19
271.698	216.19
271.93	209.19
272.162	214.19
272.394	210.19
272.626	203.19
272.858	201.19
273.09	204.19
273.322	188.19
273.553	175.19
273.785	186.19
274.017	173.19
274.249	177.19
274.481	177.19
274.713	188.19
274.945	178.19
275.176	190.19
275.408	195.19
275.64	187.19
275.872	201.19
276.104	200.19
276.335	200.19
276.567	185.19
276.799	189.19
277.031	189.19
277.262	206.19
277.494	209.19
277.726	210.19
277.957	204.19
278.189	200.19
278.421	191.19
278.652	196.19
278.884	194.19
279.115	203.19
279.347	182.19
279.579	194.19
279.81	202.19
280.042	205.19
280.273	204.19
280.505	199.19
280.736	202.19
280.968	199.19
281.199	205.19
281.431	191.19
281.662	193.19
281.894	189.19
282.125	195.19
282.356	195.19
282.588	215.19
282.819	215.19
283.051	209.19
283.282	208.19
283.513	192.19
283.745	189.19
283.976	208.19
284.207	199.19
284.439	195.19
284.67	194.19
284.901	190.19
285.132	198.19
285.364	215.19
285.595	204.19
285.826	194.19
286.057	197.19
286.288	198.19
286.52	202.19
286.751	198.19
286.982	217.19
287.213	198.19
287.444	192.19
287.675	213.19
287.906	201.19
288.138	203.19
288.369	207.19
288.6	205.19
288.831	200.19
289.062	196.19
289.293	202.19
289.524	215.19
289.755	216.19
289.986	216.19
290.217	189.19
290.448	193.19
290.679	196.19
290.91	212.19
291.141	199.19
291.371	199.19
291.602	198.19
291.833	202.19
292.064	199.19
292.295	198.19
292.526	212.19
292.757	196.19
292.987	219.19
293.218	208.19
293.449	231.19
293.68	218.19
293.91	207.19
294.141	198.19
294.372	202.19
294.603	204.19
294.833	219.19
295.064	197.19
295.295	204.19
295.525	187.19
295.756	222.19
295.987	200.19
296.217	215.19
296.448	235.19
296.679	217.19
296.909	203.19
297.14	223.19
297.37	217.19
297.601	208.19
297.831	209.19
298.062	217.19
298.292	224.19
298.523	217.19
298.753	208.19
298.984	238.19
299.214	199.19
299.445	221.19
299.675	203.19
299.905	220.19
300.136	203.19
300.366	229.19
300.597	206.19
300.827	220.19
301.057	237.19
301.288	221.19
301.518	223.19
301.748	221.19
301.979	236.19
302.209	229.19
302.439	228.19
302.669	245.19
302.9	226.19
303.13	225.19
303.36	224.19
303.59	223.19
303.82	233.19
304.051	241.19
304.281	232.19
304.511	225.19
304.741	235.19
304.971	231.19
305.201	234.19
305.431	220.19
305.661	226.19
305.891	224.19
306.121	235.19
306.352	225.19
306.582	229.19
306.812	242.19
307.042	248.19
307.272	237.19
307.502	241.19
307.731	244.19
307.961	239.19
308.191	252.19
308.421	241.19
308.651	227.19
308.881	226.19
309.111	245.19
309.341	242.19
309.571	259.19
309.8	247.19
310.03	243.19
310.26	243.19
310.49	248.19
310.72	261.19
310.949	286.19
311.179	267.19
311.409	265.19
311.639	263.19
311.868	257.19
312.098	261.19
312.328	276.19
312.557	256.19
312.787	262.19
313.017	285.19
313.246	275.19
313.476	259.19
313.706	264.19
313.935	275.19
314.165	269.19
314.394	269.19
314.624	249.19
314.853	271.19
315.083	274.19
315.312	277.19
315.542	259.19
315.771	253.19
316.001	255.19
316.23	266.19
316.46	250.19
316.689	269.19
316.919	265.19
317.148	259.19
317.377	280.19
317.607	273.19
317.836	246.19
318.065	258.19
318.295	267.19
318.524	261.19
318.753	274.19
318.983	263.19
319.212	283.19
319.441	286.19
319.67	278.19
319.9	276.19
320.129	259.19
320.358	263.19
320.587	279.19
320.816	278.19
321.046	271.19
321.275	260.19
321.504	292.19
321.733	284.19
321.962	270.19
322.191	270.19
322.42	294.19
322.649	288.19
322.878	295.19
323.108	310.19
323.337	325.19
323.566	353.19
323.795	360.19
324.024	393.19
324.253	450.19
324.482	641.19
324.71	973.19
324.939	1369.19
325.168	1152.19
325.397	607.19
325.626	425.19
325.855	366.19
326.084	355.19
326.313	340.19
326.542	344.19
326.77	374.19
326.999	405.19
327.228	587.19
327.457	870.19
327.686	993.19
327.914	671.19
328.143	457.19
328.372	408.19
328.6	380.19
328.829	400.19
329.058	368.19
329.287	373.19
329.515	357.19
329.744	347.19
329.972	337.19
330.201	377.19
330.43	369.19
330.658	385.19
330.887	407.19
331.115	379.19
331.344	359.19
331.572	333.19
331.801	345.19
332.03	328.19
332.258	299.19
332.486	305.19
332.715	305.19
332.943	304.19
333.172	313.19
333.4	337.19
333.629	325.19
333.857	313.19
334.085	331.19
334.314	328.19
334.542	379.19
334.771	371.19
334.999	346.19
335.227	310.19
335.455	312.19
335.684	297.19
335.912	313.19
336.14	309.19
336.369	304.19
336.597	297.19
336.825	300.19
337.053	291.19
337.281	308.19
337.51	277.19
337.738	319.19
337.966	298.19
338.194	295.19
338.422	315.19
338.65	303.19
338.878	275.19
339.106	293.19
339.334	298.19
339.562	287.19
339.79	282.19
340.018	297.19
340.246	307.19
340.474	293.19
340.702	295.19
340.93	294.19
341.158	300.19
341.386	304.19
341.614	316.19
341.842	279.19
342.07	291.19
342.298	288.19
342.526	274.19
342.754	287.19
342.981	284.19
343.209	283.19
343.437	281.19
343.665	301.19
343.893	297.19
344.12	299.19
344.348	306.19
344.576	300.19
344.804	294.19
345.031	305.19
345.259	319.19
345.487	293.19
345.714	292.19
345.942	297.19
346.17	309.19
346.397	289.19
346.625	290.19
346.853	289.19
347.08	281.19
347.308	298.19
347.535	291.19
347.763	300.19
347.99	308.19
348.218	306.19
348.445	304.19
348.673	287.19
348.9	294.19
349.128	288.19
349.355	298.19
349.583	286.19
349.81	285.19
350.037	290.19
350.265	278.19
350.492	273.19
350.72	279.19
350.947	290.19
351.174	291.19
351.402	305.19
351.629	291.19
351.856	292.19
352.083	304.19
352.311	295.19
352.538	303.19
352.765	303.19
352.992	287.19
353.22	279.19
353.447	306.19
353.674	291.19
353.901	269.19
354.128	272.19
354.355	287.19
354.583	271.19
354.81	279.19
355.037	282.19
355.264	285.19
355.491	256.19
355.718	258.19
355.945	277.19
356.172	277.19
356.399	269.19
356.626	259.19
356.853	265.19
357.08	288.19
357.307	267.19
357.534	283.19
357.761	277.19
357.988	281.19
358.215	292.19
358.441	292.19
358.668	259.19
358.895	269.19
359.122	281.19
359.349	281.19
359.576	295.19
359.802	291.19
360.029	296.19
360.256	321.19
360.483	309.19
360.709	289.19
360.936	275.19
361.163	288.19
361.39	301.19
361.616	296.19
361.843	279.19
362.07	294.19
362.296	285.19
362.523	279.19
362.749	277.19
362.976	286.19
363.203	295.19
363.429	279.19
363.656	279.19
363.882	273.19
364.109	292.19
364.335	278.19
364.562	286.19
364.788	300.19
365.015	274.19
365.241	274.19
365.468	276.19
365.694	286.19
365.92	283.19
366.147	286.19
366.373	265.19
366.599	289.19
366.826	286.19
367.052	276.19
367.278	274.19
367.505	275.19
367.731	306.19
367.957	283.19
368.184	276.19
368.41	276.19
368.636	295.19
368.862	286.19
369.089	301.19
369.315	288.19
369.541	268.19
369.767	287.19
369.993	277.19
370.219	291.19
370.445	266.19
370.672	282.19
370.898	280.19
371.124	280.19
371.35	281.19
371.576	300.19
371.802	296.19
372.028	268.19
372.254	287.19
372.48	289.19
372.706	285.19
372.932	273.19
373.158	274.19
373.384	293.19
373.61	286.19
373.835	283.19
374.061	277.19
374.287	297.19
374.513	289.19
374.739	289.19
374.965	293.19
375.191	288.19
375.416	296.19
375.642	274.19
375.868	292.19
376.094	287.19
376.319	279.19
376.545	281.19
376.771	280.19
376.997	293.19
377.222	295.19
377.448	279.19
377.674	291.19
377.899	295.19
378.125	287.19
378.35	294.19
378.576	295.19
378.802	272.19
379.027	287.19
379.253	276.19
379.478	283.19
379.704	268.19
379.929	278.19
380.155	279.19
380.38	300.19
380.606	287.19
380.831	277.19
381.057	283.19
381.282	293.19
381.507	289.19
381.733	284.19
381.958	287.19
382.184	296.19
382.409	282.19
382.634	285.19
382.86	291.19
383.085	293.19
383.31	300.19
383.535	294.19
383.761	302.19
383.986	299.19
384.211	312.19
384.436	289.19
384.662	313.19
384.887	303.19
385.112	323.19
385.337	317.19
385.562	302.19
385.787	292.19
386.013	314.19
386.238	310.19
386.463	321.19
386.688	321.19
386.913	310.19
387.138	300.19
387.363	305.19
387.588	317.19
387.813	292.19
388.038	309.19
388.263	333.19
388.488	319.19
388.713	323.19
388.938	330.19
389.163	326.19
389.387	329.19
389.612	291.19
389.837	299.19
390.062	303.19
390.287	295.19
390.512	331.19
390.736	314.19
390.961	296.19
391.186	316.19
391.411	322.19
391.636	301.19
391.86	325.19
392.085	302.19
392.31	329.19
392.534	322.19
392.759	316.19
392.984	316.19
393.208	312.19
393.433	319.19
393.658	328.19
393.882	319.19
394.107	325.19
394.331	316.19
394.556	303.19
394.78	303.19
395.005	332.19
395.229	322.19
395.454	331.19
395.678	329.19
395.903	348.19
396.127	336.19
396.352	347.19
396.576	334.19
396.801	344.19
397.025	337.19
397.249	338.19
397.474	322.19
397.698	333.19
397.922	329.19
398.147	347.19
398.371	357.19
398.595	340.19
398.82	341.19
399.044	380.19
399.268	371.19
399.492	377.19
399.717	399.19
399.941	402.19
400.165	403.19
400.389	418.19
400.613	393.19
400.837	371.19
401.062	362.19
401.286	351.19
401.51	334.19
401.734	344.19
401.958	361.19
402.182	373.19
402.406	373.19
402.63	371.19
402.854	363.19
403.078	371.19
403.302	375.19
403.526	367.19
403.75	357.19
403.974	362.19
404.198	352.19
404.422	354.19
404.645	369.19
404.869	379.19
405.093	387.19
405.317	429.19
405.541	453.19
405.765	397.19
405.988	373.19
406.212	376.19
406.436	385.19
406.66	394.19
406.883	397.19
407.107	401.19
407.331	414.19
407.555	484.19
407.778	484.19
408.002	419.19
408.226	392.19
408.449	407.19
408.673	392.19
408.896	417.19
409.12	450.19
409.344	425.19
409.567	395.19
409.791	395.19
410.014	356.19
410.238	368.19
410.461	375.19
410.685	381.19
410.908	388.19
411.132	408.19
411.355	423.19
411.578	410.19
411.802	391.19
412.025	385.19
412.249	367.19
412.472	380.19
412.695	415.19
412.919	415.19
413.142	406.19
413.365	359.19
413.589	373.19
413.812	338.19
414.035	337.19
414.258	360.19
414.482	348.19
414.705	349.19
414.928	333.19
415.151	357.19
415.374	353.19
415.597	351.19
415.821	340.19
416.044	374.19
416.267	352.19
416.49	347.19
416.713	358.19
416.936	339.19
417.159	359.19
417.382	361.19
417.605	363.19
417.828	354.19
418.051	365.19
418.274	356.19
418.497	347.19
418.72	353.19
418.943	345.19
419.166	354.19
419.389	367.19
419.611	381.19
419.834	368.19
420.057	364.19
420.28	365.19
420.503	367.19
420.726	371.19
420.948	374.19
421.171	406.19
421.394	406.19
421.617	389.19
421.839	361.19
422.062	369.19
422.285	363.19
422.507	402.19
422.73	445.19
422.953	437.19
423.175	362.19
423.398	383.19
423.621	378.19
423.843	392.19
424.066	384.19
424.288	375.19
424.511	384.19
424.733	422.19
424.956	480.19
425.178	457.19
425.401	483.19
425.623	468.19
425.846	428.19
426.068	385.19
426.291	396.19
426.513	393.19
426.735	395.19
426.958	420.19
427.18	478.19
427.402	554.19
427.625	598.19
427.847	534.19
428.069	465.19
428.292	396.19
428.514	370.19
428.736	362.19
428.958	364.19
429.181	361.19
429.403	364.19
429.625	344.19
429.847	411.19
430.069	435.19
430.292	424.19
430.514	391.19
430.736	355.19
430.958	367.19
431.18	356.19
431.402	346.19
431.624	340.19
431.846	338.19
432.068	336.19
432.29	348.19
432.512	348.19
432.734	360.19
432.956	333.19
433.178	356.19
433.4	343.19
433.622	379.19
433.844	355.19
434.066	346.19
434.287	347.19
434.509	377.19
434.731	356.19
434.953	361.19
435.175	359.19
435.397	391.19
435.618	400.19
435.84	422.19
436.062	487.19
436.284	523.19
436.505	442.19
436.727	412.19
436.949	385.19
437.17	366.19
437.392	364.19
437.614	385.19
437.835	405.19
438.057	469.19
438.278	521.19
438.5	499.19
438.721	574.19
438.943	550.19
439.165	433.19
439.386	407.19
439.608	405.19
439.829	403.19
440.05	408.19
440.272	440.19
440.493	414.19
440.715	394.19
440.936	378.19
441.158	363.19
441.379	379.19
441.6	388.19
441.822	383.19
442.043	404.19
442.264	459.19
442.486	479.19
442.707	442.19
442.928	411.19
443.149	393.19
443.371	408.19
443.592	452.19
443.813	486.19
444.034	555.19
444.255	459.19
444.476	413.19
444.698	374.19
444.919	401.19
445.14	530.19
445.361	475.19
445.582	426.19
445.803	450.19
446.024	529.19
446.245	542.19
446.466	487.19
446.687	428.19
446.908	403.19
447.129	377.19
447.35	371.19
447.571	356.19
447.792	352.19
448.013	374.19
448.234	372.19
448.455	403.19
448.675	503.19
448.896	564.19
449.117	481.19
449.338	473.19
449.559	537.19
449.779	593.19
450	473.19
450.221	404.19
450.442	377.19
450.662	355.19
450.883	370.19
451.104	365.19
451.324	354.19
451.545	353.19
451.766	328.19
451.986	343.19
452.207	333.19
452.428	329.19
452.648	332.19
452.869	324.19
453.089	358.19
453.31	342.19
453.53	323.19
453.751	326.19
453.971	325.19
454.192	339.19
454.412	338.19
454.633	328.19
454.853	319.19
455.073	337.19
455.294	328.19
455.514	397.19
455.734	375.19
455.955	343.19
456.175	316.19
456.395	341.19
456.616	305.19
456.836	309.19
457.056	311.19
457.276	316.19
457.497	320.19
457.717	293.19
457.937	358.19
458.157	328.19
458.377	329.19
458.598	336.19
458.818	380.19
459.038	406.19
459.258	435.19
459.478	392.19
459.698	355.19
459.918	351.19
460.138	331.19
460.358	356.19
460.578	356.19
460.798	345.19
461.018	371.19
461.238	374.19
461.458	353.19
461.678	360.19
461.898	349.19
462.118	358.19
462.338	369.19
462.558	361.19
462.777	385.19
462.997	388.19
463.217	380.19
463.437	385.19
463.657	386.19
463.876	380.19
464.096	370.19
464.316	366.19
464.536	368.19
464.755	382.19
464.975	356.19
465.195	403.19
465.414	441.19
465.634	394.19
465.854	361.19
466.073	363.19
466.293	367.19
466.512	337.19
466.732	352.19
466.951	351.19
467.171	346.19
467.391	343.19
467.61	328.19
467.829	369.19
468.049	346.19
468.268	340.19
468.488	339.19
468.707	363.19
468.927	325.19
469.146	339.19
469.365	341.19
469.585	337.19
469.804	321.19
470.023	343.19
470.243	356.19
470.462	353.19
470.681	358.19
470.901	347.19
471.12	332.19
471.339	349.19
471.558	336.19
471.777	346.19
471.997	345.19
472.216	341.19
472.435	359.19
472.654	375.19
472.873	369.19
473.092	372.19
473.311	347.19
473.53	364.19
473.749	351.19
473.968	385.19
474.187	431.19
474.406	472.19
474.625	407.19
474.844	357.19
475.063	356.19
475.282	371.19
475.501	342.19
475.72	362.19
475.939	362.19
476.158	352.19
476.377	344.19
476.596	379.19
476.814	369.19
477.033	374.19
477.252	363.19
477.471	368.19
477.69	360.19
477.908	375.19
478.127	375.19
478.346	376.19
478.564	386.19
478.783	394.19
479.002	401.19
479.22	417.19
479.439	396.19
479.658	407.19
479.876	437.19
480.095	431.19
480.313	432.19
480.532	433.19
480.751	425.19
480.969	428.19
481.188	473.19
481.406	483.19
481.624	448.19
481.843	423.19
482.061	406.19
482.28	413.19
482.498	410.19
482.717	389.19
482.935	412.19
483.153	392.19
483.372	389.19
483.59	409.19
483.808	411.19
484.027	415.19
484.245	422.19
484.463	403.19
484.681	399.19
484.9	420.19
485.118	405.19
485.336	415.19
485.554	422.19
485.772	417.19
485.99	428.19
486.209	426.19
486.427	434.19
486.645	422.19
486.863	439.19
487.081	442.19
487.299	451.19
487.517	434.19
487.735	433.19
487.953	435.19
488.171	457.19
488.389	441.19
488.607	428.19
488.825	444.19
489.043	428.19
489.261	444.19
489.479	444.19
489.696	448.19
489.914	421.19
490.132	437.19
490.35	427.19
490.568	446.19
490.786	479.19
491.003	447.19
491.221	462.19
491.439	479.19
491.657	459.19
491.874	484.19
492.092	483.19
492.31	498.19
492.527	488.19
492.745	495.19
492.963	505.19
493.18	477.19
493.398	500.19
493.615	488.19
493.833	505.19
494.05	488.19
494.268	511.19
494.485	517.19
494.703	514.19
494.92	513.19
495.138	480.19
495.355	482.19
495.573	526.19
495.79	501.19
496.008	548.19
496.225	524.19
496.442	521.19
496.66	521.19
496.877	516.19
497.094	515.19
497.312	523.19
497.529	543.19
497.746	532.19
497.963	531.19
498.181	577.19
498.398	554.19
498.615	567.19
498.832	568.19
499.049	575.19
499.267	582.19
499.484	599.19
499.701	589.19
499.918	636.19
500.135	643.19
500.352	670.19
500.569	668.19
500.786	650.19
501.003	671.19
501.22	655.19
501.437	627.19
501.654	645.19
501.871	615.19
502.088	607.19
502.305	567.19
