Data from 1961.PennyLincolnUp.Lamp.En5.5.200Scan.071719.P1._HRD10591_13-48-14-058.txt Node
Date: Thu Jul 18 13:48:14 EDT 2019
User: cochatt
Spectrometer: HR+D1059
Trigger mode: 1
Integration Time (sec): 1.000000E-1
Scans to average: 1
Electric dark correction enabled: true
Nonlinearity correction enabled: false
Boxcar width: 0
XAxis mode: Wavelengths
Number of Pixels in Spectrum: 2048
>>>>>Begin Spectral Data<<<<<
223.165	-15.75
223.4	-15.75
223.635	-15.75
223.869	-13.75
224.104	-12.75
224.338	-1.75
224.573	-18.75
224.808	-10.75
225.042	4.25
225.277	-12.75
225.511	5.25
225.746	4.25
225.98	-0.75
226.215	-6.75
226.449	11.25
226.683	18.25
226.918	23.25
227.152	27.25
227.387	25.25
227.621	58.25
227.856	38.25
228.09	46.25
228.324	58.25
228.559	45.25
228.793	66.25
229.027	97.25
229.262	87.25
229.496	111.25
229.73	129.25
229.964	137.25
230.199	108.25
230.433	113.25
230.667	89.25
230.901	116.25
231.136	116.25
231.37	109.25
231.604	108.25
231.838	120.25
232.072	91.25
232.306	100.25
232.541	102.25
232.775	111.25
233.009	115.25
233.243	104.25
233.477	104.25
233.711	103.25
233.945	108.25
234.179	90.25
234.413	112.25
234.647	89.25
234.881	108.25
235.115	99.25
235.349	101.25
235.583	103.25
235.817	112.25
236.051	109.25
236.285	118.25
236.519	120.25
236.753	119.25
236.987	125.25
237.221	162.25
237.455	208.25
237.689	161.25
237.922	147.25
238.156	133.25
238.39	116.25
238.624	103.25
238.858	107.25
239.091	113.25
239.325	115.25
239.559	107.25
239.793	98.25
240.027	120.25
240.26	136.25
240.494	145.25
240.728	135.25
240.961	112.25
241.195	124.25
241.429	124.25
241.662	115.25
241.896	131.25
242.13	123.25
242.363	125.25
242.597	121.25
242.83	115.25
243.064	121.25
243.298	125.25
243.531	122.25
243.765	120.25
243.998	117.25
244.232	130.25
244.465	120.25
244.699	139.25
244.932	131.25
245.166	111.25
245.399	140.25
245.633	134.25
245.866	129.25
246.099	125.25
246.333	125.25
246.566	142.25
246.8	132.25
247.033	128.25
247.266	122.25
247.5	140.25
247.733	139.25
247.966	148.25
248.2	163.25
248.433	140.25
248.666	149.25
248.899	175.25
249.133	164.25
249.366	177.25
249.599	176.25
249.832	167.25
250.066	162.25
250.299	163.25
250.532	160.25
250.765	187.25
250.998	159.25
251.231	191.25
251.465	188.25
251.698	192.25
251.931	175.25
252.164	161.25
252.397	163.25
252.63	163.25
252.863	181.25
253.096	209.25
253.329	192.25
253.562	190.25
253.795	195.25
254.028	180.25
254.261	159.25
254.494	203.25
254.727	225.25
254.96	239.25
255.193	222.25
255.426	216.25
255.659	186.25
255.892	202.25
256.124	219.25
256.357	219.25
256.59	203.25
256.823	192.25
257.056	179.25
257.289	198.25
257.521	169.25
257.754	155.25
257.987	171.25
258.22	169.25
258.452	180.25
258.685	201.25
258.918	186.25
259.151	159.25
259.383	181.25
259.616	170.25
259.849	182.25
260.081	209.25
260.314	196.25
260.547	230.25
260.779	211.25
261.012	192.25
261.244	183.25
261.477	194.25
261.71	201.25
261.942	199.25
262.175	198.25
262.407	195.25
262.64	177.25
262.872	177.25
263.105	185.25
263.337	185.25
263.57	190.25
263.802	169.25
264.035	173.25
264.267	193.25
264.499	172.25
264.732	193.25
264.964	178.25
265.197	171.25
265.429	184.25
265.661	191.25
265.894	169.25
266.126	193.25
266.358	192.25
266.591	188.25
266.823	210.25
267.055	183.25
267.287	189.25
267.52	179.25
267.752	185.25
267.984	197.25
268.216	199.25
268.448	199.25
268.681	188.25
268.913	200.25
269.145	209.25
269.377	225.25
269.609	216.25
269.841	202.25
270.073	215.25
270.306	243.25
270.538	283.25
270.77	257.25
271.002	249.25
271.234	246.25
271.466	243.25
271.698	243.25
271.93	249.25
272.162	265.25
272.394	261.25
272.626	264.25
272.858	235.25
273.09	227.25
273.322	220.25
273.553	209.25
273.785	235.25
274.017	224.25
274.249	213.25
274.481	219.25
274.713	219.25
274.945	223.25
275.176	225.25
275.408	215.25
275.64	220.25
275.872	205.25
276.104	211.25
276.335	216.25
276.567	228.25
276.799	243.25
277.031	258.25
277.262	262.25
277.494	267.25
277.726	256.25
277.957	236.25
278.189	259.25
278.421	223.25
278.652	216.25
278.884	226.25
279.115	220.25
279.347	217.25
279.579	208.25
279.81	195.25
280.042	228.25
280.273	235.25
280.505	213.25
280.736	211.25
280.968	216.25
281.199	208.25
281.431	200.25
281.662	213.25
281.894	224.25
282.125	208.25
282.356	239.25
282.588	256.25
282.819	242.25
283.051	229.25
283.282	223.25
283.513	223.25
283.745	212.25
283.976	236.25
284.207	224.25
284.439	215.25
284.67	233.25
284.901	225.25
285.132	220.25
285.364	217.25
285.595	216.25
285.826	239.25
286.057	230.25
286.288	222.25
286.52	224.25
286.751	224.25
286.982	223.25
287.213	233.25
287.444	233.25
287.675	231.25
287.906	237.25
288.138	236.25
288.369	239.25
288.6	258.25
288.831	225.25
289.062	244.25
289.293	235.25
289.524	223.25
289.755	245.25
289.986	246.25
290.217	242.25
290.448	217.25
290.679	234.25
290.91	235.25
291.141	227.25
291.371	227.25
291.602	221.25
291.833	235.25
292.064	216.25
292.295	232.25
292.526	227.25
292.757	240.25
292.987	231.25
293.218	239.25
293.449	239.25
293.68	228.25
293.91	241.25
294.141	234.25
294.372	229.25
294.603	234.25
294.833	225.25
295.064	211.25
295.295	250.25
295.525	236.25
295.756	247.25
295.987	237.25
296.217	263.25
296.448	273.25
296.679	255.25
296.909	244.25
297.14	245.25
297.37	225.25
297.601	220.25
297.831	243.25
298.062	229.25
298.292	235.25
298.523	246.25
298.753	237.25
298.984	247.25
299.214	263.25
299.445	255.25
299.675	239.25
299.905	267.25
300.136	245.25
300.366	288.25
300.597	231.25
300.827	245.25
301.057	271.25
301.288	281.25
301.518	253.25
301.748	249.25
301.979	250.25
302.209	264.25
302.439	280.25
302.669	262.25
302.9	260.25
303.13	254.25
303.36	260.25
303.59	251.25
303.82	267.25
304.051	264.25
304.281	264.25
304.511	266.25
304.741	247.25
304.971	255.25
305.201	251.25
305.431	256.25
305.661	264.25
305.891	272.25
306.121	256.25
306.352	267.25
306.582	263.25
306.812	269.25
307.042	287.25
307.272	257.25
307.502	256.25
307.731	265.25
307.961	259.25
308.191	257.25
308.421	295.25
308.651	267.25
308.881	282.25
309.111	278.25
309.341	291.25
309.571	284.25
309.8	299.25
310.03	316.25
310.26	298.25
310.49	309.25
310.72	323.25
310.949	337.25
311.179	326.25
311.409	319.25
311.639	316.25
311.868	323.25
312.098	321.25
312.328	334.25
312.557	320.25
312.787	366.25
313.017	351.25
313.246	305.25
313.476	303.25
313.706	331.25
313.935	324.25
314.165	310.25
314.394	337.25
314.624	338.25
314.853	330.25
315.083	321.25
315.312	296.25
315.542	306.25
315.771	303.25
316.001	289.25
316.23	317.25
316.46	294.25
316.689	307.25
316.919	313.25
317.148	313.25
317.377	313.25
317.607	335.25
317.836	324.25
318.065	309.25
318.295	330.25
318.524	299.25
318.753	327.25
318.983	317.25
319.212	303.25
319.441	300.25
319.67	323.25
319.9	318.25
320.129	326.25
320.358	311.25
320.587	311.25
320.816	315.25
321.046	354.25
321.275	349.25
321.504	346.25
321.733	329.25
321.962	356.25
322.191	371.25
322.42	391.25
322.649	363.25
322.878	390.25
323.108	391.25
323.337	432.25
323.566	441.25
323.795	481.25
324.024	543.25
324.253	689.25
324.482	997.25
324.71	1544.25
324.939	2189.25
325.168	1811.25
325.397	946.25
325.626	627.25
325.855	523.25
326.084	468.25
326.313	473.25
326.542	465.25
326.77	530.25
326.999	637.25
327.228	891.25
327.457	1379.25
327.686	1636.25
327.914	1081.25
328.143	691.25
328.372	609.25
328.6	560.25
328.829	528.25
329.058	540.25
329.287	549.25
329.515	497.25
329.744	456.25
329.972	464.25
330.201	473.25
330.43	543.25
330.658	550.25
330.887	580.25
331.115	558.25
331.344	449.25
331.572	439.25
331.801	424.25
332.03	427.25
332.258	404.25
332.486	381.25
332.715	358.25
332.943	367.25
333.172	372.25
333.4	376.25
333.629	391.25
333.857	389.25
334.085	404.25
334.314	419.25
334.542	475.25
334.771	490.25
334.999	428.25
335.227	392.25
335.455	352.25
335.684	375.25
335.912	359.25
336.14	364.25
336.369	360.25
336.597	377.25
336.825	372.25
337.053	378.25
337.281	373.25
337.51	367.25
337.738	367.25
337.966	380.25
338.194	361.25
338.422	372.25
338.65	363.25
338.878	367.25
339.106	343.25
339.334	351.25
339.562	360.25
339.79	360.25
340.018	364.25
340.246	361.25
340.474	367.25
340.702	369.25
340.93	346.25
341.158	337.25
341.386	343.25
341.614	337.25
341.842	340.25
342.07	360.25
342.298	353.25
342.526	329.25
342.754	334.25
342.981	324.25
343.209	335.25
343.437	349.25
343.665	335.25
343.893	338.25
344.12	343.25
344.348	345.25
344.576	353.25
344.804	364.25
345.031	364.25
345.259	365.25
345.487	374.25
345.714	355.25
345.942	344.25
346.17	348.25
346.397	342.25
346.625	335.25
346.853	356.25
347.08	336.25
347.308	351.25
347.535	353.25
347.763	371.25
347.99	346.25
348.218	345.25
348.445	364.25
348.673	364.25
348.9	340.25
349.128	351.25
349.355	312.25
349.583	345.25
349.81	319.25
350.037	344.25
350.265	336.25
350.492	345.25
350.72	348.25
350.947	344.25
351.174	333.25
351.402	348.25
351.629	365.25
351.856	347.25
352.083	361.25
352.311	348.25
352.538	372.25
352.765	381.25
352.992	355.25
353.22	348.25
353.447	344.25
353.674	360.25
353.901	320.25
354.128	325.25
354.355	317.25
354.583	317.25
354.81	333.25
355.037	303.25
355.264	316.25
355.491	316.25
355.718	304.25
355.945	315.25
356.172	315.25
356.399	309.25
356.626	309.25
356.853	298.25
357.08	324.25
357.307	301.25
357.534	307.25
357.761	319.25
357.988	308.25
358.215	316.25
358.441	328.25
358.668	305.25
358.895	303.25
359.122	321.25
359.349	315.25
359.576	358.25
359.802	360.25
360.029	375.25
360.256	407.25
360.483	379.25
360.709	346.25
360.936	342.25
361.163	351.25
361.39	332.25
361.616	329.25
361.843	354.25
362.07	352.25
362.296	363.25
362.523	333.25
362.749	354.25
362.976	336.25
363.203	321.25
363.429	331.25
363.656	328.25
363.882	323.25
364.109	321.25
364.335	325.25
364.562	322.25
364.788	316.25
365.015	316.25
365.241	338.25
365.468	347.25
365.694	340.25
365.92	330.25
366.147	348.25
366.373	323.25
366.599	327.25
366.826	324.25
367.052	310.25
367.278	319.25
367.505	329.25
367.731	316.25
367.957	310.25
368.184	321.25
368.41	321.25
368.636	334.25
368.862	339.25
369.089	322.25
369.315	330.25
369.541	348.25
369.767	338.25
369.993	334.25
370.219	314.25
370.445	319.25
370.672	315.25
370.898	296.25
371.124	300.25
371.35	312.25
371.576	300.25
371.802	325.25
372.028	319.25
372.254	308.25
372.48	337.25
372.706	327.25
372.932	307.25
373.158	310.25
373.384	316.25
373.61	316.25
373.835	328.25
374.061	337.25
374.287	309.25
374.513	308.25
374.739	336.25
374.965	337.25
375.191	314.25
375.416	308.25
375.642	312.25
375.868	310.25
376.094	321.25
376.319	309.25
376.545	303.25
376.771	310.25
376.997	298.25
377.222	311.25
377.448	317.25
377.674	290.25
377.899	340.25
378.125	313.25
378.35	319.25
378.576	295.25
378.802	313.25
379.027	330.25
379.253	307.25
379.478	306.25
379.704	304.25
379.929	330.25
380.155	303.25
380.38	307.25
380.606	312.25
380.831	307.25
381.057	311.25
381.282	321.25
381.507	329.25
381.733	313.25
381.958	314.25
382.184	314.25
382.409	321.25
382.634	333.25
382.86	324.25
383.085	322.25
383.31	346.25
383.535	327.25
383.761	321.25
383.986	316.25
384.211	329.25
384.436	327.25
384.662	317.25
384.887	316.25
385.112	327.25
385.337	342.25
385.562	309.25
385.787	331.25
386.013	347.25
386.238	346.25
386.463	359.25
386.688	332.25
386.913	332.25
387.138	352.25
387.363	345.25
387.588	333.25
387.813	335.25
388.038	331.25
388.263	345.25
388.488	329.25
388.713	320.25
388.938	353.25
389.163	355.25
389.387	337.25
389.612	326.25
389.837	329.25
390.062	338.25
390.287	328.25
390.512	343.25
390.736	352.25
390.961	348.25
391.186	333.25
391.411	338.25
391.636	324.25
391.86	334.25
392.085	346.25
392.31	344.25
392.534	339.25
392.759	339.25
392.984	343.25
393.208	327.25
393.433	353.25
393.658	326.25
393.882	345.25
394.107	329.25
394.331	352.25
394.556	340.25
394.78	349.25
395.005	342.25
395.229	343.25
395.454	360.25
395.678	351.25
395.903	354.25
396.127	368.25
396.352	371.25
396.576	364.25
396.801	383.25
397.025	351.25
397.249	375.25
397.474	383.25
397.698	360.25
397.922	384.25
398.147	374.25
398.371	392.25
398.595	360.25
398.82	367.25
399.044	376.25
399.268	381.25
399.492	416.25
399.717	398.25
399.941	457.25
400.165	451.25
400.389	444.25
400.613	445.25
400.837	435.25
401.062	414.25
401.286	396.25
401.51	385.25
401.734	377.25
401.958	399.25
402.182	401.25
402.406	406.25
402.63	387.25
402.854	378.25
403.078	384.25
403.302	403.25
403.526	413.25
403.75	421.25
403.974	388.25
404.198	394.25
404.422	395.25
404.645	430.25
404.869	413.25
405.093	450.25
405.317	474.25
405.541	477.25
405.765	452.25
405.988	426.25
406.212	423.25
406.436	468.25
406.66	449.25
406.883	436.25
407.107	473.25
407.331	479.25
407.555	535.25
407.778	547.25
408.002	486.25
408.226	451.25
408.449	450.25
408.673	437.25
408.896	477.25
409.12	497.25
409.344	479.25
409.567	435.25
409.791	396.25
410.014	428.25
410.238	406.25
410.461	397.25
410.685	414.25
410.908	419.25
411.132	445.25
411.355	469.25
411.578	451.25
411.802	409.25
412.025	400.25
412.249	424.25
412.472	436.25
412.695	480.25
412.919	446.25
413.142	412.25
413.365	409.25
413.589	388.25
413.812	388.25
414.035	388.25
414.258	388.25
414.482	403.25
414.705	391.25
414.928	376.25
415.151	356.25
415.374	399.25
415.597	373.25
415.821	377.25
416.044	372.25
416.267	389.25
416.49	377.25
416.713	397.25
416.936	384.25
417.159	387.25
417.382	408.25
417.605	403.25
417.828	405.25
418.051	397.25
418.274	398.25
418.497	381.25
418.72	377.25
418.943	385.25
419.166	380.25
419.389	397.25
419.611	405.25
419.834	415.25
420.057	398.25
420.28	413.25
420.503	409.25
420.726	399.25
420.948	429.25
421.171	468.25
421.394	484.25
421.617	433.25
421.839	413.25
422.062	384.25
422.285	411.25
422.507	468.25
422.73	535.25
422.953	507.25
423.175	456.25
423.398	434.25
423.621	438.25
423.843	444.25
424.066	439.25
424.288	463.25
424.511	481.25
424.733	515.25
424.956	569.25
425.178	539.25
425.401	537.25
425.623	557.25
425.846	469.25
426.068	456.25
426.291	458.25
426.513	446.25
426.735	458.25
426.958	497.25
427.18	555.25
427.402	671.25
427.625	737.25
427.847	679.25
428.069	584.25
428.292	506.25
428.514	451.25
428.736	426.25
428.958	416.25
429.181	410.25
429.403	424.25
429.625	415.25
429.847	464.25
430.069	515.25
430.292	493.25
430.514	443.25
430.736	438.25
430.958	417.25
431.18	384.25
431.402	403.25
431.624	395.25
431.846	387.25
432.068	397.25
432.29	385.25
432.512	375.25
432.734	394.25
432.956	387.25
433.178	391.25
433.4	405.25
433.622	398.25
433.844	386.25
434.066	395.25
434.287	409.25
434.509	399.25
434.731	383.25
434.953	402.25
435.175	418.25
435.397	441.25
435.618	463.25
435.84	492.25
436.062	575.25
436.284	632.25
436.505	523.25
436.727	458.25
436.949	428.25
437.17	418.25
437.392	413.25
437.614	438.25
437.835	465.25
438.057	567.25
438.278	619.25
438.5	618.25
438.721	671.25
438.943	670.25
439.165	527.25
439.386	470.25
439.608	464.25
439.829	467.25
440.05	483.25
440.272	544.25
440.493	521.25
440.715	454.25
440.936	456.25
441.158	425.25
441.379	426.25
441.6	431.25
441.822	453.25
442.043	486.25
442.264	565.25
442.486	587.25
442.707	487.25
442.928	472.25
443.149	472.25
443.371	496.25
443.592	530.25
443.813	607.25
444.034	647.25
444.255	536.25
444.476	502.25
444.698	460.25
444.919	442.25
445.14	539.25
445.361	509.25
445.582	496.25
445.803	551.25
446.024	647.25
446.245	645.25
446.466	578.25
446.687	502.25
446.908	452.25
447.129	427.25
447.35	411.25
447.571	403.25
447.792	425.25
448.013	427.25
448.234	408.25
448.455	480.25
448.675	586.25
448.896	644.25
449.117	577.25
449.338	548.25
449.559	637.25
449.779	703.25
450	574.25
450.221	473.25
450.442	439.25
450.662	416.25
450.883	435.25
451.104	461.25
451.324	427.25
451.545	423.25
451.766	396.25
451.986	369.25
452.207	379.25
452.428	389.25
452.648	367.25
452.869	384.25
453.089	377.25
453.31	392.25
453.53	381.25
453.751	373.25
453.971	374.25
454.192	398.25
454.412	407.25
454.633	395.25
454.853	397.25
455.073	368.25
455.294	419.25
455.514	445.25
455.734	435.25
455.955	356.25
456.175	381.25
456.395	356.25
456.616	355.25
456.836	356.25
457.056	355.25
457.276	344.25
457.497	367.25
457.717	351.25
457.937	377.25
458.157	367.25
458.377	371.25
458.598	394.25
458.818	452.25
459.038	532.25
459.258	544.25
459.478	453.25
459.698	421.25
459.918	392.25
460.138	392.25
460.358	391.25
460.578	386.25
460.798	394.25
461.018	378.25
461.238	393.25
461.458	396.25
461.678	378.25
461.898	417.25
462.118	376.25
462.338	391.25
462.558	386.25
462.777	377.25
462.997	380.25
463.217	412.25
463.437	414.25
463.657	429.25
463.876	415.25
464.096	429.25
464.316	412.25
464.536	429.25
464.755	432.25
464.975	423.25
465.195	459.25
465.414	529.25
465.634	481.25
465.854	443.25
466.073	419.25
466.293	381.25
466.512	386.25
466.732	396.25
466.951	396.25
467.171	388.25
467.391	406.25
467.61	394.25
467.829	381.25
468.049	394.25
468.268	401.25
468.488	389.25
468.707	372.25
468.927	384.25
469.146	398.25
469.365	375.25
469.585	368.25
469.804	386.25
470.023	402.25
470.243	387.25
470.462	407.25
470.681	422.25
470.901	410.25
471.12	411.25
471.339	384.25
471.558	388.25
471.777	384.25
471.997	387.25
472.216	414.25
472.435	429.25
472.654	429.25
472.873	389.25
473.092	393.25
473.311	396.25
473.53	380.25
473.749	382.25
473.968	445.25
474.187	542.25
474.406	544.25
474.625	477.25
474.844	404.25
475.063	397.25
475.282	395.25
475.501	385.25
475.72	397.25
475.939	385.25
476.158	392.25
476.377	401.25
476.596	393.25
476.814	437.25
477.033	415.25
477.252	409.25
477.471	415.25
477.69	411.25
477.908	409.25
478.127	410.25
478.346	409.25
478.564	444.25
478.783	418.25
479.002	421.25
479.22	435.25
479.439	461.25
479.658	464.25
479.876	478.25
480.095	472.25
480.313	465.25
480.532	456.25
480.751	469.25
480.969	476.25
481.188	564.25
481.406	609.25
481.624	519.25
481.843	476.25
482.061	481.25
482.28	454.25
482.498	467.25
482.717	467.25
482.935	476.25
483.153	451.25
483.372	461.25
483.59	479.25
483.808	454.25
484.027	460.25
484.245	452.25
484.463	439.25
484.681	480.25
484.9	473.25
485.118	451.25
485.336	467.25
485.554	484.25
485.772	472.25
485.99	463.25
486.209	466.25
486.427	458.25
486.645	500.25
486.863	481.25
487.081	490.25
487.299	509.25
487.517	499.25
487.735	500.25
487.953	483.25
488.171	499.25
488.389	491.25
488.607	481.25
488.825	492.25
489.043	477.25
489.261	513.25
489.479	486.25
489.696	496.25
489.914	488.25
490.132	523.25
490.35	527.25
490.568	492.25
490.786	523.25
491.003	549.25
491.221	545.25
491.439	561.25
491.657	566.25
491.874	556.25
492.092	554.25
492.31	563.25
492.527	576.25
492.745	567.25
492.963	571.25
493.18	576.25
493.398	556.25
493.615	595.25
493.833	575.25
494.05	579.25
494.268	572.25
494.485	570.25
494.703	581.25
494.92	596.25
495.138	584.25
495.355	570.25
495.573	596.25
495.79	579.25
496.008	594.25
496.225	578.25
496.442	586.25
496.66	601.25
496.877	577.25
497.094	573.25
497.312	585.25
497.529	584.25
497.746	599.25
497.963	608.25
498.181	648.25
498.398	643.25
498.615	643.25
498.832	629.25
499.049	635.25
499.267	639.25
499.484	658.25
499.701	676.25
499.918	687.25
500.135	697.25
500.352	724.25
500.569	726.25
500.786	715.25
501.003	729.25
501.22	721.25
501.437	723.25
501.654	711.25
501.871	701.25
502.088	671.25
