Data from 1961.PennyLincolnUp.Lamp.En5.5.200Scan.071719.P1._HRD10591_13-49-14-058.txt Node
Date: Thu Jul 18 13:49:14 EDT 2019
User: cochatt
Spectrometer: HR+D1059
Trigger mode: 1
Integration Time (sec): 1.000000E-1
Scans to average: 1
Electric dark correction enabled: true
Nonlinearity correction enabled: false
Boxcar width: 0
XAxis mode: Wavelengths
Number of Pixels in Spectrum: 2048
>>>>>Begin Spectral Data<<<<<
223.165	-11.5
223.4	-11.5
223.635	-11.5
223.869	-19.5
224.104	-20.5
224.338	-21.5
224.573	-12.5
224.808	-4.5
225.042	-12.5
225.277	-14.5
225.511	3.5
225.746	4.5
225.98	4.5
226.215	8.5
226.449	21.5
226.683	23.5
226.918	24.5
227.152	26.5
227.387	18.5
227.621	34.5
227.856	30.5
228.09	51.5
228.324	66.5
228.559	61.5
228.793	64.5
229.027	89.5
229.262	87.5
229.496	108.5
229.73	140.5
229.964	147.5
230.199	124.5
230.433	115.5
230.667	115.5
230.901	101.5
231.136	103.5
231.37	118.5
231.604	101.5
231.838	104.5
232.072	102.5
232.306	121.5
232.541	116.5
232.775	95.5
233.009	97.5
233.243	108.5
233.477	104.5
233.711	108.5
233.945	106.5
234.179	122.5
234.413	120.5
234.647	115.5
234.881	123.5
235.115	113.5
235.349	120.5
235.583	121.5
235.817	128.5
236.051	119.5
236.285	108.5
236.519	111.5
236.753	120.5
236.987	145.5
237.221	177.5
237.455	213.5
237.689	175.5
237.922	119.5
238.156	122.5
238.39	113.5
238.624	126.5
238.858	123.5
239.091	102.5
239.325	108.5
239.559	129.5
239.793	125.5
240.027	141.5
240.26	124.5
240.494	150.5
240.728	152.5
240.961	131.5
241.195	131.5
241.429	117.5
241.662	135.5
241.896	124.5
242.13	119.5
242.363	123.5
242.597	131.5
242.83	122.5
243.064	122.5
243.298	125.5
243.531	126.5
243.765	125.5
243.998	107.5
244.232	127.5
244.465	127.5
244.699	138.5
244.932	116.5
245.166	117.5
245.399	117.5
245.633	121.5
245.866	132.5
246.099	137.5
246.333	137.5
246.566	125.5
246.8	136.5
247.033	132.5
247.266	138.5
247.5	172.5
247.733	133.5
247.966	152.5
248.2	163.5
248.433	147.5
248.666	172.5
248.899	167.5
249.133	175.5
249.366	183.5
249.599	188.5
249.832	161.5
250.066	171.5
250.299	166.5
250.532	165.5
250.765	177.5
250.998	202.5
251.231	205.5
251.465	186.5
251.698	176.5
251.931	177.5
252.164	163.5
252.397	161.5
252.63	175.5
252.863	182.5
253.096	187.5
253.329	193.5
253.562	189.5
253.795	193.5
254.028	171.5
254.261	185.5
254.494	209.5
254.727	246.5
254.96	251.5
255.193	242.5
255.426	220.5
255.659	212.5
255.892	209.5
256.124	212.5
256.357	211.5
256.59	189.5
256.823	192.5
257.056	195.5
257.289	181.5
257.521	181.5
257.754	177.5
257.987	195.5
258.22	189.5
258.452	180.5
258.685	176.5
258.918	192.5
259.151	189.5
259.383	198.5
259.616	191.5
259.849	203.5
260.081	199.5
260.314	214.5
260.547	241.5
260.779	223.5
261.012	212.5
261.244	201.5
261.477	198.5
261.71	201.5
261.942	202.5
262.175	205.5
262.407	198.5
262.64	176.5
262.872	183.5
263.105	195.5
263.337	197.5
263.57	189.5
263.802	185.5
264.035	185.5
264.267	187.5
264.499	186.5
264.732	178.5
264.964	181.5
265.197	212.5
265.429	193.5
265.661	172.5
265.894	175.5
266.126	192.5
266.358	197.5
266.591	169.5
266.823	187.5
267.055	195.5
267.287	200.5
267.52	202.5
267.752	192.5
267.984	202.5
268.216	181.5
268.448	187.5
268.681	196.5
268.913	208.5
269.145	236.5
269.377	229.5
269.609	242.5
269.841	228.5
270.073	245.5
270.306	253.5
270.538	268.5
270.77	284.5
271.002	258.5
271.234	250.5
271.466	261.5
271.698	291.5
271.93	285.5
272.162	269.5
272.394	287.5
272.626	277.5
272.858	245.5
273.09	234.5
273.322	253.5
273.553	226.5
273.785	244.5
274.017	212.5
274.249	234.5
274.481	222.5
274.713	235.5
274.945	248.5
275.176	222.5
275.408	257.5
275.64	240.5
275.872	214.5
276.104	235.5
276.335	236.5
276.567	235.5
276.799	248.5
277.031	265.5
277.262	256.5
277.494	273.5
277.726	260.5
277.957	257.5
278.189	241.5
278.421	230.5
278.652	241.5
278.884	239.5
279.115	221.5
279.347	228.5
279.579	230.5
279.81	230.5
280.042	235.5
280.273	219.5
280.505	230.5
280.736	220.5
280.968	223.5
281.199	220.5
281.431	219.5
281.662	239.5
281.894	230.5
282.125	229.5
282.356	259.5
282.588	253.5
282.819	261.5
283.051	243.5
283.282	245.5
283.513	228.5
283.745	219.5
283.976	241.5
284.207	251.5
284.439	244.5
284.67	239.5
284.901	247.5
285.132	232.5
285.364	230.5
285.595	245.5
285.826	226.5
286.057	223.5
286.288	266.5
286.52	223.5
286.751	247.5
286.982	239.5
287.213	239.5
287.444	252.5
287.675	246.5
287.906	232.5
288.138	236.5
288.369	247.5
288.6	270.5
288.831	256.5
289.062	251.5
289.293	233.5
289.524	258.5
289.755	231.5
289.986	231.5
290.217	244.5
290.448	240.5
290.679	236.5
290.91	245.5
291.141	235.5
291.371	247.5
291.602	245.5
291.833	240.5
292.064	226.5
292.295	233.5
292.526	226.5
292.757	245.5
292.987	234.5
293.218	219.5
293.449	243.5
293.68	252.5
293.91	235.5
294.141	237.5
294.372	252.5
294.603	252.5
294.833	256.5
295.064	241.5
295.295	241.5
295.525	233.5
295.756	250.5
295.987	251.5
296.217	288.5
296.448	290.5
296.679	276.5
296.909	244.5
297.14	262.5
297.37	261.5
297.601	246.5
297.831	261.5
298.062	260.5
298.292	246.5
298.523	255.5
298.753	259.5
298.984	257.5
299.214	255.5
299.445	243.5
299.675	254.5
299.905	264.5
300.136	275.5
300.366	251.5
300.597	259.5
300.827	271.5
301.057	273.5
301.288	298.5
301.518	271.5
301.748	261.5
301.979	278.5
302.209	261.5
302.439	247.5
302.669	263.5
302.9	282.5
303.13	273.5
303.36	279.5
303.59	295.5
303.82	284.5
304.051	299.5
304.281	281.5
304.511	277.5
304.741	294.5
304.971	283.5
305.201	270.5
305.431	275.5
305.661	275.5
305.891	282.5
306.121	264.5
306.352	297.5
306.582	310.5
306.812	265.5
307.042	280.5
307.272	279.5
307.502	285.5
307.731	288.5
307.961	285.5
308.191	288.5
308.421	280.5
308.651	291.5
308.881	278.5
309.111	294.5
309.341	299.5
309.571	292.5
309.8	304.5
310.03	317.5
310.26	344.5
310.49	327.5
310.72	340.5
310.949	367.5
311.179	339.5
311.409	313.5
311.639	327.5
311.868	335.5
312.098	342.5
312.328	340.5
312.557	360.5
312.787	363.5
313.017	379.5
313.246	355.5
313.476	315.5
313.706	312.5
313.935	334.5
314.165	355.5
314.394	352.5
314.624	359.5
314.853	351.5
315.083	324.5
315.312	335.5
315.542	315.5
315.771	311.5
316.001	307.5
316.23	322.5
316.46	307.5
316.689	332.5
316.919	338.5
317.148	350.5
317.377	328.5
317.607	333.5
317.836	315.5
318.065	329.5
318.295	297.5
318.524	313.5
318.753	317.5
318.983	315.5
319.212	343.5
319.441	343.5
319.67	334.5
319.9	331.5
320.129	328.5
320.358	327.5
320.587	332.5
320.816	322.5
321.046	357.5
321.275	350.5
321.504	339.5
321.733	341.5
321.962	360.5
322.191	379.5
322.42	383.5
322.649	385.5
322.878	418.5
323.108	435.5
323.337	444.5
323.566	463.5
323.795	506.5
324.024	588.5
324.253	751.5
324.482	1067.5
324.71	1675.5
324.939	2321.5
325.168	1905.5
325.397	1009.5
325.626	671.5
325.855	543.5
326.084	500.5
326.313	492.5
326.542	489.5
326.77	535.5
326.999	674.5
327.228	963.5
327.457	1436.5
327.686	1723.5
327.914	1097.5
328.143	738.5
328.372	639.5
328.6	613.5
328.829	553.5
329.058	560.5
329.287	561.5
329.515	533.5
329.744	488.5
329.972	490.5
330.201	520.5
330.43	548.5
330.658	566.5
330.887	611.5
331.115	560.5
331.344	482.5
331.572	456.5
331.801	460.5
332.03	449.5
332.258	435.5
332.486	395.5
332.715	390.5
332.943	397.5
333.172	399.5
333.4	397.5
333.629	418.5
333.857	415.5
334.085	423.5
334.314	458.5
334.542	474.5
334.771	510.5
334.999	436.5
335.227	403.5
335.455	377.5
335.684	390.5
335.912	371.5
336.14	376.5
336.369	379.5
336.597	386.5
336.825	389.5
337.053	370.5
337.281	371.5
337.51	383.5
337.738	376.5
337.966	383.5
338.194	378.5
338.422	391.5
338.65	386.5
338.878	361.5
339.106	356.5
339.334	360.5
339.562	380.5
339.79	364.5
340.018	368.5
340.246	375.5
340.474	369.5
340.702	372.5
340.93	363.5
341.158	372.5
341.386	353.5
341.614	367.5
341.842	363.5
342.07	375.5
342.298	355.5
342.526	350.5
342.754	355.5
342.981	340.5
343.209	341.5
343.437	351.5
343.665	342.5
343.893	351.5
344.12	361.5
344.348	364.5
344.576	374.5
344.804	373.5
345.031	381.5
345.259	411.5
345.487	368.5
345.714	384.5
345.942	359.5
346.17	382.5
346.397	356.5
346.625	357.5
346.853	363.5
347.08	364.5
347.308	368.5
347.535	365.5
347.763	379.5
347.99	403.5
348.218	363.5
348.445	385.5
348.673	373.5
348.9	364.5
349.128	343.5
349.355	351.5
349.583	347.5
349.81	359.5
350.037	346.5
350.265	345.5
350.492	353.5
350.72	351.5
350.947	365.5
351.174	364.5
351.402	371.5
351.629	377.5
351.856	363.5
352.083	364.5
352.311	368.5
352.538	348.5
352.765	401.5
352.992	371.5
353.22	380.5
353.447	353.5
353.674	348.5
353.901	331.5
354.128	334.5
354.355	334.5
354.583	331.5
354.81	328.5
355.037	316.5
355.264	338.5
355.491	306.5
355.718	342.5
355.945	327.5
356.172	313.5
356.399	326.5
356.626	333.5
356.853	332.5
357.08	331.5
357.307	343.5
357.534	346.5
357.761	320.5
357.988	329.5
358.215	338.5
358.441	327.5
358.668	312.5
358.895	329.5
359.122	333.5
359.349	355.5
359.576	347.5
359.802	372.5
360.029	426.5
360.256	433.5
360.483	389.5
360.709	359.5
360.936	355.5
361.163	356.5
361.39	351.5
361.616	369.5
361.843	346.5
362.07	372.5
362.296	367.5
362.523	359.5
362.749	360.5
362.976	360.5
363.203	353.5
363.429	339.5
363.656	360.5
363.882	368.5
364.109	329.5
364.335	351.5
364.562	365.5
364.788	336.5
365.015	334.5
365.241	349.5
365.468	330.5
365.694	344.5
365.92	341.5
366.147	333.5
366.373	346.5
366.599	345.5
366.826	326.5
367.052	329.5
367.278	329.5
367.505	322.5
367.731	321.5
367.957	333.5
368.184	331.5
368.41	336.5
368.636	348.5
368.862	356.5
369.089	342.5
369.315	342.5
369.541	331.5
369.767	354.5
369.993	346.5
370.219	339.5
370.445	324.5
370.672	330.5
370.898	333.5
371.124	329.5
371.35	332.5
371.576	331.5
371.802	324.5
372.028	345.5
372.254	322.5
372.48	322.5
372.706	329.5
372.932	343.5
373.158	315.5
373.384	337.5
373.61	342.5
373.835	327.5
374.061	341.5
374.287	331.5
374.513	314.5
374.739	331.5
374.965	328.5
375.191	328.5
375.416	331.5
375.642	326.5
375.868	337.5
376.094	316.5
376.319	346.5
376.545	323.5
376.771	348.5
376.997	335.5
377.222	331.5
377.448	340.5
377.674	305.5
377.899	320.5
378.125	324.5
378.35	324.5
378.576	324.5
378.802	329.5
379.027	322.5
379.253	316.5
379.478	334.5
379.704	324.5
379.929	324.5
380.155	323.5
380.38	320.5
380.606	323.5
380.831	321.5
381.057	339.5
381.282	328.5
381.507	328.5
381.733	327.5
381.958	318.5
382.184	339.5
382.409	329.5
382.634	345.5
382.86	332.5
383.085	312.5
383.31	328.5
383.535	344.5
383.761	347.5
383.986	331.5
384.211	338.5
384.436	332.5
384.662	349.5
384.887	336.5
385.112	355.5
385.337	363.5
385.562	330.5
385.787	342.5
386.013	356.5
386.238	364.5
386.463	354.5
386.688	360.5
386.913	341.5
387.138	346.5
387.363	334.5
387.588	357.5
387.813	354.5
388.038	353.5
388.263	363.5
388.488	352.5
388.713	334.5
388.938	367.5
389.163	370.5
389.387	351.5
389.612	363.5
389.837	356.5
390.062	363.5
390.287	371.5
390.512	347.5
390.736	331.5
390.961	373.5
391.186	359.5
391.411	359.5
391.636	362.5
391.86	373.5
392.085	349.5
392.31	377.5
392.534	355.5
392.759	350.5
392.984	348.5
393.208	351.5
393.433	337.5
393.658	338.5
393.882	364.5
394.107	355.5
394.331	371.5
394.556	348.5
394.78	367.5
395.005	378.5
395.229	357.5
395.454	373.5
395.678	383.5
395.903	378.5
396.127	380.5
396.352	401.5
396.576	367.5
396.801	377.5
397.025	362.5
397.249	377.5
397.474	377.5
397.698	388.5
397.922	383.5
398.147	397.5
398.371	391.5
398.595	395.5
398.82	368.5
399.044	403.5
399.268	417.5
399.492	431.5
399.717	442.5
399.941	473.5
400.165	505.5
400.389	486.5
400.613	480.5
400.837	436.5
401.062	427.5
401.286	397.5
401.51	419.5
401.734	401.5
401.958	413.5
402.182	405.5
402.406	428.5
402.63	431.5
402.854	405.5
403.078	433.5
403.302	415.5
403.526	425.5
403.75	421.5
403.974	415.5
404.198	416.5
404.422	426.5
404.645	421.5
404.869	415.5
405.093	446.5
405.317	480.5
405.541	518.5
405.765	490.5
405.988	455.5
406.212	466.5
406.436	466.5
406.66	487.5
406.883	463.5
407.107	486.5
407.331	509.5
407.555	564.5
407.778	547.5
408.002	527.5
408.226	484.5
408.449	479.5
408.673	469.5
408.896	509.5
409.12	539.5
409.344	492.5
409.567	459.5
409.791	455.5
410.014	425.5
410.238	436.5
410.461	423.5
410.685	423.5
410.908	459.5
411.132	471.5
411.355	511.5
411.578	483.5
411.802	443.5
412.025	443.5
412.249	416.5
412.472	469.5
412.695	499.5
412.919	496.5
413.142	451.5
413.365	424.5
413.589	416.5
413.812	408.5
414.035	410.5
414.258	404.5
414.482	406.5
414.705	392.5
414.928	398.5
415.151	395.5
415.374	409.5
415.597	398.5
415.821	409.5
416.044	400.5
416.267	404.5
416.49	403.5
416.713	396.5
416.936	403.5
417.159	403.5
417.382	417.5
417.605	438.5
417.828	437.5
418.051	425.5
418.274	426.5
418.497	393.5
418.72	385.5
418.943	411.5
419.166	413.5
419.389	424.5
419.611	413.5
419.834	435.5
420.057	414.5
420.28	420.5
420.503	429.5
420.726	409.5
420.948	419.5
421.171	467.5
421.394	477.5
421.617	434.5
421.839	445.5
422.062	434.5
422.285	447.5
422.507	509.5
422.73	530.5
422.953	535.5
423.175	440.5
423.398	438.5
423.621	461.5
423.843	457.5
424.066	472.5
424.288	459.5
424.511	485.5
424.733	541.5
424.956	591.5
425.178	586.5
425.401	594.5
425.623	579.5
425.846	511.5
426.068	469.5
426.291	465.5
426.513	466.5
426.735	468.5
426.958	524.5
427.18	604.5
427.402	684.5
427.625	781.5
427.847	701.5
428.069	611.5
428.292	522.5
428.514	472.5
428.736	463.5
428.958	439.5
429.181	441.5
429.403	430.5
429.625	451.5
429.847	484.5
430.069	549.5
430.292	509.5
430.514	460.5
430.736	436.5
430.958	429.5
431.18	426.5
431.402	419.5
431.624	407.5
431.846	392.5
432.068	419.5
432.29	405.5
432.512	412.5
432.734	439.5
432.956	408.5
433.178	418.5
433.4	443.5
433.622	416.5
433.844	403.5
434.066	422.5
434.287	405.5
434.509	408.5
434.731	416.5
434.953	427.5
435.175	447.5
435.397	458.5
435.618	469.5
435.84	497.5
436.062	591.5
436.284	654.5
436.505	556.5
436.727	480.5
436.949	447.5
437.17	444.5
437.392	444.5
437.614	435.5
437.835	487.5
438.057	577.5
438.278	649.5
438.5	665.5
438.721	704.5
438.943	683.5
439.165	556.5
439.386	504.5
439.608	499.5
439.829	507.5
440.05	513.5
440.272	581.5
440.493	533.5
440.715	479.5
440.936	447.5
441.158	457.5
441.379	434.5
441.6	457.5
441.822	472.5
442.043	541.5
442.264	591.5
442.486	588.5
442.707	511.5
442.928	473.5
443.149	507.5
443.371	536.5
443.592	564.5
443.813	639.5
444.034	680.5
444.255	566.5
444.476	487.5
444.698	453.5
444.919	443.5
445.14	548.5
445.361	520.5
445.582	516.5
445.803	597.5
446.024	695.5
446.245	685.5
446.466	630.5
446.687	526.5
446.908	483.5
447.129	472.5
447.35	441.5
447.571	435.5
447.792	443.5
448.013	445.5
448.234	479.5
448.455	509.5
448.675	609.5
448.896	699.5
449.117	589.5
449.338	567.5
449.559	658.5
449.779	741.5
450	592.5
450.221	512.5
450.442	467.5
450.662	427.5
450.883	453.5
451.104	456.5
451.324	449.5
451.545	424.5
451.766	409.5
451.986	407.5
452.207	388.5
452.428	403.5
452.648	397.5
452.869	391.5
453.089	384.5
453.31	431.5
453.53	397.5
453.751	409.5
453.971	402.5
454.192	449.5
454.412	427.5
454.633	412.5
454.853	403.5
455.073	376.5
455.294	413.5
455.514	507.5
455.734	473.5
455.955	395.5
456.175	387.5
456.395	382.5
456.616	383.5
456.836	380.5
457.056	363.5
457.276	367.5
457.497	389.5
457.717	376.5
457.937	372.5
458.157	389.5
458.377	379.5
458.598	401.5
458.818	466.5
459.038	540.5
459.258	567.5
459.478	477.5
459.698	423.5
459.918	419.5
460.138	433.5
460.358	409.5
460.578	392.5
460.798	413.5
461.018	427.5
461.238	403.5
461.458	402.5
461.678	414.5
461.898	408.5
462.118	403.5
462.338	415.5
462.558	412.5
462.777	409.5
462.997	425.5
463.217	417.5
463.437	437.5
463.657	409.5
463.876	415.5
464.096	417.5
464.316	428.5
464.536	447.5
464.755	446.5
464.975	447.5
465.195	500.5
465.414	592.5
465.634	508.5
465.854	482.5
466.073	449.5
466.293	411.5
466.512	425.5
466.732	418.5
466.951	384.5
467.171	396.5
467.391	395.5
467.61	426.5
467.829	413.5
468.049	417.5
468.268	424.5
468.488	421.5
468.707	387.5
468.927	378.5
469.146	379.5
469.365	412.5
469.585	395.5
469.804	398.5
470.023	413.5
470.243	412.5
470.462	425.5
470.681	423.5
470.901	422.5
471.12	404.5
471.339	419.5
471.558	425.5
471.777	431.5
471.997	407.5
472.216	420.5
472.435	444.5
472.654	435.5
472.873	401.5
473.092	400.5
473.311	407.5
473.53	427.5
473.749	419.5
473.968	466.5
474.187	557.5
474.406	565.5
474.625	476.5
474.844	437.5
475.063	428.5
475.282	441.5
475.501	415.5
475.72	392.5
475.939	419.5
476.158	414.5
476.377	421.5
476.596	423.5
476.814	440.5
477.033	457.5
477.252	427.5
477.471	410.5
477.69	435.5
477.908	432.5
478.127	447.5
478.346	453.5
478.564	436.5
478.783	467.5
479.002	470.5
479.22	472.5
479.439	469.5
479.658	490.5
479.876	501.5
480.095	491.5
480.313	513.5
480.532	492.5
480.751	493.5
480.969	514.5
481.188	582.5
481.406	625.5
481.624	544.5
481.843	535.5
482.061	490.5
482.28	478.5
482.498	469.5
482.717	489.5
482.935	488.5
483.153	501.5
483.372	478.5
483.59	487.5
483.808	472.5
484.027	489.5
484.245	460.5
484.463	474.5
484.681	482.5
484.9	484.5
485.118	488.5
485.336	473.5
485.554	486.5
485.772	495.5
485.99	488.5
486.209	498.5
486.427	496.5
486.645	518.5
486.863	547.5
487.081	544.5
487.299	529.5
487.517	544.5
487.735	521.5
487.953	502.5
488.171	498.5
488.389	505.5
488.607	525.5
488.825	540.5
489.043	524.5
489.261	520.5
489.479	537.5
489.696	535.5
489.914	528.5
490.132	541.5
490.35	540.5
490.568	550.5
490.786	549.5
491.003	567.5
491.221	597.5
491.439	563.5
491.657	579.5
491.874	600.5
492.092	589.5
492.31	573.5
492.527	592.5
492.745	599.5
492.963	590.5
493.18	593.5
493.398	599.5
493.615	618.5
493.833	603.5
494.05	596.5
494.268	601.5
494.485	610.5
494.703	596.5
494.92	602.5
495.138	618.5
495.355	608.5
495.573	607.5
495.79	618.5
496.008	613.5
496.225	611.5
496.442	611.5
496.66	622.5
496.877	606.5
497.094	631.5
497.312	621.5
497.529	634.5
497.746	647.5
497.963	639.5
498.181	654.5
498.398	672.5
498.615	675.5
498.832	653.5
499.049	683.5
499.267	705.5
499.484	717.5
499.701	712.5
499.918	724.5
500.135	740.5
500.352	750.5
500.569	749.5
500.786	778.5
501.003	759.5
501.22	741.5
501.437	749.5
501.654	767.5
501.871	722.5
502.088	737.5
502.305	731.5
502.522	669.5
502.739	676.5
502.956	653.5
503.172	633.5
503.389	631.5
503.606	627.5
503.823	629.5
504.04	650.5
504.256	631.5
504.473	631.5
504.69	586.5
504.907	616.5
505.123	585.5
505.34	585.5
505.557	608.5
505.773	571.5
505.99	601.5
506.207	597.5
506.423	589.5
506.64	587.5
506.856	600.5
507.073	623.5
507.289	588.5
507.506	577.5
507.722	593.5
507.939	620.5
508.155	604.5
508.372	569.5
508.588	573.5
508.805	572.5
509.021	567.5
509.238	599.5
509.454	560.5
509.67	575.5
509.887	580.5
510.103	573.5
510.319	609.5
510.536	713.5
510.752	1247.5
510.968	993.5
511.184	638.5
511.401	575.5
511.617	567.5
511.833	556.5
512.049	560.5
512.265	555.5
512.481	559.5
512.698	547.5
512.914	550.5
513.13	549.5
513.346	562.5
513.562	545.5
513.778	555.5
513.994	555.5
514.21	579.5
514.426	589.5
514.642	645.5
514.858	670.5
515.074	737.5
515.29	882.5
515.506	1333.5
515.721	1069.5
515.937	709.5
516.153	630.5
516.369	593.5
516.585	583.5
516.801	560.5
517.016	559.5
517.232	562.5
517.448	549.5
517.664	551.5
517.879	561.5
518.095	553.5
518.311	553.5
518.527	554.5
518.742	565.5
518.958	554.5
519.173	526.5
519.389	535.5
519.605	556.5
519.82	539.5
