Data from 1961.PennyLincolnUp.Lamp.En5.5.200Scan.071719.P1._HRD10591_13-48-37-059.txt Node
Date: Thu Jul 18 13:48:37 EDT 2019
User: cochatt
Spectrometer: HR+D1059
Trigger mode: 1
Integration Time (sec): 1.000000E-1
Scans to average: 1
Electric dark correction enabled: true
Nonlinearity correction enabled: false
Boxcar width: 0
XAxis mode: Wavelengths
Number of Pixels in Spectrum: 2048
>>>>>Begin Spectral Data<<<<<
223.165	-26.25
223.4	-26.25
223.635	-26.25
223.869	-26.25
224.104	-12.25
224.338	-5.25
224.573	-5.25
224.808	-11.25
225.042	-1.25
225.277	-13.25
225.511	3.75
225.746	-16.25
225.98	11.75
226.215	8.75
226.449	24.75
226.683	15.75
226.918	33.75
227.152	18.75
227.387	32.75
227.621	46.75
227.856	47.75
228.09	49.75
228.324	55.75
228.559	65.75
228.793	61.75
229.027	105.75
229.262	100.75
229.496	108.75
229.73	130.75
229.964	137.75
230.199	130.75
230.433	122.75
230.667	98.75
230.901	109.75
231.136	123.75
231.37	122.75
231.604	106.75
231.838	99.75
232.072	111.75
232.306	101.75
232.541	110.75
232.775	104.75
233.009	101.75
233.243	121.75
233.477	116.75
233.711	109.75
233.945	109.75
234.179	100.75
234.413	100.75
234.647	116.75
234.881	105.75
235.115	108.75
235.349	114.75
235.583	125.75
235.817	125.75
236.051	121.75
236.285	122.75
236.519	118.75
236.753	111.75
236.987	136.75
237.221	167.75
237.455	214.75
237.689	166.75
237.922	140.75
238.156	133.75
238.39	126.75
238.624	126.75
238.858	120.75
239.091	125.75
239.325	118.75
239.559	128.75
239.793	127.75
240.027	122.75
240.26	138.75
240.494	157.75
240.728	136.75
240.961	127.75
241.195	153.75
241.429	138.75
241.662	127.75
241.896	124.75
242.13	119.75
242.363	139.75
242.597	141.75
242.83	129.75
243.064	129.75
243.298	137.75
243.531	130.75
243.765	126.75
243.998	127.75
244.232	133.75
244.465	129.75
244.699	137.75
244.932	134.75
245.166	121.75
245.399	138.75
245.633	125.75
245.866	131.75
246.099	136.75
246.333	150.75
246.566	128.75
246.8	133.75
247.033	141.75
247.266	143.75
247.5	163.75
247.733	154.75
247.966	144.75
248.2	140.75
248.433	134.75
248.666	155.75
248.899	153.75
249.133	174.75
249.366	186.75
249.599	172.75
249.832	161.75
250.066	167.75
250.299	171.75
250.532	181.75
250.765	188.75
250.998	204.75
251.231	178.75
251.465	205.75
251.698	190.75
251.931	190.75
252.164	170.75
252.397	149.75
252.63	172.75
252.863	189.75
253.096	194.75
253.329	196.75
253.562	187.75
253.795	199.75
254.028	174.75
254.261	195.75
254.494	202.75
254.727	231.75
254.96	229.75
255.193	241.75
255.426	215.75
255.659	203.75
255.892	193.75
256.124	204.75
256.357	214.75
256.59	201.75
256.823	192.75
257.056	182.75
257.289	188.75
257.521	181.75
257.754	182.75
257.987	187.75
258.22	178.75
258.452	173.75
258.685	200.75
258.918	166.75
259.151	205.75
259.383	199.75
259.616	204.75
259.849	195.75
260.081	185.75
260.314	217.75
260.547	230.75
260.779	203.75
261.012	211.75
261.244	200.75
261.477	193.75
261.71	202.75
261.942	209.75
262.175	232.75
262.407	204.75
262.64	187.75
262.872	178.75
263.105	194.75
263.337	188.75
263.57	187.75
263.802	191.75
264.035	195.75
264.267	174.75
264.499	191.75
264.732	177.75
264.964	191.75
265.197	177.75
265.429	195.75
265.661	185.75
265.894	186.75
266.126	174.75
266.358	173.75
266.591	178.75
266.823	205.75
267.055	183.75
267.287	186.75
267.52	191.75
267.752	178.75
267.984	199.75
268.216	191.75
268.448	189.75
268.681	203.75
268.913	228.75
269.145	224.75
269.377	249.75
269.609	216.75
269.841	231.75
270.073	223.75
270.306	243.75
270.538	268.75
270.77	279.75
271.002	245.75
271.234	258.75
271.466	257.75
271.698	274.75
271.93	280.75
272.162	278.75
272.394	281.75
272.626	255.75
272.858	229.75
273.09	255.75
273.322	245.75
273.553	218.75
273.785	226.75
274.017	218.75
274.249	231.75
274.481	207.75
274.713	220.75
274.945	225.75
275.176	231.75
275.408	228.75
275.64	214.75
275.872	218.75
276.104	225.75
276.335	220.75
276.567	238.75
276.799	260.75
277.031	248.75
277.262	260.75
277.494	270.75
277.726	253.75
277.957	257.75
278.189	255.75
278.421	226.75
278.652	242.75
278.884	219.75
279.115	210.75
279.347	229.75
279.579	219.75
279.81	225.75
280.042	219.75
280.273	229.75
280.505	224.75
280.736	227.75
280.968	223.75
281.199	227.75
281.431	239.75
281.662	233.75
281.894	230.75
282.125	238.75
282.356	241.75
282.588	269.75
282.819	282.75
283.051	243.75
283.282	229.75
283.513	241.75
283.745	229.75
283.976	225.75
284.207	243.75
284.439	253.75
284.67	234.75
284.901	241.75
285.132	230.75
285.364	235.75
285.595	218.75
285.826	221.75
286.057	227.75
286.288	235.75
286.52	250.75
286.751	238.75
286.982	239.75
287.213	224.75
287.444	262.75
287.675	249.75
287.906	242.75
288.138	245.75
288.369	243.75
288.6	262.75
288.831	250.75
289.062	255.75
289.293	258.75
289.524	236.75
289.755	238.75
289.986	228.75
290.217	230.75
290.448	228.75
290.679	245.75
290.91	238.75
291.141	243.75
291.371	225.75
291.602	228.75
291.833	249.75
292.064	229.75
292.295	247.75
292.526	242.75
292.757	238.75
292.987	239.75
293.218	234.75
293.449	249.75
293.68	238.75
293.91	235.75
294.141	243.75
294.372	247.75
294.603	265.75
294.833	235.75
295.064	251.75
295.295	243.75
295.525	257.75
295.756	252.75
295.987	251.75
296.217	272.75
296.448	277.75
296.679	259.75
296.909	239.75
297.14	258.75
297.37	237.75
297.601	254.75
297.831	243.75
298.062	250.75
298.292	255.75
298.523	254.75
298.753	238.75
298.984	260.75
299.214	257.75
299.445	271.75
299.675	261.75
299.905	237.75
300.136	252.75
300.366	248.75
300.597	261.75
300.827	252.75
301.057	276.75
301.288	278.75
301.518	263.75
301.748	292.75
301.979	267.75
302.209	292.75
302.439	281.75
302.669	293.75
302.9	276.75
303.13	269.75
303.36	251.75
303.59	293.75
303.82	283.75
304.051	284.75
304.281	259.75
304.511	275.75
304.741	266.75
304.971	274.75
305.201	273.75
305.431	278.75
305.661	271.75
305.891	264.75
306.121	265.75
306.352	279.75
306.582	297.75
306.812	273.75
307.042	269.75
307.272	274.75
307.502	280.75
307.731	279.75
307.961	289.75
308.191	275.75
308.421	265.75
308.651	277.75
308.881	284.75
309.111	300.75
309.341	295.75
309.571	293.75
309.8	298.75
310.03	322.75
310.26	325.75
310.49	326.75
310.72	323.75
310.949	342.75
311.179	353.75
311.409	327.75
311.639	331.75
311.868	310.75
312.098	346.75
312.328	344.75
312.557	346.75
312.787	363.75
313.017	347.75
313.246	338.75
313.476	329.75
313.706	318.75
313.935	336.75
314.165	345.75
314.394	340.75
314.624	341.75
314.853	335.75
315.083	321.75
315.312	301.75
315.542	313.75
315.771	318.75
316.001	309.75
316.23	315.75
316.46	308.75
316.689	319.75
316.919	318.75
317.148	326.75
317.377	330.75
317.607	316.75
317.836	326.75
318.065	319.75
318.295	301.75
318.524	313.75
318.753	317.75
318.983	321.75
319.212	328.75
319.441	335.75
319.67	328.75
319.9	329.75
320.129	317.75
320.358	322.75
320.587	332.75
320.816	332.75
321.046	343.75
321.275	340.75
321.504	360.75
321.733	356.75
321.962	358.75
322.191	374.75
322.42	392.75
322.649	383.75
322.878	394.75
323.108	419.75
323.337	442.75
323.566	475.75
323.795	502.75
324.024	564.75
324.253	693.75
324.482	1005.75
324.71	1623.75
324.939	2247.75
325.168	1859.75
325.397	960.75
325.626	645.75
325.855	542.75
326.084	476.75
326.313	465.75
326.542	461.75
326.77	541.75
326.999	655.75
327.228	900.75
327.457	1395.75
327.686	1650.75
327.914	1090.75
328.143	723.75
328.372	617.75
328.6	572.75
328.829	510.75
329.058	542.75
329.287	550.75
329.515	522.75
329.744	478.75
329.972	482.75
330.201	486.75
330.43	555.75
330.658	579.75
330.887	580.75
331.115	558.75
331.344	492.75
331.572	446.75
331.801	448.75
332.03	454.75
332.258	425.75
332.486	415.75
332.715	401.75
332.943	399.75
333.172	381.75
333.4	391.75
333.629	400.75
333.857	407.75
334.085	430.75
334.314	437.75
334.542	483.75
334.771	503.75
334.999	420.75
335.227	407.75
335.455	395.75
335.684	383.75
335.912	362.75
336.14	392.75
336.369	379.75
336.597	376.75
336.825	380.75
337.053	367.75
337.281	373.75
337.51	371.75
337.738	352.75
337.966	382.75
338.194	399.75
338.422	390.75
338.65	373.75
338.878	362.75
339.106	365.75
339.334	364.75
339.562	378.75
339.79	362.75
340.018	356.75
340.246	374.75
340.474	356.75
340.702	360.75
340.93	345.75
341.158	353.75
341.386	360.75
341.614	351.75
341.842	380.75
342.07	347.75
342.298	341.75
342.526	359.75
342.754	353.75
342.981	342.75
343.209	341.75
343.437	350.75
343.665	334.75
343.893	354.75
344.12	363.75
344.348	359.75
344.576	369.75
344.804	361.75
345.031	393.75
345.259	397.75
345.487	398.75
345.714	362.75
345.942	353.75
346.17	359.75
346.397	356.75
346.625	355.75
346.853	355.75
347.08	347.75
347.308	396.75
347.535	373.75
347.763	369.75
347.99	377.75
348.218	354.75
348.445	355.75
348.673	378.75
348.9	369.75
349.128	365.75
349.355	358.75
349.583	317.75
349.81	322.75
350.037	336.75
350.265	357.75
350.492	352.75
350.72	353.75
350.947	350.75
351.174	377.75
351.402	371.75
351.629	357.75
351.856	361.75
352.083	361.75
352.311	380.75
352.538	379.75
352.765	388.75
352.992	377.75
353.22	368.75
353.447	349.75
353.674	358.75
353.901	326.75
354.128	358.75
354.355	339.75
354.583	324.75
354.81	335.75
355.037	317.75
355.264	312.75
355.491	321.75
355.718	297.75
355.945	304.75
356.172	321.75
356.399	336.75
356.626	328.75
356.853	321.75
357.08	331.75
357.307	318.75
357.534	317.75
357.761	326.75
357.988	319.75
358.215	329.75
358.441	311.75
358.668	337.75
358.895	329.75
359.122	334.75
359.349	346.75
359.576	374.75
359.802	374.75
360.029	397.75
360.256	412.75
360.483	394.75
360.709	367.75
360.936	369.75
361.163	339.75
361.39	369.75
361.616	359.75
361.843	344.75
362.07	369.75
362.296	358.75
362.523	347.75
362.749	366.75
362.976	360.75
363.203	353.75
363.429	338.75
363.656	342.75
363.882	360.75
364.109	318.75
364.335	342.75
364.562	315.75
364.788	346.75
365.015	344.75
365.241	334.75
365.468	330.75
365.694	341.75
365.92	343.75
366.147	335.75
366.373	333.75
366.599	334.75
366.826	317.75
367.052	336.75
367.278	313.75
367.505	334.75
367.731	331.75
367.957	331.75
368.184	328.75
368.41	325.75
368.636	350.75
368.862	339.75
369.089	350.75
369.315	330.75
369.541	341.75
369.767	313.75
369.993	334.75
370.219	318.75
370.445	351.75
370.672	343.75
370.898	328.75
371.124	329.75
371.35	349.75
371.576	300.75
371.802	317.75
372.028	304.75
372.254	314.75
372.48	325.75
372.706	314.75
372.932	320.75
373.158	342.75
373.384	330.75
373.61	322.75
373.835	330.75
374.061	309.75
374.287	325.75
374.513	333.75
374.739	337.75
374.965	312.75
375.191	322.75
375.416	334.75
375.642	334.75
375.868	345.75
376.094	315.75
376.319	323.75
376.545	325.75
376.771	339.75
376.997	347.75
377.222	330.75
377.448	322.75
377.674	318.75
377.899	318.75
378.125	311.75
378.35	317.75
378.576	322.75
378.802	319.75
379.027	311.75
379.253	321.75
379.478	322.75
379.704	330.75
379.929	322.75
380.155	323.75
380.38	320.75
380.606	316.75
380.831	330.75
381.057	345.75
381.282	328.75
381.507	333.75
381.733	323.75
381.958	326.75
382.184	332.75
382.409	327.75
382.634	333.75
382.86	329.75
383.085	327.75
383.31	335.75
383.535	342.75
383.761	348.75
383.986	339.75
384.211	332.75
384.436	346.75
384.662	353.75
384.887	341.75
385.112	358.75
385.337	347.75
385.562	361.75
385.787	342.75
386.013	349.75
386.238	347.75
386.463	360.75
386.688	339.75
386.913	345.75
387.138	338.75
387.363	339.75
387.588	355.75
387.813	339.75
388.038	333.75
388.263	350.75
388.488	357.75
388.713	346.75
388.938	354.75
389.163	365.75
389.387	373.75
389.612	342.75
389.837	355.75
390.062	347.75
390.287	347.75
390.512	342.75
390.736	339.75
390.961	348.75
391.186	345.75
391.411	357.75
391.636	352.75
391.86	361.75
392.085	360.75
392.31	365.75
392.534	350.75
392.759	358.75
392.984	354.75
393.208	350.75
393.433	343.75
393.658	369.75
393.882	360.75
394.107	372.75
394.331	347.75
394.556	349.75
394.78	348.75
395.005	358.75
395.229	338.75
395.454	356.75
395.678	355.75
395.903	393.75
396.127	397.75
396.352	390.75
396.576	404.75
396.801	359.75
397.025	357.75
397.249	352.75
397.474	366.75
397.698	367.75
397.922	389.75
398.147	403.75
398.371	399.75
398.595	391.75
398.82	387.75
399.044	401.75
399.268	397.75
399.492	417.75
399.717	437.75
399.941	466.75
400.165	478.75
400.389	476.75
400.613	431.75
400.837	422.75
401.062	410.75
401.286	413.75
401.51	395.75
401.734	398.75
401.958	389.75
402.182	400.75
402.406	404.75
402.63	404.75
402.854	417.75
403.078	412.75
403.302	422.75
403.526	427.75
403.75	396.75
403.974	402.75
404.198	411.75
404.422	419.75
404.645	403.75
404.869	415.75
405.093	454.75
405.317	490.75
405.541	527.75
405.765	474.75
405.988	458.75
406.212	460.75
406.436	497.75
406.66	483.75
406.883	444.75
407.107	460.75
407.331	491.75
407.555	543.75
407.778	591.75
408.002	517.75
408.226	478.75
408.449	445.75
408.673	483.75
408.896	487.75
409.12	523.75
409.344	485.75
409.567	463.75
409.791	453.75
410.014	422.75
410.238	436.75
410.461	437.75
410.685	437.75
410.908	447.75
411.132	457.75
411.355	491.75
411.578	458.75
411.802	444.75
412.025	433.75
412.249	431.75
412.472	442.75
412.695	478.75
412.919	473.75
413.142	435.75
413.365	415.75
413.589	397.75
413.812	383.75
414.035	395.75
414.258	387.75
414.482	387.75
414.705	388.75
414.928	390.75
415.151	387.75
415.374	382.75
415.597	378.75
415.821	401.75
416.044	399.75
416.267	397.75
416.49	399.75
416.713	384.75
416.936	403.75
417.159	379.75
417.382	377.75
417.605	386.75
417.828	413.75
418.051	437.75
418.274	407.75
418.497	408.75
418.72	379.75
418.943	379.75
419.166	421.75
419.389	407.75
419.611	418.75
419.834	406.75
420.057	412.75
420.28	415.75
420.503	424.75
420.726	435.75
420.948	427.75
421.171	462.75
421.394	490.75
421.617	435.75
421.839	418.75
422.062	423.75
422.285	436.75
422.507	494.75
422.73	544.75
422.953	529.75
423.175	456.75
423.398	436.75
423.621	422.75
423.843	462.75
424.066	447.75
424.288	434.75
424.511	490.75
424.733	532.75
424.956	598.75
425.178	567.75
425.401	595.75
425.623	582.75
425.846	502.75
426.068	455.75
426.291	457.75
426.513	443.75
426.735	461.75
426.958	494.75
427.18	574.75
427.402	684.75
427.625	756.75
427.847	693.75
428.069	583.75
428.292	523.75
428.514	458.75
428.736	444.75
428.958	442.75
429.181	458.75
429.403	434.75
429.625	443.75
429.847	474.75
430.069	527.75
430.292	521.75
430.514	444.75
430.736	409.75
430.958	410.75
431.18	413.75
431.402	417.75
431.624	385.75
431.846	421.75
432.068	410.75
432.29	404.75
432.512	402.75
432.734	399.75
432.956	411.75
433.178	421.75
433.4	415.75
433.622	375.75
433.844	419.75
434.066	399.75
434.287	403.75
434.509	401.75
434.731	428.75
434.953	435.75
435.175	418.75
435.397	446.75
435.618	467.75
435.84	488.75
436.062	561.75
436.284	625.75
436.505	521.75
436.727	473.75
436.949	446.75
437.17	423.75
437.392	425.75
437.614	445.75
437.835	483.75
438.057	587.75
438.278	642.75
438.5	653.75
438.721	723.75
438.943	655.75
439.165	535.75
439.386	488.75
439.608	494.75
439.829	487.75
440.05	518.75
440.272	558.75
440.493	522.75
440.715	480.75
440.936	440.75
441.158	434.75
441.379	438.75
441.6	438.75
441.822	457.75
442.043	502.75
442.264	575.75
442.486	607.75
442.707	511.75
442.928	489.75
443.149	475.75
443.371	509.75
443.592	563.75
443.813	638.75
444.034	646.75
444.255	549.75
444.476	484.75
444.698	462.75
444.919	467.75
445.14	554.75
445.361	512.75
445.582	508.75
445.803	590.75
446.024	660.75
446.245	640.75
446.466	614.75
446.687	517.75
446.908	499.75
447.129	455.75
447.35	457.75
447.571	429.75
447.792	430.75
448.013	447.75
448.234	439.75
448.455	513.75
448.675	614.75
448.896	681.75
449.117	599.75
449.338	541.75
449.559	638.75
449.779	730.75
450	569.75
450.221	487.75
450.442	439.75
450.662	411.75
450.883	445.75
451.104	440.75
451.324	423.75
451.545	437.75
451.766	409.75
451.986	413.75
452.207	400.75
452.428	395.75
452.648	402.75
452.869	387.75
453.089	407.75
453.31	403.75
453.53	418.75
453.751	396.75
453.971	403.75
454.192	394.75
454.412	411.75
454.633	398.75
454.853	385.75
455.073	407.75
455.294	424.75
455.514	471.75
455.734	476.75
455.955	401.75
456.175	384.75
456.395	373.75
456.616	383.75
456.836	361.75
457.056	378.75
457.276	360.75
457.497	361.75
457.717	376.75
457.937	385.75
458.157	393.75
458.377	381.75
458.598	410.75
458.818	501.75
459.038	540.75
459.258	558.75
459.478	462.75
459.698	426.75
459.918	434.75
460.138	404.75
460.358	425.75
460.578	405.75
460.798	388.75
461.018	401.75
461.238	407.75
461.458	396.75
461.678	396.75
461.898	404.75
462.118	400.75
462.338	404.75
462.558	429.75
462.777	399.75
462.997	419.75
463.217	411.75
463.437	410.75
463.657	426.75
463.876	432.75
464.096	427.75
464.316	427.75
464.536	405.75
464.755	429.75
464.975	440.75
465.195	481.75
465.414	570.75
465.634	499.75
465.854	449.75
466.073	425.75
466.293	428.75
466.512	411.75
466.732	411.75
466.951	388.75
467.171	392.75
467.391	389.75
467.61	394.75
467.829	412.75
468.049	429.75
468.268	424.75
468.488	429.75
468.707	379.75
468.927	390.75
469.146	397.75
469.365	399.75
469.585	373.75
469.804	381.75
470.023	407.75
470.243	411.75
470.462	414.75
470.681	436.75
470.901	421.75
471.12	412.75
471.339	396.75
471.558	426.75
471.777	398.75
471.997	396.75
472.216	401.75
472.435	458.75
472.654	422.75
472.873	417.75
473.092	385.75
473.311	398.75
473.53	413.75
473.749	435.75
473.968	462.75
474.187	567.75
474.406	561.75
474.625	458.75
474.844	431.75
475.063	414.75
475.282	405.75
475.501	419.75
475.72	410.75
475.939	408.75
476.158	434.75
476.377	413.75
476.596	420.75
476.814	433.75
477.033	420.75
477.252	438.75
477.471	430.75
477.69	425.75
477.908	449.75
478.127	429.75
478.346	423.75
478.564	434.75
478.783	451.75
479.002	438.75
479.22	459.75
479.439	464.75
479.658	501.75
479.876	492.75
480.095	504.75
480.313	501.75
480.532	484.75
480.751	492.75
480.969	489.75
481.188	589.75
481.406	650.75
481.624	541.75
481.843	509.75
482.061	478.75
482.28	471.75
482.498	503.75
482.717	489.75
482.935	480.75
483.153	469.75
483.372	489.75
483.59	484.75
483.808	493.75
484.027	481.75
484.245	489.75
484.463	483.75
484.681	483.75
484.9	485.75
485.118	477.75
485.336	476.75
485.554	473.75
485.772	474.75
485.99	472.75
486.209	491.75
486.427	487.75
486.645	485.75
486.863	531.75
487.081	513.75
487.299	507.75
487.517	523.75
487.735	509.75
487.953	499.75
488.171	479.75
488.389	526.75
488.607	489.75
488.825	522.75
489.043	522.75
489.261	502.75
489.479	524.75
489.696	523.75
489.914	538.75
490.132	540.75
490.35	527.75
490.568	523.75
490.786	524.75
491.003	556.75
491.221	581.75
491.439	581.75
491.657	574.75
491.874	586.75
492.092	592.75
492.31	573.75
492.527	577.75
492.745	582.75
492.963	571.75
493.18	589.75
493.398	604.75
493.615	606.75
493.833	596.75
494.05	595.75
494.268	591.75
494.485	604.75
494.703	579.75
494.92	595.75
495.138	605.75
495.355	591.75
495.573	609.75
495.79	601.75
496.008	622.75
496.225	597.75
496.442	581.75
496.66	601.75
496.877	636.75
497.094	606.75
497.312	613.75
497.529	615.75
497.746	632.75
497.963	641.75
498.181	669.75
498.398	669.75
498.615	648.75
498.832	673.75
499.049	666.75
499.267	688.75
499.484	689.75
499.701	703.75
499.918	731.75
500.135	751.75
500.352	728.75
500.569	777.75
500.786	756.75
501.003	744.75
501.22	723.75
501.437	740.75
501.654	741.75
501.871	745.75
