Data from 1961.PennyLincolnUp.Lamp.En5.5.200Scan.071719.P1._HRD10591_13-47-16-057.txt Node
Date: Thu Jul 18 13:47:16 EDT 2019
User: cochatt
Spectrometer: HR+D1059
Trigger mode: 1
Integration Time (sec): 1.000000E-1
Scans to average: 1
Electric dark correction enabled: true
Nonlinearity correction enabled: false
Boxcar width: 0
XAxis mode: Wavelengths
Number of Pixels in Spectrum: 2048
>>>>>Begin Spectral Data<<<<<
223.165	-18.12
223.4	-18.12
223.635	-18.12
223.869	-17.12
224.104	-23.12
224.338	-4.12
224.573	-7.12
224.808	-4.12
225.042	0.88
225.277	-6.12
225.511	6.88
225.746	-6.12
225.98	3.88
226.215	6.88
226.449	16.88
226.683	8.88
226.918	19.88
227.152	21.88
227.387	14.88
227.621	35.88
227.856	47.88
228.09	36.88
228.324	56.88
228.559	55.88
228.793	73.88
229.027	78.88
229.262	90.88
229.496	101.88
229.73	110.88
229.964	137.88
230.199	107.88
230.433	94.88
230.667	99.88
230.901	105.88
231.136	98.88
231.37	99.88
231.604	111.88
231.838	110.88
232.072	94.88
232.306	103.88
232.541	90.88
232.775	100.88
233.009	120.88
233.243	102.88
233.477	105.88
233.711	107.88
233.945	100.88
234.179	118.88
234.413	114.88
234.647	97.88
234.881	99.88
235.115	113.88
235.349	104.88
235.583	106.88
235.817	116.88
236.051	103.88
236.285	97.88
236.519	110.88
236.753	119.88
236.987	126.88
237.221	162.88
237.455	187.88
237.689	164.88
237.922	144.88
238.156	112.88
238.39	106.88
238.624	120.88
238.858	120.88
239.091	118.88
239.325	112.88
239.559	116.88
239.793	118.88
240.027	113.88
240.26	132.88
240.494	149.88
240.728	130.88
240.961	132.88
241.195	132.88
241.429	106.88
241.662	120.88
241.896	101.88
242.13	110.88
242.363	98.88
242.597	117.88
242.83	118.88
243.064	126.88
243.298	117.88
243.531	116.88
243.765	116.88
243.998	123.88
244.232	137.88
244.465	121.88
244.699	124.88
244.932	112.88
245.166	126.88
245.399	130.88
245.633	120.88
245.866	126.88
246.099	123.88
246.333	128.88
246.566	129.88
246.8	131.88
247.033	138.88
247.266	158.88
247.5	132.88
247.733	143.88
247.966	142.88
248.2	134.88
248.433	149.88
248.666	146.88
248.899	166.88
249.133	164.88
249.366	171.88
249.599	170.88
249.832	156.88
250.066	135.88
250.299	154.88
250.532	160.88
250.765	170.88
250.998	172.88
251.231	196.88
251.465	163.88
251.698	176.88
251.931	182.88
252.164	175.88
252.397	149.88
252.63	168.88
252.863	148.88
253.096	178.88
253.329	175.88
253.562	176.88
253.795	176.88
254.028	172.88
254.261	175.88
254.494	186.88
254.727	206.88
254.96	231.88
255.193	225.88
255.426	192.88
255.659	198.88
255.892	194.88
256.124	198.88
256.357	181.88
256.59	179.88
256.823	199.88
257.056	201.88
257.289	177.88
257.521	155.88
257.754	174.88
257.987	177.88
258.22	179.88
258.452	181.88
258.685	176.88
258.918	154.88
259.151	184.88
259.383	185.88
259.616	192.88
259.849	190.88
260.081	170.88
260.314	198.88
260.547	228.88
260.779	223.88
261.012	183.88
261.244	182.88
261.477	190.88
261.71	178.88
261.942	202.88
262.175	185.88
262.407	195.88
262.64	174.88
262.872	178.88
263.105	177.88
263.337	169.88
263.57	179.88
263.802	171.88
264.035	176.88
264.267	168.88
264.499	169.88
264.732	176.88
264.964	182.88
265.197	163.88
265.429	177.88
265.661	183.88
265.894	169.88
266.126	163.88
266.358	163.88
266.591	178.88
266.823	190.88
267.055	195.88
267.287	198.88
267.52	187.88
267.752	188.88
267.984	183.88
268.216	190.88
268.448	180.88
268.681	181.88
268.913	191.88
269.145	213.88
269.377	205.88
269.609	217.88
269.841	212.88
270.073	228.88
270.306	231.88
270.538	243.88
270.77	230.88
271.002	226.88
271.234	228.88
271.466	237.88
271.698	238.88
271.93	237.88
272.162	251.88
272.394	247.88
272.626	238.88
272.858	218.88
273.09	236.88
273.322	210.88
273.553	220.88
273.785	211.88
274.017	204.88
274.249	223.88
274.481	225.88
274.713	224.88
274.945	229.88
275.176	219.88
275.408	222.88
275.64	195.88
275.872	208.88
276.104	214.88
276.335	206.88
276.567	222.88
276.799	232.88
277.031	252.88
277.262	262.88
277.494	262.88
277.726	231.88
277.957	233.88
278.189	219.88
278.421	216.88
278.652	209.88
278.884	210.88
279.115	214.88
279.347	207.88
279.579	208.88
279.81	201.88
280.042	210.88
280.273	218.88
280.505	215.88
280.736	214.88
280.968	218.88
281.199	204.88
281.431	219.88
281.662	230.88
281.894	226.88
282.125	210.88
282.356	224.88
282.588	250.88
282.819	254.88
283.051	223.88
283.282	222.88
283.513	232.88
283.745	214.88
283.976	213.88
284.207	239.88
284.439	222.88
284.67	211.88
284.901	211.88
285.132	221.88
285.364	222.88
285.595	228.88
285.826	213.88
286.057	240.88
286.288	209.88
286.52	211.88
286.751	221.88
286.982	227.88
287.213	220.88
287.444	210.88
287.675	230.88
287.906	230.88
288.138	240.88
288.369	238.88
288.6	223.88
288.831	223.88
289.062	221.88
289.293	235.88
289.524	231.88
289.755	235.88
289.986	213.88
290.217	223.88
290.448	233.88
290.679	220.88
290.91	211.88
291.141	225.88
291.371	220.88
291.602	224.88
291.833	223.88
292.064	226.88
292.295	234.88
292.526	235.88
292.757	222.88
292.987	220.88
293.218	225.88
293.449	214.88
293.68	248.88
293.91	228.88
294.141	230.88
294.372	203.88
294.603	235.88
294.833	216.88
295.064	232.88
295.295	201.88
295.525	217.88
295.756	215.88
295.987	244.88
296.217	268.88
296.448	266.88
296.679	235.88
296.909	219.88
297.14	227.88
297.37	236.88
297.601	222.88
297.831	228.88
298.062	229.88
298.292	233.88
298.523	266.88
298.753	231.88
298.984	243.88
299.214	244.88
299.445	234.88
299.675	243.88
299.905	246.88
300.136	232.88
300.366	222.88
300.597	233.88
300.827	237.88
301.057	251.88
301.288	239.88
301.518	262.88
301.748	246.88
301.979	260.88
302.209	252.88
302.439	246.88
302.669	256.88
302.9	237.88
303.13	240.88
303.36	277.88
303.59	269.88
303.82	252.88
304.051	262.88
304.281	256.88
304.511	255.88
304.741	258.88
304.971	247.88
305.201	262.88
305.431	255.88
305.661	239.88
305.891	242.88
306.121	269.88
306.352	256.88
306.582	261.88
306.812	251.88
307.042	258.88
307.272	272.88
307.502	271.88
307.731	242.88
307.961	274.88
308.191	274.88
308.421	257.88
308.651	254.88
308.881	256.88
309.111	284.88
309.341	268.88
309.571	258.88
309.8	268.88
310.03	302.88
310.26	311.88
310.49	297.88
310.72	320.88
310.949	322.88
311.179	338.88
311.409	292.88
311.639	293.88
311.868	304.88
312.098	297.88
312.328	317.88
312.557	311.88
312.787	316.88
313.017	333.88
313.246	320.88
313.476	306.88
313.706	298.88
313.935	304.88
314.165	314.88
314.394	325.88
314.624	310.88
314.853	313.88
315.083	298.88
315.312	300.88
315.542	293.88
315.771	291.88
316.001	302.88
316.23	298.88
316.46	302.88
316.689	283.88
316.919	310.88
317.148	320.88
317.377	319.88
317.607	302.88
317.836	299.88
318.065	308.88
318.295	297.88
318.524	298.88
318.753	293.88
318.983	311.88
319.212	292.88
319.441	282.88
319.67	306.88
319.9	297.88
320.129	302.88
320.358	297.88
320.587	298.88
320.816	307.88
321.046	338.88
321.275	338.88
321.504	333.88
321.733	319.88
321.962	354.88
322.191	343.88
322.42	366.88
322.649	362.88
322.878	380.88
323.108	406.88
323.337	404.88
323.566	443.88
323.795	470.88
324.024	527.88
324.253	652.88
324.482	945.88
324.71	1432.88
324.939	2017.88
325.168	1719.88
325.397	889.88
325.626	588.88
325.855	470.88
326.084	439.88
326.313	431.88
326.542	433.88
326.77	471.88
326.999	583.88
327.228	818.88
327.457	1233.88
327.686	1499.88
327.914	999.88
328.143	638.88
328.372	575.88
328.6	526.88
328.829	500.88
329.058	508.88
329.287	507.88
329.515	482.88
329.744	446.88
329.972	439.88
330.201	468.88
330.43	489.88
330.658	499.88
330.887	531.88
331.115	494.88
331.344	434.88
331.572	432.88
331.801	421.88
332.03	400.88
332.258	386.88
332.486	371.88
332.715	350.88
332.943	368.88
333.172	363.88
333.4	366.88
333.629	378.88
333.857	372.88
334.085	417.88
334.314	440.88
334.542	443.88
334.771	453.88
334.999	387.88
335.227	376.88
335.455	375.88
335.684	369.88
335.912	363.88
336.14	340.88
336.369	347.88
336.597	370.88
336.825	351.88
337.053	340.88
337.281	353.88
337.51	361.88
337.738	352.88
337.966	346.88
338.194	370.88
338.422	359.88
338.65	335.88
338.878	333.88
339.106	339.88
339.334	332.88
339.562	332.88
339.79	339.88
340.018	346.88
340.246	340.88
340.474	335.88
340.702	349.88
340.93	356.88
341.158	343.88
341.386	339.88
341.614	345.88
341.842	338.88
342.07	319.88
342.298	333.88
342.526	324.88
342.754	331.88
342.981	310.88
343.209	338.88
343.437	318.88
343.665	336.88
343.893	336.88
344.12	348.88
344.348	339.88
344.576	337.88
344.804	347.88
345.031	368.88
345.259	362.88
345.487	336.88
345.714	334.88
345.942	326.88
346.17	336.88
346.397	323.88
346.625	336.88
346.853	320.88
347.08	347.88
347.308	323.88
347.535	336.88
347.763	345.88
347.99	362.88
348.218	316.88
348.445	340.88
348.673	336.88
348.9	338.88
349.128	331.88
349.355	316.88
349.583	334.88
349.81	327.88
350.037	306.88
350.265	313.88
350.492	304.88
350.72	310.88
350.947	327.88
351.174	348.88
351.402	353.88
351.629	355.88
351.856	347.88
352.083	339.88
352.311	336.88
352.538	372.88
352.765	349.88
352.992	372.88
353.22	328.88
353.447	333.88
353.674	334.88
353.901	315.88
354.128	321.88
354.355	295.88
354.583	315.88
354.81	305.88
355.037	315.88
355.264	318.88
355.491	297.88
355.718	322.88
355.945	316.88
356.172	299.88
356.399	318.88
356.626	306.88
356.853	305.88
357.08	295.88
357.307	291.88
357.534	309.88
357.761	312.88
357.988	311.88
358.215	314.88
358.441	298.88
358.668	315.88
358.895	307.88
359.122	311.88
359.349	320.88
359.576	320.88
359.802	362.88
360.029	380.88
360.256	406.88
360.483	371.88
360.709	360.88
360.936	371.88
361.163	342.88
361.39	340.88
361.616	350.88
361.843	338.88
362.07	326.88
362.296	355.88
362.523	336.88
362.749	325.88
362.976	326.88
363.203	325.88
363.429	323.88
363.656	325.88
363.882	307.88
364.109	326.88
364.335	312.88
364.562	319.88
364.788	310.88
365.015	335.88
365.241	310.88
365.468	337.88
365.694	314.88
365.92	328.88
366.147	312.88
366.373	309.88
366.599	312.88
366.826	291.88
367.052	314.88
367.278	330.88
367.505	304.88
367.731	318.88
367.957	322.88
368.184	316.88
368.41	310.88
368.636	316.88
368.862	331.88
369.089	316.88
369.315	303.88
369.541	328.88
369.767	304.88
369.993	325.88
370.219	304.88
370.445	320.88
370.672	317.88
370.898	310.88
371.124	307.88
371.35	299.88
371.576	311.88
371.802	310.88
372.028	308.88
372.254	315.88
372.48	297.88
372.706	308.88
372.932	331.88
373.158	304.88
373.384	307.88
373.61	327.88
373.835	302.88
374.061	295.88
374.287	312.88
374.513	320.88
374.739	310.88
374.965	319.88
375.191	316.88
375.416	318.88
375.642	326.88
375.868	299.88
376.094	302.88
376.319	318.88
376.545	313.88
376.771	320.88
376.997	302.88
377.222	308.88
377.448	320.88
377.674	301.88
377.899	290.88
378.125	324.88
378.35	303.88
378.576	294.88
378.802	313.88
379.027	304.88
379.253	320.88
379.478	288.88
379.704	318.88
379.929	323.88
380.155	308.88
380.38	316.88
380.606	320.88
380.831	321.88
381.057	331.88
381.282	316.88
381.507	318.88
381.733	310.88
381.958	337.88
382.184	299.88
382.409	312.88
382.634	330.88
382.86	321.88
383.085	315.88
383.31	330.88
383.535	321.88
383.761	316.88
383.986	324.88
384.211	328.88
384.436	331.88
384.662	340.88
384.887	334.88
385.112	328.88
385.337	334.88
385.562	331.88
385.787	334.88
386.013	331.88
386.238	350.88
386.463	330.88
386.688	334.88
386.913	336.88
387.138	329.88
387.363	330.88
387.588	343.88
387.813	338.88
388.038	339.88
388.263	348.88
388.488	313.88
388.713	352.88
388.938	333.88
389.163	324.88
389.387	348.88
389.612	343.88
389.837	311.88
390.062	339.88
390.287	360.88
390.512	340.88
390.736	339.88
390.961	346.88
391.186	339.88
391.411	331.88
391.636	343.88
391.86	353.88
392.085	340.88
392.31	316.88
392.534	343.88
392.759	344.88
392.984	338.88
393.208	336.88
393.433	332.88
393.658	340.88
393.882	338.88
394.107	341.88
394.331	344.88
394.556	350.88
394.78	330.88
395.005	338.88
395.229	344.88
395.454	336.88
395.678	348.88
395.903	366.88
396.127	371.88
396.352	378.88
396.576	375.88
396.801	345.88
397.025	348.88
397.249	367.88
397.474	352.88
397.698	346.88
397.922	368.88
398.147	376.88
398.371	378.88
398.595	376.88
398.82	364.88
399.044	382.88
399.268	404.88
399.492	392.88
399.717	421.88
399.941	436.88
400.165	454.88
400.389	459.88
400.613	436.88
400.837	432.88
401.062	394.88
401.286	379.88
401.51	372.88
401.734	389.88
401.958	391.88
402.182	371.88
402.406	405.88
402.63	389.88
402.854	377.88
403.078	378.88
403.302	370.88
403.526	389.88
403.75	410.88
403.974	394.88
404.198	391.88
404.422	384.88
404.645	426.88
404.869	435.88
405.093	438.88
405.317	459.88
405.541	494.88
405.765	426.88
405.988	425.88
406.212	427.88
406.436	456.88
406.66	453.88
406.883	442.88
407.107	455.88
407.331	480.88
407.555	536.88
407.778	529.88
408.002	466.88
408.226	454.88
408.449	434.88
408.673	424.88
408.896	445.88
409.12	492.88
409.344	473.88
409.567	413.88
409.791	405.88
410.014	389.88
410.238	397.88
410.461	382.88
410.685	404.88
410.908	415.88
411.132	433.88
411.355	468.88
411.578	436.88
411.802	428.88
412.025	394.88
412.249	425.88
412.472	389.88
412.695	464.88
412.919	454.88
413.142	392.88
413.365	395.88
413.589	379.88
413.812	381.88
414.035	381.88
414.258	378.88
414.482	403.88
414.705	376.88
414.928	362.88
415.151	382.88
415.374	353.88
415.597	370.88
415.821	357.88
416.044	374.88
416.267	382.88
416.49	364.88
416.713	382.88
416.936	378.88
417.159	363.88
417.382	374.88
417.605	382.88
417.828	376.88
418.051	396.88
418.274	386.88
418.497	374.88
418.72	375.88
418.943	374.88
419.166	399.88
419.389	398.88
419.611	388.88
419.834	399.88
420.057	387.88
420.28	401.88
420.503	389.88
420.726	376.88
420.948	410.88
421.171	456.88
421.394	461.88
421.617	416.88
421.839	405.88
422.062	411.88
422.285	415.88
422.507	449.88
422.73	522.88
422.953	487.88
423.175	428.88
423.398	412.88
423.621	436.88
423.843	427.88
424.066	434.88
424.288	402.88
424.511	440.88
424.733	502.88
424.956	548.88
425.178	545.88
425.401	509.88
425.623	536.88
425.846	449.88
426.068	440.88
426.291	422.88
426.513	440.88
426.735	452.88
426.958	478.88
427.18	529.88
427.402	639.88
427.625	715.88
427.847	636.88
428.069	583.88
428.292	484.88
428.514	438.88
428.736	421.88
428.958	425.88
429.181	421.88
429.403	421.88
429.625	399.88
429.847	436.88
430.069	471.88
430.292	491.88
430.514	432.88
430.736	422.88
430.958	405.88
431.18	385.88
431.402	389.88
431.624	377.88
431.846	379.88
432.068	377.88
432.29	379.88
432.512	392.88
432.734	367.88
432.956	383.88
433.178	394.88
433.4	404.88
433.622	380.88
433.844	382.88
434.066	386.88
434.287	380.88
434.509	368.88
434.731	384.88
434.953	389.88
435.175	401.88
435.397	465.88
435.618	443.88
435.84	471.88
436.062	542.88
436.284	572.88
436.505	488.88
436.727	449.88
436.949	423.88
437.17	418.88
437.392	400.88
437.614	427.88
437.835	459.88
438.057	537.88
438.278	617.88
438.5	602.88
438.721	646.88
438.943	618.88
439.165	487.88
439.386	474.88
439.608	459.88
439.829	460.88
440.05	463.88
440.272	518.88
440.493	488.88
440.715	438.88
440.936	423.88
441.158	382.88
441.379	414.88
441.6	420.88
441.822	448.88
442.043	474.88
442.264	524.88
442.486	582.88
442.707	480.88
442.928	448.88
443.149	465.88
443.371	497.88
443.592	513.88
443.813	591.88
444.034	636.88
444.255	502.88
444.476	447.88
444.698	453.88
444.919	443.88
445.14	523.88
445.361	496.88
445.582	494.88
445.803	545.88
446.024	628.88
446.245	606.88
446.466	570.88
446.687	482.88
446.908	446.88
447.129	427.88
447.35	401.88
447.571	412.88
447.792	424.88
448.013	417.88
448.234	428.88
448.455	461.88
448.675	586.88
448.896	636.88
449.117	548.88
449.338	534.88
449.559	608.88
449.779	689.88
450	555.88
450.221	456.88
450.442	430.88
450.662	427.88
450.883	426.88
451.104	434.88
451.324	419.88
451.545	404.88
451.766	391.88
451.986	358.88
452.207	387.88
452.428	378.88
452.648	380.88
452.869	380.88
453.089	386.88
453.31	394.88
453.53	383.88
453.751	386.88
453.971	379.88
454.192	386.88
454.412	386.88
454.633	365.88
454.853	375.88
455.073	362.88
455.294	384.88
455.514	464.88
455.734	439.88
455.955	376.88
456.175	374.88
456.395	357.88
456.616	340.88
456.836	361.88
457.056	343.88
457.276	362.88
457.497	344.88
457.717	340.88
457.937	355.88
458.157	361.88
458.377	345.88
458.598	376.88
458.818	423.88
459.038	510.88
459.258	499.88
459.478	452.88
459.698	417.88
459.918	390.88
460.138	373.88
460.358	399.88
460.578	373.88
460.798	382.88
461.018	387.88
461.238	397.88
461.458	382.88
461.678	367.88
461.898	386.88
462.118	386.88
462.338	376.88
462.558	376.88
462.777	386.88
462.997	385.88
463.217	402.88
463.437	420.88
463.657	386.88
463.876	407.88
464.096	387.88
464.316	408.88
464.536	424.88
464.755	410.88
464.975	430.88
465.195	477.88
465.414	526.88
465.634	479.88
465.854	418.88
466.073	406.88
466.293	389.88
466.512	394.88
466.732	391.88
466.951	374.88
467.171	372.88
467.391	373.88
467.61	412.88
467.829	400.88
468.049	409.88
468.268	388.88
468.488	378.88
468.707	375.88
468.927	376.88
469.146	354.88
469.365	363.88
469.585	362.88
469.804	384.88
470.023	378.88
470.243	395.88
470.462	402.88
470.681	401.88
470.901	394.88
471.12	387.88
471.339	381.88
471.558	388.88
471.777	381.88
471.997	386.88
472.216	393.88
472.435	424.88
472.654	412.88
472.873	378.88
473.092	405.88
473.311	401.88
473.53	386.88
473.749	389.88
473.968	434.88
474.187	518.88
474.406	529.88
474.625	455.88
474.844	418.88
475.063	387.88
475.282	369.88
475.501	392.88
475.72	398.88
475.939	395.88
476.158	396.88
476.377	391.88
476.596	404.88
476.814	367.88
477.033	416.88
477.252	408.88
477.471	412.88
477.69	415.88
477.908	403.88
478.127	431.88
478.346	397.88
478.564	428.88
478.783	447.88
479.002	420.88
479.22	441.88
479.439	433.88
479.658	497.88
479.876	472.88
480.095	451.88
480.313	460.88
480.532	481.88
480.751	462.88
480.969	473.88
481.188	552.88
481.406	600.88
481.624	494.88
481.843	479.88
482.061	481.88
482.28	466.88
482.498	437.88
482.717	454.88
482.935	456.88
483.153	447.88
483.372	449.88
483.59	446.88
483.808	458.88
484.027	438.88
484.245	469.88
484.463	463.88
484.681	447.88
484.9	468.88
485.118	463.88
485.336	454.88
485.554	459.88
485.772	450.88
485.99	464.88
486.209	473.88
486.427	479.88
486.645	471.88
486.863	481.88
487.081	499.88
487.299	474.88
487.517	477.88
487.735	475.88
487.953	468.88
488.171	488.88
488.389	484.88
488.607	466.88
488.825	449.88
489.043	473.88
489.261	490.88
489.479	479.88
489.696	480.88
489.914	491.88
490.132	525.88
490.35	480.88
490.568	510.88
490.786	530.88
491.003	520.88
491.221	550.88
491.439	538.88
491.657	526.88
491.874	550.88
492.092	539.88
492.31	559.88
492.527	527.88
492.745	535.88
492.963	577.88
493.18	574.88
493.398	563.88
493.615	571.88
493.833	566.88
494.05	568.88
494.268	565.88
494.485	550.88
494.703	574.88
494.92	568.88
495.138	560.88
495.355	548.88
495.573	574.88
495.79	582.88
496.008	552.88
496.225	576.88
496.442	560.88
496.66	559.88
496.877	597.88
497.094	565.88
497.312	571.88
497.529	585.88
497.746	593.88
497.963	600.88
498.181	650.88
498.398	607.88
498.615	620.88
498.832	631.88
499.049	608.88
499.267	634.88
499.484	639.88
499.701	671.88
499.918	704.88
500.135	689.88
500.352	709.88
500.569	712.88
500.786	731.88
501.003	712.88
501.22	706.88
501.437	691.88
501.654	684.88
501.871	714.88
502.088	690.88
