Data from 1961.PennyLincolnUp.Lamp.En5.5.200Scan.071719.P1._HRD10591_13-49-00-058.txt Node
Date: Thu Jul 18 13:49:00 EDT 2019
User: cochatt
Spectrometer: HR+D1059
Trigger mode: 1
Integration Time (sec): 1.000000E-1
Scans to average: 1
Electric dark correction enabled: true
Nonlinearity correction enabled: false
Boxcar width: 0
XAxis mode: Wavelengths
Number of Pixels in Spectrum: 2048
>>>>>Begin Spectral Data<<<<<
223.165	-12.69
223.4	-12.69
223.635	-12.69
223.869	-7.69
224.104	-15.69
224.338	-14.69
224.573	-14.69
224.808	-14.69
225.042	-3.69
225.277	-3.69
225.511	-5.69
225.746	-9.69
225.98	3.31
226.215	12.31
226.449	20.31
226.683	17.31
226.918	28.31
227.152	21.31
227.387	26.31
227.621	34.31
227.856	54.31
228.09	39.31
228.324	43.31
228.559	58.31
228.793	74.31
229.027	91.31
229.262	97.31
229.496	94.31
229.73	135.31
229.964	137.31
230.199	129.31
230.433	127.31
230.667	101.31
230.901	103.31
231.136	101.31
231.37	107.31
231.604	117.31
231.838	103.31
232.072	121.31
232.306	111.31
232.541	91.31
232.775	101.31
233.009	116.31
233.243	100.31
233.477	100.31
233.711	113.31
233.945	88.31
234.179	119.31
234.413	111.31
234.647	103.31
234.881	118.31
235.115	129.31
235.349	119.31
235.583	115.31
235.817	117.31
236.051	103.31
236.285	117.31
236.519	113.31
236.753	114.31
236.987	143.31
237.221	170.31
237.455	213.31
237.689	180.31
237.922	129.31
238.156	140.31
238.39	130.31
238.624	116.31
238.858	107.31
239.091	111.31
239.325	117.31
239.559	122.31
239.793	121.31
240.027	122.31
240.26	142.31
240.494	137.31
240.728	135.31
240.961	139.31
241.195	132.31
241.429	141.31
241.662	122.31
241.896	119.31
242.13	124.31
242.363	120.31
242.597	101.31
242.83	137.31
243.064	117.31
243.298	117.31
243.531	122.31
243.765	125.31
243.998	129.31
244.232	124.31
244.465	123.31
244.699	126.31
244.932	119.31
245.166	128.31
245.399	140.31
245.633	126.31
245.866	131.31
246.099	120.31
246.333	122.31
246.566	127.31
246.8	126.31
247.033	129.31
247.266	140.31
247.5	149.31
247.733	147.31
247.966	150.31
248.2	132.31
248.433	147.31
248.666	150.31
248.899	157.31
249.133	182.31
249.366	199.31
249.599	172.31
249.832	160.31
250.066	149.31
250.299	152.31
250.532	160.31
250.765	180.31
250.998	194.31
251.231	196.31
251.465	183.31
251.698	189.31
251.931	162.31
252.164	185.31
252.397	187.31
252.63	192.31
252.863	179.31
253.096	189.31
253.329	202.31
253.562	203.31
253.795	195.31
254.028	192.31
254.261	189.31
254.494	199.31
254.727	216.31
254.96	234.31
255.193	237.31
255.426	210.31
255.659	209.31
255.892	210.31
256.124	213.31
256.357	224.31
256.59	199.31
256.823	196.31
257.056	196.31
257.289	181.31
257.521	172.31
257.754	187.31
257.987	179.31
258.22	180.31
258.452	172.31
258.685	179.31
258.918	167.31
259.151	194.31
259.383	199.31
259.616	186.31
259.849	182.31
260.081	201.31
260.314	227.31
260.547	229.31
260.779	202.31
261.012	194.31
261.244	191.31
261.477	198.31
261.71	188.31
261.942	181.31
262.175	194.31
262.407	197.31
262.64	203.31
262.872	178.31
263.105	184.31
263.337	175.31
263.57	186.31
263.802	177.31
264.035	192.31
264.267	183.31
264.499	195.31
264.732	179.31
264.964	164.31
265.197	183.31
265.429	187.31
265.661	177.31
265.894	179.31
266.126	175.31
266.358	174.31
266.591	187.31
266.823	209.31
267.055	212.31
267.287	211.31
267.52	197.31
267.752	193.31
267.984	203.31
268.216	190.31
268.448	199.31
268.681	203.31
268.913	203.31
269.145	213.31
269.377	223.31
269.609	228.31
269.841	231.31
270.073	226.31
270.306	247.31
270.538	277.31
270.77	265.31
271.002	251.31
271.234	238.31
271.466	250.31
271.698	267.31
271.93	248.31
272.162	263.31
272.394	257.31
272.626	272.31
272.858	229.31
273.09	247.31
273.322	234.31
273.553	228.31
273.785	225.31
274.017	232.31
274.249	233.31
274.481	226.31
274.713	236.31
274.945	233.31
275.176	235.31
275.408	219.31
275.64	231.31
275.872	197.31
276.104	238.31
276.335	217.31
276.567	231.31
276.799	234.31
277.031	276.31
277.262	259.31
277.494	270.31
277.726	242.31
277.957	223.31
278.189	241.31
278.421	227.31
278.652	225.31
278.884	231.31
279.115	237.31
279.347	214.31
279.579	221.31
279.81	219.31
280.042	233.31
280.273	216.31
280.505	237.31
280.736	221.31
280.968	231.31
281.199	221.31
281.431	217.31
281.662	225.31
281.894	212.31
282.125	243.31
282.356	229.31
282.588	269.31
282.819	248.31
283.051	248.31
283.282	229.31
283.513	240.31
283.745	203.31
283.976	235.31
284.207	231.31
284.439	206.31
284.67	228.31
284.901	231.31
285.132	229.31
285.364	227.31
285.595	227.31
285.826	240.31
286.057	235.31
286.288	232.31
286.52	241.31
286.751	227.31
286.982	228.31
287.213	213.31
287.444	223.31
287.675	245.31
287.906	232.31
288.138	248.31
288.369	260.31
288.6	244.31
288.831	239.31
289.062	264.31
289.293	233.31
289.524	232.31
289.755	244.31
289.986	224.31
290.217	239.31
290.448	235.31
290.679	228.31
290.91	235.31
291.141	247.31
291.371	233.31
291.602	225.31
291.833	230.31
292.064	242.31
292.295	248.31
292.526	233.31
292.757	234.31
292.987	242.31
293.218	244.31
293.449	216.31
293.68	238.31
293.91	230.31
294.141	249.31
294.372	237.31
294.603	251.31
294.833	232.31
295.064	231.31
295.295	233.31
295.525	246.31
295.756	244.31
295.987	262.31
296.217	283.31
296.448	286.31
296.679	248.31
296.909	249.31
297.14	261.31
297.37	249.31
297.601	217.31
297.831	241.31
298.062	227.31
298.292	252.31
298.523	266.31
298.753	261.31
298.984	251.31
299.214	260.31
299.445	260.31
299.675	257.31
299.905	250.31
300.136	261.31
300.366	260.31
300.597	246.31
300.827	244.31
301.057	268.31
301.288	279.31
301.518	280.31
301.748	261.31
301.979	260.31
302.209	272.31
302.439	267.31
302.669	259.31
302.9	269.31
303.13	279.31
303.36	257.31
303.59	266.31
303.82	277.31
304.051	280.31
304.281	264.31
304.511	266.31
304.741	284.31
304.971	260.31
305.201	271.31
305.431	265.31
305.661	277.31
305.891	269.31
306.121	282.31
306.352	281.31
306.582	298.31
306.812	301.31
307.042	300.31
307.272	274.31
307.502	279.31
307.731	279.31
307.961	270.31
308.191	273.31
308.421	266.31
308.651	263.31
308.881	281.31
309.111	276.31
309.341	297.31
309.571	291.31
309.8	309.31
310.03	325.31
310.26	300.31
310.49	318.31
310.72	328.31
310.949	333.31
311.179	343.31
311.409	323.31
311.639	338.31
311.868	320.31
312.098	340.31
312.328	342.31
312.557	334.31
312.787	354.31
313.017	356.31
313.246	331.31
313.476	317.31
313.706	326.31
313.935	325.31
314.165	342.31
314.394	339.31
314.624	327.31
314.853	340.31
315.083	307.31
315.312	311.31
315.542	321.31
315.771	319.31
316.001	303.31
316.23	307.31
316.46	296.31
316.689	325.31
316.919	311.31
317.148	337.31
317.377	332.31
317.607	331.31
317.836	324.31
318.065	315.31
318.295	322.31
318.524	303.31
318.753	309.31
318.983	326.31
319.212	328.31
319.441	324.31
319.67	331.31
319.9	330.31
320.129	302.31
320.358	325.31
320.587	333.31
320.816	353.31
321.046	329.31
321.275	334.31
321.504	342.31
321.733	346.31
321.962	350.31
322.191	390.31
322.42	356.31
322.649	379.31
322.878	393.31
323.108	419.31
323.337	447.31
323.566	463.31
323.795	482.31
324.024	574.31
324.253	711.31
324.482	1059.31
324.71	1639.31
324.939	2296.31
325.168	1879.31
325.397	999.31
325.626	640.31
325.855	524.31
326.084	476.31
326.313	479.31
326.542	478.31
326.77	550.31
326.999	649.31
327.228	939.31
327.457	1359.31
327.686	1617.31
327.914	1093.31
328.143	725.31
328.372	608.31
328.6	575.31
328.829	551.31
329.058	555.31
329.287	563.31
329.515	515.31
329.744	467.31
329.972	453.31
330.201	494.31
330.43	537.31
330.658	562.31
330.887	579.31
331.115	562.31
331.344	479.31
331.572	442.31
331.801	449.31
332.03	428.31
332.258	437.31
332.486	386.31
332.715	375.31
332.943	382.31
333.172	375.31
333.4	378.31
333.629	386.31
333.857	416.31
334.085	408.31
334.314	463.31
334.542	481.31
334.771	508.31
334.999	443.31
335.227	407.31
335.455	381.31
335.684	368.31
335.912	392.31
336.14	375.31
336.369	367.31
336.597	396.31
336.825	376.31
337.053	376.31
337.281	375.31
337.51	361.31
337.738	372.31
337.966	373.31
338.194	373.31
338.422	379.31
338.65	378.31
338.878	360.31
339.106	365.31
339.334	350.31
339.562	360.31
339.79	343.31
340.018	362.31
340.246	361.31
340.474	367.31
340.702	359.31
340.93	366.31
341.158	357.31
341.386	374.31
341.614	367.31
341.842	364.31
342.07	352.31
342.298	368.31
342.526	346.31
342.754	339.31
342.981	349.31
343.209	345.31
343.437	348.31
343.665	348.31
343.893	348.31
344.12	331.31
344.348	372.31
344.576	351.31
344.804	389.31
345.031	385.31
345.259	387.31
345.487	379.31
345.714	358.31
345.942	369.31
346.17	380.31
346.397	371.31
346.625	370.31
346.853	352.31
347.08	355.31
347.308	378.31
347.535	359.31
347.763	377.31
347.99	352.31
348.218	354.31
348.445	363.31
348.673	371.31
348.9	367.31
349.128	344.31
349.355	330.31
349.583	354.31
349.81	336.31
350.037	351.31
350.265	347.31
350.492	332.31
350.72	344.31
350.947	343.31
351.174	376.31
351.402	349.31
351.629	379.31
351.856	375.31
352.083	351.31
352.311	377.31
352.538	355.31
352.765	379.31
352.992	375.31
353.22	359.31
353.447	346.31
353.674	359.31
353.901	339.31
354.128	323.31
354.355	341.31
354.583	316.31
354.81	340.31
355.037	343.31
355.264	322.31
355.491	332.31
355.718	327.31
355.945	303.31
356.172	323.31
356.399	306.31
356.626	321.31
356.853	314.31
357.08	325.31
357.307	308.31
357.534	314.31
357.761	312.31
357.988	328.31
358.215	327.31
358.441	323.31
358.668	329.31
358.895	340.31
359.122	313.31
359.349	347.31
359.576	348.31
359.802	375.31
360.029	421.31
360.256	407.31
360.483	397.31
360.709	378.31
360.936	342.31
361.163	357.31
361.39	371.31
361.616	361.31
361.843	339.31
362.07	358.31
362.296	354.31
362.523	363.31
362.749	358.31
362.976	371.31
363.203	349.31
363.429	329.31
363.656	348.31
363.882	335.31
364.109	332.31
364.335	347.31
364.562	343.31
364.788	341.31
365.015	341.31
365.241	322.31
365.468	342.31
365.694	332.31
365.92	343.31
366.147	345.31
366.373	332.31
366.599	332.31
366.826	332.31
367.052	321.31
367.278	344.31
367.505	333.31
367.731	344.31
367.957	338.31
368.184	339.31
368.41	330.31
368.636	348.31
368.862	351.31
369.089	361.31
369.315	320.31
369.541	323.31
369.767	343.31
369.993	327.31
370.219	334.31
370.445	331.31
370.672	332.31
370.898	310.31
371.124	342.31
371.35	329.31
371.576	336.31
371.802	315.31
372.028	337.31
372.254	333.31
372.48	313.31
372.706	341.31
372.932	316.31
373.158	337.31
373.384	326.31
373.61	318.31
373.835	362.31
374.061	312.31
374.287	339.31
374.513	333.31
374.739	317.31
374.965	319.31
375.191	336.31
375.416	317.31
375.642	330.31
375.868	309.31
376.094	323.31
376.319	314.31
376.545	323.31
376.771	329.31
376.997	337.31
377.222	300.31
377.448	307.31
377.674	331.31
377.899	313.31
378.125	346.31
378.35	315.31
378.576	320.31
378.802	307.31
379.027	322.31
379.253	307.31
379.478	321.31
379.704	340.31
379.929	323.31
380.155	324.31
380.38	328.31
380.606	329.31
380.831	326.31
381.057	336.31
381.282	332.31
381.507	312.31
381.733	316.31
381.958	323.31
382.184	332.31
382.409	321.31
382.634	318.31
382.86	331.31
383.085	336.31
383.31	337.31
383.535	338.31
383.761	330.31
383.986	335.31
384.211	341.31
384.436	351.31
384.662	343.31
384.887	346.31
385.112	339.31
385.337	332.31
385.562	353.31
385.787	358.31
386.013	347.31
386.238	367.31
386.463	352.31
386.688	357.31
386.913	344.31
387.138	338.31
387.363	353.31
387.588	341.31
387.813	364.31
388.038	349.31
388.263	350.31
388.488	353.31
388.713	374.31
388.938	350.31
389.163	350.31
389.387	360.31
389.612	355.31
389.837	343.31
390.062	344.31
390.287	335.31
390.512	322.31
390.736	349.31
390.961	356.31
391.186	331.31
391.411	342.31
391.636	363.31
391.86	347.31
392.085	351.31
392.31	352.31
392.534	359.31
392.759	364.31
392.984	354.31
393.208	352.31
393.433	317.31
393.658	330.31
393.882	351.31
394.107	370.31
394.331	359.31
394.556	371.31
394.78	331.31
395.005	346.31
395.229	354.31
395.454	359.31
395.678	358.31
395.903	367.31
396.127	380.31
396.352	378.31
396.576	369.31
396.801	365.31
397.025	363.31
397.249	347.31
397.474	381.31
397.698	372.31
397.922	382.31
398.147	378.31
398.371	418.31
398.595	420.31
398.82	389.31
399.044	406.31
399.268	408.31
399.492	403.31
399.717	416.31
399.941	445.31
400.165	487.31
400.389	486.31
400.613	432.31
400.837	439.31
401.062	419.31
401.286	401.31
401.51	405.31
401.734	395.31
401.958	411.31
402.182	423.31
402.406	418.31
402.63	412.31
402.854	421.31
403.078	393.31
403.302	422.31
403.526	423.31
403.75	416.31
403.974	412.31
404.198	417.31
404.422	417.31
404.645	406.31
404.869	441.31
405.093	467.31
405.317	472.31
405.541	497.31
405.765	477.31
405.988	445.31
406.212	462.31
406.436	461.31
406.66	472.31
406.883	470.31
407.107	464.31
407.331	483.31
407.555	537.31
407.778	559.31
408.002	503.31
408.226	464.31
408.449	474.31
408.673	475.31
408.896	494.31
409.12	526.31
409.344	486.31
409.567	437.31
409.791	429.31
410.014	407.31
410.238	414.31
410.461	396.31
410.685	421.31
410.908	427.31
411.132	458.31
411.355	482.31
411.578	454.31
411.802	428.31
412.025	424.31
412.249	440.31
412.472	448.31
412.695	482.31
412.919	460.31
413.142	425.31
413.365	434.31
413.589	408.31
413.812	396.31
414.035	391.31
414.258	398.31
414.482	410.31
414.705	388.31
414.928	385.31
415.151	410.31
415.374	382.31
415.597	415.31
415.821	400.31
416.044	409.31
416.267	396.31
416.49	379.31
416.713	382.31
416.936	399.31
417.159	393.31
417.382	379.31
417.605	396.31
417.828	416.31
418.051	410.31
418.274	415.31
418.497	384.31
418.72	393.31
418.943	386.31
419.166	408.31
419.389	420.31
419.611	404.31
419.834	419.31
420.057	410.31
420.28	416.31
420.503	426.31
420.726	431.31
420.948	451.31
421.171	437.31
421.394	465.31
421.617	429.31
421.839	420.31
422.062	434.31
422.285	441.31
422.507	469.31
422.73	531.31
422.953	519.31
423.175	453.31
423.398	427.31
423.621	456.31
423.843	445.31
424.066	434.31
424.288	444.31
424.511	467.31
424.733	512.31
424.956	594.31
425.178	559.31
425.401	562.31
425.623	579.31
425.846	497.31
426.068	449.31
426.291	472.31
426.513	455.31
426.735	459.31
426.958	504.31
427.18	594.31
427.402	676.31
427.625	773.31
427.847	680.31
428.069	559.31
428.292	519.31
428.514	476.31
428.736	464.31
428.958	459.31
429.181	442.31
429.403	417.31
429.625	425.31
429.847	476.31
430.069	539.31
430.292	520.31
430.514	447.31
430.736	423.31
430.958	433.31
431.18	398.31
431.402	417.31
431.624	411.31
431.846	398.31
432.068	396.31
432.29	399.31
432.512	409.31
432.734	408.31
432.956	419.31
433.178	417.31
433.4	416.31
433.622	412.31
433.844	402.31
434.066	389.31
434.287	398.31
434.509	410.31
434.731	408.31
434.953	419.31
435.175	421.31
435.397	443.31
435.618	456.31
435.84	485.31
436.062	589.31
436.284	632.31
436.505	535.31
436.727	470.31
436.949	449.31
437.17	418.31
437.392	428.31
437.614	446.31
437.835	479.31
438.057	590.31
438.278	652.31
438.5	647.31
438.721	709.31
438.943	679.31
439.165	536.31
439.386	489.31
439.608	487.31
439.829	472.31
440.05	525.31
440.272	546.31
440.493	512.31
440.715	458.31
440.936	449.31
441.158	451.31
441.379	449.31
441.6	442.31
441.822	485.31
442.043	517.31
442.264	554.31
442.486	596.31
442.707	516.31
442.928	478.31
443.149	475.31
443.371	517.31
443.592	514.31
443.813	613.31
444.034	680.31
444.255	549.31
444.476	475.31
444.698	454.31
444.919	439.31
445.14	506.31
445.361	509.31
445.582	525.31
445.803	582.31
446.024	671.31
446.245	667.31
446.466	596.31
446.687	519.31
446.908	480.31
447.129	451.31
447.35	421.31
447.571	450.31
447.792	443.31
448.013	427.31
448.234	462.31
448.455	482.31
448.675	572.31
448.896	675.31
449.117	609.31
449.338	538.31
449.559	648.31
449.779	743.31
450	588.31
450.221	473.31
450.442	458.31
450.662	437.31
450.883	452.31
451.104	464.31
451.324	446.31
451.545	412.31
451.766	416.31
451.986	388.31
452.207	380.31
452.428	389.31
452.648	391.31
452.869	407.31
453.089	415.31
453.31	403.31
453.53	412.31
453.751	393.31
453.971	404.31
454.192	421.31
454.412	419.31
454.633	390.31
454.853	385.31
455.073	396.31
455.294	420.31
455.514	464.31
455.734	450.31
455.955	383.31
456.175	379.31
456.395	373.31
456.616	369.31
456.836	353.31
457.056	342.31
457.276	354.31
457.497	361.31
457.717	366.31
457.937	394.31
458.157	379.31
458.377	378.31
458.598	403.31
458.818	455.31
459.038	552.31
459.258	565.31
459.478	449.31
459.698	409.31
459.918	416.31
460.138	398.31
460.358	391.31
460.578	412.31
460.798	391.31
461.018	424.31
461.238	392.31
461.458	377.31
461.678	383.31
461.898	374.31
462.118	395.31
462.338	400.31
462.558	391.31
462.777	420.31
462.997	413.31
463.217	439.31
463.437	406.31
463.657	416.31
463.876	404.31
464.096	426.31
464.316	420.31
464.536	428.31
464.755	427.31
464.975	443.31
465.195	483.31
465.414	575.31
465.634	498.31
465.854	439.31
466.073	434.31
466.293	408.31
466.512	409.31
466.732	398.31
466.951	387.31
467.171	381.31
467.391	400.31
467.61	408.31
467.829	423.31
468.049	414.31
468.268	413.31
468.488	384.31
468.707	401.31
468.927	373.31
469.146	379.31
469.365	373.31
469.585	378.31
469.804	391.31
470.023	393.31
470.243	410.31
470.462	387.31
470.681	404.31
470.901	411.31
471.12	409.31
471.339	403.31
471.558	402.31
471.777	410.31
471.997	407.31
472.216	400.31
472.435	452.31
472.654	431.31
472.873	420.31
473.092	412.31
473.311	416.31
473.53	408.31
473.749	419.31
473.968	452.31
474.187	547.31
474.406	547.31
474.625	474.31
474.844	418.31
475.063	407.31
475.282	381.31
475.501	437.31
475.72	394.31
475.939	415.31
476.158	422.31
476.377	402.31
476.596	416.31
476.814	408.31
477.033	423.31
477.252	436.31
477.471	435.31
477.69	424.31
477.908	431.31
478.127	421.31
478.346	444.31
478.564	431.31
478.783	435.31
479.002	437.31
479.22	445.31
479.439	464.31
479.658	467.31
479.876	486.31
480.095	478.31
480.313	508.31
480.532	491.31
480.751	477.31
480.969	494.31
481.188	581.31
481.406	601.31
481.624	524.31
481.843	524.31
482.061	488.31
482.28	489.31
482.498	484.31
482.717	481.31
482.935	457.31
483.153	459.31
483.372	470.31
483.59	451.31
483.808	489.31
484.027	475.31
484.245	464.31
484.463	452.31
484.681	495.31
484.9	488.31
485.118	478.31
485.336	480.31
485.554	495.31
485.772	496.31
485.99	496.31
486.209	499.31
486.427	490.31
486.645	475.31
486.863	505.31
487.081	524.31
487.299	495.31
487.517	485.31
487.735	515.31
487.953	524.31
488.171	508.31
488.389	504.31
488.607	521.31
488.825	506.31
489.043	514.31
489.261	508.31
489.479	500.31
489.696	524.31
489.914	493.31
490.132	515.31
490.35	533.31
490.568	528.31
490.786	530.31
491.003	547.31
491.221	564.31
491.439	561.31
491.657	602.31
491.874	568.31
492.092	562.31
492.31	573.31
492.527	574.31
492.745	579.31
492.963	577.31
493.18	600.31
493.398	596.31
493.615	608.31
493.833	597.31
494.05	590.31
494.268	578.31
494.485	595.31
494.703	583.31
494.92	604.31
495.138	606.31
495.355	598.31
495.573	588.31
495.79	599.31
496.008	605.31
496.225	599.31
496.442	597.31
496.66	596.31
496.877	593.31
497.094	620.31
497.312	629.31
497.529	609.31
497.746	637.31
497.963	625.31
498.181	635.31
498.398	648.31
498.615	645.31
498.832	655.31
499.049	665.31
499.267	701.31
499.484	693.31
499.701	693.31
499.918	717.31
500.135	737.31
500.352	738.31
500.569	734.31
500.786	728.31
501.003	773.31
501.22	745.31
501.437	722.31
501.654	703.31
501.871	712.31
