Data from 1961.PennyLincolnUp.Lamp.En5.5.200Scan.071719.P1._HRD10591_13-48-49-058.txt Node
Date: Thu Jul 18 13:48:49 EDT 2019
User: cochatt
Spectrometer: HR+D1059
Trigger mode: 1
Integration Time (sec): 1.000000E-1
Scans to average: 1
Electric dark correction enabled: true
Nonlinearity correction enabled: false
Boxcar width: 0
XAxis mode: Wavelengths
Number of Pixels in Spectrum: 2048
>>>>>Begin Spectral Data<<<<<
223.165	-16.94
223.4	-16.94
223.635	-16.94
223.869	-18.94
224.104	-17.94
224.338	-6.94
224.573	-9.94
224.808	-20.94
225.042	1.06
225.277	-12.94
225.511	-13.94
225.746	1.06
225.98	15.06
226.215	14.06
226.449	18.06
226.683	25.06
226.918	13.06
227.152	31.06
227.387	29.06
227.621	59.06
227.856	48.06
228.09	42.06
228.324	57.06
228.559	47.06
228.793	65.06
229.027	93.06
229.262	122.06
229.496	107.06
229.73	133.06
229.964	158.06
230.199	131.06
230.433	110.06
230.667	135.06
230.901	110.06
231.136	118.06
231.37	98.06
231.604	91.06
231.838	110.06
232.072	113.06
232.306	95.06
232.541	115.06
232.775	106.06
233.009	101.06
233.243	105.06
233.477	106.06
233.711	116.06
233.945	114.06
234.179	115.06
234.413	117.06
234.647	116.06
234.881	115.06
235.115	119.06
235.349	109.06
235.583	117.06
235.817	120.06
236.051	117.06
236.285	128.06
236.519	106.06
236.753	117.06
236.987	139.06
237.221	188.06
237.455	228.06
237.689	167.06
237.922	158.06
238.156	133.06
238.39	107.06
238.624	121.06
238.858	117.06
239.091	126.06
239.325	116.06
239.559	126.06
239.793	123.06
240.027	120.06
240.26	134.06
240.494	134.06
240.728	147.06
240.961	135.06
241.195	132.06
241.429	131.06
241.662	102.06
241.896	121.06
242.13	126.06
242.363	118.06
242.597	126.06
242.83	131.06
243.064	129.06
243.298	138.06
243.531	133.06
243.765	126.06
243.998	133.06
244.232	126.06
244.465	129.06
244.699	133.06
244.932	126.06
245.166	134.06
245.399	131.06
245.633	144.06
245.866	127.06
246.099	130.06
246.333	134.06
246.566	141.06
246.8	135.06
247.033	138.06
247.266	156.06
247.5	157.06
247.733	160.06
247.966	154.06
248.2	149.06
248.433	136.06
248.666	161.06
248.899	171.06
249.133	178.06
249.366	196.06
249.599	174.06
249.832	178.06
250.066	165.06
250.299	171.06
250.532	160.06
250.765	184.06
250.998	208.06
251.231	206.06
251.465	201.06
251.698	195.06
251.931	173.06
252.164	172.06
252.397	184.06
252.63	181.06
252.863	184.06
253.096	186.06
253.329	197.06
253.562	189.06
253.795	214.06
254.028	201.06
254.261	190.06
254.494	199.06
254.727	225.06
254.96	236.06
255.193	227.06
255.426	217.06
255.659	192.06
255.892	212.06
256.124	205.06
256.357	218.06
256.59	193.06
256.823	198.06
257.056	189.06
257.289	177.06
257.521	189.06
257.754	190.06
257.987	174.06
258.22	184.06
258.452	163.06
258.685	187.06
258.918	167.06
259.151	185.06
259.383	197.06
259.616	197.06
259.849	199.06
260.081	211.06
260.314	214.06
260.547	221.06
260.779	213.06
261.012	208.06
261.244	191.06
261.477	199.06
261.71	194.06
261.942	213.06
262.175	212.06
262.407	195.06
262.64	174.06
262.872	207.06
263.105	202.06
263.337	198.06
263.57	178.06
263.802	189.06
264.035	189.06
264.267	181.06
264.499	184.06
264.732	179.06
264.964	177.06
265.197	187.06
265.429	190.06
265.661	190.06
265.894	189.06
266.126	180.06
266.358	184.06
266.591	190.06
266.823	185.06
267.055	196.06
267.287	193.06
267.52	195.06
267.752	198.06
267.984	218.06
268.216	206.06
268.448	211.06
268.681	195.06
268.913	221.06
269.145	228.06
269.377	245.06
269.609	241.06
269.841	244.06
270.073	242.06
270.306	261.06
270.538	274.06
270.77	281.06
271.002	234.06
271.234	267.06
271.466	259.06
271.698	293.06
271.93	266.06
272.162	274.06
272.394	291.06
272.626	262.06
272.858	243.06
273.09	248.06
273.322	226.06
273.553	244.06
273.785	225.06
274.017	229.06
274.249	216.06
274.481	233.06
274.713	231.06
274.945	236.06
275.176	238.06
275.408	214.06
275.64	222.06
275.872	213.06
276.104	251.06
276.335	233.06
276.567	230.06
276.799	239.06
277.031	265.06
277.262	285.06
277.494	278.06
277.726	251.06
277.957	243.06
278.189	253.06
278.421	233.06
278.652	232.06
278.884	219.06
279.115	245.06
279.347	229.06
279.579	221.06
279.81	219.06
280.042	199.06
280.273	229.06
280.505	231.06
280.736	225.06
280.968	218.06
281.199	220.06
281.431	224.06
281.662	244.06
281.894	228.06
282.125	228.06
282.356	255.06
282.588	264.06
282.819	278.06
283.051	236.06
283.282	223.06
283.513	232.06
283.745	230.06
283.976	244.06
284.207	240.06
284.439	241.06
284.67	226.06
284.901	247.06
285.132	227.06
285.364	255.06
285.595	219.06
285.826	230.06
286.057	244.06
286.288	227.06
286.52	253.06
286.751	232.06
286.982	230.06
287.213	231.06
287.444	229.06
287.675	248.06
287.906	251.06
288.138	248.06
288.369	268.06
288.6	258.06
288.831	252.06
289.062	241.06
289.293	235.06
289.524	226.06
289.755	226.06
289.986	266.06
290.217	249.06
290.448	228.06
290.679	230.06
290.91	229.06
291.141	244.06
291.371	260.06
291.602	244.06
291.833	241.06
292.064	243.06
292.295	267.06
292.526	250.06
292.757	259.06
292.987	242.06
293.218	243.06
293.449	251.06
293.68	244.06
293.91	259.06
294.141	227.06
294.372	235.06
294.603	247.06
294.833	234.06
295.064	246.06
295.295	237.06
295.525	239.06
295.756	250.06
295.987	237.06
296.217	279.06
296.448	298.06
296.679	252.06
296.909	244.06
297.14	225.06
297.37	245.06
297.601	247.06
297.831	255.06
298.062	264.06
298.292	263.06
298.523	261.06
298.753	269.06
298.984	249.06
299.214	257.06
299.445	258.06
299.675	263.06
299.905	273.06
300.136	268.06
300.366	262.06
300.597	257.06
300.827	266.06
301.057	274.06
301.288	269.06
301.518	284.06
301.748	257.06
301.979	279.06
302.209	291.06
302.439	294.06
302.669	284.06
302.9	268.06
303.13	279.06
303.36	272.06
303.59	271.06
303.82	271.06
304.051	278.06
304.281	268.06
304.511	276.06
304.741	260.06
304.971	268.06
305.201	263.06
305.431	274.06
305.661	284.06
305.891	261.06
306.121	280.06
306.352	266.06
306.582	279.06
306.812	287.06
307.042	282.06
307.272	271.06
307.502	294.06
307.731	283.06
307.961	285.06
308.191	287.06
308.421	284.06
308.651	281.06
308.881	294.06
309.111	296.06
309.341	309.06
309.571	302.06
309.8	313.06
310.03	333.06
310.26	326.06
310.49	314.06
310.72	352.06
310.949	369.06
311.179	341.06
311.409	339.06
311.639	345.06
311.868	333.06
312.098	326.06
312.328	327.06
312.557	342.06
312.787	363.06
313.017	382.06
313.246	357.06
313.476	325.06
313.706	322.06
313.935	345.06
314.165	343.06
314.394	334.06
314.624	353.06
314.853	317.06
315.083	329.06
315.312	319.06
315.542	325.06
315.771	322.06
316.001	294.06
316.23	325.06
316.46	318.06
316.689	316.06
316.919	329.06
317.148	322.06
317.377	336.06
317.607	350.06
317.836	330.06
318.065	334.06
318.295	339.06
318.524	305.06
318.753	330.06
318.983	326.06
319.212	323.06
319.441	334.06
319.67	333.06
319.9	338.06
320.129	327.06
320.358	328.06
320.587	334.06
320.816	348.06
321.046	331.06
321.275	383.06
321.504	371.06
321.733	355.06
321.962	366.06
322.191	363.06
322.42	371.06
322.649	407.06
322.878	395.06
323.108	445.06
323.337	472.06
323.566	485.06
323.795	509.06
324.024	573.06
324.253	739.06
324.482	1069.06
324.71	1739.06
324.939	2368.06
325.168	1949.06
325.397	1013.06
325.626	667.06
325.855	530.06
326.084	501.06
326.313	475.06
326.542	497.06
326.77	549.06
326.999	677.06
327.228	964.06
327.457	1478.06
327.686	1709.06
327.914	1155.06
328.143	731.06
328.372	642.06
328.6	578.06
328.829	562.06
329.058	559.06
329.287	564.06
329.515	520.06
329.744	485.06
329.972	497.06
330.201	482.06
330.43	580.06
330.658	593.06
330.887	591.06
331.115	577.06
331.344	495.06
331.572	456.06
331.801	435.06
332.03	442.06
332.258	423.06
332.486	393.06
332.715	407.06
332.943	382.06
333.172	385.06
333.4	391.06
333.629	421.06
333.857	432.06
334.085	418.06
334.314	455.06
334.542	476.06
334.771	485.06
334.999	446.06
335.227	420.06
335.455	385.06
335.684	391.06
335.912	377.06
336.14	377.06
336.369	363.06
336.597	391.06
336.825	389.06
337.053	397.06
337.281	392.06
337.51	366.06
337.738	389.06
337.966	377.06
338.194	350.06
338.422	377.06
338.65	371.06
338.878	366.06
339.106	358.06
339.334	342.06
339.562	368.06
339.79	351.06
340.018	371.06
340.246	381.06
340.474	374.06
340.702	361.06
340.93	360.06
341.158	376.06
341.386	381.06
341.614	378.06
341.842	363.06
342.07	371.06
342.298	366.06
342.526	363.06
342.754	355.06
342.981	349.06
343.209	356.06
343.437	373.06
343.665	351.06
343.893	347.06
344.12	371.06
344.348	370.06
344.576	373.06
344.804	381.06
345.031	377.06
345.259	399.06
345.487	383.06
345.714	360.06
345.942	349.06
346.17	357.06
346.397	359.06
346.625	375.06
346.853	365.06
347.08	353.06
347.308	352.06
347.535	379.06
347.763	373.06
347.99	378.06
348.218	391.06
348.445	374.06
348.673	389.06
348.9	370.06
349.128	342.06
349.355	348.06
349.583	340.06
349.81	339.06
350.037	349.06
350.265	346.06
350.492	342.06
350.72	338.06
350.947	365.06
351.174	377.06
351.402	373.06
351.629	357.06
351.856	379.06
352.083	360.06
352.311	366.06
352.538	382.06
352.765	384.06
352.992	362.06
353.22	356.06
353.447	366.06
353.674	345.06
353.901	350.06
354.128	347.06
354.355	334.06
354.583	337.06
354.81	315.06
355.037	341.06
355.264	332.06
355.491	343.06
355.718	330.06
355.945	309.06
356.172	325.06
356.399	335.06
356.626	310.06
356.853	332.06
357.08	329.06
357.307	326.06
357.534	321.06
357.761	322.06
357.988	338.06
358.215	341.06
358.441	341.06
358.668	338.06
358.895	353.06
359.122	348.06
359.349	348.06
359.576	375.06
359.802	377.06
360.029	398.06
360.256	427.06
360.483	391.06
360.709	362.06
360.936	379.06
361.163	374.06
361.39	353.06
361.616	375.06
361.843	357.06
362.07	372.06
362.296	375.06
362.523	371.06
362.749	351.06
362.976	340.06
363.203	348.06
363.429	332.06
363.656	355.06
363.882	351.06
364.109	379.06
364.335	340.06
364.562	329.06
364.788	325.06
365.015	348.06
365.241	361.06
365.468	330.06
365.694	345.06
365.92	355.06
366.147	331.06
366.373	345.06
366.599	348.06
366.826	337.06
367.052	327.06
367.278	333.06
367.505	330.06
367.731	343.06
367.957	331.06
368.184	331.06
368.41	349.06
368.636	358.06
368.862	354.06
369.089	347.06
369.315	347.06
369.541	338.06
369.767	336.06
369.993	343.06
370.219	320.06
370.445	340.06
370.672	342.06
370.898	320.06
371.124	323.06
371.35	336.06
371.576	334.06
371.802	352.06
372.028	327.06
372.254	330.06
372.48	311.06
372.706	330.06
372.932	340.06
373.158	320.06
373.384	348.06
373.61	342.06
373.835	350.06
374.061	332.06
374.287	330.06
374.513	310.06
374.739	311.06
374.965	324.06
375.191	331.06
375.416	339.06
375.642	348.06
375.868	342.06
376.094	334.06
376.319	329.06
376.545	320.06
376.771	343.06
376.997	339.06
377.222	313.06
377.448	322.06
377.674	320.06
377.899	327.06
378.125	321.06
378.35	313.06
378.576	317.06
378.802	340.06
379.027	318.06
379.253	305.06
379.478	321.06
379.704	323.06
379.929	309.06
380.155	327.06
380.38	346.06
380.606	327.06
380.831	333.06
381.057	341.06
381.282	330.06
381.507	335.06
381.733	322.06
381.958	345.06
382.184	342.06
382.409	327.06
382.634	333.06
382.86	342.06
383.085	332.06
383.31	326.06
383.535	326.06
383.761	323.06
383.986	331.06
384.211	343.06
384.436	349.06
384.662	369.06
384.887	336.06
385.112	338.06
385.337	332.06
385.562	362.06
385.787	347.06
386.013	360.06
386.238	354.06
386.463	351.06
386.688	357.06
386.913	357.06
387.138	345.06
387.363	341.06
387.588	364.06
387.813	338.06
388.038	351.06
388.263	372.06
388.488	354.06
388.713	346.06
388.938	347.06
389.163	373.06
389.387	350.06
389.612	343.06
389.837	355.06
390.062	342.06
390.287	341.06
390.512	348.06
390.736	354.06
390.961	350.06
391.186	359.06
391.411	365.06
391.636	363.06
391.86	346.06
392.085	349.06
392.31	360.06
392.534	352.06
392.759	371.06
392.984	369.06
393.208	378.06
393.433	366.06
393.658	343.06
393.882	342.06
394.107	347.06
394.331	362.06
394.556	350.06
394.78	366.06
395.005	370.06
395.229	361.06
395.454	365.06
395.678	379.06
395.903	364.06
396.127	391.06
396.352	402.06
396.576	375.06
396.801	380.06
397.025	375.06
397.249	374.06
397.474	378.06
397.698	379.06
397.922	397.06
398.147	408.06
398.371	396.06
398.595	370.06
398.82	387.06
399.044	398.06
399.268	419.06
399.492	423.06
399.717	430.06
399.941	463.06
400.165	477.06
400.389	490.06
400.613	449.06
400.837	423.06
401.062	428.06
401.286	420.06
401.51	410.06
401.734	380.06
401.958	426.06
402.182	420.06
402.406	436.06
402.63	423.06
402.854	409.06
403.078	384.06
403.302	427.06
403.526	418.06
403.75	412.06
403.974	409.06
404.198	417.06
404.422	428.06
404.645	438.06
404.869	453.06
405.093	473.06
405.317	497.06
405.541	518.06
405.765	481.06
405.988	431.06
406.212	470.06
406.436	467.06
406.66	465.06
406.883	451.06
407.107	469.06
407.331	503.06
407.555	575.06
407.778	575.06
408.002	525.06
408.226	482.06
408.449	480.06
408.673	500.06
408.896	486.06
409.12	517.06
409.344	475.06
409.567	439.06
409.791	437.06
410.014	437.06
410.238	422.06
410.461	436.06
410.685	427.06
410.908	437.06
411.132	492.06
411.355	506.06
411.578	485.06
411.802	427.06
412.025	437.06
412.249	447.06
412.472	449.06
412.695	492.06
412.919	469.06
413.142	445.06
413.365	434.06
413.589	413.06
413.812	409.06
414.035	389.06
414.258	373.06
414.482	404.06
414.705	394.06
414.928	393.06
415.151	396.06
415.374	412.06
415.597	395.06
415.821	393.06
416.044	409.06
416.267	394.06
416.49	398.06
416.713	390.06
416.936	395.06
417.159	407.06
417.382	425.06
417.605	388.06
417.828	413.06
418.051	417.06
418.274	427.06
418.497	413.06
418.72	394.06
418.943	413.06
419.166	419.06
419.389	443.06
419.611	415.06
419.834	411.06
420.057	435.06
420.28	434.06
420.503	426.06
420.726	418.06
420.948	434.06
421.171	459.06
421.394	485.06
421.617	451.06
421.839	430.06
422.062	415.06
422.285	464.06
422.507	493.06
422.73	547.06
422.953	556.06
423.175	485.06
423.398	459.06
423.621	423.06
423.843	452.06
424.066	451.06
424.288	445.06
424.511	490.06
424.733	518.06
424.956	569.06
425.178	574.06
425.401	590.06
425.623	590.06
425.846	519.06
426.068	492.06
426.291	471.06
426.513	468.06
426.735	498.06
426.958	519.06
427.18	587.06
427.402	696.06
427.625	765.06
427.847	689.06
428.069	594.06
428.292	515.06
428.514	463.06
428.736	463.06
428.958	450.06
429.181	456.06
429.403	449.06
429.625	445.06
429.847	453.06
430.069	534.06
430.292	525.06
430.514	462.06
430.736	439.06
430.958	415.06
431.18	417.06
431.402	404.06
431.624	405.06
431.846	422.06
432.068	394.06
432.29	396.06
432.512	399.06
432.734	429.06
432.956	412.06
433.178	422.06
433.4	435.06
433.622	431.06
433.844	403.06
434.066	394.06
434.287	391.06
434.509	403.06
434.731	400.06
434.953	416.06
435.175	446.06
435.397	486.06
435.618	473.06
435.84	515.06
436.062	606.06
436.284	645.06
436.505	540.06
436.727	484.06
436.949	455.06
437.17	446.06
437.392	429.06
437.614	454.06
437.835	480.06
438.057	594.06
438.278	659.06
438.5	661.06
438.721	740.06
438.943	687.06
439.165	534.06
439.386	511.06
439.608	474.06
439.829	501.06
440.05	533.06
440.272	569.06
440.493	515.06
440.715	478.06
440.936	452.06
441.158	439.06
441.379	444.06
441.6	444.06
441.822	468.06
442.043	501.06
442.264	582.06
442.486	623.06
442.707	550.06
442.928	490.06
443.149	501.06
443.371	521.06
443.592	565.06
443.813	637.06
444.034	676.06
444.255	561.06
444.476	493.06
444.698	492.06
444.919	463.06
445.14	563.06
445.361	536.06
445.582	527.06
445.803	600.06
446.024	675.06
446.245	683.06
446.466	599.06
446.687	525.06
446.908	483.06
447.129	445.06
447.35	424.06
447.571	436.06
447.792	443.06
448.013	442.06
448.234	474.06
448.455	520.06
448.675	613.06
448.896	705.06
449.117	618.06
449.338	579.06
449.559	623.06
449.779	734.06
450	591.06
450.221	524.06
450.442	473.06
450.662	457.06
450.883	457.06
451.104	462.06
451.324	462.06
451.545	449.06
451.766	409.06
451.986	430.06
452.207	390.06
452.428	396.06
452.648	389.06
452.869	375.06
453.089	392.06
453.31	447.06
453.53	418.06
453.751	399.06
453.971	429.06
454.192	425.06
454.412	412.06
454.633	403.06
454.853	415.06
455.073	413.06
455.294	428.06
455.514	455.06
455.734	450.06
455.955	410.06
456.175	395.06
456.395	354.06
456.616	355.06
456.836	385.06
457.056	339.06
457.276	365.06
457.497	372.06
457.717	377.06
457.937	387.06
458.157	395.06
458.377	389.06
458.598	430.06
458.818	464.06
459.038	573.06
459.258	573.06
459.478	453.06
459.698	436.06
459.918	412.06
460.138	399.06
460.358	402.06
460.578	397.06
460.798	421.06
461.018	412.06
461.238	417.06
461.458	399.06
461.678	420.06
461.898	403.06
462.118	391.06
462.338	411.06
462.558	419.06
462.777	433.06
462.997	408.06
463.217	433.06
463.437	435.06
463.657	430.06
463.876	421.06
464.096	436.06
464.316	445.06
464.536	447.06
464.755	442.06
464.975	462.06
465.195	496.06
465.414	589.06
465.634	525.06
465.854	471.06
466.073	420.06
466.293	448.06
466.512	415.06
466.732	405.06
466.951	403.06
467.171	425.06
467.391	390.06
467.61	413.06
467.829	426.06
468.049	419.06
468.268	416.06
468.488	410.06
468.707	404.06
468.927	402.06
469.146	391.06
469.365	401.06
469.585	384.06
469.804	400.06
470.023	419.06
470.243	418.06
470.462	404.06
470.681	397.06
470.901	413.06
471.12	428.06
471.339	416.06
471.558	410.06
471.777	406.06
471.997	413.06
472.216	435.06
472.435	490.06
472.654	442.06
472.873	424.06
473.092	416.06
473.311	420.06
473.53	438.06
473.749	413.06
473.968	469.06
474.187	550.06
474.406	545.06
474.625	467.06
474.844	449.06
475.063	414.06
475.282	392.06
475.501	417.06
475.72	389.06
475.939	433.06
476.158	422.06
476.377	427.06
476.596	411.06
476.814	434.06
477.033	447.06
477.252	421.06
477.471	454.06
477.69	451.06
477.908	441.06
478.127	455.06
478.346	436.06
478.564	467.06
478.783	459.06
479.002	463.06
479.22	477.06
479.439	471.06
479.658	478.06
479.876	492.06
480.095	509.06
480.313	524.06
480.532	494.06
480.751	494.06
480.969	526.06
481.188	588.06
481.406	642.06
481.624	549.06
481.843	513.06
482.061	481.06
482.28	472.06
482.498	475.06
482.717	486.06
482.935	471.06
483.153	481.06
483.372	469.06
483.59	486.06
483.808	489.06
484.027	465.06
484.245	475.06
484.463	477.06
484.681	486.06
484.9	469.06
485.118	476.06
485.336	482.06
485.554	470.06
485.772	478.06
485.99	508.06
486.209	487.06
486.427	502.06
486.645	513.06
486.863	545.06
487.081	523.06
487.299	502.06
487.517	536.06
487.735	508.06
487.953	525.06
488.171	519.06
488.389	494.06
488.607	515.06
488.825	486.06
489.043	513.06
489.261	534.06
489.479	519.06
489.696	523.06
489.914	541.06
490.132	538.06
490.35	533.06
490.568	536.06
490.786	540.06
491.003	552.06
491.221	577.06
491.439	563.06
491.657	588.06
491.874	589.06
492.092	584.06
492.31	580.06
492.527	590.06
492.745	609.06
492.963	582.06
493.18	614.06
493.398	604.06
493.615	614.06
493.833	620.06
494.05	613.06
494.268	628.06
494.485	594.06
494.703	607.06
494.92	572.06
495.138	585.06
495.355	590.06
495.573	619.06
495.79	627.06
496.008	597.06
496.225	612.06
496.442	603.06
496.66	610.06
496.877	614.06
497.094	620.06
497.312	621.06
497.529	620.06
497.746	613.06
497.963	637.06
498.181	667.06
498.398	672.06
498.615	644.06
498.832	684.06
499.049	668.06
499.267	673.06
499.484	675.06
499.701	721.06
499.918	716.06
500.135	730.06
500.352	742.06
500.569	758.06
500.786	769.06
501.003	745.06
501.22	733.06
501.437	719.06
501.654	725.06
501.871	753.06
