Data from 1961.PennyLincolnUp.Lamp.En5.5.200Scan.071719.P1._HRD10591_13-46-12-057.txt Node
Date: Thu Jul 18 13:46:12 EDT 2019
User: cochatt
Spectrometer: HR+D1059
Trigger mode: 1
Integration Time (sec): 1.000000E-1
Scans to average: 1
Electric dark correction enabled: true
Nonlinearity correction enabled: false
Boxcar width: 0
XAxis mode: Wavelengths
Number of Pixels in Spectrum: 2048
>>>>>Begin Spectral Data<<<<<
223.165	-12.25
223.4	-12.25
223.635	-12.25
223.869	-18.25
224.104	-15.25
224.338	-15.25
224.573	-5.25
224.808	-14.25
225.042	-15.25
225.277	0.75
225.511	-3.25
225.746	2.75
225.98	-1.25
226.215	20.75
226.449	23.75
226.683	9.75
226.918	24.75
227.152	17.75
227.387	30.75
227.621	38.75
227.856	49.75
228.09	45.75
228.324	44.75
228.559	41.75
228.793	62.75
229.027	79.75
229.262	78.75
229.496	95.75
229.73	92.75
229.964	116.75
230.199	92.75
230.433	105.75
230.667	90.75
230.901	85.75
231.136	96.75
231.37	93.75
231.604	106.75
231.838	97.75
232.072	104.75
232.306	90.75
232.541	98.75
232.775	100.75
233.009	101.75
233.243	112.75
233.477	96.75
233.711	107.75
233.945	95.75
234.179	108.75
234.413	87.75
234.647	90.75
234.881	101.75
235.115	100.75
235.349	90.75
235.583	85.75
235.817	87.75
236.051	96.75
236.285	99.75
236.519	99.75
236.753	93.75
236.987	98.75
237.221	130.75
237.455	144.75
237.689	134.75
237.922	99.75
238.156	99.75
238.39	102.75
238.624	101.75
238.858	92.75
239.091	95.75
239.325	108.75
239.559	111.75
239.793	90.75
240.027	98.75
240.26	102.75
240.494	111.75
240.728	126.75
240.961	120.75
241.195	116.75
241.429	105.75
241.662	104.75
241.896	88.75
242.13	110.75
242.363	98.75
242.597	116.75
242.83	120.75
243.064	102.75
243.298	91.75
243.531	85.75
243.765	113.75
243.998	120.75
244.232	103.75
244.465	118.75
244.699	109.75
244.932	116.75
245.166	104.75
245.399	104.75
245.633	105.75
245.866	114.75
246.099	118.75
246.333	108.75
246.566	110.75
246.8	100.75
247.033	113.75
247.266	112.75
247.5	116.75
247.733	127.75
247.966	121.75
248.2	124.75
248.433	116.75
248.666	122.75
248.899	136.75
249.133	154.75
249.366	136.75
249.599	122.75
249.832	119.75
250.066	131.75
250.299	131.75
250.532	122.75
250.765	132.75
250.998	140.75
251.231	147.75
251.465	139.75
251.698	123.75
251.931	146.75
252.164	142.75
252.397	138.75
252.63	141.75
252.863	151.75
253.096	137.75
253.329	157.75
253.562	146.75
253.795	146.75
254.028	133.75
254.261	156.75
254.494	147.75
254.727	160.75
254.96	168.75
255.193	158.75
255.426	155.75
255.659	141.75
255.892	137.75
256.124	154.75
256.357	165.75
256.59	144.75
256.823	148.75
257.056	144.75
257.289	130.75
257.521	155.75
257.754	145.75
257.987	149.75
258.22	139.75
258.452	141.75
258.685	154.75
258.918	156.75
259.151	160.75
259.383	146.75
259.616	160.75
259.849	153.75
260.081	136.75
260.314	167.75
260.547	148.75
260.779	150.75
261.012	141.75
261.244	150.75
261.477	144.75
261.71	142.75
261.942	148.75
262.175	162.75
262.407	153.75
262.64	151.75
262.872	153.75
263.105	146.75
263.337	146.75
263.57	148.75
263.802	147.75
264.035	146.75
264.267	154.75
264.499	156.75
264.732	141.75
264.964	148.75
265.197	153.75
265.429	138.75
265.661	162.75
265.894	154.75
266.126	146.75
266.358	138.75
266.591	156.75
266.823	140.75
267.055	143.75
267.287	162.75
267.52	159.75
267.752	147.75
267.984	160.75
268.216	151.75
268.448	170.75
268.681	136.75
268.913	166.75
269.145	164.75
269.377	191.75
269.609	178.75
269.841	169.75
270.073	168.75
270.306	174.75
270.538	194.75
270.77	186.75
271.002	203.75
271.234	179.75
271.466	190.75
271.698	196.75
271.93	202.75
272.162	188.75
272.394	194.75
272.626	185.75
272.858	178.75
273.09	174.75
273.322	166.75
273.553	152.75
273.785	177.75
274.017	158.75
274.249	181.75
274.481	175.75
274.713	172.75
274.945	181.75
275.176	183.75
275.408	188.75
275.64	166.75
275.872	193.75
276.104	180.75
276.335	168.75
276.567	156.75
276.799	184.75
277.031	182.75
277.262	188.75
277.494	184.75
277.726	194.75
277.957	169.75
278.189	168.75
278.421	177.75
278.652	165.75
278.884	189.75
279.115	186.75
279.347	191.75
279.579	170.75
279.81	189.75
280.042	184.75
280.273	191.75
280.505	187.75
280.736	178.75
280.968	186.75
281.199	188.75
281.431	186.75
281.662	187.75
281.894	171.75
282.125	172.75
282.356	178.75
282.588	198.75
282.819	201.75
283.051	174.75
283.282	183.75
283.513	188.75
283.745	174.75
283.976	174.75
284.207	169.75
284.439	189.75
284.67	161.75
284.901	163.75
285.132	177.75
285.364	174.75
285.595	184.75
285.826	186.75
286.057	191.75
286.288	163.75
286.52	166.75
286.751	176.75
286.982	187.75
287.213	184.75
287.444	197.75
287.675	191.75
287.906	202.75
288.138	201.75
288.369	195.75
288.6	183.75
288.831	190.75
289.062	190.75
289.293	186.75
289.524	197.75
289.755	193.75
289.986	189.75
290.217	185.75
290.448	190.75
290.679	190.75
290.91	204.75
291.141	196.75
291.371	172.75
291.602	174.75
291.833	191.75
292.064	202.75
292.295	186.75
292.526	173.75
292.757	177.75
292.987	201.75
293.218	198.75
293.449	196.75
293.68	192.75
293.91	189.75
294.141	184.75
294.372	199.75
294.603	181.75
294.833	191.75
295.064	206.75
295.295	190.75
295.525	201.75
295.756	196.75
295.987	186.75
296.217	202.75
296.448	197.75
296.679	191.75
296.909	195.75
297.14	206.75
297.37	196.75
297.601	196.75
297.831	193.75
298.062	212.75
298.292	209.75
298.523	191.75
298.753	190.75
298.984	195.75
299.214	192.75
299.445	196.75
299.675	193.75
299.905	201.75
300.136	187.75
300.366	201.75
300.597	163.75
300.827	198.75
301.057	220.75
301.288	202.75
301.518	202.75
301.748	197.75
301.979	193.75
302.209	217.75
302.439	203.75
302.669	201.75
302.9	202.75
303.13	203.75
303.36	202.75
303.59	220.75
303.82	213.75
304.051	215.75
304.281	214.75
304.511	205.75
304.741	220.75
304.971	219.75
305.201	193.75
305.431	217.75
305.661	228.75
305.891	216.75
306.121	210.75
306.352	238.75
306.582	202.75
306.812	199.75
307.042	214.75
307.272	209.75
307.502	219.75
307.731	209.75
307.961	197.75
308.191	215.75
308.421	210.75
308.651	217.75
308.881	210.75
309.111	207.75
309.341	214.75
309.571	236.75
309.8	223.75
310.03	229.75
310.26	228.75
310.49	227.75
310.72	241.75
310.949	241.75
311.179	250.75
311.409	241.75
311.639	228.75
311.868	222.75
312.098	236.75
312.328	244.75
312.557	248.75
312.787	250.75
313.017	244.75
313.246	243.75
313.476	234.75
313.706	246.75
313.935	233.75
314.165	229.75
314.394	253.75
314.624	230.75
314.853	236.75
315.083	239.75
315.312	233.75
315.542	229.75
315.771	238.75
316.001	244.75
316.23	231.75
316.46	225.75
316.689	233.75
316.919	209.75
317.148	244.75
317.377	238.75
317.607	239.75
317.836	243.75
318.065	228.75
318.295	238.75
318.524	220.75
318.753	249.75
318.983	231.75
319.212	231.75
319.441	258.75
319.67	234.75
319.9	237.75
320.129	238.75
320.358	232.75
320.587	230.75
320.816	244.75
321.046	262.75
321.275	255.75
321.504	231.75
321.733	264.75
321.962	242.75
322.191	261.75
322.42	260.75
322.649	272.75
322.878	282.75
323.108	288.75
323.337	288.75
323.566	278.75
323.795	314.75
324.024	342.75
324.253	373.75
324.482	538.75
324.71	828.75
324.939	1151.75
325.168	961.75
325.397	516.75
325.626	370.75
325.855	328.75
326.084	308.75
326.313	298.75
326.542	294.75
326.77	322.75
326.999	374.75
327.228	498.75
327.457	712.75
327.686	830.75
327.914	558.75
328.143	395.75
328.372	361.75
328.6	349.75
328.829	322.75
329.058	314.75
329.287	333.75
329.515	304.75
329.744	296.75
329.972	295.75
330.201	302.75
330.43	329.75
330.658	324.75
330.887	338.75
331.115	330.75
331.344	296.75
331.572	303.75
331.801	303.75
332.03	283.75
332.258	278.75
332.486	295.75
332.715	283.75
332.943	278.75
333.172	301.75
333.4	289.75
333.629	288.75
333.857	289.75
334.085	313.75
334.314	297.75
334.542	297.75
334.771	309.75
334.999	285.75
335.227	288.75
335.455	282.75
335.684	277.75
335.912	276.75
336.14	252.75
336.369	286.75
336.597	289.75
336.825	302.75
337.053	288.75
337.281	285.75
337.51	279.75
337.738	276.75
337.966	276.75
338.194	266.75
338.422	268.75
338.65	278.75
338.878	283.75
339.106	265.75
339.334	250.75
339.562	273.75
339.79	272.75
340.018	263.75
340.246	286.75
340.474	272.75
340.702	288.75
340.93	291.75
341.158	272.75
341.386	268.75
341.614	270.75
341.842	281.75
342.07	280.75
342.298	262.75
342.526	258.75
342.754	254.75
342.981	248.75
343.209	270.75
343.437	268.75
343.665	280.75
343.893	291.75
344.12	264.75
344.348	279.75
344.576	269.75
344.804	286.75
345.031	277.75
345.259	294.75
345.487	293.75
345.714	277.75
345.942	284.75
346.17	258.75
346.397	262.75
346.625	269.75
346.853	264.75
347.08	268.75
347.308	271.75
347.535	274.75
347.763	275.75
347.99	266.75
348.218	274.75
348.445	270.75
348.673	267.75
348.9	266.75
349.128	265.75
349.355	277.75
349.583	263.75
349.81	248.75
350.037	256.75
350.265	257.75
350.492	258.75
350.72	259.75
350.947	256.75
351.174	261.75
351.402	279.75
351.629	268.75
351.856	249.75
352.083	260.75
352.311	272.75
352.538	281.75
352.765	284.75
352.992	270.75
353.22	270.75
353.447	271.75
353.674	249.75
353.901	262.75
354.128	273.75
354.355	245.75
354.583	269.75
354.81	260.75
355.037	257.75
355.264	248.75
355.491	241.75
355.718	236.75
355.945	244.75
356.172	262.75
356.399	251.75
356.626	241.75
356.853	263.75
357.08	256.75
357.307	264.75
357.534	264.75
357.761	253.75
357.988	277.75
358.215	261.75
358.441	252.75
358.668	260.75
358.895	248.75
359.122	255.75
359.349	270.75
359.576	268.75
359.802	272.75
360.029	276.75
360.256	289.75
360.483	298.75
360.709	261.75
360.936	260.75
361.163	284.75
361.39	261.75
361.616	270.75
361.843	272.75
362.07	281.75
362.296	282.75
362.523	277.75
362.749	270.75
362.976	261.75
363.203	258.75
363.429	264.75
363.656	249.75
363.882	260.75
364.109	256.75
364.335	266.75
364.562	276.75
364.788	279.75
365.015	267.75
365.241	254.75
365.468	267.75
365.694	263.75
365.92	259.75
366.147	263.75
366.373	257.75
366.599	245.75
366.826	274.75
367.052	266.75
367.278	264.75
367.505	269.75
367.731	276.75
367.957	263.75
368.184	262.75
368.41	280.75
368.636	262.75
368.862	277.75
369.089	260.75
369.315	254.75
369.541	255.75
369.767	249.75
369.993	258.75
370.219	262.75
370.445	265.75
370.672	261.75
370.898	268.75
371.124	248.75
371.35	266.75
371.576	258.75
371.802	271.75
372.028	263.75
372.254	258.75
372.48	277.75
372.706	262.75
372.932	297.75
373.158	280.75
373.384	279.75
373.61	272.75
373.835	271.75
374.061	265.75
374.287	276.75
374.513	272.75
374.739	252.75
374.965	286.75
375.191	277.75
375.416	266.75
375.642	276.75
375.868	274.75
376.094	293.75
376.319	278.75
376.545	262.75
376.771	254.75
376.997	274.75
377.222	266.75
377.448	272.75
377.674	270.75
377.899	263.75
378.125	262.75
378.35	268.75
378.576	264.75
378.802	273.75
379.027	264.75
379.253	278.75
379.478	264.75
379.704	265.75
379.929	261.75
380.155	270.75
380.38	262.75
380.606	270.75
380.831	272.75
381.057	270.75
381.282	270.75
381.507	277.75
381.733	279.75
381.958	268.75
382.184	294.75
382.409	275.75
382.634	280.75
382.86	287.75
383.085	266.75
383.31	281.75
383.535	291.75
383.761	266.75
383.986	300.75
384.211	291.75
384.436	283.75
384.662	292.75
384.887	303.75
385.112	289.75
385.337	287.75
385.562	303.75
385.787	293.75
386.013	297.75
386.238	299.75
386.463	311.75
386.688	293.75
386.913	308.75
387.138	280.75
387.363	299.75
387.588	304.75
387.813	288.75
388.038	297.75
388.263	314.75
388.488	298.75
388.713	294.75
388.938	298.75
389.163	292.75
389.387	292.75
389.612	287.75
389.837	292.75
390.062	293.75
390.287	287.75
390.512	303.75
390.736	290.75
390.961	286.75
391.186	290.75
391.411	280.75
391.636	307.75
391.86	320.75
392.085	306.75
392.31	296.75
392.534	278.75
392.759	306.75
392.984	291.75
393.208	312.75
393.433	324.75
393.658	327.75
393.882	292.75
394.107	279.75
394.331	300.75
394.556	290.75
394.78	289.75
395.005	318.75
395.229	302.75
395.454	313.75
395.678	298.75
395.903	303.75
396.127	323.75
396.352	334.75
396.576	311.75
396.801	306.75
397.025	337.75
397.249	293.75
397.474	310.75
397.698	292.75
397.922	322.75
398.147	334.75
398.371	332.75
398.595	326.75
398.82	325.75
399.044	319.75
399.268	338.75
399.492	347.75
399.717	368.75
399.941	375.75
400.165	401.75
400.389	391.75
400.613	382.75
400.837	368.75
401.062	349.75
401.286	328.75
401.51	353.75
401.734	340.75
401.958	334.75
402.182	349.75
402.406	346.75
402.63	324.75
402.854	349.75
403.078	345.75
403.302	320.75
403.526	341.75
403.75	331.75
403.974	342.75
404.198	331.75
404.422	355.75
404.645	345.75
404.869	358.75
405.093	353.75
405.317	399.75
405.541	408.75
405.765	375.75
405.988	355.75
406.212	349.75
406.436	373.75
406.66	378.75
406.883	354.75
407.107	374.75
407.331	394.75
407.555	437.75
407.778	438.75
408.002	408.75
408.226	381.75
408.449	369.75
408.673	389.75
408.896	374.75
409.12	419.75
409.344	400.75
409.567	353.75
409.791	334.75
410.014	358.75
410.238	364.75
410.461	348.75
410.685	339.75
410.908	351.75
411.132	383.75
411.355	409.75
411.578	376.75
411.802	342.75
412.025	359.75
412.249	350.75
412.472	366.75
412.695	374.75
412.919	386.75
413.142	334.75
413.365	344.75
413.589	350.75
413.812	336.75
414.035	334.75
414.258	321.75
414.482	349.75
414.705	329.75
414.928	338.75
415.151	318.75
415.374	306.75
415.597	333.75
415.821	318.75
416.044	338.75
416.267	326.75
416.49	322.75
416.713	314.75
416.936	324.75
417.159	312.75
417.382	332.75
417.605	337.75
417.828	334.75
418.051	322.75
418.274	336.75
418.497	318.75
418.72	334.75
418.943	328.75
419.166	332.75
419.389	360.75
419.611	357.75
419.834	348.75
420.057	334.75
420.28	342.75
420.503	338.75
420.726	337.75
420.948	366.75
421.171	392.75
421.394	385.75
421.617	361.75
421.839	329.75
422.062	352.75
422.285	347.75
422.507	374.75
422.73	410.75
422.953	412.75
423.175	359.75
423.398	392.75
423.621	352.75
423.843	370.75
424.066	370.75
424.288	354.75
424.511	368.75
424.733	406.75
424.956	458.75
425.178	422.75
425.401	422.75
425.623	437.75
425.846	382.75
426.068	356.75
426.291	352.75
426.513	348.75
426.735	358.75
426.958	384.75
427.18	428.75
427.402	531.75
427.625	572.75
427.847	459.75
428.069	414.75
428.292	378.75
428.514	347.75
428.736	348.75
428.958	336.75
429.181	338.75
429.403	340.75
429.625	361.75
429.847	379.75
430.069	400.75
430.292	399.75
430.514	350.75
430.736	338.75
430.958	342.75
431.18	324.75
431.402	334.75
431.624	334.75
431.846	329.75
432.068	316.75
432.29	335.75
432.512	321.75
432.734	320.75
432.956	341.75
433.178	342.75
433.4	311.75
433.622	325.75
433.844	323.75
434.066	325.75
434.287	333.75
434.509	334.75
434.731	338.75
434.953	341.75
435.175	360.75
435.397	361.75
435.618	352.75
435.84	398.75
436.062	451.75
436.284	472.75
436.505	403.75
436.727	368.75
436.949	331.75
437.17	350.75
437.392	343.75
437.614	346.75
437.835	370.75
438.057	414.75
438.278	472.75
438.5	462.75
438.721	537.75
438.943	484.75
439.165	428.75
439.386	376.75
439.608	371.75
439.829	380.75
440.05	384.75
440.272	404.75
440.493	382.75
440.715	354.75
440.936	338.75
441.158	353.75
441.379	337.75
441.6	358.75
441.822	353.75
442.043	395.75
442.264	434.75
442.486	446.75
442.707	405.75
442.928	356.75
443.149	376.75
443.371	374.75
443.592	422.75
443.813	456.75
444.034	464.75
444.255	405.75
444.476	378.75
444.698	369.75
444.919	370.75
445.14	459.75
445.361	415.75
445.582	400.75
445.803	406.75
446.024	480.75
446.245	488.75
446.466	458.75
446.687	388.75
446.908	380.75
447.129	348.75
447.35	329.75
447.571	357.75
447.792	312.75
448.013	339.75
448.234	348.75
448.455	388.75
448.675	455.75
448.896	521.75
449.117	446.75
449.338	417.75
449.559	488.75
449.779	533.75
450	435.75
450.221	380.75
450.442	358.75
450.662	335.75
450.883	336.75
451.104	329.75
451.324	335.75
451.545	320.75
451.766	304.75
451.986	311.75
452.207	317.75
452.428	326.75
452.648	312.75
452.869	307.75
453.089	311.75
453.31	305.75
453.53	293.75
453.751	303.75
453.971	306.75
454.192	317.75
454.412	309.75
454.633	304.75
454.853	294.75
455.073	307.75
455.294	313.75
455.514	354.75
455.734	348.75
455.955	302.75
456.175	295.75
456.395	295.75
456.616	289.75
456.836	304.75
457.056	310.75
457.276	300.75
457.497	303.75
457.717	306.75
457.937	298.75
458.157	308.75
458.377	322.75
458.598	330.75
458.818	339.75
459.038	392.75
459.258	395.75
459.478	345.75
459.698	334.75
459.918	313.75
460.138	322.75
460.358	341.75
460.578	318.75
460.798	326.75
461.018	349.75
461.238	338.75
461.458	345.75
461.678	341.75
461.898	364.75
462.118	324.75
462.338	356.75
462.558	335.75
462.777	342.75
462.997	364.75
463.217	360.75
463.437	362.75
463.657	362.75
463.876	365.75
464.096	372.75
464.316	342.75
464.536	348.75
464.755	359.75
464.975	343.75
465.195	371.75
465.414	402.75
465.634	378.75
465.854	351.75
466.073	338.75
466.293	329.75
466.512	320.75
466.732	325.75
466.951	321.75
467.171	324.75
467.391	328.75
467.61	339.75
467.829	331.75
468.049	335.75
468.268	340.75
468.488	331.75
468.707	317.75
468.927	298.75
469.146	326.75
469.365	322.75
469.585	324.75
469.804	314.75
470.023	331.75
470.243	310.75
470.462	328.75
470.681	327.75
470.901	323.75
471.12	348.75
471.339	342.75
471.558	325.75
471.777	326.75
471.997	341.75
472.216	337.75
472.435	324.75
472.654	312.75
472.873	342.75
473.092	317.75
473.311	330.75
473.53	336.75
473.749	324.75
473.968	349.75
474.187	418.75
474.406	412.75
474.625	365.75
474.844	332.75
475.063	339.75
475.282	327.75
475.501	319.75
475.72	342.75
475.939	334.75
476.158	340.75
476.377	337.75
476.596	342.75
476.814	355.75
477.033	337.75
477.252	342.75
477.471	364.75
477.69	364.75
477.908	352.75
478.127	372.75
478.346	361.75
478.564	342.75
478.783	363.75
479.002	377.75
479.22	370.75
479.439	366.75
479.658	379.75
479.876	389.75
480.095	387.75
480.313	399.75
480.532	391.75
480.751	407.75
480.969	401.75
481.188	429.75
481.406	431.75
481.624	405.75
481.843	396.75
482.061	385.75
482.28	389.75
482.498	370.75
482.717	376.75
482.935	405.75
483.153	376.75
483.372	383.75
483.59	389.75
483.808	414.75
484.027	392.75
484.245	374.75
484.463	384.75
484.681	395.75
484.9	396.75
485.118	399.75
485.336	410.75
485.554	398.75
485.772	408.75
485.99	403.75
486.209	382.75
486.427	390.75
486.645	409.75
486.863	414.75
487.081	414.75
487.299	423.75
487.517	405.75
487.735	397.75
487.953	414.75
488.171	402.75
488.389	416.75
488.607	395.75
488.825	412.75
489.043	398.75
489.261	412.75
489.479	438.75
489.696	421.75
489.914	431.75
490.132	420.75
490.35	433.75
490.568	436.75
490.786	441.75
491.003	428.75
491.221	466.75
491.439	444.75
491.657	450.75
491.874	464.75
492.092	447.75
492.31	450.75
492.527	447.75
492.745	446.75
492.963	474.75
493.18	469.75
493.398	461.75
493.615	461.75
493.833	441.75
494.05	459.75
494.268	482.75
494.485	464.75
494.703	482.75
494.92	455.75
495.138	458.75
495.355	469.75
495.573	467.75
495.79	469.75
496.008	477.75
496.225	482.75
496.442	500.75
496.66	492.75
496.877	494.75
497.094	488.75
497.312	492.75
497.529	492.75
497.746	514.75
497.963	521.75
498.181	526.75
498.398	530.75
498.615	521.75
498.832	565.75
499.049	564.75
499.267	569.75
499.484	563.75
499.701	589.75
499.918	613.75
500.135	620.75
500.352	631.75
500.569	624.75
500.786	654.75
501.003	636.75
501.22	636.75
501.437	611.75
501.654	600.75
501.871	574.75
502.088	568.75
502.305	574.75
502.522	532.75
