Data from 1961.PennyLincolnUp.Lamp.En5.5.200Scan.071719.P1._HRD10591_13-48-55-057.txt Node
Date: Thu Jul 18 13:48:55 EDT 2019
User: cochatt
Spectrometer: HR+D1059
Trigger mode: 1
Integration Time (sec): 1.000000E-1
Scans to average: 1
Electric dark correction enabled: true
Nonlinearity correction enabled: false
Boxcar width: 0
XAxis mode: Wavelengths
Number of Pixels in Spectrum: 2048
>>>>>Begin Spectral Data<<<<<
223.165	-5.5
223.4	-5.5
223.635	-5.5
223.869	-28.5
224.104	-20.5
224.338	-25.5
224.573	-21.5
224.808	-6.5
225.042	-4.5
225.277	-6.5
225.511	-3.5
225.746	10.5
225.98	-9.5
226.215	16.5
226.449	14.5
226.683	26.5
226.918	33.5
227.152	30.5
227.387	39.5
227.621	46.5
227.856	35.5
228.09	35.5
228.324	48.5
228.559	44.5
228.793	74.5
229.027	86.5
229.262	98.5
229.496	108.5
229.73	121.5
229.964	144.5
230.199	117.5
230.433	100.5
230.667	102.5
230.901	100.5
231.136	104.5
231.37	110.5
231.604	96.5
231.838	116.5
232.072	114.5
232.306	104.5
232.541	113.5
232.775	98.5
233.009	112.5
233.243	102.5
233.477	122.5
233.711	118.5
233.945	116.5
234.179	116.5
234.413	115.5
234.647	121.5
234.881	123.5
235.115	110.5
235.349	111.5
235.583	110.5
235.817	118.5
236.051	121.5
236.285	109.5
236.519	109.5
236.753	126.5
236.987	128.5
237.221	163.5
237.455	210.5
237.689	167.5
237.922	136.5
238.156	118.5
238.39	122.5
238.624	113.5
238.858	112.5
239.091	119.5
239.325	132.5
239.559	113.5
239.793	102.5
240.027	122.5
240.26	138.5
240.494	140.5
240.728	133.5
240.961	139.5
241.195	132.5
241.429	119.5
241.662	123.5
241.896	104.5
242.13	123.5
242.363	120.5
242.597	119.5
242.83	125.5
243.064	124.5
243.298	121.5
243.531	131.5
243.765	116.5
243.998	128.5
244.232	136.5
244.465	111.5
244.699	125.5
244.932	144.5
245.166	128.5
245.399	137.5
245.633	124.5
245.866	132.5
246.099	126.5
246.333	127.5
246.566	106.5
246.8	138.5
247.033	134.5
247.266	146.5
247.5	155.5
247.733	156.5
247.966	148.5
248.2	138.5
248.433	134.5
248.666	145.5
248.899	167.5
249.133	188.5
249.366	170.5
249.599	163.5
249.832	165.5
250.066	168.5
250.299	168.5
250.532	185.5
250.765	194.5
250.998	199.5
251.231	194.5
251.465	185.5
251.698	187.5
251.931	169.5
252.164	180.5
252.397	165.5
252.63	188.5
252.863	170.5
253.096	186.5
253.329	194.5
253.562	198.5
253.795	184.5
254.028	190.5
254.261	194.5
254.494	191.5
254.727	226.5
254.96	237.5
255.193	233.5
255.426	208.5
255.659	206.5
255.892	207.5
256.124	183.5
256.357	202.5
256.59	200.5
256.823	185.5
257.056	187.5
257.289	194.5
257.521	176.5
257.754	173.5
257.987	183.5
258.22	201.5
258.452	189.5
258.685	177.5
258.918	181.5
259.151	165.5
259.383	191.5
259.616	183.5
259.849	204.5
260.081	198.5
260.314	214.5
260.547	223.5
260.779	199.5
261.012	218.5
261.244	195.5
261.477	203.5
261.71	204.5
261.942	201.5
262.175	218.5
262.407	201.5
262.64	189.5
262.872	183.5
263.105	172.5
263.337	184.5
263.57	186.5
263.802	167.5
264.035	168.5
264.267	187.5
264.499	186.5
264.732	160.5
264.964	182.5
265.197	178.5
265.429	187.5
265.661	182.5
265.894	187.5
266.126	186.5
266.358	195.5
266.591	191.5
266.823	192.5
267.055	208.5
267.287	196.5
267.52	204.5
267.752	210.5
267.984	196.5
268.216	204.5
268.448	219.5
268.681	199.5
268.913	203.5
269.145	234.5
269.377	231.5
269.609	229.5
269.841	232.5
270.073	242.5
270.306	263.5
270.538	275.5
270.77	274.5
271.002	266.5
271.234	253.5
271.466	254.5
271.698	278.5
271.93	262.5
272.162	276.5
272.394	269.5
272.626	265.5
272.858	256.5
273.09	246.5
273.322	262.5
273.553	238.5
273.785	229.5
274.017	239.5
274.249	240.5
274.481	223.5
274.713	231.5
274.945	229.5
275.176	213.5
275.408	234.5
275.64	232.5
275.872	224.5
276.104	215.5
276.335	220.5
276.567	242.5
276.799	246.5
277.031	264.5
277.262	263.5
277.494	271.5
277.726	267.5
277.957	248.5
278.189	244.5
278.421	233.5
278.652	226.5
278.884	218.5
279.115	228.5
279.347	223.5
279.579	215.5
279.81	231.5
280.042	229.5
280.273	226.5
280.505	216.5
280.736	228.5
280.968	222.5
281.199	222.5
281.431	208.5
281.662	231.5
281.894	226.5
282.125	228.5
282.356	236.5
282.588	249.5
282.819	278.5
283.051	238.5
283.282	223.5
283.513	238.5
283.745	216.5
283.976	243.5
284.207	235.5
284.439	244.5
284.67	235.5
284.901	239.5
285.132	239.5
285.364	230.5
285.595	241.5
285.826	225.5
286.057	239.5
286.288	247.5
286.52	234.5
286.751	241.5
286.982	242.5
287.213	235.5
287.444	219.5
287.675	260.5
287.906	235.5
288.138	249.5
288.369	264.5
288.6	260.5
288.831	259.5
289.062	239.5
289.293	229.5
289.524	233.5
289.755	248.5
289.986	229.5
290.217	238.5
290.448	241.5
290.679	224.5
290.91	248.5
291.141	222.5
291.371	240.5
291.602	240.5
291.833	231.5
292.064	235.5
292.295	233.5
292.526	234.5
292.757	233.5
292.987	233.5
293.218	233.5
293.449	245.5
293.68	228.5
293.91	234.5
294.141	258.5
294.372	227.5
294.603	244.5
294.833	234.5
295.064	228.5
295.295	253.5
295.525	252.5
295.756	251.5
295.987	247.5
296.217	269.5
296.448	283.5
296.679	254.5
296.909	242.5
297.14	247.5
297.37	252.5
297.601	258.5
297.831	242.5
298.062	240.5
298.292	256.5
298.523	270.5
298.753	243.5
298.984	273.5
299.214	247.5
299.445	242.5
299.675	258.5
299.905	252.5
300.136	268.5
300.366	275.5
300.597	256.5
300.827	271.5
301.057	267.5
301.288	283.5
301.518	280.5
301.748	267.5
301.979	258.5
302.209	283.5
302.439	266.5
302.669	279.5
302.9	273.5
303.13	268.5
303.36	271.5
303.59	279.5
303.82	292.5
304.051	279.5
304.281	270.5
304.511	279.5
304.741	273.5
304.971	259.5
305.201	280.5
305.431	271.5
305.661	276.5
305.891	274.5
306.121	303.5
306.352	290.5
306.582	285.5
306.812	284.5
307.042	281.5
307.272	255.5
307.502	273.5
307.731	292.5
307.961	267.5
308.191	291.5
308.421	292.5
308.651	284.5
308.881	271.5
309.111	302.5
309.341	292.5
309.571	297.5
309.8	292.5
310.03	320.5
310.26	331.5
310.49	330.5
310.72	340.5
310.949	353.5
311.179	338.5
311.409	343.5
311.639	340.5
311.868	332.5
312.098	342.5
312.328	343.5
312.557	356.5
312.787	343.5
313.017	359.5
313.246	359.5
313.476	342.5
313.706	325.5
313.935	339.5
314.165	342.5
314.394	347.5
314.624	343.5
314.853	314.5
315.083	318.5
315.312	330.5
315.542	320.5
315.771	327.5
316.001	329.5
316.23	305.5
316.46	337.5
316.689	332.5
316.919	340.5
317.148	327.5
317.377	332.5
317.607	334.5
317.836	346.5
318.065	309.5
318.295	320.5
318.524	302.5
318.753	314.5
318.983	311.5
319.212	332.5
319.441	343.5
319.67	345.5
319.9	326.5
320.129	320.5
320.358	326.5
320.587	324.5
320.816	347.5
321.046	348.5
321.275	353.5
321.504	351.5
321.733	345.5
321.962	356.5
322.191	378.5
322.42	390.5
322.649	410.5
322.878	407.5
323.108	434.5
323.337	441.5
323.566	456.5
323.795	522.5
324.024	560.5
324.253	712.5
324.482	1059.5
324.71	1633.5
324.939	2280.5
325.168	1882.5
325.397	1001.5
325.626	700.5
325.855	538.5
326.084	491.5
326.313	467.5
326.542	480.5
326.77	525.5
326.999	660.5
327.228	944.5
327.457	1458.5
327.686	1679.5
327.914	1109.5
328.143	732.5
328.372	622.5
328.6	580.5
328.829	541.5
329.058	567.5
329.287	554.5
329.515	528.5
329.744	486.5
329.972	485.5
330.201	532.5
330.43	544.5
330.658	555.5
330.887	596.5
331.115	555.5
331.344	470.5
331.572	450.5
331.801	453.5
332.03	440.5
332.258	422.5
332.486	402.5
332.715	392.5
332.943	379.5
333.172	390.5
333.4	399.5
333.629	398.5
333.857	407.5
334.085	440.5
334.314	451.5
334.542	473.5
334.771	499.5
334.999	430.5
335.227	397.5
335.455	404.5
335.684	382.5
335.912	387.5
336.14	370.5
336.369	378.5
336.597	395.5
336.825	386.5
337.053	371.5
337.281	373.5
337.51	383.5
337.738	384.5
337.966	373.5
338.194	376.5
338.422	378.5
338.65	390.5
338.878	380.5
339.106	377.5
339.334	369.5
339.562	352.5
339.79	365.5
340.018	391.5
340.246	384.5
340.474	376.5
340.702	376.5
340.93	353.5
341.158	379.5
341.386	356.5
341.614	384.5
341.842	370.5
342.07	361.5
342.298	354.5
342.526	352.5
342.754	348.5
342.981	363.5
343.209	346.5
343.437	339.5
343.665	342.5
343.893	357.5
344.12	362.5
344.348	356.5
344.576	383.5
344.804	384.5
345.031	387.5
345.259	381.5
345.487	375.5
345.714	385.5
345.942	366.5
346.17	347.5
346.397	361.5
346.625	358.5
346.853	358.5
347.08	344.5
347.308	355.5
347.535	346.5
347.763	390.5
347.99	374.5
348.218	375.5
348.445	362.5
348.673	374.5
348.9	345.5
349.128	332.5
349.355	335.5
349.583	347.5
349.81	357.5
350.037	347.5
350.265	347.5
350.492	354.5
350.72	343.5
350.947	351.5
351.174	355.5
351.402	379.5
351.629	374.5
351.856	354.5
352.083	366.5
352.311	400.5
352.538	404.5
352.765	385.5
352.992	356.5
353.22	374.5
353.447	351.5
353.674	366.5
353.901	358.5
354.128	343.5
354.355	327.5
354.583	334.5
354.81	330.5
355.037	332.5
355.264	323.5
355.491	311.5
355.718	319.5
355.945	335.5
356.172	327.5
356.399	317.5
356.626	306.5
356.853	327.5
357.08	328.5
357.307	309.5
357.534	306.5
357.761	322.5
357.988	325.5
358.215	329.5
358.441	319.5
358.668	329.5
358.895	334.5
359.122	347.5
359.349	362.5
359.576	366.5
359.802	394.5
360.029	418.5
360.256	432.5
360.483	400.5
360.709	356.5
360.936	373.5
361.163	355.5
361.39	360.5
361.616	362.5
361.843	361.5
362.07	367.5
362.296	369.5
362.523	343.5
362.749	342.5
362.976	364.5
363.203	341.5
363.429	353.5
363.656	349.5
363.882	342.5
364.109	336.5
364.335	347.5
364.562	353.5
364.788	345.5
365.015	338.5
365.241	335.5
365.468	347.5
365.694	347.5
365.92	343.5
366.147	347.5
366.373	338.5
366.599	333.5
366.826	344.5
367.052	336.5
367.278	358.5
367.505	358.5
367.731	342.5
367.957	337.5
368.184	334.5
368.41	357.5
368.636	360.5
368.862	344.5
369.089	359.5
369.315	337.5
369.541	336.5
369.767	339.5
369.993	361.5
370.219	339.5
370.445	329.5
370.672	347.5
370.898	332.5
371.124	321.5
371.35	310.5
371.576	312.5
371.802	343.5
372.028	342.5
372.254	337.5
372.48	323.5
372.706	350.5
372.932	330.5
373.158	323.5
373.384	328.5
373.61	325.5
373.835	339.5
374.061	350.5
374.287	324.5
374.513	330.5
374.739	326.5
374.965	324.5
375.191	336.5
375.416	323.5
375.642	327.5
375.868	334.5
376.094	342.5
376.319	343.5
376.545	339.5
376.771	355.5
376.997	326.5
377.222	323.5
377.448	351.5
377.674	333.5
377.899	323.5
378.125	326.5
378.35	326.5
378.576	321.5
378.802	325.5
379.027	337.5
379.253	323.5
379.478	335.5
379.704	329.5
379.929	332.5
380.155	337.5
380.38	325.5
380.606	328.5
380.831	321.5
381.057	316.5
381.282	327.5
381.507	339.5
381.733	316.5
381.958	336.5
382.184	332.5
382.409	340.5
382.634	336.5
382.86	331.5
383.085	349.5
383.31	334.5
383.535	321.5
383.761	313.5
383.986	344.5
384.211	337.5
384.436	335.5
384.662	345.5
384.887	343.5
385.112	339.5
385.337	339.5
385.562	353.5
385.787	367.5
386.013	358.5
386.238	364.5
386.463	360.5
386.688	354.5
386.913	343.5
387.138	349.5
387.363	343.5
387.588	351.5
387.813	340.5
388.038	351.5
388.263	346.5
388.488	348.5
388.713	359.5
388.938	357.5
389.163	375.5
389.387	359.5
389.612	361.5
389.837	363.5
390.062	363.5
390.287	350.5
390.512	334.5
390.736	366.5
390.961	335.5
391.186	343.5
391.411	339.5
391.636	378.5
391.86	358.5
392.085	361.5
392.31	356.5
392.534	361.5
392.759	370.5
392.984	339.5
393.208	345.5
393.433	352.5
393.658	361.5
393.882	376.5
394.107	360.5
394.331	368.5
394.556	341.5
394.78	354.5
395.005	351.5
395.229	364.5
395.454	362.5
395.678	364.5
395.903	362.5
396.127	393.5
396.352	404.5
396.576	392.5
396.801	371.5
397.025	360.5
397.249	376.5
397.474	383.5
397.698	364.5
397.922	400.5
398.147	390.5
398.371	402.5
398.595	408.5
398.82	406.5
399.044	384.5
399.268	416.5
399.492	415.5
399.717	437.5
399.941	457.5
400.165	464.5
400.389	477.5
400.613	446.5
400.837	446.5
401.062	427.5
401.286	422.5
401.51	390.5
401.734	404.5
401.958	404.5
402.182	409.5
402.406	402.5
402.63	419.5
402.854	407.5
403.078	418.5
403.302	431.5
403.526	416.5
403.75	447.5
403.974	438.5
404.198	418.5
404.422	421.5
404.645	433.5
404.869	430.5
405.093	442.5
405.317	480.5
405.541	531.5
405.765	479.5
405.988	435.5
406.212	466.5
406.436	479.5
406.66	477.5
406.883	454.5
407.107	485.5
407.331	515.5
407.555	544.5
407.778	562.5
408.002	528.5
408.226	485.5
408.449	461.5
408.673	463.5
408.896	505.5
409.12	508.5
409.344	484.5
409.567	451.5
409.791	453.5
410.014	440.5
410.238	437.5
410.461	459.5
410.685	431.5
410.908	452.5
411.132	486.5
411.355	499.5
411.578	473.5
411.802	431.5
412.025	412.5
412.249	463.5
412.472	463.5
412.695	487.5
412.919	511.5
413.142	423.5
413.365	427.5
413.589	403.5
413.812	419.5
414.035	422.5
414.258	395.5
414.482	397.5
414.705	394.5
414.928	396.5
415.151	392.5
415.374	391.5
415.597	378.5
415.821	390.5
416.044	395.5
416.267	400.5
416.49	395.5
416.713	396.5
416.936	407.5
417.159	396.5
417.382	403.5
417.605	430.5
417.828	426.5
418.051	409.5
418.274	412.5
418.497	405.5
418.72	408.5
418.943	392.5
419.166	400.5
419.389	439.5
419.611	437.5
419.834	422.5
420.057	426.5
420.28	409.5
420.503	416.5
420.726	405.5
420.948	442.5
421.171	463.5
421.394	488.5
421.617	446.5
421.839	435.5
422.062	416.5
422.285	439.5
422.507	486.5
422.73	563.5
422.953	522.5
423.175	482.5
423.398	470.5
423.621	447.5
423.843	464.5
424.066	461.5
424.288	467.5
424.511	486.5
424.733	531.5
424.956	600.5
425.178	581.5
425.401	566.5
425.623	588.5
425.846	503.5
426.068	479.5
426.291	450.5
426.513	458.5
426.735	495.5
426.958	532.5
427.18	600.5
427.402	694.5
427.625	766.5
427.847	684.5
428.069	625.5
428.292	525.5
428.514	466.5
428.736	446.5
428.958	452.5
429.181	416.5
429.403	425.5
429.625	454.5
429.847	456.5
430.069	544.5
430.292	530.5
430.514	451.5
430.736	434.5
430.958	426.5
431.18	426.5
431.402	428.5
431.624	403.5
431.846	399.5
432.068	399.5
432.29	426.5
432.512	425.5
432.734	425.5
432.956	414.5
433.178	424.5
433.4	419.5
433.622	406.5
433.844	404.5
434.066	411.5
434.287	404.5
434.509	409.5
434.731	426.5
434.953	437.5
435.175	446.5
435.397	444.5
435.618	473.5
435.84	506.5
436.062	609.5
436.284	638.5
436.505	551.5
436.727	492.5
436.949	467.5
437.17	443.5
437.392	442.5
437.614	455.5
437.835	487.5
438.057	595.5
438.278	653.5
438.5	661.5
438.721	704.5
438.943	677.5
439.165	524.5
439.386	488.5
439.608	480.5
439.829	480.5
440.05	516.5
440.272	567.5
440.493	512.5
440.715	453.5
440.936	446.5
441.158	446.5
441.379	451.5
441.6	459.5
441.822	465.5
442.043	518.5
442.264	614.5
442.486	620.5
442.707	532.5
442.928	478.5
443.149	509.5
443.371	546.5
443.592	558.5
443.813	614.5
444.034	649.5
444.255	542.5
444.476	482.5
444.698	480.5
444.919	477.5
445.14	531.5
445.361	524.5
445.582	526.5
445.803	591.5
446.024	689.5
446.245	688.5
446.466	616.5
446.687	518.5
446.908	479.5
447.129	463.5
447.35	452.5
447.571	454.5
447.792	459.5
448.013	434.5
448.234	456.5
448.455	532.5
448.675	618.5
448.896	711.5
449.117	612.5
449.338	586.5
449.559	661.5
449.779	730.5
450	606.5
450.221	494.5
450.442	458.5
450.662	421.5
450.883	458.5
451.104	454.5
451.324	464.5
451.545	435.5
451.766	411.5
451.986	390.5
452.207	396.5
452.428	384.5
452.648	402.5
452.869	396.5
453.089	423.5
453.31	417.5
453.53	398.5
453.751	408.5
453.971	409.5
454.192	440.5
454.412	417.5
454.633	394.5
454.853	400.5
455.073	385.5
455.294	416.5
455.514	508.5
455.734	470.5
455.955	408.5
456.175	375.5
456.395	364.5
456.616	370.5
456.836	356.5
457.056	370.5
457.276	370.5
457.497	378.5
457.717	371.5
457.937	373.5
458.157	383.5
458.377	360.5
458.598	414.5
458.818	460.5
459.038	560.5
459.258	572.5
459.478	424.5
459.698	424.5
459.918	418.5
460.138	405.5
460.358	397.5
460.578	399.5
460.798	419.5
461.018	403.5
461.238	402.5
461.458	417.5
461.678	399.5
461.898	414.5
462.118	410.5
462.338	417.5
462.558	412.5
462.777	415.5
462.997	436.5
463.217	429.5
463.437	432.5
463.657	420.5
463.876	432.5
464.096	426.5
464.316	420.5
464.536	425.5
464.755	421.5
464.975	444.5
465.195	521.5
465.414	599.5
465.634	517.5
465.854	454.5
466.073	436.5
466.293	407.5
466.512	400.5
466.732	394.5
466.951	389.5
467.171	377.5
467.391	399.5
467.61	415.5
467.829	399.5
468.049	436.5
468.268	445.5
468.488	398.5
468.707	377.5
468.927	404.5
469.146	380.5
469.365	389.5
469.585	388.5
469.804	417.5
470.023	396.5
470.243	423.5
470.462	407.5
470.681	433.5
470.901	428.5
471.12	426.5
471.339	419.5
471.558	425.5
471.777	397.5
471.997	394.5
472.216	415.5
472.435	470.5
472.654	457.5
472.873	394.5
473.092	423.5
473.311	414.5
473.53	412.5
473.749	435.5
473.968	472.5
474.187	554.5
474.406	572.5
474.625	472.5
474.844	416.5
475.063	402.5
475.282	414.5
475.501	406.5
475.72	415.5
475.939	419.5
476.158	438.5
476.377	425.5
476.596	437.5
476.814	432.5
477.033	440.5
477.252	423.5
477.471	428.5
477.69	430.5
477.908	440.5
478.127	438.5
478.346	449.5
478.564	430.5
478.783	451.5
479.002	458.5
479.22	467.5
479.439	482.5
479.658	488.5
479.876	479.5
480.095	514.5
480.313	518.5
480.532	502.5
480.751	484.5
480.969	510.5
481.188	580.5
481.406	651.5
481.624	558.5
481.843	512.5
482.061	512.5
482.28	495.5
482.498	472.5
482.717	463.5
482.935	462.5
483.153	499.5
483.372	470.5
483.59	468.5
483.808	494.5
484.027	480.5
484.245	479.5
484.463	474.5
484.681	498.5
484.9	489.5
485.118	494.5
485.336	480.5
485.554	489.5
485.772	499.5
485.99	497.5
486.209	497.5
486.427	487.5
486.645	519.5
486.863	542.5
487.081	526.5
487.299	511.5
487.517	531.5
487.735	498.5
487.953	502.5
488.171	516.5
488.389	528.5
488.607	516.5
488.825	545.5
489.043	531.5
489.261	518.5
489.479	550.5
489.696	512.5
489.914	534.5
490.132	533.5
490.35	535.5
490.568	519.5
490.786	572.5
491.003	563.5
491.221	579.5
491.439	599.5
491.657	571.5
491.874	567.5
492.092	568.5
492.31	607.5
492.527	586.5
492.745	612.5
492.963	579.5
493.18	599.5
493.398	611.5
493.615	617.5
493.833	634.5
494.05	617.5
494.268	616.5
494.485	604.5
494.703	610.5
494.92	593.5
495.138	608.5
495.355	622.5
495.573	614.5
495.79	633.5
496.008	593.5
496.225	593.5
496.442	595.5
496.66	612.5
496.877	626.5
497.094	624.5
497.312	617.5
497.529	630.5
497.746	628.5
497.963	649.5
498.181	668.5
498.398	643.5
498.615	679.5
498.832	660.5
499.049	661.5
499.267	692.5
499.484	700.5
499.701	713.5
499.918	718.5
500.135	739.5
500.352	766.5
500.569	791.5
500.786	757.5
501.003	749.5
501.22	756.5
501.437	762.5
501.654	747.5
501.871	725.5
502.088	757.5
502.305	710.5
502.522	674.5
502.739	691.5
502.956	676.5
503.172	636.5
503.389	645.5
503.606	650.5
503.823	651.5
504.04	619.5
504.256	621.5
504.473	625.5
504.69	584.5
504.907	588.5
505.123	612.5
505.34	586.5
505.557	599.5
505.773	602.5
505.99	585.5
506.207	604.5
506.423	581.5
506.64	587.5
506.856	579.5
507.073	599.5
507.289	579.5
507.506	581.5
507.722	605.5
507.939	622.5
508.155	571.5
508.372	575.5
508.588	578.5
508.805	580.5
509.021	542.5
509.238	585.5
509.454	584.5
509.67	570.5
509.887	568.5
510.103	573.5
510.319	585.5
510.536	692.5
510.752	1220.5
510.968	980.5
511.184	632.5
511.401	585.5
511.617	574.5
511.833	574.5
512.049	551.5
512.265	545.5
512.481	542.5
512.698	559.5
512.914	543.5
513.13	563.5
513.346	546.5
513.562	573.5
513.778	561.5
513.994	527.5
514.21	578.5
514.426	618.5
514.642	663.5
514.858	686.5
515.074	738.5
515.29	904.5
515.506	1317.5
515.721	1042.5
515.937	707.5
516.153	614.5
516.369	591.5
516.585	581.5
516.801	588.5
517.016	577.5
517.232	576.5
517.448	534.5
517.664	544.5
517.879	545.5
518.095	529.5
518.311	552.5
518.527	533.5
518.742	544.5
518.958	556.5
519.173	548.5
519.389	560.5
519.605	559.5
519.82	579.5
