Data from 1961.PennyLincolnUp.Lamp.En5.5.200Scan.071719.P1._HRD10591_13-46-46-057.txt Node
Date: Thu Jul 18 13:46:46 EDT 2019
User: cochatt
Spectrometer: HR+D1059
Trigger mode: 1
Integration Time (sec): 1.000000E-1
Scans to average: 1
Electric dark correction enabled: true
Nonlinearity correction enabled: false
Boxcar width: 0
XAxis mode: Wavelengths
Number of Pixels in Spectrum: 2048
>>>>>Begin Spectral Data<<<<<
223.165	-22.5
223.4	-22.5
223.635	-22.5
223.869	-23.5
224.104	-8.5
224.338	-7.5
224.573	-3.5
224.808	-13.5
225.042	5.5
225.277	-9.5
225.511	-13.5
225.746	-1.5
225.98	6.5
226.215	17.5
226.449	10.5
226.683	26.5
226.918	19.5
227.152	17.5
227.387	33.5
227.621	28.5
227.856	52.5
228.09	56.5
228.324	61.5
228.559	67.5
228.793	67.5
229.027	104.5
229.262	99.5
229.496	104.5
229.73	123.5
229.964	148.5
230.199	109.5
230.433	101.5
230.667	118.5
230.901	106.5
231.136	96.5
231.37	100.5
231.604	102.5
231.838	112.5
232.072	102.5
232.306	104.5
232.541	101.5
232.775	103.5
233.009	113.5
233.243	116.5
233.477	113.5
233.711	118.5
233.945	110.5
234.179	109.5
234.413	106.5
234.647	104.5
234.881	100.5
235.115	91.5
235.349	122.5
235.583	107.5
235.817	112.5
236.051	114.5
236.285	123.5
236.519	115.5
236.753	106.5
236.987	140.5
237.221	146.5
237.455	185.5
237.689	165.5
237.922	126.5
238.156	117.5
238.39	116.5
238.624	107.5
238.858	121.5
239.091	109.5
239.325	119.5
239.559	115.5
239.793	120.5
240.027	107.5
240.26	128.5
240.494	129.5
240.728	136.5
240.961	122.5
241.195	109.5
241.429	118.5
241.662	116.5
241.896	126.5
242.13	125.5
242.363	118.5
242.597	122.5
242.83	120.5
243.064	115.5
243.298	120.5
243.531	115.5
243.765	105.5
243.998	124.5
244.232	135.5
244.465	128.5
244.699	132.5
244.932	125.5
245.166	115.5
245.399	138.5
245.633	119.5
245.866	118.5
246.099	120.5
246.333	135.5
246.566	123.5
246.8	140.5
247.033	126.5
247.266	134.5
247.5	152.5
247.733	143.5
247.966	135.5
248.2	129.5
248.433	150.5
248.666	164.5
248.899	149.5
249.133	156.5
249.366	160.5
249.599	150.5
249.832	149.5
250.066	149.5
250.299	169.5
250.532	156.5
250.765	157.5
250.998	164.5
251.231	176.5
251.465	179.5
251.698	169.5
251.931	165.5
252.164	164.5
252.397	158.5
252.63	155.5
252.863	161.5
253.096	171.5
253.329	180.5
253.562	165.5
253.795	172.5
254.028	172.5
254.261	170.5
254.494	167.5
254.727	188.5
254.96	213.5
255.193	216.5
255.426	215.5
255.659	192.5
255.892	184.5
256.124	184.5
256.357	164.5
256.59	199.5
256.823	160.5
257.056	173.5
257.289	167.5
257.521	165.5
257.754	183.5
257.987	184.5
258.22	171.5
258.452	173.5
258.685	149.5
258.918	171.5
259.151	171.5
259.383	174.5
259.616	187.5
259.849	190.5
260.081	194.5
260.314	191.5
260.547	178.5
260.779	191.5
261.012	188.5
261.244	174.5
261.477	171.5
261.71	180.5
261.942	192.5
262.175	196.5
262.407	186.5
262.64	165.5
262.872	180.5
263.105	159.5
263.337	165.5
263.57	186.5
263.802	168.5
264.035	170.5
264.267	159.5
264.499	156.5
264.732	174.5
264.964	176.5
265.197	171.5
265.429	173.5
265.661	166.5
265.894	172.5
266.126	169.5
266.358	171.5
266.591	180.5
266.823	174.5
267.055	182.5
267.287	170.5
267.52	170.5
267.752	168.5
267.984	188.5
268.216	183.5
268.448	181.5
268.681	165.5
268.913	198.5
269.145	196.5
269.377	224.5
269.609	222.5
269.841	198.5
270.073	216.5
270.306	225.5
270.538	242.5
270.77	226.5
271.002	223.5
271.234	219.5
271.466	221.5
271.698	229.5
271.93	244.5
272.162	231.5
272.394	248.5
272.626	229.5
272.858	228.5
273.09	202.5
273.322	209.5
273.553	203.5
273.785	206.5
274.017	205.5
274.249	216.5
274.481	201.5
274.713	208.5
274.945	199.5
275.176	230.5
275.408	213.5
275.64	216.5
275.872	193.5
276.104	208.5
276.335	200.5
276.567	223.5
276.799	215.5
277.031	256.5
277.262	232.5
277.494	240.5
277.726	219.5
277.957	206.5
278.189	211.5
278.421	195.5
278.652	205.5
278.884	214.5
279.115	205.5
279.347	221.5
279.579	211.5
279.81	205.5
280.042	213.5
280.273	205.5
280.505	224.5
280.736	199.5
280.968	210.5
281.199	202.5
281.431	196.5
281.662	206.5
281.894	211.5
282.125	218.5
282.356	229.5
282.588	217.5
282.819	251.5
283.051	206.5
283.282	211.5
283.513	218.5
283.745	205.5
283.976	216.5
284.207	212.5
284.439	220.5
284.67	225.5
284.901	214.5
285.132	210.5
285.364	217.5
285.595	220.5
285.826	207.5
286.057	207.5
286.288	214.5
286.52	206.5
286.751	196.5
286.982	220.5
287.213	207.5
287.444	227.5
287.675	219.5
287.906	226.5
288.138	225.5
288.369	214.5
288.6	249.5
288.831	228.5
289.062	226.5
289.293	217.5
289.524	203.5
289.755	222.5
289.986	226.5
290.217	208.5
290.448	214.5
290.679	216.5
290.91	210.5
291.141	233.5
291.371	216.5
291.602	220.5
291.833	210.5
292.064	218.5
292.295	243.5
292.526	209.5
292.757	214.5
292.987	221.5
293.218	192.5
293.449	229.5
293.68	220.5
293.91	212.5
294.141	231.5
294.372	224.5
294.603	227.5
294.833	233.5
295.064	246.5
295.295	221.5
295.525	235.5
295.756	226.5
295.987	235.5
296.217	245.5
296.448	249.5
296.679	238.5
296.909	228.5
297.14	233.5
297.37	230.5
297.601	230.5
297.831	229.5
298.062	228.5
298.292	227.5
298.523	228.5
298.753	243.5
298.984	235.5
299.214	233.5
299.445	221.5
299.675	228.5
299.905	242.5
300.136	227.5
300.366	222.5
300.597	250.5
300.827	257.5
301.057	235.5
301.288	248.5
301.518	243.5
301.748	234.5
301.979	237.5
302.209	240.5
302.439	223.5
302.669	246.5
302.9	256.5
303.13	237.5
303.36	251.5
303.59	252.5
303.82	278.5
304.051	259.5
304.281	264.5
304.511	250.5
304.741	252.5
304.971	233.5
305.201	248.5
305.431	242.5
305.661	247.5
305.891	226.5
306.121	255.5
306.352	252.5
306.582	257.5
306.812	244.5
307.042	245.5
307.272	268.5
307.502	264.5
307.731	244.5
307.961	234.5
308.191	242.5
308.421	248.5
308.651	254.5
308.881	256.5
309.111	237.5
309.341	268.5
309.571	249.5
309.8	272.5
310.03	268.5
310.26	289.5
310.49	294.5
310.72	294.5
310.949	310.5
311.179	317.5
311.409	288.5
311.639	270.5
311.868	304.5
312.098	296.5
312.328	295.5
312.557	308.5
312.787	312.5
313.017	313.5
313.246	294.5
313.476	288.5
313.706	299.5
313.935	288.5
314.165	311.5
314.394	309.5
314.624	313.5
314.853	307.5
315.083	292.5
315.312	280.5
315.542	288.5
315.771	284.5
316.001	283.5
316.23	274.5
316.46	276.5
316.689	284.5
316.919	300.5
317.148	295.5
317.377	304.5
317.607	282.5
317.836	310.5
318.065	294.5
318.295	314.5
318.524	307.5
318.753	291.5
318.983	295.5
319.212	288.5
319.441	313.5
319.67	307.5
319.9	298.5
320.129	285.5
320.358	306.5
320.587	312.5
320.816	305.5
321.046	303.5
321.275	296.5
321.504	308.5
321.733	295.5
321.962	330.5
322.191	334.5
322.42	334.5
322.649	352.5
322.878	357.5
323.108	381.5
323.337	376.5
323.566	380.5
323.795	426.5
324.024	484.5
324.253	536.5
324.482	825.5
324.71	1256.5
324.939	1729.5
325.168	1494.5
325.397	773.5
325.626	505.5
325.855	456.5
326.084	410.5
326.313	392.5
326.542	413.5
326.77	450.5
326.999	525.5
327.228	739.5
327.457	1066.5
327.686	1286.5
327.914	846.5
328.143	562.5
328.372	493.5
328.6	461.5
328.829	429.5
329.058	428.5
329.287	450.5
329.515	432.5
329.744	392.5
329.972	376.5
330.201	409.5
330.43	460.5
330.658	465.5
330.887	484.5
331.115	465.5
331.344	394.5
331.572	399.5
331.801	382.5
332.03	384.5
332.258	377.5
332.486	368.5
332.715	340.5
332.943	335.5
333.172	353.5
333.4	332.5
333.629	357.5
333.857	369.5
334.085	372.5
334.314	380.5
334.542	424.5
334.771	408.5
334.999	383.5
335.227	373.5
335.455	352.5
335.684	345.5
335.912	348.5
336.14	349.5
336.369	346.5
336.597	329.5
336.825	334.5
337.053	345.5
337.281	337.5
337.51	327.5
337.738	342.5
337.966	339.5
338.194	342.5
338.422	340.5
338.65	341.5
338.878	350.5
339.106	338.5
339.334	314.5
339.562	323.5
339.79	308.5
340.018	338.5
340.246	306.5
340.474	330.5
340.702	319.5
340.93	330.5
341.158	317.5
341.386	316.5
341.614	340.5
341.842	332.5
342.07	330.5
342.298	340.5
342.526	319.5
342.754	308.5
342.981	318.5
343.209	324.5
343.437	314.5
343.665	302.5
343.893	329.5
344.12	329.5
344.348	315.5
344.576	333.5
344.804	341.5
345.031	343.5
345.259	344.5
345.487	340.5
345.714	337.5
345.942	322.5
346.17	317.5
346.397	309.5
346.625	318.5
346.853	319.5
347.08	316.5
347.308	312.5
347.535	330.5
347.763	340.5
347.99	341.5
348.218	320.5
348.445	332.5
348.673	349.5
348.9	328.5
349.128	322.5
349.355	303.5
349.583	319.5
349.81	301.5
350.037	300.5
350.265	305.5
350.492	322.5
350.72	308.5
350.947	344.5
351.174	329.5
351.402	320.5
351.629	313.5
351.856	350.5
352.083	338.5
352.311	325.5
352.538	324.5
352.765	325.5
352.992	305.5
353.22	323.5
353.447	330.5
353.674	317.5
353.901	299.5
354.128	310.5
354.355	295.5
354.583	324.5
354.81	305.5
355.037	304.5
355.264	309.5
355.491	293.5
355.718	298.5
355.945	283.5
356.172	296.5
356.399	277.5
356.626	306.5
356.853	309.5
357.08	290.5
357.307	298.5
357.534	309.5
357.761	302.5
357.988	317.5
358.215	311.5
358.441	326.5
358.668	307.5
358.895	320.5
359.122	315.5
359.349	307.5
359.576	326.5
359.802	343.5
360.029	349.5
360.256	389.5
360.483	334.5
360.709	340.5
360.936	333.5
361.163	319.5
361.39	320.5
361.616	311.5
361.843	326.5
362.07	331.5
362.296	327.5
362.523	314.5
362.749	327.5
362.976	306.5
363.203	305.5
363.429	297.5
363.656	334.5
363.882	299.5
364.109	294.5
364.335	303.5
364.562	306.5
364.788	315.5
365.015	314.5
365.241	313.5
365.468	309.5
365.694	311.5
365.92	310.5
366.147	311.5
366.373	316.5
366.599	312.5
366.826	303.5
367.052	292.5
367.278	314.5
367.505	316.5
367.731	302.5
367.957	300.5
368.184	316.5
368.41	297.5
368.636	324.5
368.862	322.5
369.089	313.5
369.315	310.5
369.541	299.5
369.767	297.5
369.993	304.5
370.219	315.5
370.445	299.5
370.672	304.5
370.898	306.5
371.124	303.5
371.35	309.5
371.576	306.5
371.802	302.5
372.028	316.5
372.254	298.5
372.48	304.5
372.706	298.5
372.932	293.5
373.158	297.5
373.384	309.5
373.61	310.5
373.835	316.5
374.061	320.5
374.287	318.5
374.513	305.5
374.739	321.5
374.965	299.5
375.191	291.5
375.416	309.5
375.642	291.5
375.868	311.5
376.094	305.5
376.319	301.5
376.545	316.5
376.771	299.5
376.997	294.5
377.222	300.5
377.448	296.5
377.674	288.5
377.899	302.5
378.125	290.5
378.35	297.5
378.576	302.5
378.802	289.5
379.027	303.5
379.253	314.5
379.478	284.5
379.704	308.5
379.929	320.5
380.155	305.5
380.38	309.5
380.606	317.5
380.831	305.5
381.057	300.5
381.282	278.5
381.507	298.5
381.733	329.5
381.958	300.5
382.184	314.5
382.409	320.5
382.634	324.5
382.86	323.5
383.085	309.5
383.31	339.5
383.535	313.5
383.761	313.5
383.986	312.5
384.211	317.5
384.436	322.5
384.662	311.5
384.887	329.5
385.112	307.5
385.337	326.5
385.562	331.5
385.787	332.5
386.013	349.5
386.238	338.5
386.463	322.5
386.688	334.5
386.913	321.5
387.138	324.5
387.363	334.5
387.588	316.5
387.813	324.5
388.038	322.5
388.263	341.5
388.488	330.5
388.713	335.5
388.938	353.5
389.163	344.5
389.387	338.5
389.612	325.5
389.837	326.5
390.062	328.5
390.287	324.5
390.512	320.5
390.736	317.5
390.961	318.5
391.186	324.5
391.411	315.5
391.636	323.5
391.86	339.5
392.085	346.5
392.31	336.5
392.534	341.5
392.759	323.5
392.984	332.5
393.208	322.5
393.433	331.5
393.658	349.5
393.882	334.5
394.107	328.5
394.331	341.5
394.556	340.5
394.78	331.5
395.005	334.5
395.229	330.5
395.454	331.5
395.678	328.5
395.903	366.5
396.127	364.5
396.352	353.5
396.576	368.5
396.801	350.5
397.025	349.5
397.249	339.5
397.474	370.5
397.698	373.5
397.922	356.5
398.147	367.5
398.371	368.5
398.595	385.5
398.82	345.5
399.044	367.5
399.268	376.5
399.492	411.5
399.717	441.5
399.941	425.5
400.165	449.5
400.389	459.5
400.613	402.5
400.837	398.5
401.062	385.5
401.286	372.5
401.51	384.5
401.734	388.5
401.958	381.5
402.182	371.5
402.406	398.5
402.63	395.5
402.854	390.5
403.078	387.5
403.302	397.5
403.526	382.5
403.75	373.5
403.974	374.5
404.198	387.5
404.422	382.5
404.645	392.5
404.869	410.5
405.093	421.5
405.317	445.5
405.541	478.5
405.765	438.5
405.988	426.5
406.212	416.5
406.436	422.5
406.66	429.5
406.883	414.5
407.107	432.5
407.331	476.5
407.555	501.5
407.778	503.5
408.002	470.5
408.226	435.5
408.449	420.5
408.673	423.5
408.896	451.5
409.12	491.5
409.344	441.5
409.567	403.5
409.791	406.5
410.014	379.5
410.238	386.5
410.461	406.5
410.685	407.5
410.908	403.5
411.132	435.5
411.355	433.5
411.578	430.5
411.802	437.5
412.025	396.5
412.249	418.5
412.472	412.5
412.695	442.5
412.919	436.5
413.142	416.5
413.365	398.5
413.589	397.5
413.812	395.5
414.035	378.5
414.258	365.5
414.482	372.5
414.705	384.5
414.928	382.5
415.151	368.5
415.374	390.5
415.597	368.5
415.821	352.5
416.044	363.5
416.267	365.5
416.49	380.5
416.713	374.5
416.936	369.5
417.159	355.5
417.382	388.5
417.605	390.5
417.828	381.5
418.051	395.5
418.274	384.5
418.497	376.5
418.72	388.5
418.943	369.5
419.166	382.5
419.389	395.5
419.611	388.5
419.834	380.5
420.057	380.5
420.28	379.5
420.503	392.5
420.726	399.5
420.948	405.5
421.171	417.5
421.394	445.5
421.617	410.5
421.839	404.5
422.062	392.5
422.285	419.5
422.507	440.5
422.73	498.5
422.953	482.5
423.175	434.5
423.398	421.5
423.621	404.5
423.843	404.5
424.066	419.5
424.288	392.5
424.511	418.5
424.733	466.5
424.956	513.5
425.178	509.5
425.401	521.5
425.623	509.5
425.846	442.5
426.068	412.5
426.291	421.5
426.513	424.5
426.735	428.5
426.958	462.5
427.18	507.5
427.402	617.5
427.625	675.5
427.847	591.5
428.069	512.5
428.292	459.5
428.514	419.5
428.736	422.5
428.958	425.5
429.181	410.5
429.403	390.5
429.625	391.5
429.847	429.5
430.069	477.5
430.292	475.5
430.514	412.5
430.736	409.5
430.958	408.5
431.18	372.5
431.402	387.5
431.624	366.5
431.846	367.5
432.068	373.5
432.29	368.5
432.512	373.5
432.734	364.5
432.956	365.5
433.178	365.5
433.4	397.5
433.622	396.5
433.844	371.5
434.066	389.5
434.287	378.5
434.509	374.5
434.731	384.5
434.953	378.5
435.175	374.5
435.397	408.5
435.618	414.5
435.84	451.5
436.062	514.5
436.284	551.5
436.505	489.5
436.727	453.5
436.949	410.5
437.17	419.5
437.392	402.5
437.614	431.5
437.835	413.5
438.057	524.5
438.278	581.5
438.5	582.5
438.721	608.5
438.943	593.5
439.165	484.5
439.386	441.5
439.608	432.5
439.829	440.5
440.05	458.5
440.272	477.5
440.493	444.5
440.715	434.5
440.936	416.5
441.158	406.5
441.379	402.5
441.6	417.5
441.822	408.5
442.043	463.5
442.264	501.5
442.486	563.5
442.707	476.5
442.928	466.5
443.149	442.5
443.371	462.5
443.592	485.5
443.813	559.5
444.034	574.5
444.255	497.5
444.476	441.5
444.698	427.5
444.919	415.5
445.14	529.5
445.361	490.5
445.582	451.5
445.803	529.5
446.024	595.5
446.245	622.5
446.466	544.5
446.687	458.5
446.908	452.5
447.129	408.5
447.35	396.5
447.571	413.5
447.792	405.5
448.013	404.5
448.234	419.5
448.455	442.5
448.675	547.5
448.896	605.5
449.117	539.5
449.338	493.5
449.559	585.5
449.779	645.5
450	518.5
450.221	436.5
450.442	404.5
450.662	413.5
450.883	381.5
451.104	405.5
451.324	394.5
451.545	366.5
451.766	377.5
451.986	371.5
452.207	361.5
452.428	351.5
452.648	352.5
452.869	365.5
453.089	351.5
453.31	388.5
453.53	372.5
453.751	365.5
453.971	380.5
454.192	368.5
454.412	366.5
454.633	363.5
454.853	339.5
455.073	384.5
455.294	389.5
455.514	434.5
455.734	427.5
455.955	357.5
456.175	326.5
456.395	347.5
456.616	348.5
456.836	340.5
457.056	342.5
457.276	333.5
457.497	357.5
457.717	349.5
457.937	358.5
458.157	355.5
458.377	363.5
458.598	357.5
458.818	399.5
459.038	483.5
459.258	485.5
459.478	428.5
459.698	415.5
459.918	389.5
460.138	365.5
460.358	374.5
460.578	364.5
460.798	356.5
461.018	385.5
461.238	354.5
461.458	362.5
461.678	382.5
461.898	383.5
462.118	363.5
462.338	365.5
462.558	385.5
462.777	408.5
462.997	377.5
463.217	398.5
463.437	404.5
463.657	394.5
463.876	402.5
464.096	382.5
464.316	420.5
464.536	417.5
464.755	418.5
464.975	407.5
465.195	459.5
465.414	504.5
465.634	430.5
465.854	423.5
466.073	412.5
466.293	389.5
466.512	375.5
466.732	370.5
466.951	362.5
467.171	358.5
467.391	370.5
467.61	391.5
467.829	387.5
468.049	407.5
468.268	372.5
468.488	373.5
468.707	358.5
468.927	352.5
469.146	354.5
469.365	353.5
469.585	372.5
469.804	380.5
470.023	378.5
470.243	380.5
470.462	380.5
470.681	390.5
470.901	386.5
471.12	372.5
471.339	376.5
471.558	364.5
471.777	374.5
471.997	392.5
472.216	386.5
472.435	414.5
472.654	404.5
472.873	364.5
473.092	361.5
473.311	385.5
473.53	388.5
473.749	386.5
473.968	437.5
474.187	485.5
474.406	491.5
474.625	424.5
474.844	382.5
475.063	370.5
475.282	389.5
475.501	385.5
475.72	385.5
475.939	381.5
476.158	380.5
476.377	404.5
476.596	395.5
476.814	378.5
477.033	396.5
477.252	408.5
477.471	386.5
477.69	394.5
477.908	416.5
478.127	400.5
478.346	406.5
478.564	418.5
478.783	395.5
479.002	415.5
479.22	418.5
479.439	440.5
479.658	451.5
479.876	434.5
480.095	428.5
480.313	467.5
480.532	448.5
480.751	454.5
480.969	464.5
481.188	525.5
481.406	562.5
481.624	492.5
481.843	450.5
482.061	447.5
482.28	434.5
482.498	439.5
482.717	430.5
482.935	445.5
483.153	444.5
483.372	435.5
483.59	435.5
483.808	436.5
484.027	427.5
484.245	420.5
484.463	453.5
484.681	438.5
484.9	449.5
485.118	465.5
485.336	460.5
485.554	456.5
485.772	451.5
485.99	457.5
486.209	452.5
486.427	450.5
486.645	461.5
486.863	467.5
487.081	486.5
487.299	459.5
487.517	470.5
487.735	464.5
487.953	458.5
488.171	455.5
488.389	462.5
488.607	476.5
488.825	476.5
489.043	459.5
489.261	468.5
489.479	454.5
489.696	480.5
489.914	473.5
490.132	477.5
490.35	502.5
490.568	500.5
490.786	509.5
491.003	496.5
491.221	502.5
491.439	534.5
491.657	525.5
491.874	546.5
492.092	517.5
492.31	541.5
492.527	550.5
492.745	518.5
492.963	551.5
493.18	530.5
493.398	548.5
493.615	545.5
493.833	534.5
494.05	532.5
494.268	533.5
494.485	533.5
494.703	528.5
494.92	565.5
495.138	554.5
495.355	572.5
495.573	542.5
495.79	564.5
496.008	554.5
496.225	552.5
496.442	523.5
496.66	536.5
496.877	555.5
497.094	557.5
497.312	586.5
497.529	570.5
497.746	576.5
497.963	579.5
498.181	596.5
498.398	595.5
498.615	596.5
498.832	632.5
499.049	610.5
499.267	616.5
499.484	622.5
499.701	659.5
499.918	672.5
500.135	672.5
500.352	705.5
500.569	700.5
500.786	701.5
501.003	699.5
501.22	694.5
501.437	701.5
501.654	672.5
501.871	694.5
502.088	653.5
502.305	634.5
502.522	605.5
502.739	624.5
502.956	608.5
503.172	610.5
503.389	583.5
503.606	578.5
503.823	582.5
504.04	597.5
504.256	566.5
504.473	578.5
504.69	542.5
504.907	555.5
505.123	548.5
505.34	535.5
505.557	529.5
505.773	540.5
505.99	537.5
506.207	496.5
506.423	534.5
506.64	525.5
506.856	501.5
507.073	506.5
507.289	528.5
507.506	533.5
507.722	538.5
507.939	534.5
508.155	525.5
508.372	520.5
508.588	493.5
508.805	485.5
509.021	499.5
509.238	504.5
509.454	534.5
509.67	508.5
509.887	507.5
510.103	520.5
510.319	551.5
510.536	592.5
510.752	998.5
510.968	808.5
511.184	553.5
511.401	518.5
511.617	512.5
511.833	504.5
512.049	488.5
512.265	492.5
512.481	491.5
512.698	496.5
512.914	464.5
513.13	484.5
513.346	499.5
513.562	490.5
513.778	505.5
513.994	496.5
514.21	508.5
514.426	536.5
514.642	562.5
514.858	564.5
515.074	612.5
515.29	731.5
515.506	1060.5
515.721	892.5
515.937	614.5
516.153	557.5
516.369	531.5
516.585	520.5
516.801	524.5
517.016	504.5
517.232	500.5
517.448	492.5
517.664	494.5
517.879	525.5
518.095	509.5
518.311	491.5
518.527	498.5
518.742	478.5
518.958	495.5
519.173	510.5
519.389	490.5
519.605	483.5
519.82	484.5
