Data from 1961.PennyLincolnUp.Lamp.En5.5.200Scan.071719.P1._HRD10591_13-46-10-057.txt Node
Date: Thu Jul 18 13:46:10 EDT 2019
User: cochatt
Spectrometer: HR+D1059
Trigger mode: 1
Integration Time (sec): 1.000000E-1
Scans to average: 1
Electric dark correction enabled: true
Nonlinearity correction enabled: false
Boxcar width: 0
XAxis mode: Wavelengths
Number of Pixels in Spectrum: 2048
>>>>>Begin Spectral Data<<<<<
223.165	-12.88
223.4	-12.88
223.635	-12.88
223.869	-4.88
224.104	-25.88
224.338	-12.88
224.573	-26.88
224.808	-6.88
225.042	-4.88
225.277	-10.88
225.511	-9.88
225.746	7.12
225.98	4.12
226.215	16.12
226.449	14.12
226.683	17.12
226.918	21.12
227.152	36.12
227.387	40.12
227.621	39.12
227.856	46.12
228.09	37.12
228.324	35.12
228.559	41.12
228.793	66.12
229.027	71.12
229.262	81.12
229.496	98.12
229.73	101.12
229.964	109.12
230.199	106.12
230.433	88.12
230.667	87.12
230.901	81.12
231.136	115.12
231.37	91.12
231.604	87.12
231.838	100.12
232.072	105.12
232.306	97.12
232.541	103.12
232.775	90.12
233.009	90.12
233.243	95.12
233.477	92.12
233.711	100.12
233.945	97.12
234.179	98.12
234.413	101.12
234.647	101.12
234.881	97.12
235.115	103.12
235.349	98.12
235.583	100.12
235.817	98.12
236.051	109.12
236.285	111.12
236.519	93.12
236.753	102.12
236.987	123.12
237.221	120.12
237.455	161.12
237.689	151.12
237.922	117.12
238.156	96.12
238.39	109.12
238.624	102.12
238.858	99.12
239.091	97.12
239.325	109.12
239.559	100.12
239.793	97.12
240.027	117.12
240.26	101.12
240.494	114.12
240.728	105.12
240.961	115.12
241.195	113.12
241.429	111.12
241.662	109.12
241.896	103.12
242.13	106.12
242.363	104.12
242.597	88.12
242.83	107.12
243.064	109.12
243.298	105.12
243.531	106.12
243.765	111.12
243.998	106.12
244.232	115.12
244.465	105.12
244.699	109.12
244.932	112.12
245.166	113.12
245.399	118.12
245.633	119.12
245.866	114.12
246.099	117.12
246.333	118.12
246.566	129.12
246.8	117.12
247.033	125.12
247.266	117.12
247.5	114.12
247.733	133.12
247.966	122.12
248.2	129.12
248.433	118.12
248.666	109.12
248.899	129.12
249.133	119.12
249.366	147.12
249.599	142.12
249.832	139.12
250.066	136.12
250.299	132.12
250.532	134.12
250.765	144.12
250.998	155.12
251.231	157.12
251.465	145.12
251.698	141.12
251.931	146.12
252.164	144.12
252.397	137.12
252.63	140.12
252.863	145.12
253.096	140.12
253.329	167.12
253.562	150.12
253.795	156.12
254.028	152.12
254.261	147.12
254.494	152.12
254.727	154.12
254.96	174.12
255.193	190.12
255.426	181.12
255.659	161.12
255.892	161.12
256.124	165.12
256.357	148.12
256.59	158.12
256.823	148.12
257.056	167.12
257.289	155.12
257.521	136.12
257.754	139.12
257.987	151.12
258.22	152.12
258.452	135.12
258.685	159.12
258.918	158.12
259.151	153.12
259.383	149.12
259.616	139.12
259.849	157.12
260.081	172.12
260.314	160.12
260.547	155.12
260.779	168.12
261.012	157.12
261.244	161.12
261.477	147.12
261.71	150.12
261.942	155.12
262.175	150.12
262.407	175.12
262.64	146.12
262.872	150.12
263.105	156.12
263.337	158.12
263.57	137.12
263.802	157.12
264.035	145.12
264.267	147.12
264.499	139.12
264.732	151.12
264.964	163.12
265.197	167.12
265.429	151.12
265.661	145.12
265.894	138.12
266.126	147.12
266.358	157.12
266.591	150.12
266.823	153.12
267.055	163.12
267.287	166.12
267.52	150.12
267.752	152.12
267.984	163.12
268.216	165.12
268.448	140.12
268.681	158.12
268.913	170.12
269.145	161.12
269.377	193.12
269.609	187.12
269.841	175.12
270.073	177.12
270.306	177.12
270.538	195.12
270.77	201.12
271.002	207.12
271.234	194.12
271.466	185.12
271.698	182.12
271.93	205.12
272.162	183.12
272.394	188.12
272.626	182.12
272.858	169.12
273.09	188.12
273.322	187.12
273.553	173.12
273.785	179.12
274.017	177.12
274.249	173.12
274.481	171.12
274.713	189.12
274.945	175.12
275.176	186.12
275.408	167.12
275.64	202.12
275.872	193.12
276.104	197.12
276.335	184.12
276.567	180.12
276.799	174.12
277.031	193.12
277.262	191.12
277.494	195.12
277.726	206.12
277.957	183.12
278.189	163.12
278.421	169.12
278.652	165.12
278.884	168.12
279.115	182.12
279.347	189.12
279.579	176.12
279.81	190.12
280.042	192.12
280.273	178.12
280.505	165.12
280.736	178.12
280.968	179.12
281.199	178.12
281.431	179.12
281.662	173.12
281.894	189.12
282.125	171.12
282.356	195.12
282.588	198.12
282.819	194.12
283.051	188.12
283.282	198.12
283.513	178.12
283.745	173.12
283.976	185.12
284.207	186.12
284.439	193.12
284.67	168.12
284.901	173.12
285.132	191.12
285.364	181.12
285.595	205.12
285.826	190.12
286.057	192.12
286.288	179.12
286.52	206.12
286.751	185.12
286.982	180.12
287.213	191.12
287.444	194.12
287.675	186.12
287.906	191.12
288.138	203.12
288.369	199.12
288.6	211.12
288.831	186.12
289.062	199.12
289.293	185.12
289.524	194.12
289.755	187.12
289.986	186.12
290.217	189.12
290.448	199.12
290.679	189.12
290.91	185.12
291.141	203.12
291.371	202.12
291.602	198.12
291.833	198.12
292.064	191.12
292.295	193.12
292.526	192.12
292.757	198.12
292.987	182.12
293.218	203.12
293.449	185.12
293.68	189.12
293.91	187.12
294.141	187.12
294.372	193.12
294.603	203.12
294.833	211.12
295.064	198.12
295.295	187.12
295.525	182.12
295.756	206.12
295.987	191.12
296.217	194.12
296.448	209.12
296.679	184.12
296.909	186.12
297.14	192.12
297.37	211.12
297.601	193.12
297.831	201.12
298.062	192.12
298.292	203.12
298.523	213.12
298.753	202.12
298.984	204.12
299.214	211.12
299.445	194.12
299.675	202.12
299.905	210.12
300.136	206.12
300.366	214.12
300.597	205.12
300.827	202.12
301.057	201.12
301.288	203.12
301.518	199.12
301.748	216.12
301.979	199.12
302.209	217.12
302.439	215.12
302.669	205.12
302.9	208.12
303.13	221.12
303.36	218.12
303.59	216.12
303.82	203.12
304.051	216.12
304.281	216.12
304.511	209.12
304.741	211.12
304.971	226.12
305.201	220.12
305.431	210.12
305.661	206.12
305.891	195.12
306.121	203.12
306.352	211.12
306.582	221.12
306.812	210.12
307.042	221.12
307.272	211.12
307.502	209.12
307.731	209.12
307.961	207.12
308.191	216.12
308.421	217.12
308.651	225.12
308.881	215.12
309.111	215.12
309.341	200.12
309.571	226.12
309.8	230.12
310.03	249.12
310.26	218.12
310.49	221.12
310.72	231.12
310.949	244.12
311.179	240.12
311.409	228.12
311.639	234.12
311.868	244.12
312.098	234.12
312.328	239.12
312.557	254.12
312.787	248.12
313.017	241.12
313.246	242.12
313.476	241.12
313.706	225.12
313.935	245.12
314.165	242.12
314.394	262.12
314.624	237.12
314.853	249.12
315.083	256.12
315.312	224.12
315.542	239.12
315.771	238.12
316.001	241.12
316.23	243.12
316.46	254.12
316.689	256.12
316.919	241.12
317.148	245.12
317.377	239.12
317.607	250.12
317.836	249.12
318.065	248.12
318.295	242.12
318.524	247.12
318.753	237.12
318.983	233.12
319.212	244.12
319.441	255.12
319.67	238.12
319.9	244.12
320.129	261.12
320.358	247.12
320.587	240.12
320.816	237.12
321.046	267.12
321.275	269.12
321.504	239.12
321.733	256.12
321.962	255.12
322.191	263.12
322.42	268.12
322.649	275.12
322.878	262.12
323.108	261.12
323.337	292.12
323.566	282.12
323.795	311.12
324.024	337.12
324.253	407.12
324.482	552.12
324.71	857.12
324.939	1145.12
325.168	965.12
325.397	510.12
325.626	369.12
325.855	338.12
326.084	307.12
326.313	295.12
326.542	297.12
326.77	325.12
326.999	361.12
327.228	491.12
327.457	763.12
327.686	857.12
327.914	602.12
328.143	415.12
328.372	365.12
328.6	343.12
328.829	317.12
329.058	320.12
329.287	337.12
329.515	316.12
329.744	307.12
329.972	324.12
330.201	317.12
330.43	322.12
330.658	349.12
330.887	346.12
331.115	331.12
331.344	310.12
331.572	309.12
331.801	285.12
332.03	297.12
332.258	275.12
332.486	291.12
332.715	280.12
332.943	283.12
333.172	288.12
333.4	302.12
333.629	309.12
333.857	297.12
334.085	296.12
334.314	311.12
334.542	339.12
334.771	317.12
334.999	309.12
335.227	290.12
335.455	279.12
335.684	307.12
335.912	286.12
336.14	290.12
336.369	256.12
336.597	274.12
336.825	296.12
337.053	289.12
337.281	287.12
337.51	270.12
337.738	287.12
337.966	288.12
338.194	298.12
338.422	277.12
338.65	275.12
338.878	267.12
339.106	262.12
339.334	281.12
339.562	283.12
339.79	257.12
340.018	282.12
340.246	267.12
340.474	271.12
340.702	293.12
340.93	283.12
341.158	273.12
341.386	273.12
341.614	278.12
341.842	266.12
342.07	266.12
342.298	257.12
342.526	270.12
342.754	263.12
342.981	266.12
343.209	256.12
343.437	277.12
343.665	266.12
343.893	281.12
344.12	288.12
344.348	284.12
344.576	269.12
344.804	286.12
345.031	273.12
345.259	297.12
345.487	287.12
345.714	284.12
345.942	277.12
346.17	286.12
346.397	269.12
346.625	281.12
346.853	285.12
347.08	286.12
347.308	273.12
347.535	270.12
347.763	283.12
347.99	270.12
348.218	283.12
348.445	273.12
348.673	273.12
348.9	277.12
349.128	272.12
349.355	263.12
349.583	264.12
349.81	260.12
350.037	273.12
350.265	273.12
350.492	257.12
350.72	249.12
350.947	285.12
351.174	274.12
351.402	275.12
351.629	264.12
351.856	277.12
352.083	275.12
352.311	275.12
352.538	270.12
352.765	260.12
352.992	264.12
353.22	256.12
353.447	277.12
353.674	277.12
353.901	275.12
354.128	257.12
354.355	246.12
354.583	241.12
354.81	273.12
355.037	272.12
355.264	264.12
355.491	265.12
355.718	250.12
355.945	263.12
356.172	250.12
356.399	247.12
356.626	250.12
356.853	271.12
357.08	261.12
357.307	262.12
357.534	270.12
357.761	253.12
357.988	269.12
358.215	257.12
358.441	253.12
358.668	259.12
358.895	271.12
359.122	264.12
359.349	266.12
359.576	270.12
359.802	290.12
360.029	294.12
360.256	291.12
360.483	304.12
360.709	274.12
360.936	274.12
361.163	270.12
361.39	273.12
361.616	275.12
361.843	248.12
362.07	265.12
362.296	276.12
362.523	270.12
362.749	274.12
362.976	272.12
363.203	265.12
363.429	281.12
363.656	269.12
363.882	259.12
364.109	267.12
364.335	278.12
364.562	257.12
364.788	279.12
365.015	278.12
365.241	259.12
365.468	262.12
365.694	269.12
365.92	261.12
366.147	248.12
366.373	279.12
366.599	265.12
366.826	264.12
367.052	267.12
367.278	266.12
367.505	270.12
367.731	274.12
367.957	279.12
368.184	254.12
368.41	264.12
368.636	275.12
368.862	257.12
369.089	266.12
369.315	262.12
369.541	282.12
369.767	266.12
369.993	258.12
370.219	285.12
370.445	257.12
370.672	275.12
370.898	255.12
371.124	266.12
371.35	287.12
371.576	264.12
371.802	260.12
372.028	264.12
372.254	278.12
372.48	260.12
372.706	273.12
372.932	283.12
373.158	282.12
373.384	277.12
373.61	275.12
373.835	271.12
374.061	275.12
374.287	278.12
374.513	268.12
374.739	271.12
374.965	274.12
375.191	277.12
375.416	267.12
375.642	270.12
375.868	261.12
376.094	283.12
376.319	284.12
376.545	294.12
376.771	260.12
376.997	294.12
377.222	267.12
377.448	273.12
377.674	273.12
377.899	276.12
378.125	261.12
378.35	249.12
378.576	265.12
378.802	284.12
379.027	304.12
379.253	285.12
379.478	271.12
379.704	260.12
379.929	274.12
380.155	281.12
380.38	291.12
380.606	275.12
380.831	270.12
381.057	285.12
381.282	275.12
381.507	282.12
381.733	276.12
381.958	280.12
382.184	293.12
382.409	288.12
382.634	278.12
382.86	271.12
383.085	291.12
383.31	281.12
383.535	298.12
383.761	301.12
383.986	301.12
384.211	298.12
384.436	297.12
384.662	297.12
384.887	289.12
385.112	281.12
385.337	302.12
385.562	303.12
385.787	306.12
386.013	306.12
386.238	306.12
386.463	299.12
386.688	307.12
386.913	301.12
387.138	307.12
387.363	318.12
387.588	303.12
387.813	303.12
388.038	297.12
388.263	285.12
388.488	292.12
388.713	299.12
388.938	301.12
389.163	304.12
389.387	291.12
389.612	290.12
389.837	279.12
390.062	307.12
390.287	297.12
390.512	285.12
390.736	296.12
390.961	301.12
391.186	298.12
391.411	302.12
391.636	311.12
391.86	308.12
392.085	316.12
392.31	298.12
392.534	287.12
392.759	313.12
392.984	305.12
393.208	301.12
393.433	344.12
393.658	323.12
393.882	297.12
394.107	303.12
394.331	303.12
394.556	298.12
394.78	291.12
395.005	313.12
395.229	294.12
395.454	303.12
395.678	314.12
395.903	325.12
396.127	324.12
396.352	327.12
396.576	325.12
396.801	322.12
397.025	335.12
397.249	321.12
397.474	311.12
397.698	307.12
397.922	309.12
398.147	343.12
398.371	312.12
398.595	326.12
398.82	341.12
399.044	324.12
399.268	331.12
399.492	351.12
399.717	368.12
399.941	361.12
400.165	401.12
400.389	389.12
400.613	394.12
400.837	356.12
401.062	352.12
401.286	325.12
401.51	338.12
401.734	341.12
401.958	331.12
402.182	338.12
402.406	333.12
402.63	352.12
402.854	322.12
403.078	328.12
403.302	330.12
403.526	331.12
403.75	338.12
403.974	362.12
404.198	345.12
404.422	353.12
404.645	350.12
404.869	341.12
405.093	356.12
405.317	391.12
405.541	401.12
405.765	376.12
405.988	380.12
406.212	385.12
406.436	376.12
406.66	383.12
406.883	386.12
407.107	375.12
407.331	401.12
407.555	465.12
407.778	463.12
408.002	413.12
408.226	379.12
408.449	388.12
408.673	390.12
408.896	381.12
409.12	429.12
409.344	399.12
409.567	385.12
409.791	342.12
410.014	353.12
410.238	337.12
410.461	341.12
410.685	359.12
410.908	369.12
411.132	376.12
411.355	409.12
411.578	391.12
411.802	355.12
412.025	356.12
412.249	323.12
412.472	374.12
412.695	379.12
412.919	401.12
413.142	350.12
413.365	343.12
413.589	346.12
413.812	344.12
414.035	352.12
414.258	328.12
414.482	322.12
414.705	350.12
414.928	327.12
415.151	333.12
415.374	309.12
415.597	328.12
415.821	330.12
416.044	339.12
416.267	323.12
416.49	329.12
416.713	338.12
416.936	351.12
417.159	335.12
417.382	341.12
417.605	320.12
417.828	337.12
418.051	354.12
418.274	327.12
418.497	347.12
418.72	324.12
418.943	317.12
419.166	347.12
419.389	360.12
419.611	360.12
419.834	374.12
420.057	329.12
420.28	352.12
420.503	346.12
420.726	322.12
420.948	373.12
421.171	373.12
421.394	409.12
421.617	362.12
421.839	353.12
422.062	359.12
422.285	349.12
422.507	372.12
422.73	414.12
422.953	415.12
423.175	358.12
423.398	350.12
423.621	338.12
423.843	360.12
424.066	364.12
424.288	357.12
424.511	353.12
424.733	415.12
424.956	459.12
425.178	432.12
425.401	435.12
425.623	458.12
425.846	393.12
426.068	370.12
426.291	373.12
426.513	363.12
426.735	367.12
426.958	406.12
427.18	426.12
427.402	514.12
427.625	569.12
427.847	508.12
428.069	443.12
428.292	385.12
428.514	369.12
428.736	346.12
428.958	339.12
429.181	342.12
429.403	358.12
429.625	340.12
429.847	374.12
430.069	395.12
430.292	411.12
430.514	345.12
430.736	345.12
430.958	341.12
431.18	335.12
431.402	338.12
431.624	335.12
431.846	327.12
432.068	317.12
432.29	332.12
432.512	328.12
432.734	343.12
432.956	329.12
433.178	333.12
433.4	344.12
433.622	331.12
433.844	338.12
434.066	327.12
434.287	335.12
434.509	327.12
434.731	322.12
434.953	348.12
435.175	345.12
435.397	370.12
435.618	369.12
435.84	389.12
436.062	443.12
436.284	484.12
436.505	411.12
436.727	385.12
436.949	367.12
437.17	337.12
437.392	343.12
437.614	375.12
437.835	391.12
438.057	413.12
438.278	475.12
438.5	503.12
438.721	533.12
438.943	509.12
439.165	415.12
439.386	376.12
439.608	381.12
439.829	382.12
440.05	383.12
440.272	424.12
440.493	383.12
440.715	365.12
440.936	358.12
441.158	342.12
441.379	358.12
441.6	351.12
441.822	375.12
442.043	393.12
442.264	458.12
442.486	437.12
442.707	403.12
442.928	382.12
443.149	379.12
443.371	405.12
443.592	414.12
443.813	478.12
444.034	526.12
444.255	437.12
444.476	375.12
444.698	374.12
444.919	393.12
445.14	481.12
445.361	439.12
445.582	404.12
445.803	440.12
446.024	479.12
446.245	501.12
446.466	457.12
446.687	387.12
446.908	385.12
447.129	357.12
447.35	357.12
447.571	329.12
447.792	328.12
448.013	340.12
448.234	367.12
448.455	405.12
448.675	471.12
448.896	544.12
449.117	452.12
449.338	447.12
449.559	493.12
449.779	551.12
450	433.12
450.221	366.12
450.442	356.12
450.662	350.12
450.883	329.12
451.104	336.12
451.324	306.12
451.545	319.12
451.766	307.12
451.986	311.12
452.207	305.12
452.428	310.12
452.648	311.12
452.869	314.12
453.089	323.12
453.31	323.12
453.53	314.12
453.751	306.12
453.971	322.12
454.192	327.12
454.412	314.12
454.633	308.12
454.853	323.12
455.073	311.12
455.294	332.12
455.514	356.12
455.734	346.12
455.955	304.12
456.175	303.12
456.395	305.12
456.616	300.12
456.836	308.12
457.056	327.12
457.276	299.12
457.497	299.12
457.717	304.12
457.937	309.12
458.157	326.12
458.377	327.12
458.598	328.12
458.818	352.12
459.038	373.12
459.258	375.12
459.478	371.12
459.698	338.12
459.918	340.12
460.138	325.12
460.358	327.12
460.578	326.12
460.798	333.12
461.018	343.12
461.238	338.12
461.458	333.12
461.678	333.12
461.898	330.12
462.118	351.12
462.338	367.12
462.558	343.12
462.777	345.12
462.997	369.12
463.217	366.12
463.437	355.12
463.657	353.12
463.876	358.12
464.096	369.12
464.316	356.12
464.536	369.12
464.755	370.12
464.975	360.12
465.195	369.12
465.414	382.12
465.634	361.12
465.854	358.12
466.073	340.12
466.293	344.12
466.512	320.12
466.732	326.12
466.951	314.12
467.171	337.12
467.391	335.12
467.61	354.12
467.829	336.12
468.049	321.12
468.268	315.12
468.488	327.12
468.707	317.12
468.927	310.12
469.146	320.12
469.365	346.12
469.585	319.12
469.804	336.12
470.023	344.12
470.243	325.12
470.462	329.12
470.681	334.12
470.901	326.12
471.12	329.12
471.339	321.12
471.558	329.12
471.777	335.12
471.997	344.12
472.216	345.12
472.435	354.12
472.654	340.12
472.873	325.12
473.092	317.12
473.311	323.12
473.53	332.12
473.749	354.12
473.968	365.12
474.187	403.12
474.406	418.12
474.625	361.12
474.844	338.12
475.063	331.12
475.282	353.12
475.501	341.12
475.72	341.12
475.939	354.12
476.158	353.12
476.377	352.12
476.596	340.12
476.814	341.12
477.033	323.12
477.252	336.12
477.471	356.12
477.69	357.12
477.908	366.12
478.127	365.12
478.346	353.12
478.564	367.12
478.783	360.12
479.002	381.12
479.22	379.12
479.439	389.12
479.658	376.12
479.876	393.12
480.095	396.12
480.313	418.12
480.532	399.12
480.751	399.12
480.969	403.12
481.188	429.12
481.406	433.12
481.624	393.12
481.843	397.12
482.061	391.12
482.28	406.12
482.498	390.12
482.717	393.12
482.935	387.12
483.153	396.12
483.372	401.12
483.59	413.12
483.808	397.12
484.027	386.12
484.245	401.12
484.463	376.12
484.681	393.12
484.9	406.12
485.118	386.12
485.336	416.12
485.554	405.12
485.772	415.12
485.99	408.12
486.209	388.12
486.427	401.12
486.645	398.12
486.863	430.12
487.081	414.12
487.299	413.12
487.517	414.12
487.735	408.12
487.953	411.12
488.171	419.12
488.389	412.12
488.607	426.12
488.825	429.12
489.043	419.12
489.261	418.12
489.479	427.12
489.696	432.12
489.914	415.12
490.132	432.12
490.35	419.12
490.568	423.12
490.786	437.12
491.003	446.12
491.221	441.12
491.439	460.12
491.657	449.12
491.874	475.12
492.092	463.12
492.31	465.12
492.527	473.12
492.745	476.12
492.963	459.12
493.18	449.12
493.398	466.12
493.615	463.12
493.833	464.12
494.05	482.12
494.268	482.12
494.485	469.12
494.703	482.12
494.92	474.12
495.138	477.12
495.355	472.12
495.573	489.12
495.79	500.12
496.008	515.12
496.225	475.12
496.442	498.12
496.66	482.12
496.877	477.12
497.094	494.12
497.312	499.12
497.529	495.12
497.746	518.12
497.963	528.12
498.181	543.12
498.398	544.12
498.615	560.12
498.832	555.12
499.049	541.12
499.267	568.12
499.484	567.12
499.701	600.12
499.918	606.12
500.135	629.12
500.352	643.12
500.569	640.12
500.786	647.12
501.003	654.12
501.22	606.12
501.437	604.12
501.654	629.12
501.871	587.12
502.088	577.12
502.305	569.12
