Data from 1961.PennyLincolnUp.Lamp.En5.5.200Scan.071719.P1._HRD10591_13-47-41-058.txt Node
Date: Thu Jul 18 13:47:41 EDT 2019
User: cochatt
Spectrometer: HR+D1059
Trigger mode: 1
Integration Time (sec): 1.000000E-1
Scans to average: 1
Electric dark correction enabled: true
Nonlinearity correction enabled: false
Boxcar width: 0
XAxis mode: Wavelengths
Number of Pixels in Spectrum: 2048
>>>>>Begin Spectral Data<<<<<
223.165	-10.69
223.4	-10.69
223.635	-10.69
223.869	-20.69
224.104	-27.69
224.338	-14.69
224.573	-15.69
224.808	6.31
225.042	-7.69
225.277	2.31
225.511	-17.69
225.746	0.31
225.98	12.31
226.215	13.31
226.449	26.31
226.683	6.31
226.918	16.31
227.152	31.31
227.387	35.31
227.621	54.31
227.856	52.31
228.09	40.31
228.324	59.31
228.559	56.31
228.793	73.31
229.027	89.31
229.262	107.31
229.496	115.31
229.73	144.31
229.964	144.31
230.199	136.31
230.433	104.31
230.667	116.31
230.901	109.31
231.136	95.31
231.37	96.31
231.604	104.31
231.838	89.31
232.072	124.31
232.306	109.31
232.541	102.31
232.775	118.31
233.009	86.31
233.243	112.31
233.477	110.31
233.711	122.31
233.945	112.31
234.179	92.31
234.413	117.31
234.647	110.31
234.881	110.31
235.115	115.31
235.349	127.31
235.583	120.31
235.817	101.31
236.051	113.31
236.285	122.31
236.519	121.31
236.753	108.31
236.987	140.31
237.221	173.31
237.455	208.31
237.689	173.31
237.922	138.31
238.156	119.31
238.39	126.31
238.624	123.31
238.858	114.31
239.091	116.31
239.325	109.31
239.559	109.31
239.793	116.31
240.027	129.31
240.26	134.31
240.494	141.31
240.728	148.31
240.961	154.31
241.195	134.31
241.429	114.31
241.662	130.31
241.896	130.31
242.13	137.31
242.363	125.31
242.597	115.31
242.83	118.31
243.064	118.31
243.298	120.31
243.531	127.31
243.765	121.31
243.998	128.31
244.232	124.31
244.465	114.31
244.699	138.31
244.932	125.31
245.166	114.31
245.399	136.31
245.633	137.31
245.866	124.31
246.099	139.31
246.333	132.31
246.566	135.31
246.8	143.31
247.033	137.31
247.266	140.31
247.5	142.31
247.733	137.31
247.966	165.31
248.2	134.31
248.433	160.31
248.666	148.31
248.899	165.31
249.133	166.31
249.366	189.31
249.599	175.31
249.832	171.31
250.066	153.31
250.299	160.31
250.532	167.31
250.765	176.31
250.998	184.31
251.231	199.31
251.465	206.31
251.698	199.31
251.931	186.31
252.164	168.31
252.397	173.31
252.63	177.31
252.863	184.31
253.096	164.31
253.329	178.31
253.562	190.31
253.795	164.31
254.028	178.31
254.261	172.31
254.494	190.31
254.727	205.31
254.96	234.31
255.193	230.31
255.426	218.31
255.659	200.31
255.892	194.31
256.124	202.31
256.357	194.31
256.59	202.31
256.823	193.31
257.056	188.31
257.289	183.31
257.521	183.31
257.754	185.31
257.987	167.31
258.22	192.31
258.452	189.31
258.685	177.31
258.918	182.31
259.151	165.31
259.383	178.31
259.616	178.31
259.849	196.31
260.081	202.31
260.314	207.31
260.547	204.31
260.779	223.31
261.012	200.31
261.244	188.31
261.477	203.31
261.71	173.31
261.942	189.31
262.175	207.31
262.407	212.31
262.64	191.31
262.872	192.31
263.105	185.31
263.337	179.31
263.57	179.31
263.802	205.31
264.035	178.31
264.267	182.31
264.499	176.31
264.732	174.31
264.964	180.31
265.197	160.31
265.429	179.31
265.661	194.31
265.894	175.31
266.126	185.31
266.358	194.31
266.591	178.31
266.823	183.31
267.055	190.31
267.287	172.31
267.52	195.31
267.752	188.31
267.984	174.31
268.216	197.31
268.448	206.31
268.681	195.31
268.913	209.31
269.145	214.31
269.377	210.31
269.609	225.31
269.841	235.31
270.073	225.31
270.306	240.31
270.538	238.31
270.77	247.31
271.002	270.31
271.234	251.31
271.466	261.31
271.698	285.31
271.93	285.31
272.162	268.31
272.394	245.31
272.626	252.31
272.858	243.31
273.09	247.31
273.322	233.31
273.553	223.31
273.785	208.31
274.017	202.31
274.249	224.31
274.481	221.31
274.713	214.31
274.945	214.31
275.176	218.31
275.408	212.31
275.64	222.31
275.872	220.31
276.104	223.31
276.335	214.31
276.567	243.31
276.799	258.31
277.031	251.31
277.262	256.31
277.494	268.31
277.726	250.31
277.957	244.31
278.189	223.31
278.421	226.31
278.652	232.31
278.884	219.31
279.115	207.31
279.347	215.31
279.579	215.31
279.81	222.31
280.042	220.31
280.273	215.31
280.505	229.31
280.736	222.31
280.968	206.31
281.199	200.31
281.431	215.31
281.662	228.31
281.894	212.31
282.125	227.31
282.356	233.31
282.588	231.31
282.819	246.31
283.051	229.31
283.282	222.31
283.513	219.31
283.745	224.31
283.976	228.31
284.207	232.31
284.439	233.31
284.67	221.31
284.901	220.31
285.132	219.31
285.364	215.31
285.595	230.31
285.826	217.31
286.057	226.31
286.288	231.31
286.52	227.31
286.751	218.31
286.982	233.31
287.213	215.31
287.444	234.31
287.675	235.31
287.906	240.31
288.138	237.31
288.369	238.31
288.6	242.31
288.831	236.31
289.062	254.31
289.293	239.31
289.524	222.31
289.755	237.31
289.986	238.31
290.217	230.31
290.448	212.31
290.679	231.31
290.91	247.31
291.141	244.31
291.371	230.31
291.602	215.31
291.833	232.31
292.064	219.31
292.295	216.31
292.526	248.31
292.757	225.31
292.987	232.31
293.218	242.31
293.449	236.31
293.68	228.31
293.91	233.31
294.141	233.31
294.372	236.31
294.603	247.31
294.833	242.31
295.064	233.31
295.295	233.31
295.525	239.31
295.756	224.31
295.987	252.31
296.217	271.31
296.448	263.31
296.679	252.31
296.909	231.31
297.14	224.31
297.37	247.31
297.601	241.31
297.831	229.31
298.062	249.31
298.292	250.31
298.523	232.31
298.753	242.31
298.984	238.31
299.214	242.31
299.445	257.31
299.675	255.31
299.905	247.31
300.136	247.31
300.366	240.31
300.597	232.31
300.827	242.31
301.057	250.31
301.288	251.31
301.518	254.31
301.748	235.31
301.979	272.31
302.209	271.31
302.439	262.31
302.669	271.31
302.9	263.31
303.13	240.31
303.36	264.31
303.59	252.31
303.82	272.31
304.051	286.31
304.281	271.31
304.511	258.31
304.741	273.31
304.971	262.31
305.201	271.31
305.431	271.31
305.661	248.31
305.891	273.31
306.121	258.31
306.352	254.31
306.582	275.31
306.812	251.31
307.042	277.31
307.272	255.31
307.502	276.31
307.731	261.31
307.961	263.31
308.191	270.31
308.421	271.31
308.651	269.31
308.881	280.31
309.111	282.31
309.341	287.31
309.571	288.31
309.8	290.31
310.03	301.31
310.26	311.31
310.49	308.31
310.72	322.31
310.949	330.31
311.179	326.31
311.409	286.31
311.639	308.31
311.868	312.31
312.098	302.31
312.328	311.31
312.557	335.31
312.787	347.31
313.017	324.31
313.246	317.31
313.476	334.31
313.706	319.31
313.935	325.31
314.165	323.31
314.394	326.31
314.624	326.31
314.853	325.31
315.083	324.31
315.312	295.31
315.542	304.31
315.771	284.31
316.001	292.31
316.23	317.31
316.46	291.31
316.689	312.31
316.919	321.31
317.148	318.31
317.377	330.31
317.607	301.31
317.836	312.31
318.065	311.31
318.295	298.31
318.524	312.31
318.753	303.31
318.983	319.31
319.212	320.31
319.441	311.31
319.67	326.31
319.9	328.31
320.129	316.31
320.358	321.31
320.587	336.31
320.816	328.31
321.046	314.31
321.275	336.31
321.504	319.31
321.733	325.31
321.962	347.31
322.191	344.31
322.42	357.31
322.649	376.31
322.878	395.31
323.108	419.31
323.337	415.31
323.566	456.31
323.795	474.31
324.024	527.31
324.253	657.31
324.482	954.31
324.71	1490.31
324.939	2093.31
325.168	1788.31
325.397	893.31
325.626	609.31
325.855	496.31
326.084	489.31
326.313	436.31
326.542	462.31
326.77	494.31
326.999	609.31
327.228	863.31
327.457	1294.31
327.686	1536.31
327.914	1014.31
328.143	692.31
328.372	580.31
328.6	545.31
328.829	492.31
329.058	537.31
329.287	520.31
329.515	479.31
329.744	442.31
329.972	477.31
330.201	470.31
330.43	514.31
330.658	539.31
330.887	554.31
331.115	547.31
331.344	456.31
331.572	433.31
331.801	423.31
332.03	445.31
332.258	412.31
332.486	385.31
332.715	378.31
332.943	376.31
333.172	372.31
333.4	379.31
333.629	388.31
333.857	388.31
334.085	409.31
334.314	422.31
334.542	477.31
334.771	479.31
334.999	439.31
335.227	395.31
335.455	364.31
335.684	373.31
335.912	380.31
336.14	369.31
336.369	339.31
336.597	382.31
336.825	380.31
337.053	376.31
337.281	355.31
337.51	354.31
337.738	348.31
337.966	354.31
338.194	349.31
338.422	360.31
338.65	374.31
338.878	345.31
339.106	356.31
339.334	360.31
339.562	371.31
339.79	347.31
340.018	336.31
340.246	356.31
340.474	359.31
340.702	354.31
340.93	346.31
341.158	341.31
341.386	336.31
341.614	348.31
341.842	351.31
342.07	348.31
342.298	351.31
342.526	330.31
342.754	345.31
342.981	351.31
343.209	308.31
343.437	330.31
343.665	324.31
343.893	353.31
344.12	342.31
344.348	352.31
344.576	339.31
344.804	360.31
345.031	362.31
345.259	376.31
345.487	372.31
345.714	355.31
345.942	362.31
346.17	345.31
346.397	334.31
346.625	329.31
346.853	332.31
347.08	344.31
347.308	336.31
347.535	350.31
347.763	357.31
347.99	349.31
348.218	364.31
348.445	384.31
348.673	358.31
348.9	337.31
349.128	326.31
349.355	347.31
349.583	324.31
349.81	320.31
350.037	334.31
350.265	319.31
350.492	340.31
350.72	356.31
350.947	356.31
351.174	370.31
351.402	355.31
351.629	356.31
351.856	365.31
352.083	379.31
352.311	382.31
352.538	365.31
352.765	362.31
352.992	352.31
353.22	380.31
353.447	343.31
353.674	343.31
353.901	315.31
354.128	312.31
354.355	326.31
354.583	326.31
354.81	318.31
355.037	320.31
355.264	311.31
355.491	328.31
355.718	315.31
355.945	296.31
356.172	308.31
356.399	294.31
356.626	323.31
356.853	305.31
357.08	299.31
357.307	303.31
357.534	302.31
357.761	308.31
357.988	314.31
358.215	311.31
358.441	311.31
358.668	330.31
358.895	338.31
359.122	338.31
359.349	341.31
359.576	336.31
359.802	364.31
360.029	382.31
360.256	386.31
360.483	382.31
360.709	362.31
360.936	336.31
361.163	340.31
361.39	344.31
361.616	329.31
361.843	352.31
362.07	332.31
362.296	347.31
362.523	337.31
362.749	333.31
362.976	324.31
363.203	342.31
363.429	326.31
363.656	335.31
363.882	321.31
364.109	321.31
364.335	342.31
364.562	335.31
364.788	327.31
365.015	328.31
365.241	326.31
365.468	327.31
365.694	329.31
365.92	361.31
366.147	333.31
366.373	311.31
366.599	326.31
366.826	332.31
367.052	335.31
367.278	331.31
367.505	337.31
367.731	324.31
367.957	318.31
368.184	326.31
368.41	340.31
368.636	350.31
368.862	347.31
369.089	339.31
369.315	333.31
369.541	321.31
369.767	324.31
369.993	324.31
370.219	334.31
370.445	300.31
370.672	342.31
370.898	340.31
371.124	332.31
371.35	341.31
371.576	304.31
371.802	319.31
372.028	328.31
372.254	328.31
372.48	300.31
372.706	310.31
372.932	316.31
373.158	322.31
373.384	317.31
373.61	330.31
373.835	322.31
374.061	322.31
374.287	333.31
374.513	323.31
374.739	326.31
374.965	332.31
375.191	318.31
375.416	317.31
375.642	323.31
375.868	309.31
376.094	331.31
376.319	321.31
376.545	340.31
376.771	322.31
376.997	322.31
377.222	316.31
377.448	322.31
377.674	297.31
377.899	308.31
378.125	317.31
378.35	299.31
378.576	342.31
378.802	321.31
379.027	332.31
379.253	314.31
379.478	306.31
379.704	316.31
379.929	311.31
380.155	325.31
380.38	332.31
380.606	336.31
380.831	320.31
381.057	338.31
381.282	320.31
381.507	315.31
381.733	322.31
381.958	318.31
382.184	322.31
382.409	328.31
382.634	320.31
382.86	316.31
383.085	329.31
383.31	323.31
383.535	341.31
383.761	324.31
383.986	324.31
384.211	330.31
384.436	347.31
384.662	343.31
384.887	323.31
385.112	336.31
385.337	335.31
385.562	354.31
385.787	338.31
386.013	346.31
386.238	345.31
386.463	333.31
386.688	359.31
386.913	341.31
387.138	336.31
387.363	348.31
387.588	343.31
387.813	340.31
388.038	342.31
388.263	346.31
388.488	337.31
388.713	342.31
388.938	354.31
389.163	335.31
389.387	344.31
389.612	347.31
389.837	340.31
390.062	342.31
390.287	327.31
390.512	343.31
390.736	340.31
390.961	316.31
391.186	332.31
391.411	313.31
391.636	345.31
391.86	343.31
392.085	351.31
392.31	350.31
392.534	340.31
392.759	343.31
392.984	354.31
393.208	341.31
393.433	370.31
393.658	381.31
393.882	336.31
394.107	342.31
394.331	352.31
394.556	362.31
394.78	344.31
395.005	349.31
395.229	351.31
395.454	350.31
395.678	370.31
395.903	341.31
396.127	358.31
396.352	399.31
396.576	370.31
396.801	359.31
397.025	353.31
397.249	374.31
397.474	346.31
397.698	369.31
397.922	367.31
398.147	374.31
398.371	384.31
398.595	378.31
398.82	374.31
399.044	385.31
399.268	392.31
399.492	427.31
399.717	414.31
399.941	453.31
400.165	474.31
400.389	463.31
400.613	423.31
400.837	403.31
401.062	406.31
401.286	397.31
401.51	390.31
401.734	388.31
401.958	382.31
402.182	403.31
402.406	413.31
402.63	403.31
402.854	409.31
403.078	404.31
403.302	404.31
403.526	406.31
403.75	405.31
403.974	397.31
404.198	414.31
404.422	415.31
404.645	404.31
404.869	413.31
405.093	446.31
405.317	488.31
405.541	498.31
405.765	450.31
405.988	452.31
406.212	453.31
406.436	447.31
406.66	480.31
406.883	435.31
407.107	459.31
407.331	495.31
407.555	568.31
407.778	540.31
408.002	477.31
408.226	456.31
408.449	463.31
408.673	442.31
408.896	469.31
409.12	503.31
409.344	471.31
409.567	438.31
409.791	421.31
410.014	427.31
410.238	413.31
410.461	422.31
410.685	432.31
410.908	438.31
411.132	442.31
411.355	474.31
411.578	463.31
411.802	422.31
412.025	424.31
412.249	424.31
412.472	438.31
412.695	486.31
412.919	455.31
413.142	438.31
413.365	408.31
413.589	399.31
413.812	412.31
414.035	380.31
414.258	394.31
414.482	390.31
414.705	385.31
414.928	381.31
415.151	396.31
415.374	386.31
415.597	380.31
415.821	392.31
416.044	403.31
416.267	403.31
416.49	392.31
416.713	374.31
416.936	395.31
417.159	381.31
417.382	380.31
417.605	405.31
417.828	412.31
418.051	412.31
418.274	403.31
418.497	382.31
418.72	375.31
418.943	379.31
419.166	399.31
419.389	440.31
419.611	406.31
419.834	407.31
420.057	405.31
420.28	409.31
420.503	405.31
420.726	404.31
420.948	436.31
421.171	460.31
421.394	476.31
421.617	414.31
421.839	413.31
422.062	409.31
422.285	419.31
422.507	455.31
422.73	499.31
422.953	493.31
423.175	444.31
423.398	424.31
423.621	400.31
423.843	452.31
424.066	451.31
424.288	431.31
424.511	465.31
424.733	491.31
424.956	550.31
425.178	554.31
425.401	527.31
425.623	549.31
425.846	487.31
426.068	452.31
426.291	440.31
426.513	448.31
426.735	476.31
426.958	502.31
427.18	564.31
427.402	671.31
427.625	726.31
427.847	654.31
428.069	592.31
428.292	499.31
428.514	442.31
428.736	435.31
428.958	446.31
429.181	420.31
429.403	424.31
429.625	429.31
429.847	444.31
430.069	505.31
430.292	514.31
430.514	459.31
430.736	405.31
430.958	398.31
431.18	400.31
431.402	395.31
431.624	386.31
431.846	384.31
432.068	380.31
432.29	382.31
432.512	390.31
432.734	402.31
432.956	396.31
433.178	419.31
433.4	415.31
433.622	394.31
433.844	380.31
434.066	394.31
434.287	394.31
434.509	398.31
434.731	412.31
434.953	413.31
435.175	404.31
435.397	448.31
435.618	445.31
435.84	483.31
436.062	571.31
436.284	589.31
436.505	527.31
436.727	476.31
436.949	445.31
437.17	416.31
437.392	423.31
437.614	428.31
437.835	462.31
438.057	534.31
438.278	618.31
438.5	618.31
438.721	694.31
438.943	636.31
439.165	531.31
439.386	471.31
439.608	459.31
439.829	455.31
440.05	494.31
440.272	546.31
440.493	498.31
440.715	454.31
440.936	423.31
441.158	429.31
441.379	409.31
441.6	427.31
441.822	441.31
442.043	480.31
442.264	562.31
442.486	567.31
442.707	504.31
442.928	473.31
443.149	459.31
443.371	494.31
443.592	525.31
443.813	611.31
444.034	638.31
444.255	530.31
444.476	475.31
444.698	462.31
444.919	442.31
445.14	530.31
445.361	506.31
445.582	495.31
445.803	565.31
446.024	638.31
446.245	647.31
446.466	590.31
446.687	488.31
446.908	448.31
447.129	429.31
447.35	438.31
447.571	414.31
447.792	431.31
448.013	429.31
448.234	446.31
448.455	472.31
448.675	600.31
448.896	665.31
449.117	591.31
449.338	528.31
449.559	633.31
449.779	674.31
450	563.31
450.221	463.31
450.442	450.31
450.662	402.31
450.883	422.31
451.104	442.31
451.324	437.31
451.545	411.31
451.766	406.31
451.986	395.31
452.207	392.31
452.428	376.31
452.648	373.31
452.869	380.31
453.089	392.31
453.31	394.31
453.53	387.31
453.751	371.31
453.971	378.31
454.192	435.31
454.412	400.31
454.633	386.31
454.853	386.31
455.073	364.31
455.294	393.31
455.514	476.31
455.734	454.31
455.955	396.31
456.175	366.31
456.395	351.31
456.616	349.31
456.836	356.31
457.056	350.31
457.276	350.31
457.497	347.31
457.717	362.31
457.937	361.31
458.157	371.31
458.377	375.31
458.598	412.31
458.818	443.31
459.038	532.31
459.258	547.31
459.478	441.31
459.698	413.31
459.918	393.31
460.138	403.31
460.358	398.31
460.578	400.31
460.798	402.31
461.018	405.31
461.238	397.31
461.458	396.31
461.678	386.31
461.898	392.31
462.118	393.31
462.338	409.31
462.558	404.31
462.777	396.31
462.997	410.31
463.217	406.31
463.437	428.31
463.657	413.31
463.876	410.31
464.096	405.31
464.316	408.31
464.536	416.31
464.755	439.31
464.975	443.31
465.195	468.31
465.414	543.31
465.634	477.31
465.854	450.31
466.073	425.31
466.293	410.31
466.512	384.31
466.732	384.31
466.951	389.31
467.171	390.31
467.391	402.31
467.61	407.31
467.829	410.31
468.049	402.31
468.268	422.31
468.488	396.31
468.707	384.31
468.927	376.31
469.146	367.31
469.365	376.31
469.585	386.31
469.804	374.31
470.023	394.31
470.243	406.31
470.462	381.31
470.681	423.31
470.901	406.31
471.12	390.31
471.339	406.31
471.558	399.31
471.777	402.31
471.997	410.31
472.216	410.31
472.435	461.31
472.654	423.31
472.873	410.31
473.092	400.31
473.311	374.31
473.53	406.31
473.749	397.31
473.968	427.31
474.187	537.31
474.406	573.31
474.625	436.31
474.844	407.31
475.063	400.31
475.282	391.31
475.501	397.31
475.72	395.31
475.939	411.31
476.158	416.31
476.377	398.31
476.596	398.31
476.814	400.31
477.033	434.31
477.252	414.31
477.471	423.31
477.69	410.31
477.908	428.31
478.127	403.31
478.346	400.31
478.564	434.31
478.783	417.31
479.002	438.31
479.22	450.31
479.439	450.31
479.658	463.31
479.876	471.31
480.095	464.31
480.313	489.31
480.532	469.31
480.751	479.31
480.969	477.31
481.188	529.31
481.406	596.31
481.624	506.31
481.843	495.31
482.061	479.31
482.28	465.31
482.498	470.31
482.717	458.31
482.935	448.31
483.153	453.31
483.372	469.31
483.59	461.31
483.808	456.31
484.027	469.31
484.245	460.31
484.463	475.31
484.681	472.31
484.9	450.31
485.118	482.31
485.336	474.31
485.554	501.31
485.772	458.31
485.99	480.31
486.209	478.31
486.427	472.31
486.645	490.31
486.863	507.31
487.081	516.31
487.299	484.31
487.517	512.31
487.735	502.31
487.953	485.31
488.171	470.31
488.389	507.31
488.607	515.31
488.825	504.31
489.043	490.31
489.261	502.31
489.479	518.31
489.696	498.31
489.914	511.31
490.132	521.31
490.35	505.31
490.568	512.31
490.786	545.31
491.003	526.31
491.221	541.31
491.439	551.31
491.657	529.31
491.874	561.31
492.092	555.31
492.31	594.31
492.527	559.31
492.745	584.31
492.963	572.31
493.18	578.31
493.398	573.31
493.615	577.31
493.833	578.31
494.05	590.31
494.268	563.31
494.485	582.31
494.703	590.31
494.92	566.31
495.138	558.31
495.355	587.31
495.573	597.31
495.79	566.31
496.008	575.31
496.225	597.31
496.442	583.31
496.66	591.31
496.877	607.31
497.094	614.31
497.312	603.31
497.529	593.31
497.746	595.31
497.963	595.31
498.181	618.31
498.398	627.31
498.615	634.31
498.832	623.31
499.049	638.31
499.267	650.31
499.484	674.31
499.701	697.31
499.918	699.31
500.135	702.31
500.352	730.31
500.569	730.31
500.786	721.31
501.003	720.31
501.22	742.31
501.437	720.31
501.654	711.31
501.871	730.31
502.088	698.31
