Data from 1961.PennyLincolnUp.Lamp.En5.5.200Scan.071719.P1._HRD10591_13-47-59-058.txt Node
Date: Thu Jul 18 13:47:59 EDT 2019
User: cochatt
Spectrometer: HR+D1059
Trigger mode: 1
Integration Time (sec): 1.000000E-1
Scans to average: 1
Electric dark correction enabled: true
Nonlinearity correction enabled: false
Boxcar width: 0
XAxis mode: Wavelengths
Number of Pixels in Spectrum: 2048
>>>>>Begin Spectral Data<<<<<
223.165	-17.69
223.4	-17.69
223.635	-17.69
223.869	-20.69
224.104	-6.69
224.338	-10.69
224.573	-14.69
224.808	-4.69
225.042	-0.69
225.277	-7.69
225.511	-15.69
225.746	-3.69
225.98	10.31
226.215	10.31
226.449	9.31
226.683	23.31
226.918	18.31
227.152	31.31
227.387	20.31
227.621	41.31
227.856	24.31
228.09	32.31
228.324	44.31
228.559	48.31
228.793	71.31
229.027	89.31
229.262	92.31
229.496	94.31
229.73	113.31
229.964	142.31
230.199	124.31
230.433	117.31
230.667	111.31
230.901	94.31
231.136	96.31
231.37	97.31
231.604	116.31
231.838	100.31
232.072	91.31
232.306	97.31
232.541	104.31
232.775	104.31
233.009	105.31
233.243	108.31
233.477	120.31
233.711	108.31
233.945	116.31
234.179	122.31
234.413	120.31
234.647	105.31
234.881	112.31
235.115	100.31
235.349	104.31
235.583	104.31
235.817	113.31
236.051	114.31
236.285	119.31
236.519	111.31
236.753	119.31
236.987	119.31
237.221	158.31
237.455	192.31
237.689	174.31
237.922	130.31
238.156	102.31
238.39	124.31
238.624	109.31
238.858	103.31
239.091	121.31
239.325	111.31
239.559	114.31
239.793	115.31
240.027	114.31
240.26	119.31
240.494	145.31
240.728	130.31
240.961	126.31
241.195	133.31
241.429	130.31
241.662	124.31
241.896	118.31
242.13	108.31
242.363	104.31
242.597	116.31
242.83	128.31
243.064	132.31
243.298	134.31
243.531	124.31
243.765	128.31
243.998	117.31
244.232	120.31
244.465	125.31
244.699	128.31
244.932	123.31
245.166	117.31
245.399	138.31
245.633	128.31
245.866	129.31
246.099	112.31
246.333	140.31
246.566	120.31
246.8	119.31
247.033	121.31
247.266	123.31
247.5	124.31
247.733	127.31
247.966	150.31
248.2	146.31
248.433	154.31
248.666	152.31
248.899	143.31
249.133	168.31
249.366	178.31
249.599	156.31
249.832	146.31
250.066	149.31
250.299	153.31
250.532	168.31
250.765	179.31
250.998	161.31
251.231	181.31
251.465	187.31
251.698	160.31
251.931	164.31
252.164	170.31
252.397	152.31
252.63	166.31
252.863	189.31
253.096	177.31
253.329	206.31
253.562	187.31
253.795	187.31
254.028	185.31
254.261	176.31
254.494	193.31
254.727	212.31
254.96	229.31
255.193	213.31
255.426	216.31
255.659	184.31
255.892	194.31
256.124	217.31
256.357	186.31
256.59	189.31
256.823	192.31
257.056	194.31
257.289	199.31
257.521	192.31
257.754	168.31
257.987	157.31
258.22	186.31
258.452	174.31
258.685	190.31
258.918	183.31
259.151	175.31
259.383	202.31
259.616	189.31
259.849	184.31
260.081	206.31
260.314	206.31
260.547	212.31
260.779	204.31
261.012	202.31
261.244	193.31
261.477	196.31
261.71	172.31
261.942	189.31
262.175	188.31
262.407	196.31
262.64	178.31
262.872	192.31
263.105	163.31
263.337	163.31
263.57	159.31
263.802	167.31
264.035	176.31
264.267	189.31
264.499	173.31
264.732	192.31
264.964	192.31
265.197	183.31
265.429	185.31
265.661	161.31
265.894	170.31
266.126	178.31
266.358	176.31
266.591	185.31
266.823	177.31
267.055	184.31
267.287	183.31
267.52	185.31
267.752	182.31
267.984	182.31
268.216	181.31
268.448	186.31
268.681	203.31
268.913	203.31
269.145	222.31
269.377	219.31
269.609	206.31
269.841	213.31
270.073	236.31
270.306	232.31
270.538	254.31
270.77	266.31
271.002	244.31
271.234	231.31
271.466	236.31
271.698	245.31
271.93	272.31
272.162	270.31
272.394	256.31
272.626	226.31
272.858	244.31
273.09	213.31
273.322	214.31
273.553	225.31
273.785	224.31
274.017	223.31
274.249	216.31
274.481	213.31
274.713	224.31
274.945	212.31
275.176	196.31
275.408	213.31
275.64	210.31
275.872	216.31
276.104	231.31
276.335	220.31
276.567	236.31
276.799	246.31
277.031	262.31
277.262	247.31
277.494	259.31
277.726	253.31
277.957	228.31
278.189	221.31
278.421	224.31
278.652	217.31
278.884	226.31
279.115	202.31
279.347	207.31
279.579	227.31
279.81	221.31
280.042	215.31
280.273	225.31
280.505	212.31
280.736	201.31
280.968	196.31
281.199	211.31
281.431	221.31
281.662	223.31
281.894	213.31
282.125	222.31
282.356	248.31
282.588	268.31
282.819	264.31
283.051	232.31
283.282	206.31
283.513	210.31
283.745	221.31
283.976	220.31
284.207	237.31
284.439	223.31
284.67	212.31
284.901	238.31
285.132	225.31
285.364	209.31
285.595	210.31
285.826	200.31
286.057	222.31
286.288	210.31
286.52	228.31
286.751	220.31
286.982	231.31
287.213	225.31
287.444	233.31
287.675	232.31
287.906	245.31
288.138	232.31
288.369	238.31
288.6	247.31
288.831	240.31
289.062	236.31
289.293	240.31
289.524	227.31
289.755	226.31
289.986	231.31
290.217	211.31
290.448	208.31
290.679	241.31
290.91	224.31
291.141	232.31
291.371	219.31
291.602	238.31
291.833	226.31
292.064	241.31
292.295	224.31
292.526	220.31
292.757	216.31
292.987	229.31
293.218	215.31
293.449	220.31
293.68	231.31
293.91	239.31
294.141	233.31
294.372	237.31
294.603	230.31
294.833	224.31
295.064	223.31
295.295	238.31
295.525	218.31
295.756	238.31
295.987	240.31
296.217	256.31
296.448	285.31
296.679	262.31
296.909	240.31
297.14	232.31
297.37	238.31
297.601	238.31
297.831	239.31
298.062	225.31
298.292	256.31
298.523	225.31
298.753	244.31
298.984	240.31
299.214	251.31
299.445	253.31
299.675	239.31
299.905	260.31
300.136	256.31
300.366	242.31
300.597	264.31
300.827	259.31
301.057	250.31
301.288	270.31
301.518	252.31
301.748	235.31
301.979	271.31
302.209	266.31
302.439	271.31
302.669	279.31
302.9	254.31
303.13	256.31
303.36	266.31
303.59	270.31
303.82	282.31
304.051	258.31
304.281	253.31
304.511	248.31
304.741	252.31
304.971	252.31
305.201	257.31
305.431	258.31
305.661	246.31
305.891	269.31
306.121	269.31
306.352	276.31
306.582	276.31
306.812	280.31
307.042	263.31
307.272	274.31
307.502	261.31
307.731	270.31
307.961	278.31
308.191	252.31
308.421	260.31
308.651	268.31
308.881	277.31
309.111	291.31
309.341	280.31
309.571	288.31
309.8	292.31
310.03	316.31
310.26	319.31
310.49	306.31
310.72	309.31
310.949	335.31
311.179	333.31
311.409	319.31
311.639	313.31
311.868	339.31
312.098	310.31
312.328	326.31
312.557	339.31
312.787	348.31
313.017	345.31
313.246	327.31
313.476	294.31
313.706	314.31
313.935	306.31
314.165	302.31
314.394	325.31
314.624	342.31
314.853	318.31
315.083	331.31
315.312	311.31
315.542	303.31
315.771	315.31
316.001	306.31
316.23	296.31
316.46	292.31
316.689	302.31
316.919	315.31
317.148	313.31
317.377	296.31
317.607	314.31
317.836	314.31
318.065	319.31
318.295	295.31
318.524	309.31
318.753	300.31
318.983	301.31
319.212	308.31
319.441	328.31
319.67	323.31
319.9	308.31
320.129	302.31
320.358	328.31
320.587	305.31
320.816	329.31
321.046	334.31
321.275	351.31
321.504	334.31
321.733	355.31
321.962	350.31
322.191	346.31
322.42	375.31
322.649	382.31
322.878	408.31
323.108	402.31
323.337	434.31
323.566	452.31
323.795	487.31
324.024	539.31
324.253	680.31
324.482	988.31
324.71	1530.31
324.939	2111.31
325.168	1774.31
325.397	904.31
325.626	627.31
325.855	499.31
326.084	454.31
326.313	464.31
326.542	475.31
326.77	493.31
326.999	612.31
327.228	877.31
327.457	1319.31
327.686	1554.31
327.914	997.31
328.143	667.31
328.372	588.31
328.6	534.31
328.829	506.31
329.058	507.31
329.287	533.31
329.515	501.31
329.744	441.31
329.972	466.31
330.201	464.31
330.43	499.31
330.658	537.31
330.887	566.31
331.115	546.31
331.344	457.31
331.572	430.31
331.801	428.31
332.03	413.31
332.258	402.31
332.486	388.31
332.715	350.31
332.943	364.31
333.172	360.31
333.4	376.31
333.629	394.31
333.857	394.31
334.085	391.31
334.314	447.31
334.542	460.31
334.771	479.31
334.999	426.31
335.227	388.31
335.455	381.31
335.684	389.31
335.912	385.31
336.14	372.31
336.369	335.31
336.597	380.31
336.825	364.31
337.053	355.31
337.281	353.31
337.51	343.31
337.738	342.31
337.966	353.31
338.194	348.31
338.422	382.31
338.65	359.31
338.878	344.31
339.106	355.31
339.334	366.31
339.562	358.31
339.79	339.31
340.018	339.31
340.246	357.31
340.474	353.31
340.702	361.31
340.93	326.31
341.158	332.31
341.386	348.31
341.614	349.31
341.842	357.31
342.07	355.31
342.298	343.31
342.526	343.31
342.754	349.31
342.981	330.31
343.209	331.31
343.437	331.31
343.665	320.31
343.893	341.31
344.12	352.31
344.348	343.31
344.576	354.31
344.804	374.31
345.031	352.31
345.259	374.31
345.487	374.31
345.714	370.31
345.942	328.31
346.17	344.31
346.397	340.31
346.625	347.31
346.853	343.31
347.08	336.31
347.308	357.31
347.535	363.31
347.763	354.31
347.99	354.31
348.218	353.31
348.445	363.31
348.673	361.31
348.9	341.31
349.128	343.31
349.355	340.31
349.583	351.31
349.81	335.31
350.037	324.31
350.265	325.31
350.492	321.31
350.72	331.31
350.947	337.31
351.174	357.31
351.402	372.31
351.629	335.31
351.856	348.31
352.083	357.31
352.311	342.31
352.538	361.31
352.765	357.31
352.992	345.31
353.22	352.31
353.447	345.31
353.674	343.31
353.901	332.31
354.128	318.31
354.355	315.31
354.583	335.31
354.81	334.31
355.037	328.31
355.264	331.31
355.491	310.31
355.718	308.31
355.945	323.31
356.172	311.31
356.399	323.31
356.626	315.31
356.853	323.31
357.08	309.31
357.307	302.31
357.534	308.31
357.761	321.31
357.988	337.31
358.215	305.31
358.441	302.31
358.668	304.31
358.895	320.31
359.122	322.31
359.349	335.31
359.576	339.31
359.802	377.31
360.029	391.31
360.256	377.31
360.483	364.31
360.709	343.31
360.936	344.31
361.163	351.31
361.39	345.31
361.616	348.31
361.843	341.31
362.07	341.31
362.296	346.31
362.523	338.31
362.749	341.31
362.976	337.31
363.203	329.31
363.429	323.31
363.656	329.31
363.882	337.31
364.109	326.31
364.335	318.31
364.562	312.31
364.788	321.31
365.015	336.31
365.241	336.31
365.468	324.31
365.694	341.31
365.92	312.31
366.147	319.31
366.373	330.31
366.599	317.31
366.826	325.31
367.052	322.31
367.278	323.31
367.505	336.31
367.731	325.31
367.957	324.31
368.184	318.31
368.41	334.31
368.636	353.31
368.862	331.31
369.089	343.31
369.315	312.31
369.541	315.31
369.767	304.31
369.993	333.31
370.219	335.31
370.445	330.31
370.672	335.31
370.898	326.31
371.124	326.31
371.35	329.31
371.576	304.31
371.802	310.31
372.028	311.31
372.254	320.31
372.48	326.31
372.706	321.31
372.932	313.31
373.158	297.31
373.384	322.31
373.61	326.31
373.835	300.31
374.061	311.31
374.287	343.31
374.513	327.31
374.739	316.31
374.965	313.31
375.191	320.31
375.416	303.31
375.642	300.31
375.868	317.31
376.094	305.31
376.319	310.31
376.545	330.31
376.771	314.31
376.997	314.31
377.222	328.31
377.448	311.31
377.674	314.31
377.899	292.31
378.125	308.31
378.35	297.31
378.576	302.31
378.802	284.31
379.027	304.31
379.253	335.31
379.478	309.31
379.704	310.31
379.929	334.31
380.155	341.31
380.38	343.31
380.606	316.31
380.831	322.31
381.057	324.31
381.282	312.31
381.507	327.31
381.733	338.31
381.958	348.31
382.184	317.31
382.409	325.31
382.634	319.31
382.86	341.31
383.085	316.31
383.31	321.31
383.535	328.31
383.761	330.31
383.986	327.31
384.211	348.31
384.436	293.31
384.662	335.31
384.887	332.31
385.112	342.31
385.337	329.31
385.562	337.31
385.787	326.31
386.013	338.31
386.238	353.31
386.463	346.31
386.688	330.31
386.913	333.31
387.138	344.31
387.363	323.31
387.588	318.31
387.813	328.31
388.038	333.31
388.263	334.31
388.488	333.31
388.713	340.31
388.938	339.31
389.163	353.31
389.387	333.31
389.612	351.31
389.837	351.31
390.062	341.31
390.287	329.31
390.512	337.31
390.736	351.31
390.961	361.31
391.186	351.31
391.411	369.31
391.636	326.31
391.86	318.31
392.085	346.31
392.31	354.31
392.534	335.31
392.759	357.31
392.984	326.31
393.208	334.31
393.433	332.31
393.658	351.31
393.882	334.31
394.107	330.31
394.331	348.31
394.556	352.31
394.78	343.31
395.005	342.31
395.229	354.31
395.454	349.31
395.678	357.31
395.903	366.31
396.127	376.31
396.352	371.31
396.576	353.31
396.801	374.31
397.025	352.31
397.249	339.31
397.474	361.31
397.698	370.31
397.922	368.31
398.147	389.31
398.371	399.31
398.595	414.31
398.82	392.31
399.044	392.31
399.268	404.31
399.492	416.31
399.717	414.31
399.941	437.31
400.165	479.31
400.389	476.31
400.613	447.31
400.837	401.31
401.062	420.31
401.286	412.31
401.51	395.31
401.734	391.31
401.958	389.31
402.182	386.31
402.406	393.31
402.63	409.31
402.854	393.31
403.078	405.31
403.302	431.31
403.526	413.31
403.75	408.31
403.974	388.31
404.198	397.31
404.422	408.31
404.645	396.31
404.869	407.31
405.093	445.31
405.317	469.31
405.541	494.31
405.765	451.31
405.988	446.31
406.212	445.31
406.436	469.31
406.66	465.31
406.883	452.31
407.107	456.31
407.331	469.31
407.555	536.31
407.778	544.31
408.002	499.31
408.226	448.31
408.449	439.31
408.673	448.31
408.896	474.31
409.12	512.31
409.344	465.31
409.567	435.31
409.791	416.31
410.014	400.31
410.238	393.31
410.461	407.31
410.685	417.31
410.908	430.31
411.132	453.31
411.355	485.31
411.578	457.31
411.802	412.31
412.025	422.31
412.249	416.31
412.472	458.31
412.695	481.31
412.919	469.31
413.142	417.31
413.365	394.31
413.589	404.31
413.812	391.31
414.035	392.31
414.258	388.31
414.482	377.31
414.705	398.31
414.928	390.31
415.151	382.31
415.374	386.31
415.597	384.31
415.821	378.31
416.044	387.31
416.267	400.31
416.49	376.31
416.713	399.31
416.936	378.31
417.159	377.31
417.382	399.31
417.605	386.31
417.828	372.31
418.051	393.31
418.274	416.31
418.497	381.31
418.72	374.31
418.943	385.31
419.166	391.31
419.389	402.31
419.611	414.31
419.834	393.31
420.057	405.31
420.28	388.31
420.503	387.31
420.726	409.31
420.948	419.31
421.171	443.31
421.394	496.31
421.617	424.31
421.839	409.31
422.062	421.31
422.285	414.31
422.507	496.31
422.73	528.31
422.953	506.31
423.175	452.31
423.398	433.31
423.621	423.31
423.843	442.31
424.066	441.31
424.288	449.31
424.511	462.31
424.733	500.31
424.956	576.31
425.178	564.31
425.401	532.31
425.623	564.31
425.846	476.31
426.068	445.31
426.291	447.31
426.513	430.31
426.735	463.31
426.958	524.31
427.18	583.31
427.402	652.31
427.625	732.31
427.847	672.31
428.069	558.31
428.292	498.31
428.514	460.31
428.736	434.31
428.958	436.31
429.181	419.31
429.403	426.31
429.625	426.31
429.847	441.31
430.069	516.31
430.292	504.31
430.514	419.31
430.736	420.31
430.958	421.31
431.18	397.31
431.402	394.31
431.624	387.31
431.846	380.31
432.068	386.31
432.29	395.31
432.512	375.31
432.734	403.31
432.956	404.31
433.178	389.31
433.4	392.31
433.622	391.31
433.844	383.31
434.066	381.31
434.287	383.31
434.509	404.31
434.731	376.31
434.953	396.31
435.175	428.31
435.397	461.31
435.618	460.31
435.84	502.31
436.062	560.31
436.284	594.31
436.505	532.31
436.727	455.31
436.949	442.31
437.17	430.31
437.392	418.31
437.614	439.31
437.835	456.31
438.057	537.31
438.278	637.31
438.5	630.31
438.721	662.31
438.943	648.31
439.165	516.31
439.386	468.31
439.608	477.31
439.829	470.31
440.05	483.31
440.272	537.31
440.493	494.31
440.715	463.31
440.936	434.31
441.158	437.31
441.379	404.31
441.6	434.31
441.822	461.31
442.043	477.31
442.264	551.31
442.486	594.31
442.707	512.31
442.928	466.31
443.149	466.31
443.371	476.31
443.592	528.31
443.813	627.31
444.034	628.31
444.255	522.31
444.476	466.31
444.698	438.31
444.919	454.31
445.14	552.31
445.361	521.31
445.582	494.31
445.803	570.31
446.024	651.31
446.245	642.31
446.466	590.31
446.687	514.31
446.908	469.31
447.129	426.31
447.35	436.31
447.571	454.31
447.792	429.31
448.013	430.31
448.234	456.31
448.455	481.31
448.675	599.31
448.896	676.31
449.117	577.31
449.338	546.31
449.559	638.31
449.779	704.31
450	552.31
450.221	468.31
450.442	448.31
450.662	416.31
450.883	438.31
451.104	453.31
451.324	446.31
451.545	406.31
451.766	416.31
451.986	384.31
452.207	375.31
452.428	383.31
452.648	372.31
452.869	396.31
453.089	404.31
453.31	406.31
453.53	387.31
453.751	372.31
453.971	399.31
454.192	394.31
454.412	389.31
454.633	393.31
454.853	395.31
455.073	377.31
455.294	392.31
455.514	460.31
455.734	463.31
455.955	389.31
456.175	359.31
456.395	352.31
456.616	366.31
456.836	357.31
457.056	338.31
457.276	336.31
457.497	356.31
457.717	372.31
457.937	366.31
458.157	382.31
458.377	354.31
458.598	404.31
458.818	446.31
459.038	545.31
459.258	546.31
459.478	452.31
459.698	411.31
459.918	402.31
460.138	380.31
460.358	382.31
460.578	383.31
460.798	398.31
461.018	412.31
461.238	383.31
461.458	396.31
461.678	378.31
461.898	392.31
462.118	386.31
462.338	387.31
462.558	386.31
462.777	412.31
462.997	443.31
463.217	402.31
463.437	432.31
463.657	409.31
463.876	409.31
464.096	419.31
464.316	420.31
464.536	422.31
464.755	417.31
464.975	430.31
465.195	485.31
465.414	547.31
465.634	480.31
465.854	434.31
466.073	407.31
466.293	405.31
466.512	389.31
466.732	395.31
466.951	376.31
467.171	379.31
467.391	413.31
467.61	401.31
467.829	417.31
468.049	406.31
468.268	396.31
468.488	395.31
468.707	375.31
468.927	385.31
469.146	371.31
469.365	382.31
469.585	398.31
469.804	402.31
470.023	399.31
470.243	389.31
470.462	404.31
470.681	414.31
470.901	407.31
471.12	400.31
471.339	380.31
471.558	418.31
471.777	392.31
471.997	390.31
472.216	397.31
472.435	432.31
472.654	429.31
472.873	392.31
473.092	395.31
473.311	414.31
473.53	395.31
473.749	409.31
473.968	434.31
474.187	539.31
474.406	532.31
474.625	443.31
474.844	438.31
475.063	413.31
475.282	422.31
475.501	386.31
475.72	406.31
475.939	393.31
476.158	422.31
476.377	414.31
476.596	393.31
476.814	392.31
477.033	428.31
477.252	424.31
477.471	431.31
477.69	428.31
477.908	414.31
478.127	441.31
478.346	426.31
478.564	412.31
478.783	436.31
479.002	451.31
479.22	437.31
479.439	449.31
479.658	467.31
479.876	480.31
480.095	488.31
480.313	522.31
480.532	476.31
480.751	487.31
480.969	483.31
481.188	570.31
481.406	605.31
481.624	514.31
481.843	484.31
482.061	486.31
482.28	481.31
482.498	468.31
482.717	466.31
482.935	481.31
483.153	465.31
483.372	450.31
483.59	459.31
483.808	460.31
484.027	467.31
484.245	462.31
484.463	466.31
484.681	476.31
484.9	465.31
485.118	458.31
485.336	475.31
485.554	484.31
485.772	472.31
485.99	491.31
486.209	462.31
486.427	471.31
486.645	492.31
486.863	512.31
487.081	517.31
487.299	481.31
487.517	483.31
487.735	482.31
487.953	486.31
488.171	492.31
488.389	475.31
488.607	480.31
488.825	511.31
489.043	506.31
489.261	514.31
489.479	525.31
489.696	517.31
489.914	508.31
490.132	496.31
490.35	514.31
490.568	521.31
490.786	504.31
491.003	546.31
491.221	553.31
491.439	546.31
491.657	552.31
491.874	551.31
492.092	560.31
492.31	552.31
492.527	579.31
492.745	551.31
492.963	560.31
493.18	576.31
493.398	595.31
493.615	588.31
493.833	581.31
494.05	580.31
494.268	568.31
494.485	586.31
494.703	580.31
494.92	561.31
495.138	570.31
495.355	582.31
495.573	606.31
495.79	583.31
496.008	586.31
496.225	603.31
496.442	589.31
496.66	586.31
496.877	592.31
497.094	598.31
497.312	602.31
497.529	598.31
497.746	612.31
497.963	624.31
498.181	621.31
498.398	646.31
498.615	643.31
498.832	666.31
499.049	646.31
499.267	668.31
499.484	676.31
499.701	691.31
499.918	719.31
500.135	711.31
500.352	745.31
500.569	732.31
500.786	746.31
501.003	739.31
501.22	755.31
501.437	714.31
501.654	722.31
501.871	726.31
502.088	712.31
