Data from 1961.PennyLincolnUp.Lamp.En5.5.200Scan.071719.P1._HRD10591_13-49-18-058.txt Node
Date: Thu Jul 18 13:49:18 EDT 2019
User: cochatt
Spectrometer: HR+D1059
Trigger mode: 1
Integration Time (sec): 1.000000E-1
Scans to average: 1
Electric dark correction enabled: true
Nonlinearity correction enabled: false
Boxcar width: 0
XAxis mode: Wavelengths
Number of Pixels in Spectrum: 2048
>>>>>Begin Spectral Data<<<<<
223.165	-15.31
223.4	-15.31
223.635	-15.31
223.869	-19.31
224.104	-15.31
224.338	-20.31
224.573	3.69
224.808	-11.31
225.042	-11.31
225.277	-4.31
225.511	-10.31
225.746	7.69
225.98	1.69
226.215	11.69
226.449	10.69
226.683	20.69
226.918	25.69
227.152	25.69
227.387	31.69
227.621	25.69
227.856	26.69
228.09	40.69
228.324	53.69
228.559	59.69
228.793	61.69
229.027	93.69
229.262	117.69
229.496	120.69
229.73	130.69
229.964	147.69
230.199	121.69
230.433	121.69
230.667	109.69
230.901	105.69
231.136	106.69
231.37	107.69
231.604	100.69
231.838	104.69
232.072	122.69
232.306	101.69
232.541	100.69
232.775	107.69
233.009	116.69
233.243	119.69
233.477	103.69
233.711	108.69
233.945	110.69
234.179	120.69
234.413	115.69
234.647	124.69
234.881	104.69
235.115	102.69
235.349	102.69
235.583	118.69
235.817	113.69
236.051	132.69
236.285	123.69
236.519	121.69
236.753	117.69
236.987	157.69
237.221	197.69
237.455	230.69
237.689	180.69
237.922	134.69
238.156	117.69
238.39	111.69
238.624	125.69
238.858	116.69
239.091	138.69
239.325	119.69
239.559	127.69
239.793	123.69
240.027	119.69
240.26	122.69
240.494	145.69
240.728	127.69
240.961	141.69
241.195	132.69
241.429	124.69
241.662	127.69
241.896	137.69
242.13	122.69
242.363	123.69
242.597	139.69
242.83	133.69
243.064	131.69
243.298	123.69
243.531	131.69
243.765	138.69
243.998	136.69
244.232	130.69
244.465	141.69
244.699	133.69
244.932	132.69
245.166	134.69
245.399	132.69
245.633	125.69
245.866	126.69
246.099	136.69
246.333	145.69
246.566	144.69
246.8	149.69
247.033	150.69
247.266	145.69
247.5	140.69
247.733	166.69
247.966	147.69
248.2	165.69
248.433	153.69
248.666	164.69
248.899	187.69
249.133	181.69
249.366	202.69
249.599	189.69
249.832	161.69
250.066	159.69
250.299	157.69
250.532	186.69
250.765	187.69
250.998	196.69
251.231	194.69
251.465	207.69
251.698	185.69
251.931	177.69
252.164	158.69
252.397	195.69
252.63	193.69
252.863	194.69
253.096	193.69
253.329	197.69
253.562	209.69
253.795	212.69
254.028	205.69
254.261	199.69
254.494	210.69
254.727	247.69
254.96	248.69
255.193	249.69
255.426	215.69
255.659	212.69
255.892	203.69
256.124	215.69
256.357	195.69
256.59	187.69
256.823	204.69
257.056	181.69
257.289	183.69
257.521	201.69
257.754	182.69
257.987	196.69
258.22	184.69
258.452	183.69
258.685	190.69
258.918	189.69
259.151	185.69
259.383	195.69
259.616	189.69
259.849	180.69
260.081	188.69
260.314	232.69
260.547	225.69
260.779	234.69
261.012	205.69
261.244	203.69
261.477	198.69
261.71	203.69
261.942	225.69
262.175	217.69
262.407	210.69
262.64	202.69
262.872	198.69
263.105	186.69
263.337	207.69
263.57	195.69
263.802	195.69
264.035	195.69
264.267	177.69
264.499	184.69
264.732	189.69
264.964	197.69
265.197	186.69
265.429	185.69
265.661	178.69
265.894	199.69
266.126	189.69
266.358	189.69
266.591	197.69
266.823	198.69
267.055	193.69
267.287	198.69
267.52	216.69
267.752	190.69
267.984	190.69
268.216	186.69
268.448	204.69
268.681	195.69
268.913	212.69
269.145	236.69
269.377	260.69
269.609	242.69
269.841	227.69
270.073	238.69
270.306	261.69
270.538	261.69
270.77	270.69
271.002	273.69
271.234	246.69
271.466	275.69
271.698	267.69
271.93	287.69
272.162	294.69
272.394	258.69
272.626	250.69
272.858	262.69
273.09	261.69
273.322	254.69
273.553	227.69
273.785	232.69
274.017	225.69
274.249	227.69
274.481	217.69
274.713	235.69
274.945	244.69
275.176	220.69
275.408	249.69
275.64	246.69
275.872	231.69
276.104	235.69
276.335	238.69
276.567	232.69
276.799	258.69
277.031	291.69
277.262	281.69
277.494	282.69
277.726	269.69
277.957	257.69
278.189	233.69
278.421	256.69
278.652	237.69
278.884	234.69
279.115	235.69
279.347	232.69
279.579	222.69
279.81	236.69
280.042	221.69
280.273	226.69
280.505	233.69
280.736	227.69
280.968	231.69
281.199	229.69
281.431	228.69
281.662	237.69
281.894	243.69
282.125	249.69
282.356	261.69
282.588	269.69
282.819	254.69
283.051	236.69
283.282	231.69
283.513	241.69
283.745	230.69
283.976	232.69
284.207	227.69
284.439	260.69
284.67	250.69
284.901	256.69
285.132	229.69
285.364	237.69
285.595	226.69
285.826	233.69
286.057	234.69
286.288	254.69
286.52	239.69
286.751	227.69
286.982	247.69
287.213	247.69
287.444	248.69
287.675	226.69
287.906	265.69
288.138	250.69
288.369	255.69
288.6	271.69
288.831	250.69
289.062	239.69
289.293	245.69
289.524	245.69
289.755	264.69
289.986	257.69
290.217	232.69
290.448	250.69
290.679	245.69
290.91	230.69
291.141	249.69
291.371	236.69
291.602	248.69
291.833	251.69
292.064	253.69
292.295	233.69
292.526	249.69
292.757	247.69
292.987	262.69
293.218	259.69
293.449	243.69
293.68	241.69
293.91	231.69
294.141	259.69
294.372	236.69
294.603	234.69
294.833	245.69
295.064	258.69
295.295	252.69
295.525	241.69
295.756	270.69
295.987	273.69
296.217	301.69
296.448	292.69
296.679	254.69
296.909	244.69
297.14	246.69
297.37	250.69
297.601	259.69
297.831	246.69
298.062	251.69
298.292	258.69
298.523	256.69
298.753	259.69
298.984	269.69
299.214	255.69
299.445	259.69
299.675	262.69
299.905	261.69
300.136	275.69
300.366	251.69
300.597	273.69
300.827	286.69
301.057	267.69
301.288	283.69
301.518	284.69
301.748	287.69
301.979	288.69
302.209	288.69
302.439	275.69
302.669	271.69
302.9	274.69
303.13	275.69
303.36	283.69
303.59	294.69
303.82	299.69
304.051	277.69
304.281	267.69
304.511	285.69
304.741	292.69
304.971	272.69
305.201	279.69
305.431	280.69
305.661	270.69
305.891	282.69
306.121	311.69
306.352	273.69
306.582	304.69
306.812	261.69
307.042	306.69
307.272	290.69
307.502	284.69
307.731	290.69
307.961	292.69
308.191	279.69
308.421	298.69
308.651	287.69
308.881	302.69
309.111	295.69
309.341	287.69
309.571	312.69
309.8	308.69
310.03	312.69
310.26	343.69
310.49	318.69
310.72	346.69
310.949	362.69
311.179	356.69
311.409	349.69
311.639	341.69
311.868	335.69
312.098	322.69
312.328	357.69
312.557	371.69
312.787	359.69
313.017	355.69
313.246	362.69
313.476	341.69
313.706	344.69
313.935	354.69
314.165	348.69
314.394	349.69
314.624	335.69
314.853	316.69
315.083	341.69
315.312	332.69
315.542	329.69
315.771	339.69
316.001	335.69
316.23	329.69
316.46	307.69
316.689	321.69
316.919	330.69
317.148	329.69
317.377	343.69
317.607	346.69
317.836	346.69
318.065	338.69
318.295	335.69
318.524	316.69
318.753	326.69
318.983	327.69
319.212	345.69
319.441	341.69
319.67	342.69
319.9	334.69
320.129	321.69
320.358	349.69
320.587	341.69
320.816	343.69
321.046	355.69
321.275	348.69
321.504	370.69
321.733	361.69
321.962	381.69
322.191	400.69
322.42	399.69
322.649	408.69
322.878	413.69
323.108	423.69
323.337	463.69
323.566	479.69
323.795	493.69
324.024	559.69
324.253	731.69
324.482	1088.69
324.71	1655.69
324.939	2376.69
325.168	1951.69
325.397	1023.69
325.626	704.69
325.855	557.69
326.084	511.69
326.313	491.69
326.542	511.69
326.77	539.69
326.999	697.69
327.228	947.69
327.457	1465.69
327.686	1725.69
327.914	1137.69
328.143	774.69
328.372	647.69
328.6	571.69
328.829	550.69
329.058	587.69
329.287	578.69
329.515	546.69
329.744	492.69
329.972	477.69
330.201	510.69
330.43	555.69
330.658	579.69
330.887	609.69
331.115	589.69
331.344	483.69
331.572	466.69
331.801	442.69
332.03	441.69
332.258	415.69
332.486	397.69
332.715	407.69
332.943	403.69
333.172	383.69
333.4	421.69
333.629	391.69
333.857	427.69
334.085	433.69
334.314	453.69
334.542	501.69
334.771	505.69
334.999	447.69
335.227	399.69
335.455	369.69
335.684	395.69
335.912	395.69
336.14	370.69
336.369	374.69
336.597	381.69
336.825	401.69
337.053	380.69
337.281	388.69
337.51	387.69
337.738	383.69
337.966	383.69
338.194	400.69
338.422	382.69
338.65	386.69
338.878	376.69
339.106	381.69
339.334	381.69
339.562	356.69
339.79	360.69
340.018	352.69
340.246	375.69
340.474	371.69
340.702	382.69
340.93	378.69
341.158	384.69
341.386	383.69
341.614	375.69
341.842	385.69
342.07	356.69
342.298	375.69
342.526	354.69
342.754	354.69
342.981	347.69
343.209	357.69
343.437	355.69
343.665	356.69
343.893	357.69
344.12	365.69
344.348	370.69
344.576	389.69
344.804	378.69
345.031	375.69
345.259	382.69
345.487	381.69
345.714	391.69
345.942	372.69
346.17	364.69
346.397	357.69
346.625	363.69
346.853	356.69
347.08	362.69
347.308	366.69
347.535	380.69
347.763	375.69
347.99	372.69
348.218	370.69
348.445	405.69
348.673	389.69
348.9	372.69
349.128	349.69
349.355	345.69
349.583	367.69
349.81	361.69
350.037	342.69
350.265	343.69
350.492	335.69
350.72	339.69
350.947	357.69
351.174	381.69
351.402	371.69
351.629	371.69
351.856	370.69
352.083	366.69
352.311	388.69
352.538	387.69
352.765	373.69
352.992	366.69
353.22	375.69
353.447	349.69
353.674	371.69
353.901	358.69
354.128	343.69
354.355	343.69
354.583	348.69
354.81	366.69
355.037	342.69
355.264	321.69
355.491	316.69
355.718	318.69
355.945	333.69
356.172	337.69
356.399	329.69
356.626	327.69
356.853	341.69
357.08	323.69
357.307	335.69
357.534	318.69
357.761	336.69
357.988	358.69
358.215	333.69
358.441	331.69
358.668	339.69
358.895	351.69
359.122	351.69
359.349	353.69
359.576	374.69
359.802	373.69
360.029	437.69
360.256	438.69
360.483	386.69
360.709	361.69
360.936	377.69
361.163	375.69
361.39	377.69
361.616	363.69
361.843	369.69
362.07	361.69
362.296	376.69
362.523	377.69
362.749	362.69
362.976	369.69
363.203	362.69
363.429	335.69
363.656	350.69
363.882	353.69
364.109	347.69
364.335	348.69
364.562	355.69
364.788	346.69
365.015	341.69
365.241	352.69
365.468	353.69
365.694	357.69
365.92	362.69
366.147	349.69
366.373	346.69
366.599	346.69
366.826	335.69
367.052	328.69
367.278	326.69
367.505	349.69
367.731	322.69
367.957	323.69
368.184	343.69
368.41	343.69
368.636	357.69
368.862	355.69
369.089	347.69
369.315	361.69
369.541	322.69
369.767	334.69
369.993	352.69
370.219	336.69
370.445	344.69
370.672	340.69
370.898	349.69
371.124	318.69
371.35	339.69
371.576	333.69
371.802	337.69
372.028	325.69
372.254	335.69
372.48	335.69
372.706	342.69
372.932	343.69
373.158	330.69
373.384	339.69
373.61	349.69
373.835	346.69
374.061	322.69
374.287	346.69
374.513	346.69
374.739	348.69
374.965	332.69
375.191	347.69
375.416	341.69
375.642	336.69
375.868	343.69
376.094	332.69
376.319	339.69
376.545	312.69
376.771	347.69
376.997	333.69
377.222	343.69
377.448	334.69
377.674	326.69
377.899	333.69
378.125	324.69
378.35	311.69
378.576	325.69
378.802	328.69
379.027	333.69
379.253	311.69
379.478	326.69
379.704	323.69
379.929	323.69
380.155	336.69
380.38	342.69
380.606	342.69
380.831	325.69
381.057	341.69
381.282	341.69
381.507	341.69
381.733	334.69
381.958	341.69
382.184	333.69
382.409	339.69
382.634	342.69
382.86	329.69
383.085	327.69
383.31	347.69
383.535	354.69
383.761	349.69
383.986	335.69
384.211	355.69
384.436	348.69
384.662	343.69
384.887	356.69
385.112	349.69
385.337	374.69
385.562	357.69
385.787	374.69
386.013	374.69
386.238	359.69
386.463	379.69
386.688	357.69
386.913	365.69
387.138	356.69
387.363	369.69
387.588	347.69
387.813	367.69
388.038	336.69
388.263	374.69
388.488	353.69
388.713	347.69
388.938	365.69
389.163	365.69
389.387	365.69
389.612	351.69
389.837	357.69
390.062	371.69
390.287	350.69
390.512	371.69
390.736	359.69
390.961	360.69
391.186	369.69
391.411	375.69
391.636	356.69
391.86	361.69
392.085	367.69
392.31	366.69
392.534	350.69
392.759	360.69
392.984	372.69
393.208	373.69
393.433	354.69
393.658	370.69
393.882	347.69
394.107	380.69
394.331	348.69
394.556	356.69
394.78	370.69
395.005	368.69
395.229	362.69
395.454	375.69
395.678	366.69
395.903	363.69
396.127	404.69
396.352	405.69
396.576	397.69
396.801	375.69
397.025	379.69
397.249	381.69
397.474	380.69
397.698	386.69
397.922	401.69
398.147	402.69
398.371	427.69
398.595	404.69
398.82	419.69
399.044	397.69
399.268	418.69
399.492	414.69
399.717	457.69
399.941	460.69
400.165	477.69
400.389	498.69
400.613	453.69
400.837	439.69
401.062	429.69
401.286	430.69
401.51	415.69
401.734	423.69
401.958	431.69
402.182	420.69
402.406	442.69
402.63	427.69
402.854	419.69
403.078	403.69
403.302	411.69
403.526	442.69
403.75	449.69
403.974	422.69
404.198	431.69
404.422	434.69
404.645	431.69
404.869	439.69
405.093	469.69
405.317	493.69
405.541	530.69
405.765	487.69
405.988	436.69
406.212	473.69
406.436	499.69
406.66	477.69
406.883	461.69
407.107	482.69
407.331	500.69
407.555	597.69
407.778	573.69
408.002	536.69
408.226	501.69
408.449	484.69
408.673	486.69
408.896	503.69
409.12	530.69
409.344	507.69
409.567	451.69
409.791	446.69
410.014	441.69
410.238	423.69
410.461	442.69
410.685	430.69
410.908	427.69
411.132	471.69
411.355	517.69
411.578	462.69
411.802	433.69
412.025	421.69
412.249	437.69
412.472	468.69
412.695	509.69
412.919	478.69
413.142	441.69
413.365	442.69
413.589	428.69
413.812	405.69
414.035	443.69
414.258	414.69
414.482	400.69
414.705	395.69
414.928	404.69
415.151	385.69
415.374	395.69
415.597	411.69
415.821	409.69
416.044	402.69
416.267	414.69
416.49	379.69
416.713	380.69
416.936	417.69
417.159	421.69
417.382	407.69
417.605	403.69
417.828	425.69
418.051	460.69
418.274	433.69
418.497	407.69
418.72	420.69
418.943	410.69
419.166	413.69
419.389	424.69
419.611	436.69
419.834	431.69
420.057	429.69
420.28	423.69
420.503	439.69
420.726	443.69
420.948	453.69
421.171	471.69
421.394	491.69
421.617	452.69
421.839	421.69
422.062	440.69
422.285	437.69
422.507	527.69
422.73	548.69
422.953	522.69
423.175	458.69
423.398	453.69
423.621	446.69
423.843	458.69
424.066	449.69
424.288	461.69
424.511	502.69
424.733	554.69
424.956	596.69
425.178	575.69
425.401	578.69
425.623	605.69
425.846	519.69
426.068	479.69
426.291	499.69
426.513	474.69
426.735	481.69
426.958	517.69
427.18	594.69
427.402	714.69
427.625	791.69
427.847	714.69
428.069	610.69
428.292	535.69
428.514	467.69
428.736	468.69
428.958	460.69
429.181	443.69
429.403	439.69
429.625	450.69
429.847	471.69
430.069	509.69
430.292	508.69
430.514	480.69
430.736	463.69
430.958	433.69
431.18	417.69
431.402	417.69
431.624	420.69
431.846	423.69
432.068	413.69
432.29	395.69
432.512	419.69
432.734	418.69
432.956	414.69
433.178	428.69
433.4	453.69
433.622	412.69
433.844	414.69
434.066	409.69
434.287	398.69
434.509	411.69
434.731	428.69
434.953	422.69
435.175	441.69
435.397	469.69
435.618	476.69
435.84	517.69
436.062	592.69
436.284	639.69
436.505	567.69
436.727	473.69
436.949	438.69
437.17	437.69
437.392	446.69
437.614	456.69
437.835	493.69
438.057	604.69
438.278	673.69
438.5	657.69
438.721	721.69
438.943	695.69
439.165	570.69
439.386	527.69
439.608	492.69
439.829	515.69
440.05	539.69
440.272	579.69
440.493	566.69
440.715	477.69
440.936	447.69
441.158	458.69
441.379	455.69
441.6	454.69
441.822	467.69
442.043	538.69
442.264	593.69
442.486	632.69
442.707	553.69
442.928	504.69
443.149	482.69
443.371	526.69
443.592	583.69
443.813	636.69
444.034	684.69
444.255	581.69
444.476	494.69
444.698	504.69
444.919	478.69
445.14	552.69
445.361	535.69
445.582	515.69
445.803	593.69
446.024	681.69
446.245	686.69
446.466	629.69
446.687	527.69
446.908	511.69
447.129	467.69
447.35	460.69
447.571	442.69
447.792	439.69
448.013	444.69
448.234	466.69
448.455	512.69
448.675	621.69
448.896	707.69
449.117	609.69
449.338	579.69
449.559	668.69
449.779	733.69
450	614.69
450.221	486.69
450.442	469.69
450.662	459.69
450.883	467.69
451.104	486.69
451.324	449.69
451.545	457.69
451.766	419.69
451.986	408.69
452.207	393.69
452.428	393.69
452.648	410.69
452.869	404.69
453.089	402.69
453.31	435.69
453.53	410.69
453.751	405.69
453.971	405.69
454.192	441.69
454.412	441.69
454.633	412.69
454.853	393.69
455.073	401.69
455.294	419.69
455.514	490.69
455.734	492.69
455.955	411.69
456.175	391.69
456.395	379.69
456.616	381.69
456.836	393.69
457.056	366.69
457.276	355.69
457.497	380.69
457.717	377.69
457.937	381.69
458.157	365.69
458.377	390.69
458.598	405.69
458.818	478.69
459.038	570.69
459.258	579.69
459.478	457.69
459.698	440.69
459.918	437.69
460.138	431.69
460.358	395.69
460.578	433.69
460.798	437.69
461.018	414.69
461.238	404.69
461.458	412.69
461.678	417.69
461.898	399.69
462.118	415.69
462.338	424.69
462.558	430.69
462.777	440.69
462.997	424.69
463.217	441.69
463.437	424.69
463.657	412.69
463.876	428.69
464.096	444.69
464.316	435.69
464.536	450.69
464.755	444.69
464.975	456.69
465.195	517.69
465.414	589.69
465.634	506.69
465.854	450.69
466.073	437.69
466.293	444.69
466.512	420.69
466.732	423.69
466.951	388.69
467.171	423.69
467.391	430.69
467.61	429.69
467.829	444.69
468.049	430.69
468.268	423.69
468.488	419.69
468.707	399.69
468.927	392.69
469.146	405.69
469.365	438.69
469.585	395.69
469.804	404.69
470.023	399.69
470.243	429.69
470.462	422.69
470.681	425.69
470.901	435.69
471.12	457.69
471.339	397.69
471.558	420.69
471.777	420.69
471.997	404.69
472.216	422.69
472.435	476.69
472.654	443.69
472.873	431.69
473.092	423.69
473.311	422.69
473.53	421.69
473.749	428.69
473.968	467.69
474.187	571.69
474.406	591.69
474.625	479.69
474.844	451.69
475.063	431.69
475.282	414.69
475.501	406.69
475.72	429.69
475.939	396.69
476.158	412.69
476.377	425.69
476.596	425.69
476.814	431.69
477.033	460.69
477.252	436.69
477.471	446.69
477.69	439.69
477.908	444.69
478.127	438.69
478.346	453.69
478.564	451.69
478.783	445.69
479.002	463.69
479.22	471.69
479.439	499.69
479.658	475.69
479.876	511.69
480.095	497.69
480.313	509.69
480.532	522.69
480.751	513.69
480.969	516.69
481.188	584.69
481.406	652.69
481.624	555.69
481.843	538.69
482.061	496.69
482.28	503.69
482.498	487.69
482.717	478.69
482.935	494.69
483.153	494.69
483.372	484.69
483.59	477.69
483.808	482.69
484.027	479.69
484.245	493.69
484.463	492.69
484.681	501.69
484.9	497.69
485.118	492.69
485.336	508.69
485.554	507.69
485.772	513.69
485.99	524.69
486.209	495.69
486.427	502.69
486.645	542.69
486.863	514.69
487.081	540.69
487.299	537.69
487.517	520.69
487.735	526.69
487.953	527.69
488.171	526.69
488.389	520.69
488.607	531.69
488.825	524.69
489.043	547.69
489.261	541.69
489.479	541.69
489.696	535.69
489.914	547.69
490.132	541.69
490.35	571.69
490.568	575.69
490.786	569.69
491.003	558.69
491.221	559.69
491.439	586.69
491.657	584.69
491.874	594.69
492.092	587.69
492.31	585.69
492.527	578.69
492.745	599.69
492.963	612.69
493.18	604.69
493.398	614.69
493.615	630.69
493.833	618.69
494.05	599.69
494.268	604.69
494.485	598.69
494.703	603.69
494.92	631.69
495.138	606.69
495.355	622.69
495.573	623.69
495.79	614.69
496.008	615.69
496.225	612.69
496.442	623.69
496.66	611.69
496.877	629.69
497.094	627.69
497.312	627.69
497.529	630.69
497.746	619.69
497.963	641.69
498.181	659.69
498.398	663.69
498.615	668.69
498.832	687.69
499.049	711.69
499.267	707.69
499.484	715.69
499.701	691.69
499.918	703.69
500.135	739.69
500.352	774.69
500.569	783.69
500.786	786.69
501.003	742.69
501.22	765.69
501.437	778.69
501.654	762.69
501.871	750.69
