Data from 1961.PennyLincolnUp.Lamp.En5.5.200Scan.071719.P1._HRD10591_13-47-09-057.txt Node
Date: Thu Jul 18 13:47:09 EDT 2019
User: cochatt
Spectrometer: HR+D1059
Trigger mode: 1
Integration Time (sec): 1.000000E-1
Scans to average: 1
Electric dark correction enabled: true
Nonlinearity correction enabled: false
Boxcar width: 0
XAxis mode: Wavelengths
Number of Pixels in Spectrum: 2048
>>>>>Begin Spectral Data<<<<<
223.165	-19.19
223.4	-19.19
223.635	-19.19
223.869	-22.19
224.104	-5.19
224.338	-13.19
224.573	-24.19
224.808	-29.19
225.042	-7.19
225.277	-4.19
225.511	6.81
225.746	11.81
225.98	8.81
226.215	13.81
226.449	29.81
226.683	19.81
226.918	19.81
227.152	13.81
227.387	39.81
227.621	43.81
227.856	41.81
228.09	52.81
228.324	56.81
228.559	46.81
228.793	69.81
229.027	81.81
229.262	96.81
229.496	102.81
229.73	108.81
229.964	138.81
230.199	126.81
230.433	105.81
230.667	115.81
230.901	99.81
231.136	104.81
231.37	98.81
231.604	97.81
231.838	106.81
232.072	99.81
232.306	104.81
232.541	107.81
232.775	104.81
233.009	106.81
233.243	95.81
233.477	118.81
233.711	109.81
233.945	97.81
234.179	106.81
234.413	106.81
234.647	101.81
234.881	100.81
235.115	109.81
235.349	93.81
235.583	106.81
235.817	111.81
236.051	115.81
236.285	119.81
236.519	101.81
236.753	112.81
236.987	121.81
237.221	159.81
237.455	197.81
237.689	156.81
237.922	129.81
238.156	119.81
238.39	116.81
238.624	112.81
238.858	104.81
239.091	118.81
239.325	114.81
239.559	113.81
239.793	131.81
240.027	122.81
240.26	120.81
240.494	118.81
240.728	116.81
240.961	124.81
241.195	128.81
241.429	132.81
241.662	121.81
241.896	123.81
242.13	102.81
242.363	106.81
242.597	99.81
242.83	119.81
243.064	116.81
243.298	117.81
243.531	112.81
243.765	116.81
243.998	120.81
244.232	109.81
244.465	111.81
244.699	117.81
244.932	118.81
245.166	131.81
245.399	125.81
245.633	132.81
245.866	120.81
246.099	132.81
246.333	116.81
246.566	125.81
246.8	115.81
247.033	134.81
247.266	125.81
247.5	125.81
247.733	149.81
247.966	156.81
248.2	149.81
248.433	128.81
248.666	147.81
248.899	159.81
249.133	159.81
249.366	177.81
249.599	167.81
249.832	153.81
250.066	162.81
250.299	168.81
250.532	176.81
250.765	165.81
250.998	165.81
251.231	180.81
251.465	173.81
251.698	185.81
251.931	161.81
252.164	157.81
252.397	175.81
252.63	160.81
252.863	164.81
253.096	170.81
253.329	177.81
253.562	197.81
253.795	184.81
254.028	176.81
254.261	163.81
254.494	187.81
254.727	191.81
254.96	218.81
255.193	221.81
255.426	183.81
255.659	181.81
255.892	191.81
256.124	187.81
256.357	187.81
256.59	189.81
256.823	184.81
257.056	181.81
257.289	183.81
257.521	163.81
257.754	175.81
257.987	175.81
258.22	170.81
258.452	178.81
258.685	175.81
258.918	175.81
259.151	171.81
259.383	181.81
259.616	177.81
259.849	187.81
260.081	187.81
260.314	208.81
260.547	193.81
260.779	188.81
261.012	184.81
261.244	178.81
261.477	197.81
261.71	186.81
261.942	183.81
262.175	200.81
262.407	191.81
262.64	176.81
262.872	175.81
263.105	173.81
263.337	172.81
263.57	166.81
263.802	195.81
264.035	168.81
264.267	175.81
264.499	167.81
264.732	178.81
264.964	177.81
265.197	164.81
265.429	179.81
265.661	156.81
265.894	166.81
266.126	185.81
266.358	181.81
266.591	161.81
266.823	159.81
267.055	176.81
267.287	185.81
267.52	180.81
267.752	194.81
267.984	181.81
268.216	196.81
268.448	196.81
268.681	183.81
268.913	195.81
269.145	213.81
269.377	220.81
269.609	217.81
269.841	207.81
270.073	213.81
270.306	227.81
270.538	257.81
270.77	251.81
271.002	258.81
271.234	237.81
271.466	219.81
271.698	216.81
271.93	232.81
272.162	266.81
272.394	241.81
272.626	239.81
272.858	223.81
273.09	222.81
273.322	228.81
273.553	216.81
273.785	215.81
274.017	200.81
274.249	224.81
274.481	230.81
274.713	228.81
274.945	229.81
275.176	196.81
275.408	211.81
275.64	216.81
275.872	210.81
276.104	207.81
276.335	212.81
276.567	210.81
276.799	220.81
277.031	235.81
277.262	247.81
277.494	245.81
277.726	237.81
277.957	231.81
278.189	231.81
278.421	228.81
278.652	224.81
278.884	210.81
279.115	201.81
279.347	209.81
279.579	209.81
279.81	208.81
280.042	212.81
280.273	210.81
280.505	217.81
280.736	201.81
280.968	218.81
281.199	221.81
281.431	214.81
281.662	227.81
281.894	189.81
282.125	216.81
282.356	235.81
282.588	232.81
282.819	250.81
283.051	223.81
283.282	208.81
283.513	215.81
283.745	218.81
283.976	219.81
284.207	218.81
284.439	218.81
284.67	210.81
284.901	213.81
285.132	220.81
285.364	218.81
285.595	228.81
285.826	205.81
286.057	224.81
286.288	219.81
286.52	216.81
286.751	219.81
286.982	226.81
287.213	217.81
287.444	220.81
287.675	208.81
287.906	230.81
288.138	232.81
288.369	229.81
288.6	243.81
288.831	242.81
289.062	229.81
289.293	228.81
289.524	220.81
289.755	216.81
289.986	207.81
290.217	222.81
290.448	227.81
290.679	228.81
290.91	234.81
291.141	217.81
291.371	224.81
291.602	218.81
291.833	228.81
292.064	226.81
292.295	225.81
292.526	212.81
292.757	207.81
292.987	200.81
293.218	215.81
293.449	221.81
293.68	214.81
293.91	227.81
294.141	224.81
294.372	232.81
294.603	224.81
294.833	226.81
295.064	233.81
295.295	244.81
295.525	226.81
295.756	220.81
295.987	235.81
296.217	267.81
296.448	272.81
296.679	241.81
296.909	229.81
297.14	235.81
297.37	234.81
297.601	237.81
297.831	234.81
298.062	231.81
298.292	239.81
298.523	231.81
298.753	242.81
298.984	232.81
299.214	226.81
299.445	232.81
299.675	235.81
299.905	242.81
300.136	228.81
300.366	229.81
300.597	236.81
300.827	250.81
301.057	251.81
301.288	253.81
301.518	220.81
301.748	228.81
301.979	261.81
302.209	255.81
302.439	258.81
302.669	248.81
302.9	247.81
303.13	256.81
303.36	250.81
303.59	253.81
303.82	263.81
304.051	267.81
304.281	275.81
304.511	239.81
304.741	248.81
304.971	253.81
305.201	252.81
305.431	247.81
305.661	245.81
305.891	235.81
306.121	257.81
306.352	275.81
306.582	261.81
306.812	256.81
307.042	258.81
307.272	248.81
307.502	257.81
307.731	242.81
307.961	251.81
308.191	249.81
308.421	265.81
308.651	269.81
308.881	242.81
309.111	249.81
309.341	240.81
309.571	275.81
309.8	275.81
310.03	297.81
310.26	307.81
310.49	315.81
310.72	321.81
310.949	312.81
311.179	313.81
311.409	306.81
311.639	301.81
311.868	309.81
312.098	320.81
312.328	288.81
312.557	312.81
312.787	339.81
313.017	328.81
313.246	319.81
313.476	281.81
313.706	299.81
313.935	296.81
314.165	307.81
314.394	311.81
314.624	317.81
314.853	316.81
315.083	309.81
315.312	287.81
315.542	289.81
315.771	290.81
316.001	285.81
316.23	281.81
316.46	308.81
316.689	289.81
316.919	305.81
317.148	293.81
317.377	309.81
317.607	318.81
317.836	317.81
318.065	286.81
318.295	278.81
318.524	281.81
318.753	284.81
318.983	291.81
319.212	303.81
319.441	298.81
319.67	299.81
319.9	305.81
320.129	298.81
320.358	295.81
320.587	290.81
320.816	311.81
321.046	317.81
321.275	318.81
321.504	317.81
321.733	332.81
321.962	332.81
322.191	323.81
322.42	337.81
322.649	372.81
322.878	351.81
323.108	362.81
323.337	390.81
323.566	403.81
323.795	436.81
324.024	503.81
324.253	614.81
324.482	894.81
324.71	1401.81
324.939	1935.81
325.168	1621.81
325.397	863.81
325.626	573.81
325.855	489.81
326.084	438.81
326.313	419.81
326.542	442.81
326.77	460.81
326.999	559.81
327.228	784.81
327.457	1233.81
327.686	1421.81
327.914	972.81
328.143	654.81
328.372	548.81
328.6	526.81
328.829	496.81
329.058	485.81
329.287	486.81
329.515	469.81
329.744	436.81
329.972	401.81
330.201	436.81
330.43	495.81
330.658	505.81
330.887	522.81
331.115	489.81
331.344	441.81
331.572	415.81
331.801	401.81
332.03	396.81
332.258	368.81
332.486	354.81
332.715	356.81
332.943	367.81
333.172	355.81
333.4	328.81
333.629	356.81
333.857	404.81
334.085	387.81
334.314	409.81
334.542	445.81
334.771	454.81
334.999	410.81
335.227	380.81
335.455	365.81
335.684	361.81
335.912	345.81
336.14	359.81
336.369	353.81
336.597	353.81
336.825	363.81
337.053	342.81
337.281	344.81
337.51	338.81
337.738	354.81
337.966	362.81
338.194	336.81
338.422	357.81
338.65	338.81
338.878	329.81
339.106	326.81
339.334	312.81
339.562	337.81
339.79	321.81
340.018	327.81
340.246	340.81
340.474	323.81
340.702	342.81
340.93	343.81
341.158	338.81
341.386	320.81
341.614	327.81
341.842	332.81
342.07	330.81
342.298	338.81
342.526	351.81
342.754	310.81
342.981	337.81
343.209	319.81
343.437	308.81
343.665	332.81
343.893	323.81
344.12	338.81
344.348	348.81
344.576	340.81
344.804	336.81
345.031	340.81
345.259	357.81
345.487	343.81
345.714	338.81
345.942	340.81
346.17	322.81
346.397	337.81
346.625	314.81
346.853	326.81
347.08	332.81
347.308	323.81
347.535	326.81
347.763	345.81
347.99	338.81
348.218	345.81
348.445	329.81
348.673	343.81
348.9	295.81
349.128	322.81
349.355	307.81
349.583	337.81
349.81	322.81
350.037	320.81
350.265	328.81
350.492	327.81
350.72	312.81
350.947	324.81
351.174	343.81
351.402	346.81
351.629	336.81
351.856	329.81
352.083	332.81
352.311	346.81
352.538	333.81
352.765	345.81
352.992	353.81
353.22	321.81
353.447	354.81
353.674	330.81
353.901	330.81
354.128	295.81
354.355	305.81
354.583	302.81
354.81	304.81
355.037	299.81
355.264	291.81
355.491	315.81
355.718	283.81
355.945	313.81
356.172	305.81
356.399	291.81
356.626	299.81
356.853	313.81
357.08	288.81
357.307	307.81
357.534	305.81
357.761	303.81
357.988	300.81
358.215	303.81
358.441	311.81
358.668	311.81
358.895	322.81
359.122	317.81
359.349	318.81
359.576	327.81
359.802	350.81
360.029	381.81
360.256	387.81
360.483	364.81
360.709	339.81
360.936	312.81
361.163	325.81
361.39	330.81
361.616	341.81
361.843	318.81
362.07	319.81
362.296	342.81
362.523	323.81
362.749	337.81
362.976	317.81
363.203	319.81
363.429	323.81
363.656	301.81
363.882	325.81
364.109	309.81
364.335	316.81
364.562	314.81
364.788	330.81
365.015	310.81
365.241	315.81
365.468	322.81
365.694	318.81
365.92	327.81
366.147	323.81
366.373	298.81
366.599	302.81
366.826	311.81
367.052	316.81
367.278	319.81
367.505	320.81
367.731	291.81
367.957	307.81
368.184	319.81
368.41	325.81
368.636	340.81
368.862	331.81
369.089	309.81
369.315	314.81
369.541	326.81
369.767	307.81
369.993	309.81
370.219	304.81
370.445	336.81
370.672	316.81
370.898	325.81
371.124	298.81
371.35	312.81
371.576	314.81
371.802	312.81
372.028	307.81
372.254	311.81
372.48	315.81
372.706	322.81
372.932	318.81
373.158	321.81
373.384	317.81
373.61	313.81
373.835	309.81
374.061	321.81
374.287	311.81
374.513	314.81
374.739	315.81
374.965	321.81
375.191	321.81
375.416	315.81
375.642	303.81
375.868	323.81
376.094	320.81
376.319	294.81
376.545	305.81
376.771	316.81
376.997	309.81
377.222	296.81
377.448	298.81
377.674	311.81
377.899	300.81
378.125	307.81
378.35	268.81
378.576	300.81
378.802	311.81
379.027	300.81
379.253	315.81
379.478	311.81
379.704	300.81
379.929	299.81
380.155	305.81
380.38	297.81
380.606	301.81
380.831	305.81
381.057	318.81
381.282	305.81
381.507	317.81
381.733	315.81
381.958	310.81
382.184	334.81
382.409	317.81
382.634	311.81
382.86	316.81
383.085	315.81
383.31	309.81
383.535	316.81
383.761	315.81
383.986	315.81
384.211	299.81
384.436	313.81
384.662	313.81
384.887	309.81
385.112	310.81
385.337	321.81
385.562	312.81
385.787	317.81
386.013	335.81
386.238	340.81
386.463	345.81
386.688	331.81
386.913	339.81
387.138	337.81
387.363	333.81
387.588	330.81
387.813	342.81
388.038	337.81
388.263	331.81
388.488	328.81
388.713	321.81
388.938	334.81
389.163	335.81
389.387	339.81
389.612	342.81
389.837	330.81
390.062	303.81
390.287	333.81
390.512	340.81
390.736	323.81
390.961	339.81
391.186	321.81
391.411	327.81
391.636	334.81
391.86	346.81
392.085	334.81
392.31	326.81
392.534	332.81
392.759	342.81
392.984	327.81
393.208	338.81
393.433	344.81
393.658	338.81
393.882	341.81
394.107	332.81
394.331	344.81
394.556	327.81
394.78	340.81
395.005	337.81
395.229	309.81
395.454	339.81
395.678	330.81
395.903	345.81
396.127	378.81
396.352	354.81
396.576	359.81
396.801	339.81
397.025	365.81
397.249	341.81
397.474	360.81
397.698	352.81
397.922	371.81
398.147	375.81
398.371	378.81
398.595	375.81
398.82	345.81
399.044	368.81
399.268	385.81
399.492	390.81
399.717	417.81
399.941	417.81
400.165	438.81
400.389	473.81
400.613	432.81
400.837	406.81
401.062	385.81
401.286	383.81
401.51	381.81
401.734	386.81
401.958	383.81
402.182	391.81
402.406	379.81
402.63	372.81
402.854	375.81
403.078	370.81
403.302	387.81
403.526	408.81
403.75	383.81
403.974	401.81
404.198	387.81
404.422	375.81
404.645	377.81
404.869	401.81
405.093	418.81
405.317	446.81
405.541	475.81
405.765	453.81
405.988	421.81
406.212	416.81
406.436	458.81
406.66	436.81
406.883	447.81
407.107	469.81
407.331	483.81
407.555	491.81
407.778	517.81
408.002	478.81
408.226	420.81
408.449	425.81
408.673	433.81
408.896	466.81
409.12	465.81
409.344	454.81
409.567	407.81
409.791	419.81
410.014	405.81
410.238	376.81
410.461	395.81
410.685	411.81
410.908	416.81
411.132	425.81
411.355	446.81
411.578	424.81
411.802	409.81
412.025	406.81
412.249	414.81
412.472	441.81
412.695	458.81
412.919	453.81
413.142	409.81
413.365	391.81
413.589	383.81
413.812	364.81
414.035	378.81
414.258	374.81
414.482	387.81
414.705	382.81
414.928	368.81
415.151	365.81
415.374	376.81
415.597	373.81
415.821	375.81
416.044	368.81
416.267	367.81
416.49	355.81
416.713	354.81
416.936	363.81
417.159	373.81
417.382	361.81
417.605	383.81
417.828	389.81
418.051	381.81
418.274	375.81
418.497	358.81
418.72	383.81
418.943	381.81
419.166	370.81
419.389	382.81
419.611	386.81
419.834	381.81
420.057	391.81
420.28	394.81
420.503	407.81
420.726	391.81
420.948	379.81
421.171	420.81
421.394	435.81
421.617	411.81
421.839	382.81
422.062	407.81
422.285	425.81
422.507	443.81
422.73	510.81
422.953	493.81
423.175	432.81
423.398	412.81
423.621	403.81
423.843	428.81
424.066	424.81
424.288	417.81
424.511	447.81
424.733	481.81
424.956	547.81
425.178	513.81
425.401	532.81
425.623	523.81
425.846	451.81
426.068	436.81
426.291	421.81
426.513	436.81
426.735	451.81
426.958	448.81
427.18	527.81
427.402	611.81
427.625	705.81
427.847	635.81
428.069	567.81
428.292	479.81
428.514	448.81
428.736	435.81
428.958	443.81
429.181	400.81
429.403	392.81
429.625	398.81
429.847	434.81
430.069	476.81
430.292	465.81
430.514	409.81
430.736	392.81
430.958	395.81
431.18	395.81
431.402	387.81
431.624	388.81
431.846	360.81
432.068	371.81
432.29	379.81
432.512	368.81
432.734	384.81
432.956	394.81
433.178	402.81
433.4	387.81
433.622	365.81
433.844	376.81
434.066	399.81
434.287	385.81
434.509	381.81
434.731	393.81
434.953	389.81
435.175	389.81
435.397	432.81
435.618	426.81
435.84	460.81
436.062	551.81
436.284	601.81
436.505	490.81
436.727	435.81
436.949	436.81
437.17	405.81
437.392	414.81
437.614	425.81
437.835	450.81
438.057	539.81
438.278	597.81
438.5	590.81
438.721	631.81
438.943	606.81
439.165	531.81
439.386	460.81
439.608	458.81
439.829	442.81
440.05	457.81
440.272	502.81
440.493	505.81
440.715	439.81
440.936	397.81
441.158	387.81
441.379	401.81
441.6	413.81
441.822	443.81
442.043	470.81
442.264	507.81
442.486	551.81
442.707	486.81
442.928	449.81
443.149	467.81
443.371	472.81
443.592	495.81
443.813	553.81
444.034	610.81
444.255	501.81
444.476	449.81
444.698	428.81
444.919	424.81
445.14	488.81
445.361	479.81
445.582	499.81
445.803	525.81
446.024	616.81
446.245	604.81
446.466	582.81
446.687	462.81
446.908	444.81
447.129	428.81
447.35	394.81
447.571	398.81
447.792	407.81
448.013	398.81
448.234	416.81
448.455	479.81
448.675	551.81
448.896	640.81
449.117	553.81
449.338	517.81
449.559	579.81
449.779	647.81
450	525.81
450.221	463.81
450.442	432.81
450.662	392.81
450.883	417.81
451.104	411.81
451.324	410.81
451.545	379.81
451.766	392.81
451.986	396.81
452.207	374.81
452.428	345.81
452.648	367.81
452.869	368.81
453.089	368.81
453.31	396.81
453.53	387.81
453.751	360.81
453.971	379.81
454.192	391.81
454.412	377.81
454.633	371.81
454.853	369.81
455.073	379.81
455.294	397.81
455.514	446.81
455.734	412.81
455.955	369.81
456.175	347.81
456.395	354.81
456.616	354.81
456.836	339.81
457.056	354.81
457.276	343.81
457.497	348.81
457.717	346.81
457.937	341.81
458.157	347.81
458.377	382.81
458.598	377.81
458.818	433.81
459.038	513.81
459.258	489.81
459.478	425.81
459.698	388.81
459.918	389.81
460.138	380.81
460.358	375.81
460.578	371.81
460.798	404.81
461.018	393.81
461.238	401.81
461.458	370.81
461.678	371.81
461.898	389.81
462.118	373.81
462.338	379.81
462.558	372.81
462.777	388.81
462.997	377.81
463.217	391.81
463.437	398.81
463.657	380.81
463.876	401.81
464.096	409.81
464.316	391.81
464.536	410.81
464.755	405.81
464.975	393.81
465.195	440.81
465.414	525.81
465.634	457.81
465.854	415.81
466.073	408.81
466.293	389.81
466.512	383.81
466.732	364.81
466.951	374.81
467.171	384.81
467.391	371.81
467.61	395.81
467.829	379.81
468.049	371.81
468.268	380.81
468.488	391.81
468.707	360.81
468.927	357.81
469.146	367.81
469.365	351.81
469.585	380.81
469.804	391.81
470.023	378.81
470.243	372.81
470.462	372.81
470.681	404.81
470.901	383.81
471.12	372.81
471.339	377.81
471.558	392.81
471.777	379.81
471.997	377.81
472.216	395.81
472.435	426.81
472.654	391.81
472.873	405.81
473.092	368.81
473.311	377.81
473.53	378.81
473.749	383.81
473.968	412.81
474.187	507.81
474.406	522.81
474.625	415.81
474.844	403.81
475.063	388.81
475.282	397.81
475.501	381.81
475.72	379.81
475.939	385.81
476.158	404.81
476.377	388.81
476.596	410.81
476.814	387.81
477.033	423.81
477.252	420.81
477.471	398.81
477.69	385.81
477.908	398.81
478.127	421.81
478.346	412.81
478.564	409.81
478.783	420.81
479.002	419.81
479.22	423.81
479.439	461.81
479.658	444.81
479.876	441.81
480.095	461.81
480.313	464.81
480.532	457.81
480.751	464.81
480.969	446.81
481.188	540.81
481.406	583.81
481.624	510.81
481.843	467.81
482.061	457.81
482.28	443.81
482.498	453.81
482.717	445.81
482.935	450.81
483.153	461.81
483.372	451.81
483.59	415.81
483.808	423.81
484.027	455.81
484.245	414.81
484.463	443.81
484.681	475.81
484.9	450.81
485.118	453.81
485.336	449.81
485.554	447.81
485.772	440.81
485.99	443.81
486.209	465.81
486.427	460.81
486.645	467.81
486.863	473.81
487.081	477.81
487.299	469.81
487.517	465.81
487.735	470.81
487.953	454.81
488.171	455.81
488.389	476.81
488.607	472.81
488.825	495.81
489.043	483.81
489.261	476.81
489.479	475.81
489.696	491.81
489.914	472.81
490.132	478.81
490.35	489.81
490.568	515.81
490.786	484.81
491.003	504.81
491.221	518.81
491.439	525.81
491.657	523.81
491.874	516.81
492.092	549.81
492.31	536.81
492.527	539.81
492.745	544.81
492.963	539.81
493.18	552.81
493.398	540.81
493.615	541.81
493.833	545.81
494.05	546.81
494.268	545.81
494.485	559.81
494.703	561.81
494.92	555.81
495.138	573.81
495.355	563.81
495.573	565.81
495.79	564.81
496.008	541.81
496.225	572.81
496.442	556.81
496.66	551.81
496.877	573.81
497.094	565.81
497.312	554.81
497.529	581.81
497.746	595.81
497.963	581.81
498.181	631.81
498.398	623.81
498.615	597.81
498.832	586.81
499.049	612.81
499.267	639.81
499.484	634.81
499.701	666.81
499.918	678.81
500.135	717.81
500.352	708.81
500.569	732.81
500.786	699.81
501.003	693.81
501.22	695.81
501.437	694.81
501.654	673.81
501.871	709.81
502.088	672.81
