Data from 1961.PennyLincolnUp.Lamp.En5.5.200Scan.071719.P1._HRD10591_13-47-42-057.txt Node
Date: Thu Jul 18 13:47:42 EDT 2019
User: cochatt
Spectrometer: HR+D1059
Trigger mode: 1
Integration Time (sec): 1.000000E-1
Scans to average: 1
Electric dark correction enabled: true
Nonlinearity correction enabled: false
Boxcar width: 0
XAxis mode: Wavelengths
Number of Pixels in Spectrum: 2048
>>>>>Begin Spectral Data<<<<<
223.165	-11.56
223.4	-11.56
223.635	-11.56
223.869	-17.56
224.104	-11.56
224.338	-12.56
224.573	-5.56
224.808	-14.56
225.042	-6.56
225.277	-12.56
225.511	-17.56
225.746	6.44
225.98	6.44
226.215	12.44
226.449	28.44
226.683	5.44
226.918	25.44
227.152	25.44
227.387	33.44
227.621	22.44
227.856	40.44
228.09	56.44
228.324	42.44
228.559	60.44
228.793	72.44
229.027	81.44
229.262	94.44
229.496	104.44
229.73	144.44
229.964	134.44
230.199	119.44
230.433	102.44
230.667	108.44
230.901	101.44
231.136	103.44
231.37	98.44
231.604	107.44
231.838	106.44
232.072	106.44
232.306	109.44
232.541	92.44
232.775	105.44
233.009	100.44
233.243	94.44
233.477	109.44
233.711	96.44
233.945	110.44
234.179	94.44
234.413	105.44
234.647	110.44
234.881	115.44
235.115	108.44
235.349	124.44
235.583	120.44
235.817	121.44
236.051	112.44
236.285	115.44
236.519	109.44
236.753	122.44
236.987	124.44
237.221	183.44
237.455	215.44
237.689	167.44
237.922	120.44
238.156	121.44
238.39	112.44
238.624	112.44
238.858	110.44
239.091	105.44
239.325	102.44
239.559	114.44
239.793	116.44
240.027	131.44
240.26	117.44
240.494	122.44
240.728	130.44
240.961	121.44
241.195	121.44
241.429	101.44
241.662	107.44
241.896	106.44
242.13	106.44
242.363	116.44
242.597	124.44
242.83	116.44
243.064	121.44
243.298	118.44
243.531	121.44
243.765	133.44
243.998	120.44
244.232	126.44
244.465	136.44
244.699	124.44
244.932	121.44
245.166	118.44
245.399	125.44
245.633	126.44
245.866	117.44
246.099	133.44
246.333	128.44
246.566	126.44
246.8	122.44
247.033	134.44
247.266	113.44
247.5	136.44
247.733	138.44
247.966	149.44
248.2	154.44
248.433	142.44
248.666	139.44
248.899	154.44
249.133	164.44
249.366	157.44
249.599	172.44
249.832	164.44
250.066	153.44
250.299	152.44
250.532	154.44
250.765	172.44
250.998	184.44
251.231	183.44
251.465	187.44
251.698	182.44
251.931	178.44
252.164	176.44
252.397	154.44
252.63	192.44
252.863	168.44
253.096	169.44
253.329	185.44
253.562	180.44
253.795	176.44
254.028	187.44
254.261	178.44
254.494	201.44
254.727	234.44
254.96	233.44
255.193	207.44
255.426	213.44
255.659	193.44
255.892	196.44
256.124	190.44
256.357	187.44
256.59	170.44
256.823	189.44
257.056	188.44
257.289	181.44
257.521	186.44
257.754	183.44
257.987	162.44
258.22	173.44
258.452	186.44
258.685	180.44
258.918	176.44
259.151	156.44
259.383	179.44
259.616	190.44
259.849	186.44
260.081	179.44
260.314	215.44
260.547	216.44
260.779	186.44
261.012	185.44
261.244	185.44
261.477	199.44
261.71	181.44
261.942	198.44
262.175	198.44
262.407	200.44
262.64	182.44
262.872	171.44
263.105	183.44
263.337	172.44
263.57	185.44
263.802	161.44
264.035	178.44
264.267	176.44
264.499	169.44
264.732	163.44
264.964	175.44
265.197	178.44
265.429	164.44
265.661	160.44
265.894	144.44
266.126	185.44
266.358	178.44
266.591	178.44
266.823	183.44
267.055	186.44
267.287	178.44
267.52	181.44
267.752	204.44
267.984	186.44
268.216	187.44
268.448	192.44
268.681	191.44
268.913	203.44
269.145	200.44
269.377	216.44
269.609	222.44
269.841	215.44
270.073	220.44
270.306	235.44
270.538	243.44
270.77	246.44
271.002	241.44
271.234	241.44
271.466	247.44
271.698	264.44
271.93	278.44
272.162	264.44
272.394	267.44
272.626	235.44
272.858	233.44
273.09	240.44
273.322	223.44
273.553	216.44
273.785	203.44
274.017	220.44
274.249	221.44
274.481	215.44
274.713	209.44
274.945	218.44
275.176	220.44
275.408	206.44
275.64	223.44
275.872	233.44
276.104	230.44
276.335	225.44
276.567	210.44
276.799	241.44
277.031	253.44
277.262	251.44
277.494	244.44
277.726	254.44
277.957	245.44
278.189	227.44
278.421	228.44
278.652	220.44
278.884	204.44
279.115	219.44
279.347	219.44
279.579	230.44
279.81	217.44
280.042	212.44
280.273	217.44
280.505	214.44
280.736	220.44
280.968	199.44
281.199	221.44
281.431	211.44
281.662	215.44
281.894	193.44
282.125	214.44
282.356	236.44
282.588	244.44
282.819	252.44
283.051	222.44
283.282	216.44
283.513	224.44
283.745	209.44
283.976	229.44
284.207	223.44
284.439	214.44
284.67	204.44
284.901	226.44
285.132	223.44
285.364	226.44
285.595	207.44
285.826	205.44
286.057	215.44
286.288	214.44
286.52	222.44
286.751	211.44
286.982	218.44
287.213	218.44
287.444	201.44
287.675	217.44
287.906	247.44
288.138	228.44
288.369	231.44
288.6	240.44
288.831	226.44
289.062	249.44
289.293	233.44
289.524	232.44
289.755	236.44
289.986	225.44
290.217	236.44
290.448	208.44
290.679	228.44
290.91	224.44
291.141	223.44
291.371	227.44
291.602	221.44
291.833	240.44
292.064	229.44
292.295	222.44
292.526	227.44
292.757	226.44
292.987	238.44
293.218	238.44
293.449	229.44
293.68	207.44
293.91	217.44
294.141	231.44
294.372	233.44
294.603	231.44
294.833	233.44
295.064	223.44
295.295	235.44
295.525	217.44
295.756	241.44
295.987	246.44
296.217	265.44
296.448	278.44
296.679	246.44
296.909	246.44
297.14	231.44
297.37	242.44
297.601	227.44
297.831	199.44
298.062	207.44
298.292	231.44
298.523	230.44
298.753	235.44
298.984	242.44
299.214	258.44
299.445	252.44
299.675	240.44
299.905	230.44
300.136	235.44
300.366	242.44
300.597	228.44
300.827	244.44
301.057	245.44
301.288	244.44
301.518	258.44
301.748	255.44
301.979	266.44
302.209	274.44
302.439	265.44
302.669	256.44
302.9	241.44
303.13	235.44
303.36	251.44
303.59	248.44
303.82	272.44
304.051	269.44
304.281	262.44
304.511	252.44
304.741	258.44
304.971	246.44
305.201	242.44
305.431	258.44
305.661	245.44
305.891	260.44
306.121	255.44
306.352	269.44
306.582	251.44
306.812	262.44
307.042	264.44
307.272	251.44
307.502	261.44
307.731	276.44
307.961	272.44
308.191	267.44
308.421	258.44
308.651	268.44
308.881	249.44
309.111	266.44
309.341	265.44
309.571	299.44
309.8	282.44
310.03	314.44
310.26	303.44
310.49	298.44
310.72	321.44
310.949	317.44
311.179	324.44
311.409	317.44
311.639	290.44
311.868	304.44
312.098	299.44
312.328	324.44
312.557	325.44
312.787	339.44
313.017	353.44
313.246	294.44
313.476	313.44
313.706	322.44
313.935	320.44
314.165	322.44
314.394	315.44
314.624	343.44
314.853	320.44
315.083	309.44
315.312	284.44
315.542	286.44
315.771	306.44
316.001	309.44
316.23	312.44
316.46	302.44
316.689	290.44
316.919	318.44
317.148	328.44
317.377	311.44
317.607	314.44
317.836	310.44
318.065	304.44
318.295	296.44
318.524	304.44
318.753	278.44
318.983	315.44
319.212	307.44
319.441	304.44
319.67	314.44
319.9	312.44
320.129	328.44
320.358	314.44
320.587	329.44
320.816	328.44
321.046	326.44
321.275	340.44
321.504	336.44
321.733	312.44
321.962	337.44
322.191	354.44
322.42	357.44
322.649	370.44
322.878	371.44
323.108	404.44
323.337	410.44
323.566	424.44
323.795	430.44
324.024	519.44
324.253	656.44
324.482	965.44
324.71	1469.44
324.939	2066.44
325.168	1758.44
325.397	895.44
325.626	605.44
325.855	498.44
326.084	465.44
326.313	461.44
326.542	456.44
326.77	489.44
326.999	598.44
327.228	858.44
327.457	1320.44
327.686	1528.44
327.914	1031.44
328.143	657.44
328.372	580.44
328.6	551.44
328.829	506.44
329.058	536.44
329.287	523.44
329.515	474.44
329.744	457.44
329.972	464.44
330.201	458.44
330.43	502.44
330.658	543.44
330.887	517.44
331.115	529.44
331.344	480.44
331.572	412.44
331.801	407.44
332.03	432.44
332.258	399.44
332.486	366.44
332.715	351.44
332.943	387.44
333.172	362.44
333.4	364.44
333.629	369.44
333.857	359.44
334.085	411.44
334.314	404.44
334.542	454.44
334.771	450.44
334.999	421.44
335.227	380.44
335.455	362.44
335.684	356.44
335.912	361.44
336.14	338.44
336.369	338.44
336.597	360.44
336.825	364.44
337.053	360.44
337.281	361.44
337.51	340.44
337.738	357.44
337.966	337.44
338.194	338.44
338.422	355.44
338.65	333.44
338.878	352.44
339.106	344.44
339.334	348.44
339.562	355.44
339.79	357.44
340.018	335.44
340.246	331.44
340.474	333.44
340.702	342.44
340.93	338.44
341.158	352.44
341.386	340.44
341.614	348.44
341.842	359.44
342.07	338.44
342.298	344.44
342.526	343.44
342.754	335.44
342.981	337.44
343.209	318.44
343.437	342.44
343.665	323.44
343.893	302.44
344.12	346.44
344.348	340.44
344.576	342.44
344.804	345.44
345.031	347.44
345.259	368.44
345.487	363.44
345.714	358.44
345.942	341.44
346.17	337.44
346.397	334.44
346.625	319.44
346.853	347.44
347.08	335.44
347.308	322.44
347.535	330.44
347.763	364.44
347.99	327.44
348.218	346.44
348.445	352.44
348.673	331.44
348.9	339.44
349.128	318.44
349.355	332.44
349.583	300.44
349.81	318.44
350.037	333.44
350.265	332.44
350.492	340.44
350.72	317.44
350.947	329.44
351.174	332.44
351.402	337.44
351.629	342.44
351.856	354.44
352.083	370.44
352.311	350.44
352.538	360.44
352.765	348.44
352.992	342.44
353.22	339.44
353.447	320.44
353.674	342.44
353.901	313.44
354.128	319.44
354.355	306.44
354.583	320.44
354.81	319.44
355.037	305.44
355.264	307.44
355.491	311.44
355.718	292.44
355.945	308.44
356.172	327.44
356.399	322.44
356.626	309.44
356.853	311.44
357.08	321.44
357.307	305.44
357.534	310.44
357.761	306.44
357.988	315.44
358.215	310.44
358.441	327.44
358.668	306.44
358.895	309.44
359.122	310.44
359.349	313.44
359.576	342.44
359.802	356.44
360.029	390.44
360.256	404.44
360.483	379.44
360.709	353.44
360.936	326.44
361.163	333.44
361.39	334.44
361.616	357.44
361.843	312.44
362.07	347.44
362.296	334.44
362.523	349.44
362.749	338.44
362.976	331.44
363.203	315.44
363.429	301.44
363.656	314.44
363.882	335.44
364.109	313.44
364.335	321.44
364.562	310.44
364.788	309.44
365.015	326.44
365.241	324.44
365.468	310.44
365.694	324.44
365.92	325.44
366.147	331.44
366.373	336.44
366.599	321.44
366.826	323.44
367.052	290.44
367.278	314.44
367.505	320.44
367.731	313.44
367.957	302.44
368.184	316.44
368.41	308.44
368.636	316.44
368.862	340.44
369.089	345.44
369.315	314.44
369.541	303.44
369.767	309.44
369.993	328.44
370.219	314.44
370.445	321.44
370.672	307.44
370.898	312.44
371.124	322.44
371.35	310.44
371.576	319.44
371.802	289.44
372.028	311.44
372.254	308.44
372.48	305.44
372.706	306.44
372.932	314.44
373.158	321.44
373.384	320.44
373.61	326.44
373.835	315.44
374.061	307.44
374.287	303.44
374.513	332.44
374.739	327.44
374.965	314.44
375.191	316.44
375.416	314.44
375.642	294.44
375.868	314.44
376.094	326.44
376.319	301.44
376.545	310.44
376.771	305.44
376.997	312.44
377.222	329.44
377.448	294.44
377.674	323.44
377.899	307.44
378.125	316.44
378.35	308.44
378.576	303.44
378.802	308.44
379.027	308.44
379.253	303.44
379.478	302.44
379.704	293.44
379.929	306.44
380.155	312.44
380.38	322.44
380.606	312.44
380.831	313.44
381.057	317.44
381.282	315.44
381.507	302.44
381.733	320.44
381.958	302.44
382.184	320.44
382.409	318.44
382.634	331.44
382.86	324.44
383.085	327.44
383.31	320.44
383.535	327.44
383.761	316.44
383.986	327.44
384.211	323.44
384.436	313.44
384.662	336.44
384.887	328.44
385.112	316.44
385.337	337.44
385.562	320.44
385.787	312.44
386.013	338.44
386.238	326.44
386.463	325.44
386.688	324.44
386.913	327.44
387.138	344.44
387.363	346.44
387.588	337.44
387.813	333.44
388.038	356.44
388.263	333.44
388.488	329.44
388.713	359.44
388.938	342.44
389.163	339.44
389.387	345.44
389.612	312.44
389.837	322.44
390.062	332.44
390.287	335.44
390.512	323.44
390.736	323.44
390.961	307.44
391.186	329.44
391.411	342.44
391.636	339.44
391.86	334.44
392.085	325.44
392.31	342.44
392.534	322.44
392.759	330.44
392.984	327.44
393.208	323.44
393.433	347.44
393.658	333.44
393.882	327.44
394.107	324.44
394.331	323.44
394.556	326.44
394.78	333.44
395.005	343.44
395.229	341.44
395.454	368.44
395.678	346.44
395.903	347.44
396.127	369.44
396.352	368.44
396.576	371.44
396.801	353.44
397.025	330.44
397.249	363.44
397.474	361.44
397.698	361.44
397.922	352.44
398.147	379.44
398.371	364.44
398.595	376.44
398.82	382.44
399.044	386.44
399.268	389.44
399.492	402.44
399.717	425.44
399.941	444.44
400.165	427.44
400.389	457.44
400.613	427.44
400.837	392.44
401.062	371.44
401.286	395.44
401.51	401.44
401.734	378.44
401.958	382.44
402.182	373.44
402.406	397.44
402.63	391.44
402.854	382.44
403.078	388.44
403.302	399.44
403.526	394.44
403.75	405.44
403.974	401.44
404.198	399.44
404.422	409.44
404.645	402.44
404.869	396.44
405.093	431.44
405.317	453.44
405.541	483.44
405.765	459.44
405.988	434.44
406.212	434.44
406.436	456.44
406.66	463.44
406.883	399.44
407.107	448.44
407.331	482.44
407.555	508.44
407.778	509.44
408.002	469.44
408.226	450.44
408.449	436.44
408.673	446.44
408.896	462.44
409.12	495.44
409.344	462.44
409.567	420.44
409.791	397.44
410.014	396.44
410.238	399.44
410.461	414.44
410.685	402.44
410.908	415.44
411.132	452.44
411.355	479.44
411.578	454.44
411.802	423.44
412.025	431.44
412.249	430.44
412.472	429.44
412.695	442.44
412.919	446.44
413.142	414.44
413.365	400.44
413.589	397.44
413.812	390.44
414.035	382.44
414.258	384.44
414.482	379.44
414.705	384.44
414.928	388.44
415.151	371.44
415.374	356.44
415.597	346.44
415.821	369.44
416.044	373.44
416.267	374.44
416.49	366.44
416.713	394.44
416.936	405.44
417.159	384.44
417.382	403.44
417.605	373.44
417.828	386.44
418.051	415.44
418.274	394.44
418.497	386.44
418.72	382.44
418.943	367.44
419.166	376.44
419.389	398.44
419.611	400.44
419.834	400.44
420.057	399.44
420.28	378.44
420.503	393.44
420.726	393.44
420.948	395.44
421.171	446.44
421.394	462.44
421.617	415.44
421.839	394.44
422.062	408.44
422.285	419.44
422.507	470.44
422.73	520.44
422.953	466.44
423.175	432.44
423.398	400.44
423.621	426.44
423.843	421.44
424.066	423.44
424.288	414.44
424.511	448.44
424.733	489.44
424.956	548.44
425.178	534.44
425.401	531.44
425.623	545.44
425.846	460.44
426.068	425.44
426.291	441.44
426.513	440.44
426.735	444.44
426.958	474.44
427.18	560.44
427.402	634.44
427.625	718.44
427.847	644.44
428.069	568.44
428.292	495.44
428.514	427.44
428.736	428.44
428.958	409.44
429.181	413.44
429.403	418.44
429.625	446.44
429.847	452.44
430.069	487.44
430.292	475.44
430.514	422.44
430.736	394.44
430.958	374.44
431.18	391.44
431.402	374.44
431.624	352.44
431.846	376.44
432.068	373.44
432.29	369.44
432.512	367.44
432.734	387.44
432.956	380.44
433.178	396.44
433.4	399.44
433.622	395.44
433.844	369.44
434.066	378.44
434.287	387.44
434.509	388.44
434.731	386.44
434.953	390.44
435.175	388.44
435.397	432.44
435.618	415.44
435.84	485.44
436.062	552.44
436.284	606.44
436.505	483.44
436.727	453.44
436.949	416.44
437.17	418.44
437.392	414.44
437.614	427.44
437.835	466.44
438.057	540.44
438.278	601.44
438.5	613.44
438.721	675.44
438.943	632.44
439.165	524.44
439.386	475.44
439.608	462.44
439.829	434.44
440.05	486.44
440.272	543.44
440.493	470.44
440.715	435.44
440.936	432.44
441.158	411.44
441.379	430.44
441.6	415.44
441.822	439.44
442.043	469.44
442.264	547.44
442.486	576.44
442.707	495.44
442.928	450.44
443.149	467.44
443.371	488.44
443.592	522.44
443.813	580.44
444.034	631.44
444.255	540.44
444.476	465.44
444.698	448.44
444.919	438.44
445.14	538.44
445.361	504.44
445.582	484.44
445.803	548.44
446.024	635.44
446.245	627.44
446.466	548.44
446.687	483.44
446.908	457.44
447.129	425.44
447.35	417.44
447.571	414.44
447.792	414.44
448.013	412.44
448.234	431.44
448.455	478.44
448.675	567.44
448.896	651.44
449.117	541.44
449.338	524.44
449.559	611.44
449.779	658.44
450	538.44
450.221	464.44
450.442	416.44
450.662	416.44
450.883	421.44
451.104	421.44
451.324	437.44
451.545	416.44
451.766	392.44
451.986	383.44
452.207	388.44
452.428	385.44
452.648	377.44
452.869	372.44
453.089	371.44
453.31	407.44
453.53	368.44
453.751	360.44
453.971	390.44
454.192	392.44
454.412	386.44
454.633	378.44
454.853	369.44
455.073	382.44
455.294	399.44
455.514	455.44
455.734	457.44
455.955	371.44
456.175	363.44
456.395	350.44
456.616	353.44
456.836	344.44
457.056	342.44
457.276	328.44
457.497	351.44
457.717	356.44
457.937	370.44
458.157	370.44
458.377	373.44
458.598	388.44
458.818	459.44
459.038	518.44
459.258	526.44
459.478	456.44
459.698	384.44
459.918	378.44
460.138	391.44
460.358	378.44
460.578	409.44
460.798	414.44
461.018	395.44
461.238	384.44
461.458	382.44
461.678	372.44
461.898	376.44
462.118	367.44
462.338	377.44
462.558	399.44
462.777	375.44
462.997	420.44
463.217	398.44
463.437	414.44
463.657	388.44
463.876	382.44
464.096	412.44
464.316	420.44
464.536	415.44
464.755	430.44
464.975	406.44
465.195	464.44
465.414	536.44
465.634	460.44
465.854	421.44
466.073	405.44
466.293	407.44
466.512	384.44
466.732	378.44
466.951	390.44
467.171	369.44
467.391	399.44
467.61	402.44
467.829	390.44
468.049	403.44
468.268	411.44
468.488	395.44
468.707	382.44
468.927	361.44
469.146	372.44
469.365	360.44
469.585	363.44
469.804	366.44
470.023	377.44
470.243	399.44
470.462	404.44
470.681	418.44
470.901	404.44
471.12	370.44
471.339	373.44
471.558	375.44
471.777	362.44
471.997	374.44
472.216	402.44
472.435	436.44
472.654	438.44
472.873	393.44
473.092	375.44
473.311	402.44
473.53	393.44
473.749	383.44
473.968	431.44
474.187	506.44
474.406	511.44
474.625	452.44
474.844	404.44
475.063	383.44
475.282	400.44
475.501	389.44
475.72	387.44
475.939	385.44
476.158	387.44
476.377	396.44
476.596	419.44
476.814	402.44
477.033	407.44
477.252	388.44
477.471	396.44
477.69	418.44
477.908	408.44
478.127	387.44
478.346	426.44
478.564	394.44
478.783	419.44
479.002	406.44
479.22	438.44
479.439	443.44
479.658	456.44
479.876	453.44
480.095	460.44
480.313	457.44
480.532	490.44
480.751	493.44
480.969	477.44
481.188	533.44
481.406	584.44
481.624	521.44
481.843	506.44
482.061	446.44
482.28	453.44
482.498	434.44
482.717	464.44
482.935	445.44
483.153	448.44
483.372	446.44
483.59	442.44
483.808	462.44
484.027	437.44
484.245	451.44
484.463	450.44
484.681	464.44
484.9	450.44
485.118	479.44
485.336	481.44
485.554	465.44
485.772	474.44
485.99	479.44
486.209	456.44
486.427	491.44
486.645	468.44
486.863	500.44
487.081	519.44
487.299	486.44
487.517	491.44
487.735	483.44
487.953	479.44
488.171	495.44
488.389	496.44
488.607	480.44
488.825	502.44
489.043	474.44
489.261	496.44
489.479	484.44
489.696	486.44
489.914	487.44
490.132	497.44
490.35	503.44
490.568	528.44
490.786	522.44
491.003	497.44
491.221	538.44
491.439	564.44
491.657	528.44
491.874	560.44
492.092	547.44
492.31	547.44
492.527	544.44
492.745	543.44
492.963	542.44
493.18	596.44
493.398	548.44
493.615	578.44
493.833	586.44
494.05	588.44
494.268	568.44
494.485	556.44
494.703	554.44
494.92	571.44
495.138	572.44
495.355	569.44
495.573	583.44
495.79	555.44
496.008	588.44
496.225	556.44
496.442	566.44
496.66	570.44
496.877	571.44
497.094	558.44
497.312	574.44
497.529	578.44
497.746	585.44
497.963	604.44
498.181	622.44
498.398	618.44
498.615	629.44
498.832	632.44
499.049	639.44
499.267	635.44
499.484	648.44
499.701	669.44
499.918	698.44
500.135	708.44
500.352	731.44
500.569	682.44
500.786	713.44
501.003	703.44
501.22	690.44
501.437	686.44
501.654	679.44
501.871	688.44
502.088	666.44
