Data from 1961.PennyLincolnUp.Lamp.En5.5.200Scan.071719.P1._HRD10591_13-48-33-058.txt Node
Date: Thu Jul 18 13:48:33 EDT 2019
User: cochatt
Spectrometer: HR+D1059
Trigger mode: 1
Integration Time (sec): 1.000000E-1
Scans to average: 1
Electric dark correction enabled: true
Nonlinearity correction enabled: false
Boxcar width: 0
XAxis mode: Wavelengths
Number of Pixels in Spectrum: 2048
>>>>>Begin Spectral Data<<<<<
223.165	-8.75
223.4	-8.75
223.635	-8.75
223.869	-10.75
224.104	-23.75
224.338	-8.75
224.573	-8.75
224.808	-22.75
225.042	-4.75
225.277	1.25
225.511	-6.75
225.746	9.25
225.98	1.25
226.215	12.25
226.449	3.25
226.683	9.25
226.918	20.25
227.152	38.25
227.387	39.25
227.621	37.25
227.856	47.25
228.09	41.25
228.324	49.25
228.559	56.25
228.793	44.25
229.027	96.25
229.262	99.25
229.496	130.25
229.73	127.25
229.964	159.25
230.199	122.25
230.433	118.25
230.667	107.25
230.901	103.25
231.136	97.25
231.37	113.25
231.604	102.25
231.838	121.25
232.072	119.25
232.306	106.25
232.541	100.25
232.775	90.25
233.009	87.25
233.243	97.25
233.477	115.25
233.711	116.25
233.945	106.25
234.179	109.25
234.413	106.25
234.647	104.25
234.881	104.25
235.115	110.25
235.349	119.25
235.583	101.25
235.817	105.25
236.051	120.25
236.285	122.25
236.519	112.25
236.753	111.25
236.987	127.25
237.221	166.25
237.455	222.25
237.689	179.25
237.922	132.25
238.156	121.25
238.39	112.25
238.624	115.25
238.858	121.25
239.091	115.25
239.325	120.25
239.559	119.25
239.793	123.25
240.027	111.25
240.26	132.25
240.494	152.25
240.728	141.25
240.961	152.25
241.195	137.25
241.429	118.25
241.662	124.25
241.896	109.25
242.13	111.25
242.363	119.25
242.597	118.25
242.83	126.25
243.064	120.25
243.298	122.25
243.531	114.25
243.765	138.25
243.998	127.25
244.232	113.25
244.465	123.25
244.699	140.25
244.932	112.25
245.166	132.25
245.399	131.25
245.633	141.25
245.866	128.25
246.099	128.25
246.333	129.25
246.566	142.25
246.8	124.25
247.033	129.25
247.266	145.25
247.5	139.25
247.733	144.25
247.966	146.25
248.2	160.25
248.433	151.25
248.666	151.25
248.899	151.25
249.133	183.25
249.366	171.25
249.599	175.25
249.832	160.25
250.066	164.25
250.299	173.25
250.532	191.25
250.765	175.25
250.998	166.25
251.231	192.25
251.465	177.25
251.698	167.25
251.931	168.25
252.164	186.25
252.397	165.25
252.63	172.25
252.863	191.25
253.096	175.25
253.329	181.25
253.562	193.25
253.795	180.25
254.028	189.25
254.261	194.25
254.494	189.25
254.727	227.25
254.96	233.25
255.193	221.25
255.426	216.25
255.659	192.25
255.892	215.25
256.124	196.25
256.357	194.25
256.59	180.25
256.823	174.25
257.056	179.25
257.289	199.25
257.521	187.25
257.754	169.25
257.987	186.25
258.22	183.25
258.452	182.25
258.685	197.25
258.918	186.25
259.151	177.25
259.383	191.25
259.616	186.25
259.849	201.25
260.081	215.25
260.314	207.25
260.547	221.25
260.779	205.25
261.012	206.25
261.244	198.25
261.477	203.25
261.71	193.25
261.942	201.25
262.175	207.25
262.407	213.25
262.64	190.25
262.872	192.25
263.105	179.25
263.337	177.25
263.57	182.25
263.802	173.25
264.035	188.25
264.267	180.25
264.499	176.25
264.732	184.25
264.964	176.25
265.197	175.25
265.429	197.25
265.661	192.25
265.894	188.25
266.126	173.25
266.358	182.25
266.591	179.25
266.823	193.25
267.055	193.25
267.287	196.25
267.52	187.25
267.752	199.25
267.984	199.25
268.216	188.25
268.448	198.25
268.681	214.25
268.913	212.25
269.145	229.25
269.377	230.25
269.609	234.25
269.841	252.25
270.073	213.25
270.306	255.25
270.538	258.25
270.77	279.25
271.002	274.25
271.234	269.25
271.466	249.25
271.698	249.25
271.93	265.25
272.162	276.25
272.394	285.25
272.626	263.25
272.858	242.25
273.09	234.25
273.322	221.25
273.553	243.25
273.785	211.25
274.017	222.25
274.249	212.25
274.481	215.25
274.713	232.25
274.945	243.25
275.176	229.25
275.408	225.25
275.64	219.25
275.872	209.25
276.104	220.25
276.335	228.25
276.567	221.25
276.799	231.25
277.031	275.25
277.262	276.25
277.494	288.25
277.726	263.25
277.957	257.25
278.189	232.25
278.421	227.25
278.652	249.25
278.884	234.25
279.115	228.25
279.347	228.25
279.579	232.25
279.81	216.25
280.042	219.25
280.273	241.25
280.505	242.25
280.736	210.25
280.968	233.25
281.199	222.25
281.431	216.25
281.662	239.25
281.894	212.25
282.125	225.25
282.356	235.25
282.588	267.25
282.819	273.25
283.051	223.25
283.282	207.25
283.513	205.25
283.745	231.25
283.976	225.25
284.207	233.25
284.439	239.25
284.67	227.25
284.901	227.25
285.132	232.25
285.364	232.25
285.595	214.25
285.826	234.25
286.057	227.25
286.288	230.25
286.52	232.25
286.751	231.25
286.982	239.25
287.213	221.25
287.444	231.25
287.675	241.25
287.906	252.25
288.138	255.25
288.369	243.25
288.6	256.25
288.831	242.25
289.062	245.25
289.293	237.25
289.524	223.25
289.755	230.25
289.986	230.25
290.217	232.25
290.448	237.25
290.679	226.25
290.91	239.25
291.141	255.25
291.371	245.25
291.602	233.25
291.833	239.25
292.064	228.25
292.295	236.25
292.526	233.25
292.757	242.25
292.987	218.25
293.218	243.25
293.449	237.25
293.68	252.25
293.91	243.25
294.141	236.25
294.372	239.25
294.603	237.25
294.833	253.25
295.064	251.25
295.295	245.25
295.525	252.25
295.756	268.25
295.987	259.25
296.217	279.25
296.448	279.25
296.679	251.25
296.909	230.25
297.14	231.25
297.37	239.25
297.601	232.25
297.831	245.25
298.062	251.25
298.292	268.25
298.523	271.25
298.753	263.25
298.984	259.25
299.214	244.25
299.445	253.25
299.675	266.25
299.905	259.25
300.136	260.25
300.366	251.25
300.597	259.25
300.827	254.25
301.057	265.25
301.288	276.25
301.518	275.25
301.748	266.25
301.979	279.25
302.209	278.25
302.439	269.25
302.669	277.25
302.9	275.25
303.13	262.25
303.36	266.25
303.59	280.25
303.82	298.25
304.051	293.25
304.281	256.25
304.511	269.25
304.741	266.25
304.971	273.25
305.201	267.25
305.431	270.25
305.661	265.25
305.891	272.25
306.121	272.25
306.352	265.25
306.582	279.25
306.812	265.25
307.042	283.25
307.272	283.25
307.502	264.25
307.731	295.25
307.961	275.25
308.191	291.25
308.421	279.25
308.651	276.25
308.881	301.25
309.111	312.25
309.341	289.25
309.571	297.25
309.8	303.25
310.03	309.25
310.26	329.25
310.49	319.25
310.72	317.25
310.949	347.25
311.179	346.25
311.409	341.25
311.639	316.25
311.868	325.25
312.098	324.25
312.328	328.25
312.557	346.25
312.787	358.25
313.017	338.25
313.246	344.25
313.476	298.25
313.706	319.25
313.935	333.25
314.165	337.25
314.394	358.25
314.624	357.25
314.853	344.25
315.083	321.25
315.312	319.25
315.542	306.25
315.771	312.25
316.001	326.25
316.23	313.25
316.46	333.25
316.689	335.25
316.919	341.25
317.148	345.25
317.377	354.25
317.607	339.25
317.836	328.25
318.065	318.25
318.295	309.25
318.524	322.25
318.753	316.25
318.983	321.25
319.212	322.25
319.441	327.25
319.67	339.25
319.9	317.25
320.129	319.25
320.358	319.25
320.587	336.25
320.816	330.25
321.046	357.25
321.275	348.25
321.504	344.25
321.733	343.25
321.962	345.25
322.191	367.25
322.42	387.25
322.649	392.25
322.878	414.25
323.108	414.25
323.337	451.25
323.566	483.25
323.795	519.25
324.024	579.25
324.253	735.25
324.482	1072.25
324.71	1652.25
324.939	2307.25
325.168	1959.25
325.397	997.25
325.626	666.25
325.855	545.25
326.084	490.25
326.313	483.25
326.542	489.25
326.77	534.25
326.999	668.25
327.228	952.25
327.457	1455.25
327.686	1729.25
327.914	1140.25
328.143	739.25
328.372	641.25
328.6	575.25
328.829	535.25
329.058	561.25
329.287	549.25
329.515	517.25
329.744	491.25
329.972	481.25
330.201	513.25
330.43	556.25
330.658	577.25
330.887	585.25
331.115	565.25
331.344	481.25
331.572	455.25
331.801	433.25
332.03	444.25
332.258	414.25
332.486	429.25
332.715	399.25
332.943	360.25
333.172	387.25
333.4	396.25
333.629	407.25
333.857	415.25
334.085	438.25
334.314	447.25
334.542	496.25
334.771	517.25
334.999	447.25
335.227	412.25
335.455	394.25
335.684	385.25
335.912	367.25
336.14	372.25
336.369	377.25
336.597	383.25
336.825	386.25
337.053	382.25
337.281	378.25
337.51	374.25
337.738	349.25
337.966	359.25
338.194	390.25
338.422	367.25
338.65	381.25
338.878	379.25
339.106	350.25
339.334	369.25
339.562	349.25
339.79	376.25
340.018	375.25
340.246	374.25
340.474	362.25
340.702	371.25
340.93	363.25
341.158	347.25
341.386	385.25
341.614	363.25
341.842	372.25
342.07	369.25
342.298	363.25
342.526	373.25
342.754	367.25
342.981	328.25
343.209	355.25
343.437	332.25
343.665	341.25
343.893	344.25
344.12	353.25
344.348	363.25
344.576	362.25
344.804	383.25
345.031	382.25
345.259	395.25
345.487	393.25
345.714	374.25
345.942	357.25
346.17	367.25
346.397	354.25
346.625	365.25
346.853	362.25
347.08	354.25
347.308	357.25
347.535	376.25
347.763	377.25
347.99	373.25
348.218	378.25
348.445	372.25
348.673	389.25
348.9	353.25
349.128	360.25
349.355	347.25
349.583	332.25
349.81	350.25
350.037	363.25
350.265	341.25
350.492	344.25
350.72	330.25
350.947	351.25
351.174	353.25
351.402	372.25
351.629	371.25
351.856	362.25
352.083	384.25
352.311	400.25
352.538	383.25
352.765	388.25
352.992	379.25
353.22	380.25
353.447	362.25
353.674	362.25
353.901	340.25
354.128	322.25
354.355	320.25
354.583	335.25
354.81	347.25
355.037	319.25
355.264	315.25
355.491	324.25
355.718	323.25
355.945	322.25
356.172	321.25
356.399	321.25
356.626	323.25
356.853	308.25
357.08	313.25
357.307	335.25
357.534	316.25
357.761	317.25
357.988	344.25
358.215	324.25
358.441	324.25
358.668	353.25
358.895	340.25
359.122	353.25
359.349	354.25
359.576	365.25
359.802	403.25
360.029	416.25
360.256	434.25
360.483	407.25
360.709	372.25
360.936	374.25
361.163	373.25
361.39	365.25
361.616	379.25
361.843	354.25
362.07	347.25
362.296	370.25
362.523	358.25
362.749	371.25
362.976	364.25
363.203	327.25
363.429	358.25
363.656	343.25
363.882	335.25
364.109	332.25
364.335	351.25
364.562	321.25
364.788	329.25
365.015	341.25
365.241	333.25
365.468	341.25
365.694	355.25
365.92	352.25
366.147	347.25
366.373	356.25
366.599	343.25
366.826	331.25
367.052	330.25
367.278	345.25
367.505	316.25
367.731	339.25
367.957	340.25
368.184	327.25
368.41	329.25
368.636	362.25
368.862	343.25
369.089	354.25
369.315	348.25
369.541	345.25
369.767	329.25
369.993	318.25
370.219	324.25
370.445	328.25
370.672	332.25
370.898	320.25
371.124	340.25
371.35	324.25
371.576	331.25
371.802	347.25
372.028	326.25
372.254	326.25
372.48	320.25
372.706	336.25
372.932	345.25
373.158	328.25
373.384	339.25
373.61	330.25
373.835	315.25
374.061	335.25
374.287	333.25
374.513	325.25
374.739	337.25
374.965	336.25
375.191	328.25
375.416	316.25
375.642	332.25
375.868	329.25
376.094	328.25
376.319	328.25
376.545	328.25
376.771	316.25
376.997	300.25
377.222	331.25
377.448	342.25
377.674	340.25
377.899	324.25
378.125	316.25
378.35	323.25
378.576	329.25
378.802	315.25
379.027	306.25
379.253	338.25
379.478	316.25
379.704	305.25
379.929	333.25
380.155	347.25
380.38	338.25
380.606	345.25
380.831	320.25
381.057	332.25
381.282	337.25
381.507	327.25
381.733	330.25
381.958	339.25
382.184	329.25
382.409	341.25
382.634	348.25
382.86	354.25
383.085	336.25
383.31	333.25
383.535	329.25
383.761	338.25
383.986	343.25
384.211	347.25
384.436	323.25
384.662	344.25
384.887	343.25
385.112	341.25
385.337	370.25
385.562	344.25
385.787	331.25
386.013	379.25
386.238	353.25
386.463	338.25
386.688	370.25
386.913	348.25
387.138	345.25
387.363	350.25
387.588	345.25
387.813	342.25
388.038	360.25
388.263	353.25
388.488	350.25
388.713	351.25
388.938	357.25
389.163	334.25
389.387	346.25
389.612	341.25
389.837	360.25
390.062	353.25
390.287	346.25
390.512	332.25
390.736	352.25
390.961	343.25
391.186	361.25
391.411	351.25
391.636	364.25
391.86	338.25
392.085	352.25
392.31	361.25
392.534	372.25
392.759	375.25
392.984	337.25
393.208	354.25
393.433	357.25
393.658	357.25
393.882	332.25
394.107	362.25
394.331	380.25
394.556	357.25
394.78	347.25
395.005	350.25
395.229	367.25
395.454	357.25
395.678	352.25
395.903	379.25
396.127	416.25
396.352	396.25
396.576	372.25
396.801	353.25
397.025	358.25
397.249	376.25
397.474	379.25
397.698	377.25
397.922	387.25
398.147	391.25
398.371	408.25
398.595	389.25
398.82	391.25
399.044	384.25
399.268	415.25
399.492	425.25
399.717	428.25
399.941	439.25
400.165	471.25
400.389	515.25
400.613	447.25
400.837	425.25
401.062	416.25
401.286	415.25
401.51	398.25
401.734	405.25
401.958	382.25
402.182	405.25
402.406	424.25
402.63	407.25
402.854	400.25
403.078	423.25
403.302	412.25
403.526	415.25
403.75	428.25
403.974	413.25
404.198	422.25
404.422	420.25
404.645	415.25
404.869	418.25
405.093	467.25
405.317	494.25
405.541	523.25
405.765	473.25
405.988	456.25
406.212	437.25
406.436	472.25
406.66	488.25
406.883	444.25
407.107	484.25
407.331	520.25
407.555	569.25
407.778	555.25
408.002	498.25
408.226	473.25
408.449	453.25
408.673	469.25
408.896	503.25
409.12	523.25
409.344	492.25
409.567	408.25
409.791	412.25
410.014	427.25
410.238	410.25
410.461	404.25
410.685	423.25
410.908	458.25
411.132	479.25
411.355	501.25
411.578	477.25
411.802	431.25
412.025	419.25
412.249	437.25
412.472	452.25
412.695	475.25
412.919	476.25
413.142	417.25
413.365	434.25
413.589	416.25
413.812	409.25
414.035	407.25
414.258	384.25
414.482	387.25
414.705	395.25
414.928	396.25
415.151	398.25
415.374	414.25
415.597	406.25
415.821	385.25
416.044	397.25
416.267	397.25
416.49	397.25
416.713	369.25
416.936	386.25
417.159	383.25
417.382	402.25
417.605	415.25
417.828	417.25
418.051	418.25
418.274	420.25
418.497	405.25
418.72	387.25
418.943	385.25
419.166	420.25
419.389	428.25
419.611	416.25
419.834	421.25
420.057	442.25
420.28	426.25
420.503	392.25
420.726	405.25
420.948	453.25
421.171	476.25
421.394	518.25
421.617	451.25
421.839	421.25
422.062	416.25
422.285	446.25
422.507	493.25
422.73	539.25
422.953	523.25
423.175	467.25
423.398	433.25
423.621	440.25
423.843	456.25
424.066	464.25
424.288	472.25
424.511	473.25
424.733	523.25
424.956	592.25
425.178	554.25
425.401	562.25
425.623	599.25
425.846	496.25
426.068	491.25
426.291	454.25
426.513	461.25
426.735	476.25
426.958	534.25
427.18	609.25
427.402	698.25
427.625	781.25
427.847	684.25
428.069	614.25
428.292	538.25
428.514	468.25
428.736	446.25
428.958	431.25
429.181	432.25
429.403	439.25
429.625	454.25
429.847	468.25
430.069	523.25
430.292	504.25
430.514	441.25
430.736	441.25
430.958	438.25
431.18	426.25
431.402	406.25
431.624	394.25
431.846	397.25
432.068	409.25
432.29	397.25
432.512	398.25
432.734	401.25
432.956	423.25
433.178	406.25
433.4	439.25
433.622	412.25
433.844	393.25
434.066	410.25
434.287	385.25
434.509	393.25
434.731	440.25
434.953	416.25
435.175	434.25
435.397	435.25
435.618	460.25
435.84	515.25
436.062	586.25
436.284	660.25
436.505	546.25
436.727	498.25
436.949	441.25
437.17	455.25
437.392	404.25
437.614	454.25
437.835	479.25
438.057	581.25
438.278	666.25
438.5	651.25
438.721	721.25
438.943	674.25
439.165	543.25
439.386	480.25
439.608	487.25
439.829	490.25
440.05	531.25
440.272	577.25
440.493	524.25
440.715	465.25
440.936	452.25
441.158	441.25
441.379	435.25
441.6	442.25
441.822	466.25
442.043	522.25
442.264	596.25
442.486	604.25
442.707	522.25
442.928	508.25
443.149	483.25
443.371	523.25
443.592	553.25
443.813	643.25
444.034	681.25
444.255	538.25
444.476	511.25
444.698	474.25
444.919	459.25
445.14	571.25
445.361	529.25
445.582	515.25
445.803	583.25
446.024	699.25
446.245	671.25
446.466	628.25
446.687	547.25
446.908	488.25
447.129	452.25
447.35	460.25
447.571	434.25
447.792	427.25
448.013	428.25
448.234	474.25
448.455	524.25
448.675	588.25
448.896	687.25
449.117	615.25
449.338	564.25
449.559	682.25
449.779	723.25
450	593.25
450.221	519.25
450.442	464.25
450.662	421.25
450.883	454.25
451.104	479.25
451.324	460.25
451.545	441.25
451.766	405.25
451.986	398.25
452.207	383.25
452.428	388.25
452.648	399.25
452.869	401.25
453.089	402.25
453.31	395.25
453.53	413.25
453.751	400.25
453.971	406.25
454.192	437.25
454.412	441.25
454.633	390.25
454.853	392.25
455.073	404.25
455.294	447.25
455.514	497.25
455.734	467.25
455.955	379.25
456.175	385.25
456.395	364.25
456.616	372.25
456.836	374.25
457.056	369.25
457.276	346.25
457.497	359.25
457.717	374.25
457.937	365.25
458.157	393.25
458.377	403.25
458.598	413.25
458.818	472.25
459.038	546.25
459.258	538.25
459.478	495.25
459.698	421.25
459.918	408.25
460.138	420.25
460.358	402.25
460.578	411.25
460.798	400.25
461.018	399.25
461.238	393.25
461.458	407.25
461.678	404.25
461.898	409.25
462.118	429.25
462.338	399.25
462.558	410.25
462.777	404.25
462.997	402.25
463.217	452.25
463.437	442.25
463.657	437.25
463.876	441.25
464.096	420.25
464.316	431.25
464.536	440.25
464.755	463.25
464.975	439.25
465.195	500.25
465.414	566.25
465.634	496.25
465.854	455.25
466.073	415.25
466.293	427.25
466.512	410.25
466.732	380.25
466.951	389.25
467.171	394.25
467.391	392.25
467.61	416.25
467.829	418.25
468.049	427.25
468.268	421.25
468.488	411.25
468.707	379.25
468.927	380.25
469.146	380.25
469.365	383.25
469.585	383.25
469.804	405.25
470.023	410.25
470.243	404.25
470.462	398.25
470.681	439.25
470.901	431.25
471.12	404.25
471.339	412.25
471.558	411.25
471.777	397.25
471.997	401.25
472.216	422.25
472.435	458.25
472.654	450.25
472.873	420.25
473.092	395.25
473.311	422.25
473.53	403.25
473.749	443.25
473.968	443.25
474.187	546.25
474.406	567.25
474.625	461.25
474.844	423.25
475.063	410.25
475.282	423.25
475.501	423.25
475.72	415.25
475.939	403.25
476.158	458.25
476.377	424.25
476.596	415.25
476.814	428.25
477.033	440.25
477.252	440.25
477.471	450.25
477.69	424.25
477.908	435.25
478.127	463.25
478.346	429.25
478.564	437.25
478.783	465.25
479.002	443.25
479.22	457.25
479.439	502.25
479.658	484.25
479.876	516.25
480.095	475.25
480.313	533.25
480.532	490.25
480.751	489.25
480.969	516.25
481.188	587.25
481.406	632.25
481.624	553.25
481.843	497.25
482.061	506.25
482.28	504.25
482.498	465.25
482.717	489.25
482.935	468.25
483.153	474.25
483.372	476.25
483.59	489.25
483.808	464.25
484.027	471.25
484.245	471.25
484.463	486.25
484.681	487.25
484.9	461.25
485.118	484.25
485.336	489.25
485.554	481.25
485.772	455.25
485.99	484.25
486.209	490.25
486.427	503.25
486.645	524.25
486.863	541.25
487.081	524.25
487.299	535.25
487.517	519.25
487.735	507.25
487.953	517.25
488.171	511.25
488.389	498.25
488.607	497.25
488.825	504.25
489.043	497.25
489.261	511.25
489.479	516.25
489.696	513.25
489.914	500.25
490.132	526.25
490.35	549.25
490.568	524.25
490.786	522.25
491.003	544.25
491.221	559.25
491.439	570.25
491.657	557.25
491.874	579.25
492.092	589.25
492.31	584.25
492.527	587.25
492.745	590.25
492.963	603.25
493.18	584.25
493.398	584.25
493.615	603.25
493.833	608.25
494.05	610.25
494.268	599.25
494.485	592.25
494.703	600.25
494.92	613.25
495.138	605.25
495.355	602.25
495.573	599.25
495.79	590.25
496.008	611.25
496.225	608.25
496.442	609.25
496.66	601.25
496.877	601.25
497.094	607.25
497.312	635.25
497.529	622.25
497.746	631.25
497.963	626.25
498.181	661.25
498.398	629.25
498.615	661.25
498.832	665.25
499.049	667.25
499.267	655.25
499.484	680.25
499.701	708.25
499.918	720.25
500.135	738.25
500.352	741.25
500.569	736.25
500.786	762.25
501.003	759.25
501.22	756.25
501.437	743.25
501.654	747.25
501.871	721.25
502.088	697.25
