Data from 1961.PennyLincolnUp.Lamp.En5.5.200Scan.071719.P1._HRD10591_13-49-22-058.txt Node
Date: Thu Jul 18 13:49:22 EDT 2019
User: cochatt
Spectrometer: HR+D1059
Trigger mode: 1
Integration Time (sec): 1.000000E-1
Scans to average: 1
Electric dark correction enabled: true
Nonlinearity correction enabled: false
Boxcar width: 0
XAxis mode: Wavelengths
Number of Pixels in Spectrum: 2048
>>>>>Begin Spectral Data<<<<<
223.165	-16.75
223.4	-16.75
223.635	-16.75
223.869	-24.75
224.104	-27.75
224.338	-9.75
224.573	-14.75
224.808	-18.75
225.042	-16.75
225.277	5.25
225.511	-3.75
225.746	0.25
225.98	17.25
226.215	7.25
226.449	14.25
226.683	25.25
226.918	32.25
227.152	31.25
227.387	31.25
227.621	41.25
227.856	39.25
228.09	43.25
228.324	53.25
228.559	51.25
228.793	72.25
229.027	76.25
229.262	88.25
229.496	112.25
229.73	125.25
229.964	149.25
230.199	126.25
230.433	105.25
230.667	98.25
230.901	107.25
231.136	98.25
231.37	107.25
231.604	112.25
231.838	118.25
232.072	104.25
232.306	101.25
232.541	112.25
232.775	112.25
233.009	105.25
233.243	110.25
233.477	96.25
233.711	114.25
233.945	115.25
234.179	101.25
234.413	102.25
234.647	116.25
234.881	108.25
235.115	104.25
235.349	106.25
235.583	96.25
235.817	111.25
236.051	112.25
236.285	127.25
236.519	124.25
236.753	117.25
236.987	143.25
237.221	160.25
237.455	198.25
237.689	166.25
237.922	131.25
238.156	127.25
238.39	121.25
238.624	126.25
238.858	100.25
239.091	113.25
239.325	113.25
239.559	102.25
239.793	112.25
240.027	128.25
240.26	129.25
240.494	146.25
240.728	124.25
240.961	126.25
241.195	127.25
241.429	127.25
241.662	121.25
241.896	122.25
242.13	138.25
242.363	135.25
242.597	125.25
242.83	126.25
243.064	122.25
243.298	130.25
243.531	114.25
243.765	119.25
243.998	108.25
244.232	129.25
244.465	128.25
244.699	118.25
244.932	144.25
245.166	126.25
245.399	120.25
245.633	124.25
245.866	127.25
246.099	108.25
246.333	115.25
246.566	131.25
246.8	127.25
247.033	141.25
247.266	140.25
247.5	135.25
247.733	138.25
247.966	135.25
248.2	141.25
248.433	150.25
248.666	153.25
248.899	168.25
249.133	178.25
249.366	185.25
249.599	176.25
249.832	173.25
250.066	162.25
250.299	166.25
250.532	167.25
250.765	179.25
250.998	190.25
251.231	200.25
251.465	190.25
251.698	172.25
251.931	172.25
252.164	177.25
252.397	168.25
252.63	174.25
252.863	186.25
253.096	175.25
253.329	192.25
253.562	207.25
253.795	181.25
254.028	184.25
254.261	182.25
254.494	180.25
254.727	210.25
254.96	252.25
255.193	238.25
255.426	202.25
255.659	218.25
255.892	210.25
256.124	197.25
256.357	197.25
256.59	191.25
256.823	182.25
257.056	190.25
257.289	185.25
257.521	186.25
257.754	196.25
257.987	186.25
258.22	173.25
258.452	186.25
258.685	181.25
258.918	178.25
259.151	185.25
259.383	189.25
259.616	197.25
259.849	202.25
260.081	202.25
260.314	225.25
260.547	224.25
260.779	221.25
261.012	203.25
261.244	199.25
261.477	188.25
261.71	180.25
261.942	189.25
262.175	202.25
262.407	205.25
262.64	186.25
262.872	211.25
263.105	185.25
263.337	180.25
263.57	169.25
263.802	170.25
264.035	184.25
264.267	153.25
264.499	192.25
264.732	180.25
264.964	186.25
265.197	177.25
265.429	176.25
265.661	177.25
265.894	178.25
266.126	202.25
266.358	186.25
266.591	188.25
266.823	197.25
267.055	194.25
267.287	194.25
267.52	180.25
267.752	187.25
267.984	184.25
268.216	213.25
268.448	206.25
268.681	189.25
268.913	213.25
269.145	225.25
269.377	224.25
269.609	237.25
269.841	220.25
270.073	236.25
270.306	250.25
270.538	253.25
270.77	279.25
271.002	251.25
271.234	243.25
271.466	231.25
271.698	273.25
271.93	276.25
272.162	270.25
272.394	270.25
272.626	250.25
272.858	243.25
273.09	253.25
273.322	252.25
273.553	238.25
273.785	212.25
274.017	220.25
274.249	237.25
274.481	207.25
274.713	231.25
274.945	232.25
275.176	236.25
275.408	222.25
275.64	215.25
275.872	213.25
276.104	229.25
276.335	232.25
276.567	232.25
276.799	252.25
277.031	258.25
277.262	276.25
277.494	264.25
277.726	262.25
277.957	228.25
278.189	225.25
278.421	238.25
278.652	241.25
278.884	224.25
279.115	225.25
279.347	227.25
279.579	233.25
279.81	212.25
280.042	222.25
280.273	212.25
280.505	215.25
280.736	226.25
280.968	224.25
281.199	215.25
281.431	199.25
281.662	229.25
281.894	223.25
282.125	242.25
282.356	256.25
282.588	264.25
282.819	258.25
283.051	228.25
283.282	229.25
283.513	233.25
283.745	222.25
283.976	210.25
284.207	247.25
284.439	231.25
284.67	223.25
284.901	239.25
285.132	223.25
285.364	226.25
285.595	225.25
285.826	243.25
286.057	224.25
286.288	220.25
286.52	218.25
286.751	230.25
286.982	228.25
287.213	214.25
287.444	236.25
287.675	230.25
287.906	239.25
288.138	244.25
288.369	257.25
288.6	255.25
288.831	244.25
289.062	244.25
289.293	232.25
289.524	224.25
289.755	243.25
289.986	229.25
290.217	243.25
290.448	223.25
290.679	242.25
290.91	238.25
291.141	253.25
291.371	241.25
291.602	231.25
291.833	240.25
292.064	222.25
292.295	236.25
292.526	231.25
292.757	235.25
292.987	231.25
293.218	226.25
293.449	247.25
293.68	240.25
293.91	248.25
294.141	241.25
294.372	224.25
294.603	242.25
294.833	234.25
295.064	238.25
295.295	229.25
295.525	245.25
295.756	254.25
295.987	266.25
296.217	271.25
296.448	293.25
296.679	264.25
296.909	262.25
297.14	240.25
297.37	237.25
297.601	239.25
297.831	240.25
298.062	237.25
298.292	253.25
298.523	245.25
298.753	242.25
298.984	241.25
299.214	254.25
299.445	270.25
299.675	267.25
299.905	242.25
300.136	252.25
300.366	263.25
300.597	254.25
300.827	265.25
301.057	243.25
301.288	291.25
301.518	283.25
301.748	279.25
301.979	276.25
302.209	276.25
302.439	273.25
302.669	255.25
302.9	274.25
303.13	274.25
303.36	273.25
303.59	258.25
303.82	272.25
304.051	276.25
304.281	277.25
304.511	264.25
304.741	256.25
304.971	274.25
305.201	276.25
305.431	269.25
305.661	265.25
305.891	273.25
306.121	276.25
306.352	267.25
306.582	290.25
306.812	292.25
307.042	275.25
307.272	276.25
307.502	288.25
307.731	294.25
307.961	287.25
308.191	277.25
308.421	276.25
308.651	298.25
308.881	287.25
309.111	287.25
309.341	284.25
309.571	298.25
309.8	305.25
310.03	341.25
310.26	307.25
310.49	329.25
310.72	340.25
310.949	358.25
311.179	358.25
311.409	355.25
311.639	309.25
311.868	328.25
312.098	322.25
312.328	327.25
312.557	361.25
312.787	351.25
313.017	351.25
313.246	348.25
313.476	309.25
313.706	308.25
313.935	324.25
314.165	333.25
314.394	343.25
314.624	352.25
314.853	360.25
315.083	339.25
315.312	305.25
315.542	337.25
315.771	314.25
316.001	324.25
316.23	308.25
316.46	329.25
316.689	316.25
316.919	319.25
317.148	340.25
317.377	342.25
317.607	337.25
317.836	336.25
318.065	310.25
318.295	298.25
318.524	318.25
318.753	324.25
318.983	334.25
319.212	328.25
319.441	320.25
319.67	336.25
319.9	332.25
320.129	340.25
320.358	321.25
320.587	334.25
320.816	333.25
321.046	340.25
321.275	356.25
321.504	336.25
321.733	367.25
321.962	366.25
322.191	350.25
322.42	390.25
322.649	415.25
322.878	404.25
323.108	423.25
323.337	449.25
323.566	464.25
323.795	502.25
324.024	577.25
324.253	690.25
324.482	1052.25
324.71	1672.25
324.939	2360.25
325.168	1918.25
325.397	1008.25
325.626	668.25
325.855	522.25
326.084	494.25
326.313	484.25
326.542	487.25
326.77	516.25
326.999	632.25
327.228	944.25
327.457	1437.25
327.686	1677.25
327.914	1114.25
328.143	728.25
328.372	632.25
328.6	548.25
328.829	541.25
329.058	570.25
329.287	553.25
329.515	526.25
329.744	466.25
329.972	477.25
330.201	495.25
330.43	566.25
330.658	538.25
330.887	577.25
331.115	565.25
331.344	481.25
331.572	446.25
331.801	428.25
332.03	437.25
332.258	418.25
332.486	402.25
332.715	374.25
332.943	385.25
333.172	397.25
333.4	413.25
333.629	407.25
333.857	422.25
334.085	409.25
334.314	437.25
334.542	462.25
334.771	476.25
334.999	446.25
335.227	408.25
335.455	382.25
335.684	416.25
335.912	368.25
336.14	369.25
336.369	377.25
336.597	403.25
336.825	375.25
337.053	354.25
337.281	369.25
337.51	372.25
337.738	373.25
337.966	365.25
338.194	386.25
338.422	387.25
338.65	357.25
338.878	373.25
339.106	360.25
339.334	348.25
339.562	355.25
339.79	360.25
340.018	351.25
340.246	373.25
340.474	362.25
340.702	374.25
340.93	375.25
341.158	366.25
341.386	361.25
341.614	356.25
341.842	357.25
342.07	373.25
342.298	358.25
342.526	340.25
342.754	346.25
342.981	370.25
343.209	349.25
343.437	361.25
343.665	351.25
343.893	374.25
344.12	359.25
344.348	352.25
344.576	384.25
344.804	370.25
345.031	357.25
345.259	387.25
345.487	372.25
345.714	353.25
345.942	368.25
346.17	364.25
346.397	350.25
346.625	347.25
346.853	349.25
347.08	369.25
347.308	371.25
347.535	369.25
347.763	362.25
347.99	357.25
348.218	362.25
348.445	364.25
348.673	360.25
348.9	349.25
349.128	366.25
349.355	332.25
349.583	345.25
349.81	338.25
350.037	341.25
350.265	336.25
350.492	342.25
350.72	354.25
350.947	345.25
351.174	351.25
351.402	372.25
351.629	356.25
351.856	346.25
352.083	364.25
352.311	378.25
352.538	406.25
352.765	384.25
352.992	360.25
353.22	353.25
353.447	367.25
353.674	343.25
353.901	332.25
354.128	339.25
354.355	322.25
354.583	312.25
354.81	330.25
355.037	321.25
355.264	325.25
355.491	328.25
355.718	332.25
355.945	310.25
356.172	316.25
356.399	308.25
356.626	315.25
356.853	324.25
357.08	341.25
357.307	316.25
357.534	317.25
357.761	324.25
357.988	314.25
358.215	320.25
358.441	321.25
358.668	337.25
358.895	326.25
359.122	328.25
359.349	351.25
359.576	364.25
359.802	381.25
360.029	417.25
360.256	400.25
360.483	394.25
360.709	376.25
360.936	346.25
361.163	348.25
361.39	358.25
361.616	358.25
361.843	361.25
362.07	369.25
362.296	349.25
362.523	374.25
362.749	352.25
362.976	343.25
363.203	352.25
363.429	342.25
363.656	340.25
363.882	334.25
364.109	329.25
364.335	342.25
364.562	341.25
364.788	335.25
365.015	334.25
365.241	349.25
365.468	334.25
365.694	346.25
365.92	346.25
366.147	338.25
366.373	333.25
366.599	339.25
366.826	312.25
367.052	336.25
367.278	333.25
367.505	348.25
367.731	336.25
367.957	340.25
368.184	328.25
368.41	347.25
368.636	348.25
368.862	342.25
369.089	345.25
369.315	340.25
369.541	332.25
369.767	320.25
369.993	322.25
370.219	331.25
370.445	333.25
370.672	312.25
370.898	326.25
371.124	335.25
371.35	318.25
371.576	340.25
371.802	308.25
372.028	300.25
372.254	311.25
372.48	325.25
372.706	317.25
372.932	324.25
373.158	324.25
373.384	319.25
373.61	330.25
373.835	341.25
374.061	329.25
374.287	341.25
374.513	323.25
374.739	330.25
374.965	326.25
375.191	330.25
375.416	321.25
375.642	342.25
375.868	319.25
376.094	340.25
376.319	321.25
376.545	336.25
376.771	328.25
376.997	330.25
377.222	332.25
377.448	324.25
377.674	336.25
377.899	323.25
378.125	324.25
378.35	325.25
378.576	324.25
378.802	328.25
379.027	328.25
379.253	313.25
379.478	314.25
379.704	316.25
379.929	323.25
380.155	312.25
380.38	326.25
380.606	340.25
380.831	325.25
381.057	332.25
381.282	334.25
381.507	329.25
381.733	320.25
381.958	344.25
382.184	320.25
382.409	328.25
382.634	327.25
382.86	326.25
383.085	342.25
383.31	336.25
383.535	314.25
383.761	323.25
383.986	330.25
384.211	331.25
384.436	336.25
384.662	359.25
384.887	351.25
385.112	337.25
385.337	355.25
385.562	366.25
385.787	357.25
386.013	350.25
386.238	342.25
386.463	356.25
386.688	348.25
386.913	340.25
387.138	346.25
387.363	346.25
387.588	345.25
387.813	339.25
388.038	339.25
388.263	344.25
388.488	364.25
388.713	352.25
388.938	345.25
389.163	358.25
389.387	361.25
389.612	337.25
389.837	349.25
390.062	323.25
390.287	353.25
390.512	333.25
390.736	360.25
390.961	358.25
391.186	345.25
391.411	351.25
391.636	359.25
391.86	358.25
392.085	352.25
392.31	351.25
392.534	335.25
392.759	367.25
392.984	368.25
393.208	353.25
393.433	368.25
393.658	350.25
393.882	346.25
394.107	370.25
394.331	363.25
394.556	349.25
394.78	356.25
395.005	370.25
395.229	348.25
395.454	349.25
395.678	345.25
395.903	361.25
396.127	372.25
396.352	382.25
396.576	360.25
396.801	361.25
397.025	354.25
397.249	371.25
397.474	377.25
397.698	378.25
397.922	377.25
398.147	391.25
398.371	405.25
398.595	397.25
398.82	380.25
399.044	410.25
399.268	393.25
399.492	432.25
399.717	438.25
399.941	448.25
400.165	484.25
400.389	477.25
400.613	428.25
400.837	435.25
401.062	403.25
401.286	410.25
401.51	408.25
401.734	400.25
401.958	406.25
402.182	412.25
402.406	436.25
402.63	412.25
402.854	428.25
403.078	413.25
403.302	400.25
403.526	447.25
403.75	412.25
403.974	386.25
404.198	414.25
404.422	416.25
404.645	429.25
404.869	440.25
405.093	473.25
405.317	506.25
405.541	481.25
405.765	470.25
405.988	450.25
406.212	468.25
406.436	466.25
406.66	491.25
406.883	466.25
407.107	473.25
407.331	520.25
407.555	548.25
407.778	543.25
408.002	502.25
408.226	480.25
408.449	482.25
408.673	460.25
408.896	488.25
409.12	521.25
409.344	488.25
409.567	430.25
409.791	436.25
410.014	398.25
410.238	415.25
410.461	414.25
410.685	395.25
410.908	430.25
411.132	477.25
411.355	506.25
411.578	475.25
411.802	437.25
412.025	422.25
412.249	416.25
412.472	453.25
412.695	487.25
412.919	473.25
413.142	434.25
413.365	423.25
413.589	413.25
413.812	407.25
414.035	406.25
414.258	412.25
414.482	399.25
414.705	410.25
414.928	389.25
415.151	374.25
415.374	392.25
415.597	397.25
415.821	389.25
416.044	411.25
416.267	396.25
416.49	403.25
416.713	414.25
416.936	414.25
417.159	400.25
417.382	411.25
417.605	394.25
417.828	411.25
418.051	432.25
418.274	436.25
418.497	390.25
418.72	399.25
418.943	400.25
419.166	396.25
419.389	423.25
419.611	416.25
419.834	414.25
420.057	417.25
420.28	435.25
420.503	409.25
420.726	384.25
420.948	442.25
421.171	466.25
421.394	483.25
421.617	433.25
421.839	434.25
422.062	414.25
422.285	447.25
422.507	486.25
422.73	534.25
422.953	514.25
423.175	454.25
423.398	438.25
423.621	441.25
423.843	452.25
424.066	478.25
424.288	449.25
424.511	476.25
424.733	533.25
424.956	595.25
425.178	556.25
425.401	553.25
425.623	569.25
425.846	506.25
426.068	477.25
426.291	462.25
426.513	444.25
426.735	476.25
426.958	513.25
427.18	576.25
427.402	692.25
427.625	755.25
427.847	685.25
428.069	591.25
428.292	505.25
428.514	470.25
428.736	468.25
428.958	441.25
429.181	424.25
429.403	407.25
429.625	434.25
429.847	458.25
430.069	537.25
430.292	524.25
430.514	441.25
430.736	433.25
430.958	427.25
431.18	407.25
431.402	414.25
431.624	387.25
431.846	394.25
432.068	410.25
432.29	391.25
432.512	412.25
432.734	416.25
432.956	417.25
433.178	430.25
433.4	426.25
433.622	417.25
433.844	386.25
434.066	415.25
434.287	409.25
434.509	391.25
434.731	409.25
434.953	429.25
435.175	428.25
435.397	458.25
435.618	469.25
435.84	492.25
436.062	583.25
436.284	665.25
436.505	539.25
436.727	494.25
436.949	453.25
437.17	426.25
437.392	435.25
437.614	434.25
437.835	480.25
438.057	572.25
438.278	674.25
438.5	654.25
438.721	695.25
438.943	673.25
439.165	545.25
439.386	508.25
439.608	503.25
439.829	487.25
440.05	518.25
440.272	576.25
440.493	528.25
440.715	464.25
440.936	446.25
441.158	449.25
441.379	449.25
441.6	454.25
441.822	462.25
442.043	522.25
442.264	578.25
442.486	608.25
442.707	518.25
442.928	475.25
443.149	513.25
443.371	521.25
443.592	561.25
443.813	619.25
444.034	646.25
444.255	544.25
444.476	479.25
444.698	462.25
444.919	467.25
445.14	573.25
445.361	543.25
445.582	522.25
445.803	573.25
446.024	675.25
446.245	656.25
446.466	615.25
446.687	512.25
446.908	476.25
447.129	442.25
447.35	452.25
447.571	432.25
447.792	418.25
448.013	455.25
448.234	458.25
448.455	519.25
448.675	607.25
448.896	708.25
449.117	605.25
449.338	567.25
449.559	644.25
449.779	725.25
450	606.25
450.221	470.25
450.442	433.25
450.662	452.25
450.883	444.25
451.104	470.25
451.324	453.25
451.545	422.25
451.766	405.25
451.986	395.25
452.207	387.25
452.428	382.25
452.648	401.25
452.869	393.25
453.089	419.25
453.31	431.25
453.53	393.25
453.751	396.25
453.971	406.25
454.192	440.25
454.412	417.25
454.633	412.25
454.853	398.25
455.073	395.25
455.294	406.25
455.514	467.25
455.734	437.25
455.955	403.25
456.175	390.25
456.395	368.25
456.616	387.25
456.836	356.25
457.056	355.25
457.276	369.25
457.497	358.25
457.717	359.25
457.937	375.25
458.157	360.25
458.377	376.25
458.598	420.25
458.818	468.25
459.038	540.25
459.258	549.25
459.478	463.25
459.698	441.25
459.918	396.25
460.138	392.25
460.358	402.25
460.578	441.25
460.798	414.25
461.018	407.25
461.238	394.25
461.458	395.25
461.678	378.25
461.898	396.25
462.118	402.25
462.338	415.25
462.558	424.25
462.777	410.25
462.997	417.25
463.217	446.25
463.437	428.25
463.657	420.25
463.876	433.25
464.096	436.25
464.316	428.25
464.536	437.25
464.755	424.25
464.975	435.25
465.195	498.25
465.414	564.25
465.634	500.25
465.854	462.25
466.073	440.25
466.293	430.25
466.512	406.25
466.732	398.25
466.951	394.25
467.171	392.25
467.391	399.25
467.61	409.25
467.829	415.25
468.049	411.25
468.268	431.25
468.488	418.25
468.707	388.25
468.927	407.25
469.146	398.25
469.365	410.25
469.585	377.25
469.804	409.25
470.023	416.25
470.243	419.25
470.462	431.25
470.681	443.25
470.901	428.25
471.12	413.25
471.339	398.25
471.558	396.25
471.777	418.25
471.997	398.25
472.216	416.25
472.435	470.25
472.654	457.25
472.873	428.25
473.092	398.25
473.311	395.25
473.53	418.25
473.749	416.25
473.968	442.25
474.187	559.25
474.406	569.25
474.625	467.25
474.844	431.25
475.063	409.25
475.282	400.25
475.501	413.25
475.72	420.25
475.939	420.25
476.158	423.25
476.377	426.25
476.596	403.25
476.814	416.25
477.033	433.25
477.252	430.25
477.471	440.25
477.69	428.25
477.908	419.25
478.127	428.25
478.346	420.25
478.564	456.25
478.783	441.25
479.002	451.25
479.22	465.25
479.439	464.25
479.658	500.25
479.876	481.25
480.095	483.25
480.313	510.25
480.532	487.25
480.751	502.25
480.969	514.25
481.188	572.25
481.406	615.25
481.624	550.25
481.843	520.25
482.061	493.25
482.28	480.25
482.498	468.25
482.717	463.25
482.935	469.25
483.153	465.25
483.372	459.25
483.59	481.25
483.808	469.25
484.027	473.25
484.245	481.25
484.463	474.25
484.681	477.25
484.9	485.25
485.118	509.25
485.336	479.25
485.554	479.25
485.772	498.25
485.99	479.25
486.209	500.25
486.427	493.25
486.645	529.25
486.863	557.25
487.081	554.25
487.299	521.25
487.517	526.25
487.735	498.25
487.953	513.25
488.171	490.25
488.389	522.25
488.607	534.25
488.825	516.25
489.043	518.25
489.261	495.25
489.479	514.25
489.696	536.25
489.914	536.25
490.132	511.25
490.35	523.25
490.568	537.25
490.786	576.25
491.003	558.25
491.221	583.25
491.439	564.25
491.657	568.25
491.874	556.25
492.092	587.25
492.31	611.25
492.527	606.25
492.745	604.25
492.963	569.25
493.18	602.25
493.398	613.25
493.615	589.25
493.833	604.25
494.05	603.25
494.268	590.25
494.485	586.25
494.703	608.25
494.92	585.25
495.138	601.25
495.355	587.25
495.573	596.25
495.79	623.25
496.008	577.25
496.225	598.25
496.442	592.25
496.66	600.25
496.877	595.25
497.094	607.25
497.312	604.25
497.529	623.25
497.746	647.25
497.963	641.25
498.181	650.25
498.398	653.25
498.615	665.25
498.832	674.25
499.049	674.25
499.267	686.25
499.484	706.25
499.701	680.25
499.918	712.25
500.135	753.25
500.352	770.25
500.569	757.25
500.786	757.25
501.003	742.25
501.22	737.25
501.437	732.25
501.654	720.25
501.871	725.25
