Data from 1961.PennyLincolnUp.Lamp.En5.5.200Scan.071719.P1._HRD10591_13-48-50-058.txt Node
Date: Thu Jul 18 13:48:50 EDT 2019
User: cochatt
Spectrometer: HR+D1059
Trigger mode: 1
Integration Time (sec): 1.000000E-1
Scans to average: 1
Electric dark correction enabled: true
Nonlinearity correction enabled: false
Boxcar width: 0
XAxis mode: Wavelengths
Number of Pixels in Spectrum: 2048
>>>>>Begin Spectral Data<<<<<
223.165	-14.19
223.4	-14.19
223.635	-14.19
223.869	-31.19
224.104	-16.19
224.338	-17.19
224.573	-4.19
224.808	-12.19
225.042	-11.19
225.277	-0.19
225.511	-10.19
225.746	8.81
225.98	5.81
226.215	19.81
226.449	24.81
226.683	21.81
226.918	10.81
227.152	24.81
227.387	30.81
227.621	39.81
227.856	53.81
228.09	45.81
228.324	54.81
228.559	53.81
228.793	60.81
229.027	105.81
229.262	99.81
229.496	106.81
229.73	121.81
229.964	145.81
230.199	121.81
230.433	121.81
230.667	108.81
230.901	97.81
231.136	109.81
231.37	91.81
231.604	115.81
231.838	109.81
232.072	107.81
232.306	120.81
232.541	112.81
232.775	98.81
233.009	106.81
233.243	105.81
233.477	113.81
233.711	106.81
233.945	112.81
234.179	111.81
234.413	120.81
234.647	104.81
234.881	109.81
235.115	107.81
235.349	95.81
235.583	116.81
235.817	111.81
236.051	120.81
236.285	102.81
236.519	115.81
236.753	132.81
236.987	153.81
237.221	173.81
237.455	218.81
237.689	161.81
237.922	127.81
238.156	119.81
238.39	120.81
238.624	106.81
238.858	110.81
239.091	118.81
239.325	102.81
239.559	122.81
239.793	121.81
240.027	131.81
240.26	131.81
240.494	160.81
240.728	134.81
240.961	133.81
241.195	131.81
241.429	136.81
241.662	119.81
241.896	129.81
242.13	114.81
242.363	106.81
242.597	118.81
242.83	122.81
243.064	114.81
243.298	114.81
243.531	129.81
243.765	118.81
243.998	134.81
244.232	126.81
244.465	144.81
244.699	133.81
244.932	139.81
245.166	123.81
245.399	127.81
245.633	125.81
245.866	126.81
246.099	137.81
246.333	139.81
246.566	135.81
246.8	117.81
247.033	141.81
247.266	137.81
247.5	149.81
247.733	147.81
247.966	153.81
248.2	148.81
248.433	147.81
248.666	167.81
248.899	171.81
249.133	175.81
249.366	177.81
249.599	175.81
249.832	180.81
250.066	163.81
250.299	153.81
250.532	184.81
250.765	184.81
250.998	190.81
251.231	189.81
251.465	186.81
251.698	180.81
251.931	183.81
252.164	175.81
252.397	169.81
252.63	172.81
252.863	176.81
253.096	174.81
253.329	201.81
253.562	198.81
253.795	182.81
254.028	196.81
254.261	195.81
254.494	202.81
254.727	227.81
254.96	255.81
255.193	235.81
255.426	217.81
255.659	203.81
255.892	216.81
256.124	204.81
256.357	208.81
256.59	199.81
256.823	187.81
257.056	194.81
257.289	194.81
257.521	193.81
257.754	197.81
257.987	186.81
258.22	173.81
258.452	181.81
258.685	182.81
258.918	177.81
259.151	200.81
259.383	190.81
259.616	194.81
259.849	182.81
260.081	192.81
260.314	210.81
260.547	226.81
260.779	221.81
261.012	208.81
261.244	192.81
261.477	194.81
261.71	198.81
261.942	190.81
262.175	205.81
262.407	205.81
262.64	185.81
262.872	177.81
263.105	185.81
263.337	191.81
263.57	187.81
263.802	205.81
264.035	184.81
264.267	174.81
264.499	185.81
264.732	191.81
264.964	178.81
265.197	178.81
265.429	168.81
265.661	175.81
265.894	177.81
266.126	181.81
266.358	173.81
266.591	193.81
266.823	179.81
267.055	211.81
267.287	207.81
267.52	178.81
267.752	187.81
267.984	190.81
268.216	194.81
268.448	191.81
268.681	194.81
268.913	214.81
269.145	230.81
269.377	247.81
269.609	211.81
269.841	232.81
270.073	224.81
270.306	254.81
270.538	278.81
270.77	291.81
271.002	250.81
271.234	255.81
271.466	266.81
271.698	264.81
271.93	277.81
272.162	277.81
272.394	268.81
272.626	262.81
272.858	253.81
273.09	257.81
273.322	229.81
273.553	224.81
273.785	242.81
274.017	254.81
274.249	225.81
274.481	235.81
274.713	207.81
274.945	242.81
275.176	218.81
275.408	236.81
275.64	218.81
275.872	234.81
276.104	226.81
276.335	212.81
276.567	225.81
276.799	236.81
277.031	265.81
277.262	280.81
277.494	284.81
277.726	247.81
277.957	262.81
278.189	261.81
278.421	233.81
278.652	224.81
278.884	232.81
279.115	226.81
279.347	221.81
279.579	206.81
279.81	222.81
280.042	218.81
280.273	237.81
280.505	233.81
280.736	224.81
280.968	230.81
281.199	224.81
281.431	215.81
281.662	208.81
281.894	229.81
282.125	225.81
282.356	261.81
282.588	270.81
282.819	278.81
283.051	225.81
283.282	227.81
283.513	228.81
283.745	231.81
283.976	218.81
284.207	233.81
284.439	224.81
284.67	228.81
284.901	239.81
285.132	255.81
285.364	239.81
285.595	229.81
285.826	227.81
286.057	237.81
286.288	226.81
286.52	230.81
286.751	226.81
286.982	229.81
287.213	239.81
287.444	232.81
287.675	229.81
287.906	245.81
288.138	244.81
288.369	245.81
288.6	266.81
288.831	230.81
289.062	244.81
289.293	247.81
289.524	234.81
289.755	231.81
289.986	250.81
290.217	233.81
290.448	229.81
290.679	254.81
290.91	241.81
291.141	251.81
291.371	228.81
291.602	241.81
291.833	239.81
292.064	228.81
292.295	231.81
292.526	234.81
292.757	241.81
292.987	247.81
293.218	250.81
293.449	227.81
293.68	232.81
293.91	226.81
294.141	225.81
294.372	233.81
294.603	241.81
294.833	227.81
295.064	247.81
295.295	228.81
295.525	245.81
295.756	257.81
295.987	240.81
296.217	274.81
296.448	276.81
296.679	260.81
296.909	249.81
297.14	250.81
297.37	242.81
297.601	255.81
297.831	253.81
298.062	247.81
298.292	245.81
298.523	253.81
298.753	240.81
298.984	242.81
299.214	240.81
299.445	244.81
299.675	236.81
299.905	264.81
300.136	266.81
300.366	250.81
300.597	255.81
300.827	246.81
301.057	278.81
301.288	290.81
301.518	274.81
301.748	277.81
301.979	267.81
302.209	257.81
302.439	239.81
302.669	269.81
302.9	267.81
303.13	256.81
303.36	270.81
303.59	278.81
303.82	294.81
304.051	285.81
304.281	252.81
304.511	282.81
304.741	264.81
304.971	269.81
305.201	293.81
305.431	272.81
305.661	281.81
305.891	258.81
306.121	264.81
306.352	278.81
306.582	279.81
306.812	272.81
307.042	293.81
307.272	267.81
307.502	277.81
307.731	279.81
307.961	281.81
308.191	272.81
308.421	300.81
308.651	285.81
308.881	271.81
309.111	293.81
309.341	295.81
309.571	303.81
309.8	305.81
310.03	306.81
310.26	335.81
310.49	329.81
310.72	310.81
310.949	327.81
311.179	348.81
311.409	331.81
311.639	334.81
311.868	320.81
312.098	327.81
312.328	341.81
312.557	358.81
312.787	371.81
313.017	356.81
313.246	344.81
313.476	312.81
313.706	325.81
313.935	328.81
314.165	323.81
314.394	347.81
314.624	333.81
314.853	326.81
315.083	331.81
315.312	314.81
315.542	324.81
315.771	329.81
316.001	321.81
316.23	321.81
316.46	324.81
316.689	320.81
316.919	324.81
317.148	346.81
317.377	346.81
317.607	343.81
317.836	330.81
318.065	318.81
318.295	319.81
318.524	310.81
318.753	319.81
318.983	318.81
319.212	333.81
319.441	350.81
319.67	343.81
319.9	306.81
320.129	319.81
320.358	332.81
320.587	331.81
320.816	344.81
321.046	370.81
321.275	358.81
321.504	350.81
321.733	346.81
321.962	354.81
322.191	362.81
322.42	390.81
322.649	400.81
322.878	418.81
323.108	433.81
323.337	465.81
323.566	462.81
323.795	508.81
324.024	558.81
324.253	713.81
324.482	1074.81
324.71	1641.81
324.939	2328.81
325.168	1929.81
325.397	985.81
325.626	649.81
325.855	536.81
326.084	485.81
326.313	499.81
326.542	469.81
326.77	549.81
326.999	669.81
327.228	948.81
327.457	1420.81
327.686	1689.81
327.914	1109.81
328.143	719.81
328.372	639.81
328.6	547.81
328.829	533.81
329.058	528.81
329.287	544.81
329.515	521.81
329.744	467.81
329.972	478.81
330.201	493.81
330.43	534.81
330.658	569.81
330.887	564.81
331.115	575.81
331.344	482.81
331.572	453.81
331.801	440.81
332.03	446.81
332.258	415.81
332.486	391.81
332.715	381.81
332.943	397.81
333.172	377.81
333.4	387.81
333.629	397.81
333.857	424.81
334.085	448.81
334.314	453.81
334.542	483.81
334.771	489.81
334.999	434.81
335.227	396.81
335.455	398.81
335.684	392.81
335.912	373.81
336.14	405.81
336.369	385.81
336.597	376.81
336.825	391.81
337.053	359.81
337.281	360.81
337.51	374.81
337.738	367.81
337.966	387.81
338.194	369.81
338.422	379.81
338.65	377.81
338.878	366.81
339.106	370.81
339.334	380.81
339.562	359.81
339.79	354.81
340.018	341.81
340.246	381.81
340.474	363.81
340.702	357.81
340.93	351.81
341.158	341.81
341.386	362.81
341.614	366.81
341.842	371.81
342.07	369.81
342.298	355.81
342.526	351.81
342.754	334.81
342.981	345.81
343.209	335.81
343.437	346.81
343.665	345.81
343.893	358.81
344.12	374.81
344.348	360.81
344.576	371.81
344.804	361.81
345.031	374.81
345.259	405.81
345.487	376.81
345.714	368.81
345.942	357.81
346.17	358.81
346.397	360.81
346.625	375.81
346.853	357.81
347.08	347.81
347.308	353.81
347.535	373.81
347.763	357.81
347.99	367.81
348.218	375.81
348.445	374.81
348.673	372.81
348.9	351.81
349.128	331.81
349.355	346.81
349.583	335.81
349.81	340.81
350.037	360.81
350.265	333.81
350.492	333.81
350.72	339.81
350.947	343.81
351.174	357.81
351.402	366.81
351.629	386.81
351.856	371.81
352.083	377.81
352.311	374.81
352.538	373.81
352.765	347.81
352.992	375.81
353.22	349.81
353.447	357.81
353.674	358.81
353.901	335.81
354.128	334.81
354.355	340.81
354.583	331.81
354.81	333.81
355.037	322.81
355.264	320.81
355.491	320.81
355.718	320.81
355.945	303.81
356.172	319.81
356.399	322.81
356.626	298.81
356.853	325.81
357.08	315.81
357.307	321.81
357.534	315.81
357.761	322.81
357.988	323.81
358.215	344.81
358.441	324.81
358.668	325.81
358.895	331.81
359.122	333.81
359.349	344.81
359.576	355.81
359.802	375.81
360.029	417.81
360.256	425.81
360.483	394.81
360.709	382.81
360.936	362.81
361.163	352.81
361.39	362.81
361.616	356.81
361.843	351.81
362.07	354.81
362.296	343.81
362.523	365.81
362.749	349.81
362.976	353.81
363.203	344.81
363.429	350.81
363.656	340.81
363.882	339.81
364.109	365.81
364.335	338.81
364.562	349.81
364.788	340.81
365.015	337.81
365.241	330.81
365.468	349.81
365.694	340.81
365.92	349.81
366.147	333.81
366.373	331.81
366.599	323.81
366.826	325.81
367.052	330.81
367.278	332.81
367.505	338.81
367.731	330.81
367.957	335.81
368.184	335.81
368.41	334.81
368.636	355.81
368.862	352.81
369.089	350.81
369.315	355.81
369.541	335.81
369.767	351.81
369.993	336.81
370.219	348.81
370.445	336.81
370.672	337.81
370.898	329.81
371.124	327.81
371.35	318.81
371.576	319.81
371.802	328.81
372.028	327.81
372.254	319.81
372.48	317.81
372.706	330.81
372.932	342.81
373.158	314.81
373.384	340.81
373.61	329.81
373.835	325.81
374.061	327.81
374.287	324.81
374.513	339.81
374.739	332.81
374.965	336.81
375.191	338.81
375.416	349.81
375.642	337.81
375.868	333.81
376.094	326.81
376.319	333.81
376.545	325.81
376.771	340.81
376.997	307.81
377.222	327.81
377.448	333.81
377.674	321.81
377.899	310.81
378.125	317.81
378.35	324.81
378.576	306.81
378.802	314.81
379.027	306.81
379.253	317.81
379.478	317.81
379.704	325.81
379.929	329.81
380.155	328.81
380.38	320.81
380.606	334.81
380.831	335.81
381.057	324.81
381.282	333.81
381.507	339.81
381.733	338.81
381.958	320.81
382.184	331.81
382.409	318.81
382.634	339.81
382.86	325.81
383.085	349.81
383.31	343.81
383.535	346.81
383.761	330.81
383.986	338.81
384.211	330.81
384.436	330.81
384.662	346.81
384.887	321.81
385.112	357.81
385.337	345.81
385.562	332.81
385.787	348.81
386.013	368.81
386.238	370.81
386.463	341.81
386.688	360.81
386.913	363.81
387.138	345.81
387.363	341.81
387.588	352.81
387.813	358.81
388.038	338.81
388.263	347.81
388.488	330.81
388.713	337.81
388.938	342.81
389.163	333.81
389.387	358.81
389.612	346.81
389.837	363.81
390.062	362.81
390.287	346.81
390.512	337.81
390.736	349.81
390.961	351.81
391.186	363.81
391.411	358.81
391.636	360.81
391.86	351.81
392.085	352.81
392.31	346.81
392.534	353.81
392.759	370.81
392.984	369.81
393.208	361.81
393.433	358.81
393.658	331.81
393.882	336.81
394.107	347.81
394.331	339.81
394.556	345.81
394.78	345.81
395.005	359.81
395.229	347.81
395.454	342.81
395.678	355.81
395.903	379.81
396.127	383.81
396.352	397.81
396.576	356.81
396.801	368.81
397.025	365.81
397.249	396.81
397.474	362.81
397.698	398.81
397.922	409.81
398.147	388.81
398.371	394.81
398.595	383.81
398.82	382.81
399.044	401.81
399.268	407.81
399.492	406.81
399.717	449.81
399.941	455.81
400.165	484.81
400.389	500.81
400.613	447.81
400.837	419.81
401.062	421.81
401.286	416.81
401.51	427.81
401.734	414.81
401.958	417.81
402.182	391.81
402.406	409.81
402.63	425.81
402.854	410.81
403.078	413.81
403.302	421.81
403.526	416.81
403.75	426.81
403.974	405.81
404.198	410.81
404.422	439.81
404.645	409.81
404.869	421.81
405.093	465.81
405.317	491.81
405.541	526.81
405.765	467.81
405.988	449.81
406.212	463.81
406.436	466.81
406.66	497.81
406.883	453.81
407.107	481.81
407.331	496.81
407.555	553.81
407.778	548.81
408.002	513.81
408.226	449.81
408.449	449.81
408.673	483.81
408.896	495.81
409.12	538.81
409.344	496.81
409.567	451.81
409.791	433.81
410.014	450.81
410.238	404.81
410.461	435.81
410.685	436.81
410.908	439.81
411.132	474.81
411.355	502.81
411.578	473.81
411.802	438.81
412.025	420.81
412.249	443.81
412.472	439.81
412.695	486.81
412.919	456.81
413.142	435.81
413.365	433.81
413.589	415.81
413.812	383.81
414.035	415.81
414.258	426.81
414.482	410.81
414.705	397.81
414.928	402.81
415.151	397.81
415.374	404.81
415.597	406.81
415.821	401.81
416.044	380.81
416.267	386.81
416.49	416.81
416.713	406.81
416.936	408.81
417.159	410.81
417.382	402.81
417.605	395.81
417.828	402.81
418.051	417.81
418.274	412.81
418.497	390.81
418.72	383.81
418.943	401.81
419.166	397.81
419.389	422.81
419.611	425.81
419.834	434.81
420.057	429.81
420.28	422.81
420.503	413.81
420.726	430.81
420.948	437.81
421.171	459.81
421.394	483.81
421.617	424.81
421.839	417.81
422.062	404.81
422.285	434.81
422.507	478.81
422.73	556.81
422.953	527.81
423.175	470.81
423.398	448.81
423.621	445.81
423.843	463.81
424.066	471.81
424.288	440.81
424.511	459.81
424.733	519.81
424.956	575.81
425.178	574.81
425.401	559.81
425.623	564.81
425.846	496.81
426.068	459.81
426.291	467.81
426.513	461.81
426.735	490.81
426.958	501.81
427.18	581.81
427.402	693.81
427.625	770.81
427.847	680.81
428.069	616.81
428.292	531.81
428.514	485.81
428.736	449.81
428.958	434.81
429.181	426.81
429.403	429.81
429.625	421.81
429.847	468.81
430.069	531.81
430.292	517.81
430.514	471.81
430.736	440.81
430.958	431.81
431.18	408.81
431.402	417.81
431.624	389.81
431.846	391.81
432.068	394.81
432.29	403.81
432.512	420.81
432.734	405.81
432.956	394.81
433.178	439.81
433.4	417.81
433.622	379.81
433.844	413.81
434.066	407.81
434.287	394.81
434.509	409.81
434.731	428.81
434.953	401.81
435.175	432.81
435.397	463.81
435.618	481.81
435.84	501.81
436.062	586.81
436.284	638.81
436.505	527.81
436.727	480.81
436.949	449.81
437.17	409.81
437.392	451.81
437.614	469.81
437.835	498.81
438.057	610.81
438.278	691.81
438.5	657.81
438.721	727.81
438.943	660.81
439.165	531.81
439.386	481.81
439.608	470.81
439.829	488.81
440.05	535.81
440.272	555.81
440.493	524.81
440.715	454.81
440.936	480.81
441.158	445.81
441.379	458.81
441.6	457.81
441.822	456.81
442.043	514.81
442.264	608.81
442.486	618.81
442.707	535.81
442.928	494.81
443.149	493.81
443.371	491.81
443.592	563.81
443.813	632.81
444.034	669.81
444.255	541.81
444.476	467.81
444.698	457.81
444.919	470.81
445.14	565.81
445.361	543.81
445.582	533.81
445.803	589.81
446.024	663.81
446.245	662.81
446.466	632.81
446.687	536.81
446.908	477.81
447.129	463.81
447.35	448.81
447.571	445.81
447.792	449.81
448.013	431.81
448.234	437.81
448.455	500.81
448.675	615.81
448.896	705.81
449.117	587.81
449.338	565.81
449.559	650.81
449.779	727.81
450	599.81
450.221	502.81
450.442	437.81
450.662	432.81
450.883	480.81
451.104	467.81
451.324	449.81
451.545	431.81
451.766	419.81
451.986	402.81
452.207	385.81
452.428	378.81
452.648	405.81
452.869	421.81
453.089	412.81
453.31	415.81
453.53	398.81
453.751	406.81
453.971	413.81
454.192	407.81
454.412	411.81
454.633	404.81
454.853	394.81
455.073	394.81
455.294	410.81
455.514	480.81
455.734	465.81
455.955	387.81
456.175	388.81
456.395	377.81
456.616	372.81
456.836	368.81
457.056	357.81
457.276	386.81
457.497	367.81
457.717	359.81
457.937	373.81
458.157	385.81
458.377	385.81
458.598	424.81
458.818	454.81
459.038	561.81
459.258	550.81
459.478	452.81
459.698	423.81
459.918	397.81
460.138	394.81
460.358	414.81
460.578	383.81
460.798	409.81
461.018	426.81
461.238	416.81
461.458	400.81
461.678	401.81
461.898	403.81
462.118	405.81
462.338	408.81
462.558	421.81
462.777	396.81
462.997	409.81
463.217	415.81
463.437	415.81
463.657	427.81
463.876	429.81
464.096	433.81
464.316	410.81
464.536	445.81
464.755	434.81
464.975	466.81
465.195	511.81
465.414	590.81
465.634	523.81
465.854	435.81
466.073	438.81
466.293	432.81
466.512	403.81
466.732	390.81
466.951	403.81
467.171	398.81
467.391	401.81
467.61	423.81
467.829	419.81
468.049	428.81
468.268	417.81
468.488	399.81
468.707	421.81
468.927	397.81
469.146	395.81
469.365	394.81
469.585	400.81
469.804	395.81
470.023	433.81
470.243	422.81
470.462	409.81
470.681	425.81
470.901	421.81
471.12	418.81
471.339	416.81
471.558	398.81
471.777	408.81
471.997	406.81
472.216	398.81
472.435	470.81
472.654	449.81
472.873	406.81
473.092	391.81
473.311	392.81
473.53	426.81
473.749	435.81
473.968	471.81
474.187	562.81
474.406	587.81
474.625	473.81
474.844	429.81
475.063	417.81
475.282	412.81
475.501	411.81
475.72	417.81
475.939	411.81
476.158	421.81
476.377	416.81
476.596	404.81
476.814	412.81
477.033	436.81
477.252	433.81
477.471	443.81
477.69	423.81
477.908	439.81
478.127	425.81
478.346	446.81
478.564	439.81
478.783	458.81
479.002	447.81
479.22	460.81
479.439	463.81
479.658	467.81
479.876	472.81
480.095	502.81
480.313	506.81
480.532	514.81
480.751	470.81
480.969	495.81
481.188	575.81
481.406	615.81
481.624	542.81
481.843	489.81
482.061	501.81
482.28	480.81
482.498	489.81
482.717	507.81
482.935	475.81
483.153	486.81
483.372	502.81
483.59	474.81
483.808	464.81
484.027	480.81
484.245	493.81
484.463	488.81
484.681	491.81
484.9	477.81
485.118	499.81
485.336	470.81
485.554	490.81
485.772	489.81
485.99	478.81
486.209	499.81
486.427	508.81
486.645	504.81
486.863	535.81
487.081	541.81
487.299	521.81
487.517	530.81
487.735	507.81
487.953	514.81
488.171	513.81
488.389	513.81
488.607	498.81
488.825	519.81
489.043	518.81
489.261	502.81
489.479	517.81
489.696	534.81
489.914	525.81
490.132	530.81
490.35	523.81
490.568	546.81
490.786	530.81
491.003	552.81
491.221	564.81
491.439	574.81
491.657	580.81
491.874	551.81
492.092	598.81
492.31	596.81
492.527	590.81
492.745	593.81
492.963	585.81
493.18	600.81
493.398	596.81
493.615	586.81
493.833	595.81
494.05	607.81
494.268	625.81
494.485	614.81
494.703	588.81
494.92	597.81
495.138	585.81
495.355	596.81
495.573	631.81
495.79	619.81
496.008	624.81
496.225	582.81
496.442	593.81
496.66	605.81
496.877	605.81
497.094	634.81
497.312	619.81
497.529	621.81
497.746	614.81
497.963	629.81
498.181	643.81
498.398	652.81
498.615	633.81
498.832	657.81
499.049	683.81
499.267	696.81
499.484	684.81
499.701	699.81
499.918	702.81
500.135	751.81
500.352	745.81
500.569	761.81
500.786	744.81
501.003	758.81
501.22	755.81
501.437	746.81
501.654	730.81
501.871	744.81
