Data from 1961.PennyLincolnUp.Lamp.En5.5.200Scan.071719.P1._HRD10591_13-49-13-058.txt Node
Date: Thu Jul 18 13:49:13 EDT 2019
User: cochatt
Spectrometer: HR+D1059
Trigger mode: 1
Integration Time (sec): 1.000000E-1
Scans to average: 1
Electric dark correction enabled: true
Nonlinearity correction enabled: false
Boxcar width: 0
XAxis mode: Wavelengths
Number of Pixels in Spectrum: 2048
>>>>>Begin Spectral Data<<<<<
223.165	-6.75
223.4	-6.75
223.635	-6.75
223.869	-17.75
224.104	-7.75
224.338	-23.75
224.573	-12.75
224.808	-14.75
225.042	-3.75
225.277	-9.75
225.511	-16.75
225.746	-5.75
225.98	2.25
226.215	15.25
226.449	13.25
226.683	32.25
226.918	19.25
227.152	37.25
227.387	35.25
227.621	45.25
227.856	55.25
228.09	49.25
228.324	55.25
228.559	60.25
228.793	68.25
229.027	88.25
229.262	106.25
229.496	111.25
229.73	127.25
229.964	156.25
230.199	145.25
230.433	120.25
230.667	125.25
230.901	105.25
231.136	101.25
231.37	108.25
231.604	104.25
231.838	118.25
232.072	108.25
232.306	118.25
232.541	111.25
232.775	101.25
233.009	95.25
233.243	106.25
233.477	113.25
233.711	107.25
233.945	121.25
234.179	110.25
234.413	110.25
234.647	119.25
234.881	106.25
235.115	113.25
235.349	118.25
235.583	115.25
235.817	119.25
236.051	120.25
236.285	136.25
236.519	128.25
236.753	132.25
236.987	150.25
237.221	182.25
237.455	233.25
237.689	189.25
237.922	149.25
238.156	135.25
238.39	113.25
238.624	125.25
238.858	121.25
239.091	124.25
239.325	113.25
239.559	124.25
239.793	127.25
240.027	134.25
240.26	128.25
240.494	169.25
240.728	140.25
240.961	155.25
241.195	147.25
241.429	136.25
241.662	128.25
241.896	130.25
242.13	126.25
242.363	113.25
242.597	127.25
242.83	126.25
243.064	142.25
243.298	126.25
243.531	138.25
243.765	118.25
243.998	131.25
244.232	139.25
244.465	126.25
244.699	128.25
244.932	135.25
245.166	141.25
245.399	132.25
245.633	137.25
245.866	126.25
246.099	144.25
246.333	122.25
246.566	125.25
246.8	137.25
247.033	158.25
247.266	149.25
247.5	151.25
247.733	175.25
247.966	143.25
248.2	150.25
248.433	168.25
248.666	181.25
248.899	168.25
249.133	171.25
249.366	194.25
249.599	206.25
249.832	164.25
250.066	172.25
250.299	160.25
250.532	159.25
250.765	173.25
250.998	201.25
251.231	213.25
251.465	189.25
251.698	189.25
251.931	166.25
252.164	190.25
252.397	171.25
252.63	183.25
252.863	189.25
253.096	189.25
253.329	214.25
253.562	210.25
253.795	200.25
254.028	200.25
254.261	201.25
254.494	200.25
254.727	227.25
254.96	258.25
255.193	252.25
255.426	220.25
255.659	220.25
255.892	200.25
256.124	208.25
256.357	201.25
256.59	219.25
256.823	196.25
257.056	199.25
257.289	185.25
257.521	208.25
257.754	175.25
257.987	197.25
258.22	182.25
258.452	197.25
258.685	188.25
258.918	191.25
259.151	191.25
259.383	182.25
259.616	193.25
259.849	207.25
260.081	215.25
260.314	226.25
260.547	225.25
260.779	221.25
261.012	196.25
261.244	186.25
261.477	194.25
261.71	216.25
261.942	213.25
262.175	225.25
262.407	215.25
262.64	193.25
262.872	182.25
263.105	198.25
263.337	186.25
263.57	192.25
263.802	208.25
264.035	189.25
264.267	182.25
264.499	193.25
264.732	191.25
264.964	200.25
265.197	189.25
265.429	203.25
265.661	204.25
265.894	191.25
266.126	194.25
266.358	190.25
266.591	192.25
266.823	203.25
267.055	205.25
267.287	211.25
267.52	199.25
267.752	210.25
267.984	217.25
268.216	204.25
268.448	218.25
268.681	203.25
268.913	213.25
269.145	232.25
269.377	232.25
269.609	226.25
269.841	231.25
270.073	241.25
270.306	262.25
270.538	291.25
270.77	286.25
271.002	265.25
271.234	262.25
271.466	267.25
271.698	267.25
271.93	280.25
272.162	284.25
272.394	290.25
272.626	275.25
272.858	266.25
273.09	243.25
273.322	250.25
273.553	233.25
273.785	230.25
274.017	224.25
274.249	231.25
274.481	233.25
274.713	222.25
274.945	229.25
275.176	249.25
275.408	224.25
275.64	219.25
275.872	245.25
276.104	246.25
276.335	228.25
276.567	247.25
276.799	234.25
277.031	283.25
277.262	281.25
277.494	303.25
277.726	274.25
277.957	239.25
278.189	254.25
278.421	229.25
278.652	230.25
278.884	231.25
279.115	221.25
279.347	232.25
279.579	237.25
279.81	230.25
280.042	219.25
280.273	229.25
280.505	240.25
280.736	228.25
280.968	222.25
281.199	229.25
281.431	241.25
281.662	210.25
281.894	242.25
282.125	242.25
282.356	259.25
282.588	275.25
282.819	276.25
283.051	247.25
283.282	260.25
283.513	234.25
283.745	246.25
283.976	241.25
284.207	258.25
284.439	237.25
284.67	243.25
284.901	230.25
285.132	234.25
285.364	230.25
285.595	244.25
285.826	231.25
286.057	229.25
286.288	237.25
286.52	239.25
286.751	244.25
286.982	230.25
287.213	230.25
287.444	260.25
287.675	250.25
287.906	254.25
288.138	252.25
288.369	263.25
288.6	265.25
288.831	261.25
289.062	234.25
289.293	258.25
289.524	250.25
289.755	243.25
289.986	243.25
290.217	264.25
290.448	240.25
290.679	243.25
290.91	263.25
291.141	231.25
291.371	229.25
291.602	236.25
291.833	237.25
292.064	245.25
292.295	248.25
292.526	248.25
292.757	232.25
292.987	236.25
293.218	232.25
293.449	238.25
293.68	243.25
293.91	247.25
294.141	250.25
294.372	247.25
294.603	245.25
294.833	257.25
295.064	251.25
295.295	261.25
295.525	260.25
295.756	257.25
295.987	250.25
296.217	268.25
296.448	275.25
296.679	264.25
296.909	250.25
297.14	249.25
297.37	247.25
297.601	248.25
297.831	252.25
298.062	243.25
298.292	264.25
298.523	279.25
298.753	270.25
298.984	255.25
299.214	245.25
299.445	250.25
299.675	247.25
299.905	270.25
300.136	272.25
300.366	274.25
300.597	261.25
300.827	276.25
301.057	265.25
301.288	269.25
301.518	286.25
301.748	266.25
301.979	287.25
302.209	280.25
302.439	275.25
302.669	270.25
302.9	273.25
303.13	271.25
303.36	269.25
303.59	276.25
303.82	275.25
304.051	292.25
304.281	292.25
304.511	260.25
304.741	282.25
304.971	266.25
305.201	287.25
305.431	271.25
305.661	285.25
305.891	290.25
306.121	288.25
306.352	290.25
306.582	301.25
306.812	303.25
307.042	296.25
307.272	282.25
307.502	283.25
307.731	291.25
307.961	301.25
308.191	294.25
308.421	273.25
308.651	298.25
308.881	292.25
309.111	293.25
309.341	317.25
309.571	317.25
309.8	321.25
310.03	332.25
310.26	340.25
310.49	344.25
310.72	334.25
310.949	365.25
311.179	358.25
311.409	342.25
311.639	334.25
311.868	335.25
312.098	335.25
312.328	346.25
312.557	359.25
312.787	385.25
313.017	366.25
313.246	346.25
313.476	347.25
313.706	342.25
313.935	347.25
314.165	346.25
314.394	348.25
314.624	365.25
314.853	330.25
315.083	323.25
315.312	332.25
315.542	325.25
315.771	317.25
316.001	330.25
316.23	337.25
316.46	326.25
316.689	317.25
316.919	350.25
317.148	347.25
317.377	342.25
317.607	343.25
317.836	335.25
318.065	320.25
318.295	344.25
318.524	334.25
318.753	338.25
318.983	340.25
319.212	325.25
319.441	361.25
319.67	350.25
319.9	331.25
320.129	329.25
320.358	319.25
320.587	353.25
320.816	359.25
321.046	365.25
321.275	360.25
321.504	374.25
321.733	351.25
321.962	369.25
322.191	406.25
322.42	378.25
322.649	415.25
322.878	409.25
323.108	431.25
323.337	468.25
323.566	490.25
323.795	528.25
324.024	593.25
324.253	730.25
324.482	1097.25
324.71	1720.25
324.939	2434.25
325.168	1993.25
325.397	1025.25
325.626	683.25
325.855	571.25
326.084	505.25
326.313	500.25
326.542	494.25
326.77	550.25
326.999	686.25
327.228	986.25
327.457	1471.25
327.686	1713.25
327.914	1158.25
328.143	757.25
328.372	641.25
328.6	600.25
328.829	567.25
329.058	562.25
329.287	570.25
329.515	533.25
329.744	480.25
329.972	463.25
330.201	500.25
330.43	547.25
330.658	579.25
330.887	620.25
331.115	579.25
331.344	500.25
331.572	446.25
331.801	445.25
332.03	449.25
332.258	436.25
332.486	405.25
332.715	381.25
332.943	394.25
333.172	392.25
333.4	409.25
333.629	409.25
333.857	402.25
334.085	437.25
334.314	462.25
334.542	485.25
334.771	502.25
334.999	457.25
335.227	412.25
335.455	413.25
335.684	422.25
335.912	401.25
336.14	378.25
336.369	392.25
336.597	387.25
336.825	390.25
337.053	381.25
337.281	379.25
337.51	393.25
337.738	372.25
337.966	390.25
338.194	374.25
338.422	400.25
338.65	381.25
338.878	383.25
339.106	375.25
339.334	373.25
339.562	365.25
339.79	379.25
340.018	391.25
340.246	393.25
340.474	372.25
340.702	380.25
340.93	372.25
341.158	382.25
341.386	378.25
341.614	375.25
341.842	361.25
342.07	380.25
342.298	359.25
342.526	341.25
342.754	351.25
342.981	364.25
343.209	362.25
343.437	331.25
343.665	366.25
343.893	346.25
344.12	363.25
344.348	376.25
344.576	375.25
344.804	371.25
345.031	399.25
345.259	381.25
345.487	403.25
345.714	385.25
345.942	389.25
346.17	360.25
346.397	371.25
346.625	359.25
346.853	365.25
347.08	351.25
347.308	379.25
347.535	356.25
347.763	381.25
347.99	364.25
348.218	365.25
348.445	364.25
348.673	369.25
348.9	365.25
349.128	355.25
349.355	355.25
349.583	346.25
349.81	349.25
350.037	378.25
350.265	361.25
350.492	368.25
350.72	342.25
350.947	379.25
351.174	360.25
351.402	399.25
351.629	391.25
351.856	385.25
352.083	387.25
352.311	396.25
352.538	392.25
352.765	382.25
352.992	380.25
353.22	358.25
353.447	371.25
353.674	361.25
353.901	347.25
354.128	348.25
354.355	341.25
354.583	336.25
354.81	338.25
355.037	343.25
355.264	336.25
355.491	329.25
355.718	322.25
355.945	329.25
356.172	350.25
356.399	326.25
356.626	322.25
356.853	322.25
357.08	333.25
357.307	333.25
357.534	322.25
357.761	337.25
357.988	331.25
358.215	338.25
358.441	350.25
358.668	327.25
358.895	321.25
359.122	341.25
359.349	368.25
359.576	371.25
359.802	410.25
360.029	439.25
360.256	428.25
360.483	411.25
360.709	379.25
360.936	380.25
361.163	358.25
361.39	376.25
361.616	383.25
361.843	371.25
362.07	375.25
362.296	381.25
362.523	364.25
362.749	354.25
362.976	349.25
363.203	349.25
363.429	350.25
363.656	356.25
363.882	357.25
364.109	357.25
364.335	358.25
364.562	360.25
364.788	355.25
365.015	349.25
365.241	353.25
365.468	369.25
365.694	348.25
365.92	365.25
366.147	357.25
366.373	345.25
366.599	327.25
366.826	344.25
367.052	351.25
367.278	359.25
367.505	349.25
367.731	331.25
367.957	343.25
368.184	350.25
368.41	349.25
368.636	349.25
368.862	382.25
369.089	347.25
369.315	334.25
369.541	350.25
369.767	341.25
369.993	338.25
370.219	334.25
370.445	329.25
370.672	340.25
370.898	340.25
371.124	327.25
371.35	351.25
371.576	350.25
371.802	342.25
372.028	341.25
372.254	343.25
372.48	334.25
372.706	337.25
372.932	334.25
373.158	341.25
373.384	339.25
373.61	332.25
373.835	343.25
374.061	335.25
374.287	373.25
374.513	356.25
374.739	362.25
374.965	350.25
375.191	345.25
375.416	331.25
375.642	333.25
375.868	351.25
376.094	341.25
376.319	344.25
376.545	340.25
376.771	343.25
376.997	348.25
377.222	334.25
377.448	337.25
377.674	325.25
377.899	332.25
378.125	340.25
378.35	331.25
378.576	323.25
378.802	331.25
379.027	340.25
379.253	336.25
379.478	350.25
379.704	326.25
379.929	325.25
380.155	354.25
380.38	348.25
380.606	341.25
380.831	339.25
381.057	327.25
381.282	345.25
381.507	343.25
381.733	347.25
381.958	330.25
382.184	326.25
382.409	338.25
382.634	349.25
382.86	349.25
383.085	353.25
383.31	344.25
383.535	344.25
383.761	343.25
383.986	348.25
384.211	347.25
384.436	354.25
384.662	346.25
384.887	357.25
385.112	341.25
385.337	364.25
385.562	339.25
385.787	356.25
386.013	363.25
386.238	362.25
386.463	353.25
386.688	356.25
386.913	339.25
387.138	357.25
387.363	355.25
387.588	349.25
387.813	354.25
388.038	347.25
388.263	348.25
388.488	349.25
388.713	348.25
388.938	353.25
389.163	363.25
389.387	376.25
389.612	364.25
389.837	359.25
390.062	363.25
390.287	343.25
390.512	375.25
390.736	385.25
390.961	369.25
391.186	358.25
391.411	349.25
391.636	372.25
391.86	373.25
392.085	384.25
392.31	372.25
392.534	358.25
392.759	364.25
392.984	353.25
393.208	362.25
393.433	377.25
393.658	375.25
393.882	372.25
394.107	353.25
394.331	377.25
394.556	373.25
394.78	364.25
395.005	377.25
395.229	348.25
395.454	373.25
395.678	373.25
395.903	384.25
396.127	405.25
396.352	418.25
396.576	377.25
396.801	367.25
397.025	383.25
397.249	375.25
397.474	391.25
397.698	393.25
397.922	420.25
398.147	407.25
398.371	411.25
398.595	388.25
398.82	399.25
399.044	419.25
399.268	417.25
399.492	405.25
399.717	442.25
399.941	480.25
400.165	509.25
400.389	498.25
400.613	441.25
400.837	422.25
401.062	429.25
401.286	429.25
401.51	416.25
401.734	412.25
401.958	425.25
402.182	405.25
402.406	421.25
402.63	445.25
402.854	440.25
403.078	426.25
403.302	426.25
403.526	429.25
403.75	426.25
403.974	422.25
404.198	421.25
404.422	437.25
404.645	441.25
404.869	463.25
405.093	476.25
405.317	523.25
405.541	527.25
405.765	489.25
405.988	467.25
406.212	469.25
406.436	473.25
406.66	503.25
406.883	473.25
407.107	482.25
407.331	537.25
407.555	595.25
407.778	573.25
408.002	522.25
408.226	476.25
408.449	479.25
408.673	453.25
408.896	503.25
409.12	538.25
409.344	514.25
409.567	471.25
409.791	447.25
410.014	457.25
410.238	446.25
410.461	417.25
410.685	441.25
410.908	434.25
411.132	476.25
411.355	523.25
411.578	488.25
411.802	429.25
412.025	419.25
412.249	457.25
412.472	475.25
412.695	502.25
412.919	495.25
413.142	449.25
413.365	421.25
413.589	421.25
413.812	417.25
414.035	430.25
414.258	410.25
414.482	421.25
414.705	393.25
414.928	394.25
415.151	409.25
415.374	412.25
415.597	403.25
415.821	413.25
416.044	420.25
416.267	409.25
416.49	407.25
416.713	411.25
416.936	410.25
417.159	409.25
417.382	401.25
417.605	406.25
417.828	422.25
418.051	452.25
418.274	436.25
418.497	424.25
418.72	425.25
418.943	402.25
419.166	400.25
419.389	428.25
419.611	421.25
419.834	414.25
420.057	428.25
420.28	441.25
420.503	424.25
420.726	422.25
420.948	443.25
421.171	494.25
421.394	526.25
421.617	470.25
421.839	440.25
422.062	450.25
422.285	455.25
422.507	486.25
422.73	573.25
422.953	550.25
423.175	485.25
423.398	475.25
423.621	449.25
423.843	465.25
424.066	451.25
424.288	474.25
424.511	489.25
424.733	548.25
424.956	611.25
425.178	583.25
425.401	582.25
425.623	582.25
425.846	523.25
426.068	488.25
426.291	465.25
426.513	486.25
426.735	477.25
426.958	543.25
427.18	590.25
427.402	705.25
427.625	779.25
427.847	702.25
428.069	614.25
428.292	540.25
428.514	488.25
428.736	462.25
428.958	466.25
429.181	435.25
429.403	430.25
429.625	457.25
429.847	474.25
430.069	558.25
430.292	540.25
430.514	460.25
430.736	445.25
430.958	423.25
431.18	445.25
431.402	407.25
431.624	411.25
431.846	429.25
432.068	421.25
432.29	429.25
432.512	414.25
432.734	416.25
432.956	434.25
433.178	444.25
433.4	438.25
433.622	417.25
433.844	421.25
434.066	412.25
434.287	426.25
434.509	435.25
434.731	417.25
434.953	435.25
435.175	449.25
435.397	461.25
435.618	484.25
435.84	531.25
436.062	602.25
436.284	653.25
436.505	555.25
436.727	499.25
436.949	472.25
437.17	435.25
437.392	454.25
437.614	473.25
437.835	515.25
438.057	574.25
438.278	717.25
438.5	676.25
438.721	721.25
438.943	691.25
439.165	568.25
439.386	507.25
439.608	503.25
439.829	511.25
440.05	537.25
440.272	577.25
440.493	521.25
440.715	502.25
440.936	461.25
441.158	459.25
441.379	438.25
441.6	458.25
441.822	489.25
442.043	521.25
442.264	622.25
442.486	643.25
442.707	535.25
442.928	491.25
443.149	525.25
443.371	515.25
443.592	586.25
443.813	649.25
444.034	703.25
444.255	578.25
444.476	501.25
444.698	493.25
444.919	476.25
445.14	547.25
445.361	524.25
445.582	533.25
445.803	578.25
446.024	693.25
446.245	713.25
446.466	629.25
446.687	554.25
446.908	488.25
447.129	458.25
447.35	437.25
447.571	451.25
447.792	434.25
448.013	451.25
448.234	465.25
448.455	550.25
448.675	639.25
448.896	727.25
449.117	601.25
449.338	596.25
449.559	678.25
449.779	762.25
450	603.25
450.221	478.25
450.442	467.25
450.662	449.25
450.883	461.25
451.104	456.25
451.324	471.25
451.545	421.25
451.766	421.25
451.986	398.25
452.207	411.25
452.428	405.25
452.648	389.25
452.869	391.25
453.089	417.25
453.31	428.25
453.53	421.25
453.751	409.25
453.971	412.25
454.192	443.25
454.412	411.25
454.633	395.25
454.853	410.25
455.073	422.25
455.294	453.25
455.514	485.25
455.734	481.25
455.955	413.25
456.175	397.25
456.395	385.25
456.616	386.25
456.836	354.25
457.056	362.25
457.276	365.25
457.497	381.25
457.717	375.25
457.937	366.25
458.157	377.25
458.377	415.25
458.598	419.25
458.818	477.25
459.038	549.25
459.258	567.25
459.478	480.25
459.698	449.25
459.918	423.25
460.138	410.25
460.358	393.25
460.578	422.25
460.798	428.25
461.018	411.25
461.238	399.25
461.458	409.25
461.678	413.25
461.898	412.25
462.118	416.25
462.338	429.25
462.558	426.25
462.777	425.25
462.997	415.25
463.217	428.25
463.437	427.25
463.657	428.25
463.876	443.25
464.096	439.25
464.316	429.25
464.536	437.25
464.755	432.25
464.975	467.25
465.195	533.25
465.414	581.25
465.634	513.25
465.854	477.25
466.073	421.25
466.293	434.25
466.512	434.25
466.732	429.25
466.951	401.25
467.171	405.25
467.391	415.25
467.61	421.25
467.829	450.25
468.049	421.25
468.268	421.25
468.488	415.25
468.707	391.25
468.927	393.25
469.146	399.25
469.365	407.25
469.585	397.25
469.804	419.25
470.023	410.25
470.243	409.25
470.462	423.25
470.681	461.25
470.901	439.25
471.12	398.25
471.339	414.25
471.558	415.25
471.777	401.25
471.997	407.25
472.216	433.25
472.435	486.25
472.654	447.25
472.873	450.25
473.092	418.25
473.311	430.25
473.53	417.25
473.749	433.25
473.968	480.25
474.187	592.25
474.406	591.25
474.625	465.25
474.844	443.25
475.063	418.25
475.282	418.25
475.501	416.25
475.72	413.25
475.939	431.25
476.158	441.25
476.377	446.25
476.596	434.25
476.814	439.25
477.033	435.25
477.252	462.25
477.471	457.25
477.69	440.25
477.908	450.25
478.127	443.25
478.346	442.25
478.564	449.25
478.783	443.25
479.002	465.25
479.22	456.25
479.439	465.25
479.658	492.25
479.876	522.25
480.095	513.25
480.313	510.25
480.532	510.25
480.751	525.25
480.969	530.25
481.188	601.25
481.406	634.25
481.624	580.25
481.843	521.25
482.061	510.25
482.28	499.25
482.498	486.25
482.717	507.25
482.935	487.25
483.153	474.25
483.372	475.25
483.59	490.25
483.808	481.25
484.027	485.25
484.245	513.25
484.463	485.25
484.681	489.25
484.9	490.25
485.118	492.25
485.336	492.25
485.554	508.25
485.772	480.25
485.99	499.25
486.209	497.25
486.427	495.25
486.645	521.25
486.863	549.25
487.081	539.25
487.299	522.25
487.517	550.25
487.735	530.25
487.953	528.25
488.171	549.25
488.389	537.25
488.607	543.25
488.825	526.25
489.043	536.25
489.261	533.25
489.479	518.25
489.696	545.25
489.914	539.25
490.132	571.25
490.35	542.25
490.568	547.25
490.786	560.25
491.003	561.25
491.221	584.25
491.439	575.25
491.657	585.25
491.874	600.25
492.092	612.25
492.31	593.25
492.527	622.25
492.745	613.25
492.963	599.25
493.18	605.25
493.398	603.25
493.615	606.25
493.833	620.25
494.05	620.25
494.268	622.25
494.485	623.25
494.703	613.25
494.92	625.25
495.138	627.25
495.355	629.25
495.573	629.25
495.79	629.25
496.008	636.25
496.225	604.25
496.442	626.25
496.66	643.25
496.877	625.25
497.094	611.25
497.312	629.25
497.529	644.25
497.746	650.25
497.963	649.25
498.181	646.25
498.398	645.25
498.615	678.25
498.832	676.25
499.049	697.25
499.267	718.25
499.484	710.25
499.701	695.25
499.918	711.25
500.135	753.25
500.352	768.25
500.569	784.25
500.786	760.25
501.003	761.25
501.22	763.25
501.437	746.25
501.654	750.25
501.871	765.25
