Data from 1961.PennyLincolnUp.Lamp.En5.5.200Scan.071719.P1._HRD10591_13-47-51-058.txt Node
Date: Thu Jul 18 13:47:51 EDT 2019
User: cochatt
Spectrometer: HR+D1059
Trigger mode: 1
Integration Time (sec): 1.000000E-1
Scans to average: 1
Electric dark correction enabled: true
Nonlinearity correction enabled: false
Boxcar width: 0
XAxis mode: Wavelengths
Number of Pixels in Spectrum: 2048
>>>>>Begin Spectral Data<<<<<
223.165	-20.06
223.4	-20.06
223.635	-20.06
223.869	-6.06
224.104	-7.06
224.338	-29.06
224.573	-15.06
224.808	-12.06
225.042	-12.06
225.277	-2.06
225.511	13.94
225.746	3.94
225.98	4.94
226.215	1.94
226.449	1.94
226.683	11.94
226.918	32.94
227.152	31.94
227.387	42.94
227.621	41.94
227.856	38.94
228.09	35.94
228.324	52.94
228.559	64.94
228.793	60.94
229.027	77.94
229.262	111.94
229.496	113.94
229.73	123.94
229.964	134.94
230.199	115.94
230.433	116.94
230.667	106.94
230.901	95.94
231.136	103.94
231.37	115.94
231.604	103.94
231.838	97.94
232.072	105.94
232.306	87.94
232.541	108.94
232.775	110.94
233.009	78.94
233.243	99.94
233.477	107.94
233.711	114.94
233.945	98.94
234.179	104.94
234.413	115.94
234.647	90.94
234.881	124.94
235.115	97.94
235.349	104.94
235.583	103.94
235.817	101.94
236.051	107.94
236.285	101.94
236.519	131.94
236.753	124.94
236.987	138.94
237.221	151.94
237.455	218.94
237.689	184.94
237.922	125.94
238.156	130.94
238.39	122.94
238.624	105.94
238.858	138.94
239.091	116.94
239.325	104.94
239.559	93.94
239.793	123.94
240.027	120.94
240.26	125.94
240.494	140.94
240.728	154.94
240.961	126.94
241.195	123.94
241.429	122.94
241.662	102.94
241.896	111.94
242.13	118.94
242.363	122.94
242.597	130.94
242.83	139.94
243.064	123.94
243.298	119.94
243.531	123.94
243.765	115.94
243.998	131.94
244.232	127.94
244.465	129.94
244.699	118.94
244.932	129.94
245.166	131.94
245.399	117.94
245.633	127.94
245.866	131.94
246.099	123.94
246.333	125.94
246.566	125.94
246.8	133.94
247.033	109.94
247.266	136.94
247.5	146.94
247.733	128.94
247.966	128.94
248.2	152.94
248.433	155.94
248.666	150.94
248.899	152.94
249.133	159.94
249.366	174.94
249.599	177.94
249.832	160.94
250.066	153.94
250.299	170.94
250.532	148.94
250.765	181.94
250.998	195.94
251.231	197.94
251.465	178.94
251.698	165.94
251.931	165.94
252.164	164.94
252.397	178.94
252.63	175.94
252.863	162.94
253.096	182.94
253.329	180.94
253.562	199.94
253.795	176.94
254.028	171.94
254.261	182.94
254.494	189.94
254.727	212.94
254.96	241.94
255.193	205.94
255.426	216.94
255.659	188.94
255.892	196.94
256.124	211.94
256.357	199.94
256.59	200.94
256.823	182.94
257.056	192.94
257.289	184.94
257.521	179.94
257.754	181.94
257.987	174.94
258.22	193.94
258.452	180.94
258.685	178.94
258.918	168.94
259.151	167.94
259.383	171.94
259.616	182.94
259.849	168.94
260.081	184.94
260.314	196.94
260.547	210.94
260.779	208.94
261.012	185.94
261.244	185.94
261.477	205.94
261.71	187.94
261.942	203.94
262.175	202.94
262.407	197.94
262.64	184.94
262.872	180.94
263.105	174.94
263.337	164.94
263.57	169.94
263.802	186.94
264.035	166.94
264.267	189.94
264.499	181.94
264.732	178.94
264.964	176.94
265.197	164.94
265.429	186.94
265.661	172.94
265.894	196.94
266.126	185.94
266.358	175.94
266.591	173.94
266.823	174.94
267.055	190.94
267.287	192.94
267.52	202.94
267.752	184.94
267.984	174.94
268.216	204.94
268.448	203.94
268.681	190.94
268.913	204.94
269.145	218.94
269.377	230.94
269.609	210.94
269.841	210.94
270.073	217.94
270.306	226.94
270.538	259.94
270.77	239.94
271.002	246.94
271.234	245.94
271.466	247.94
271.698	251.94
271.93	255.94
272.162	261.94
272.394	262.94
272.626	259.94
272.858	249.94
273.09	225.94
273.322	225.94
273.553	209.94
273.785	223.94
274.017	222.94
274.249	215.94
274.481	212.94
274.713	212.94
274.945	224.94
275.176	220.94
275.408	215.94
275.64	219.94
275.872	207.94
276.104	219.94
276.335	212.94
276.567	214.94
276.799	222.94
277.031	246.94
277.262	238.94
277.494	261.94
277.726	233.94
277.957	252.94
278.189	234.94
278.421	209.94
278.652	208.94
278.884	224.94
279.115	222.94
279.347	225.94
279.579	219.94
279.81	197.94
280.042	219.94
280.273	218.94
280.505	209.94
280.736	219.94
280.968	201.94
281.199	201.94
281.431	211.94
281.662	220.94
281.894	228.94
282.125	229.94
282.356	231.94
282.588	256.94
282.819	240.94
283.051	226.94
283.282	210.94
283.513	226.94
283.745	223.94
283.976	232.94
284.207	230.94
284.439	219.94
284.67	224.94
284.901	221.94
285.132	225.94
285.364	224.94
285.595	242.94
285.826	219.94
286.057	216.94
286.288	207.94
286.52	234.94
286.751	202.94
286.982	216.94
287.213	223.94
287.444	217.94
287.675	234.94
287.906	226.94
288.138	229.94
288.369	249.94
288.6	258.94
288.831	247.94
289.062	240.94
289.293	216.94
289.524	233.94
289.755	231.94
289.986	238.94
290.217	225.94
290.448	223.94
290.679	235.94
290.91	229.94
291.141	223.94
291.371	235.94
291.602	228.94
291.833	226.94
292.064	223.94
292.295	241.94
292.526	226.94
292.757	229.94
292.987	218.94
293.218	231.94
293.449	233.94
293.68	226.94
293.91	231.94
294.141	230.94
294.372	200.94
294.603	224.94
294.833	233.94
295.064	218.94
295.295	228.94
295.525	221.94
295.756	238.94
295.987	232.94
296.217	258.94
296.448	282.94
296.679	247.94
296.909	222.94
297.14	250.94
297.37	240.94
297.601	248.94
297.831	259.94
298.062	233.94
298.292	217.94
298.523	238.94
298.753	242.94
298.984	232.94
299.214	230.94
299.445	261.94
299.675	244.94
299.905	246.94
300.136	245.94
300.366	253.94
300.597	261.94
300.827	246.94
301.057	256.94
301.288	267.94
301.518	251.94
301.748	239.94
301.979	249.94
302.209	254.94
302.439	258.94
302.669	261.94
302.9	258.94
303.13	249.94
303.36	276.94
303.59	259.94
303.82	267.94
304.051	261.94
304.281	259.94
304.511	245.94
304.741	254.94
304.971	266.94
305.201	266.94
305.431	257.94
305.661	259.94
305.891	256.94
306.121	257.94
306.352	268.94
306.582	286.94
306.812	267.94
307.042	263.94
307.272	278.94
307.502	258.94
307.731	261.94
307.961	263.94
308.191	258.94
308.421	267.94
308.651	276.94
308.881	268.94
309.111	281.94
309.341	279.94
309.571	288.94
309.8	308.94
310.03	303.94
310.26	311.94
310.49	310.94
310.72	325.94
310.949	329.94
311.179	309.94
311.409	300.94
311.639	295.94
311.868	313.94
312.098	312.94
312.328	332.94
312.557	328.94
312.787	347.94
313.017	330.94
313.246	330.94
313.476	319.94
313.706	330.94
313.935	307.94
314.165	318.94
314.394	333.94
314.624	326.94
314.853	322.94
315.083	297.94
315.312	316.94
315.542	294.94
315.771	292.94
316.001	299.94
316.23	282.94
316.46	298.94
316.689	292.94
316.919	310.94
317.148	306.94
317.377	318.94
317.607	304.94
317.836	310.94
318.065	308.94
318.295	293.94
318.524	302.94
318.753	304.94
318.983	313.94
319.212	319.94
319.441	306.94
319.67	318.94
319.9	314.94
320.129	298.94
320.358	306.94
320.587	306.94
320.816	310.94
321.046	315.94
321.275	332.94
321.504	327.94
321.733	330.94
321.962	337.94
322.191	369.94
322.42	380.94
322.649	402.94
322.878	386.94
323.108	418.94
323.337	435.94
323.566	437.94
323.795	484.94
324.024	540.94
324.253	642.94
324.482	962.94
324.71	1466.94
324.939	2061.94
325.168	1701.94
325.397	898.94
325.626	619.94
325.855	522.94
326.084	467.94
326.313	457.94
326.542	442.94
326.77	502.94
326.999	616.94
327.228	868.94
327.457	1287.94
327.686	1502.94
327.914	1009.94
328.143	664.94
328.372	585.94
328.6	546.94
328.829	533.94
329.058	518.94
329.287	537.94
329.515	486.94
329.744	442.94
329.972	443.94
330.201	489.94
330.43	520.94
330.658	523.94
330.887	564.94
331.115	556.94
331.344	458.94
331.572	416.94
331.801	419.94
332.03	435.94
332.258	402.94
332.486	395.94
332.715	375.94
332.943	367.94
333.172	370.94
333.4	373.94
333.629	394.94
333.857	398.94
334.085	406.94
334.314	406.94
334.542	473.94
334.771	455.94
334.999	419.94
335.227	397.94
335.455	376.94
335.684	363.94
335.912	368.94
336.14	343.94
336.369	340.94
336.597	360.94
336.825	356.94
337.053	353.94
337.281	373.94
337.51	356.94
337.738	360.94
337.966	346.94
338.194	353.94
338.422	372.94
338.65	358.94
338.878	364.94
339.106	354.94
339.334	343.94
339.562	359.94
339.79	338.94
340.018	352.94
340.246	351.94
340.474	349.94
340.702	325.94
340.93	340.94
341.158	347.94
341.386	359.94
341.614	348.94
341.842	344.94
342.07	353.94
342.298	353.94
342.526	335.94
342.754	335.94
342.981	311.94
343.209	328.94
343.437	344.94
343.665	336.94
343.893	335.94
344.12	345.94
344.348	339.94
344.576	334.94
344.804	338.94
345.031	388.94
345.259	382.94
345.487	356.94
345.714	354.94
345.942	350.94
346.17	351.94
346.397	336.94
346.625	331.94
346.853	362.94
347.08	335.94
347.308	340.94
347.535	352.94
347.763	354.94
347.99	354.94
348.218	347.94
348.445	351.94
348.673	358.94
348.9	350.94
349.128	335.94
349.355	327.94
349.583	337.94
349.81	338.94
350.037	312.94
350.265	316.94
350.492	327.94
350.72	339.94
350.947	326.94
351.174	351.94
351.402	349.94
351.629	338.94
351.856	352.94
352.083	368.94
352.311	348.94
352.538	362.94
352.765	372.94
352.992	360.94
353.22	334.94
353.447	352.94
353.674	332.94
353.901	332.94
354.128	316.94
354.355	310.94
354.583	318.94
354.81	327.94
355.037	294.94
355.264	310.94
355.491	306.94
355.718	304.94
355.945	314.94
356.172	318.94
356.399	325.94
356.626	312.94
356.853	307.94
357.08	319.94
357.307	307.94
357.534	300.94
357.761	313.94
357.988	316.94
358.215	329.94
358.441	302.94
358.668	316.94
358.895	296.94
359.122	304.94
359.349	337.94
359.576	340.94
359.802	352.94
360.029	386.94
360.256	398.94
360.483	377.94
360.709	347.94
360.936	351.94
361.163	347.94
361.39	352.94
361.616	337.94
361.843	345.94
362.07	343.94
362.296	336.94
362.523	351.94
362.749	333.94
362.976	320.94
363.203	347.94
363.429	324.94
363.656	328.94
363.882	322.94
364.109	318.94
364.335	310.94
364.562	322.94
364.788	331.94
365.015	336.94
365.241	328.94
365.468	328.94
365.694	318.94
365.92	328.94
366.147	318.94
366.373	301.94
366.599	305.94
366.826	305.94
367.052	332.94
367.278	314.94
367.505	324.94
367.731	310.94
367.957	337.94
368.184	314.94
368.41	326.94
368.636	318.94
368.862	336.94
369.089	332.94
369.315	310.94
369.541	320.94
369.767	339.94
369.993	328.94
370.219	331.94
370.445	319.94
370.672	311.94
370.898	301.94
371.124	311.94
371.35	324.94
371.576	323.94
371.802	321.94
372.028	314.94
372.254	293.94
372.48	309.94
372.706	321.94
372.932	328.94
373.158	320.94
373.384	319.94
373.61	299.94
373.835	320.94
374.061	321.94
374.287	314.94
374.513	302.94
374.739	316.94
374.965	347.94
375.191	315.94
375.416	296.94
375.642	308.94
375.868	310.94
376.094	337.94
376.319	319.94
376.545	331.94
376.771	325.94
376.997	318.94
377.222	316.94
377.448	313.94
377.674	318.94
377.899	305.94
378.125	291.94
378.35	309.94
378.576	313.94
378.802	286.94
379.027	296.94
379.253	321.94
379.478	306.94
379.704	311.94
379.929	302.94
380.155	298.94
380.38	309.94
380.606	333.94
380.831	317.94
381.057	321.94
381.282	309.94
381.507	322.94
381.733	321.94
381.958	309.94
382.184	321.94
382.409	321.94
382.634	305.94
382.86	307.94
383.085	314.94
383.31	311.94
383.535	335.94
383.761	329.94
383.986	350.94
384.211	338.94
384.436	329.94
384.662	320.94
384.887	320.94
385.112	329.94
385.337	327.94
385.562	329.94
385.787	354.94
386.013	374.94
386.238	354.94
386.463	359.94
386.688	336.94
386.913	328.94
387.138	350.94
387.363	338.94
387.588	335.94
387.813	339.94
388.038	334.94
388.263	321.94
388.488	327.94
388.713	350.94
388.938	342.94
389.163	321.94
389.387	343.94
389.612	339.94
389.837	339.94
390.062	323.94
390.287	330.94
390.512	335.94
390.736	342.94
390.961	336.94
391.186	344.94
391.411	348.94
391.636	337.94
391.86	342.94
392.085	318.94
392.31	361.94
392.534	340.94
392.759	325.94
392.984	343.94
393.208	352.94
393.433	348.94
393.658	335.94
393.882	338.94
394.107	323.94
394.331	352.94
394.556	339.94
394.78	342.94
395.005	347.94
395.229	348.94
395.454	342.94
395.678	347.94
395.903	340.94
396.127	389.94
396.352	380.94
396.576	351.94
396.801	361.94
397.025	362.94
397.249	362.94
397.474	353.94
397.698	342.94
397.922	386.94
398.147	380.94
398.371	376.94
398.595	353.94
398.82	375.94
399.044	390.94
399.268	413.94
399.492	399.94
399.717	435.94
399.941	441.94
400.165	455.94
400.389	472.94
400.613	456.94
400.837	420.94
401.062	392.94
401.286	379.94
401.51	380.94
401.734	387.94
401.958	396.94
402.182	392.94
402.406	406.94
402.63	403.94
402.854	401.94
403.078	388.94
403.302	378.94
403.526	396.94
403.75	402.94
403.974	404.94
404.198	400.94
404.422	395.94
404.645	402.94
404.869	421.94
405.093	438.94
405.317	479.94
405.541	484.94
405.765	440.94
405.988	412.94
406.212	419.94
406.436	461.94
406.66	472.94
406.883	454.94
407.107	454.94
407.331	493.94
407.555	532.94
407.778	528.94
408.002	507.94
408.226	473.94
408.449	438.94
408.673	451.94
408.896	487.94
409.12	510.94
409.344	475.94
409.567	424.94
409.791	404.94
410.014	433.94
410.238	421.94
410.461	404.94
410.685	421.94
410.908	432.94
411.132	448.94
411.355	467.94
411.578	458.94
411.802	410.94
412.025	411.94
412.249	404.94
412.472	432.94
412.695	458.94
412.919	454.94
413.142	403.94
413.365	379.94
413.589	387.94
413.812	388.94
414.035	396.94
414.258	397.94
414.482	374.94
414.705	379.94
414.928	389.94
415.151	379.94
415.374	371.94
415.597	386.94
415.821	367.94
416.044	375.94
416.267	362.94
416.49	380.94
416.713	394.94
416.936	379.94
417.159	387.94
417.382	392.94
417.605	389.94
417.828	401.94
418.051	410.94
418.274	375.94
418.497	373.94
418.72	376.94
418.943	398.94
419.166	384.94
419.389	410.94
419.611	412.94
419.834	415.94
420.057	419.94
420.28	421.94
420.503	420.94
420.726	407.94
420.948	443.94
421.171	456.94
421.394	461.94
421.617	412.94
421.839	395.94
422.062	415.94
422.285	424.94
422.507	441.94
422.73	509.94
422.953	514.94
423.175	442.94
423.398	432.94
423.621	418.94
423.843	423.94
424.066	436.94
424.288	452.94
424.511	452.94
424.733	495.94
424.956	562.94
425.178	560.94
425.401	500.94
425.623	562.94
425.846	498.94
426.068	448.94
426.291	422.94
426.513	424.94
426.735	455.94
426.958	495.94
427.18	548.94
427.402	648.94
427.625	707.94
427.847	651.94
428.069	562.94
428.292	498.94
428.514	464.94
428.736	441.94
428.958	426.94
429.181	403.94
429.403	404.94
429.625	424.94
429.847	438.94
430.069	506.94
430.292	490.94
430.514	434.94
430.736	403.94
430.958	418.94
431.18	388.94
431.402	385.94
431.624	383.94
431.846	379.94
432.068	380.94
432.29	398.94
432.512	376.94
432.734	396.94
432.956	380.94
433.178	392.94
433.4	410.94
433.622	386.94
433.844	371.94
434.066	415.94
434.287	388.94
434.509	400.94
434.731	387.94
434.953	416.94
435.175	397.94
435.397	435.94
435.618	428.94
435.84	496.94
436.062	592.94
436.284	602.94
436.505	515.94
436.727	464.94
436.949	453.94
437.17	410.94
437.392	422.94
437.614	418.94
437.835	443.94
438.057	552.94
438.278	636.94
438.5	630.94
438.721	680.94
438.943	641.94
439.165	509.94
439.386	461.94
439.608	490.94
439.829	457.94
440.05	468.94
440.272	522.94
440.493	491.94
440.715	457.94
440.936	416.94
441.158	426.94
441.379	442.94
441.6	430.94
441.822	471.94
442.043	478.94
442.264	553.94
442.486	595.94
442.707	517.94
442.928	473.94
443.149	466.94
443.371	477.94
443.592	532.94
443.813	562.94
444.034	616.94
444.255	536.94
444.476	478.94
444.698	482.94
444.919	454.94
445.14	564.94
445.361	496.94
445.582	472.94
445.803	551.94
446.024	635.94
446.245	647.94
446.466	604.94
446.687	500.94
446.908	456.94
447.129	428.94
447.35	433.94
447.571	423.94
447.792	409.94
448.013	449.94
448.234	440.94
448.455	478.94
448.675	560.94
448.896	670.94
449.117	593.94
449.338	548.94
449.559	608.94
449.779	651.94
450	532.94
450.221	470.94
450.442	425.94
450.662	432.94
450.883	422.94
451.104	424.94
451.324	416.94
451.545	396.94
451.766	371.94
451.986	395.94
452.207	380.94
452.428	373.94
452.648	372.94
452.869	350.94
453.089	380.94
453.31	363.94
453.53	375.94
453.751	384.94
453.971	391.94
454.192	409.94
454.412	379.94
454.633	377.94
454.853	386.94
455.073	381.94
455.294	408.94
455.514	439.94
455.734	426.94
455.955	380.94
456.175	368.94
456.395	363.94
456.616	355.94
456.836	357.94
457.056	350.94
457.276	350.94
457.497	367.94
457.717	368.94
457.937	368.94
458.157	362.94
458.377	378.94
458.598	384.94
458.818	438.94
459.038	529.94
459.258	516.94
459.478	440.94
459.698	411.94
459.918	385.94
460.138	369.94
460.358	378.94
460.578	394.94
460.798	411.94
461.018	370.94
461.238	390.94
461.458	388.94
461.678	392.94
461.898	393.94
462.118	403.94
462.338	390.94
462.558	403.94
462.777	425.94
462.997	416.94
463.217	405.94
463.437	427.94
463.657	406.94
463.876	406.94
464.096	408.94
464.316	418.94
464.536	433.94
464.755	430.94
464.975	439.94
465.195	470.94
465.414	577.94
465.634	468.94
465.854	432.94
466.073	421.94
466.293	402.94
466.512	393.94
466.732	390.94
466.951	400.94
467.171	393.94
467.391	380.94
467.61	410.94
467.829	401.94
468.049	397.94
468.268	376.94
468.488	387.94
468.707	391.94
468.927	383.94
469.146	363.94
469.365	355.94
469.585	373.94
469.804	384.94
470.023	403.94
470.243	398.94
470.462	392.94
470.681	418.94
470.901	415.94
471.12	403.94
471.339	390.94
471.558	402.94
471.777	404.94
471.997	418.94
472.216	414.94
472.435	427.94
472.654	421.94
472.873	420.94
473.092	377.94
473.311	367.94
473.53	408.94
473.749	413.94
473.968	420.94
474.187	502.94
474.406	548.94
474.625	465.94
474.844	422.94
475.063	396.94
475.282	392.94
475.501	420.94
475.72	423.94
475.939	399.94
476.158	407.94
476.377	409.94
476.596	417.94
476.814	417.94
477.033	411.94
477.252	409.94
477.471	412.94
477.69	403.94
477.908	427.94
478.127	414.94
478.346	393.94
478.564	437.94
478.783	425.94
479.002	444.94
479.22	438.94
479.439	460.94
479.658	477.94
479.876	463.94
480.095	473.94
480.313	502.94
480.532	465.94
480.751	470.94
480.969	497.94
481.188	564.94
481.406	580.94
481.624	532.94
481.843	502.94
482.061	480.94
482.28	460.94
482.498	466.94
482.717	454.94
482.935	459.94
483.153	441.94
483.372	449.94
483.59	427.94
483.808	450.94
484.027	440.94
484.245	477.94
484.463	465.94
484.681	452.94
484.9	452.94
485.118	476.94
485.336	487.94
485.554	476.94
485.772	478.94
485.99	454.94
486.209	483.94
486.427	487.94
486.645	476.94
486.863	500.94
487.081	513.94
487.299	515.94
487.517	513.94
487.735	481.94
487.953	475.94
488.171	488.94
488.389	481.94
488.607	477.94
488.825	501.94
489.043	508.94
489.261	511.94
489.479	489.94
489.696	512.94
489.914	505.94
490.132	527.94
490.35	496.94
490.568	527.94
490.786	526.94
491.003	511.94
491.221	524.94
491.439	551.94
491.657	551.94
491.874	551.94
492.092	588.94
492.31	552.94
492.527	547.94
492.745	540.94
492.963	571.94
493.18	555.94
493.398	548.94
493.615	553.94
493.833	585.94
494.05	576.94
494.268	564.94
494.485	558.94
494.703	582.94
494.92	585.94
495.138	580.94
495.355	578.94
495.573	561.94
495.79	583.94
496.008	593.94
496.225	591.94
496.442	582.94
496.66	587.94
496.877	593.94
497.094	579.94
497.312	582.94
497.529	582.94
497.746	592.94
497.963	612.94
498.181	607.94
498.398	627.94
498.615	622.94
498.832	664.94
499.049	641.94
499.267	680.94
499.484	660.94
499.701	681.94
499.918	679.94
500.135	707.94
500.352	720.94
500.569	735.94
500.786	713.94
501.003	719.94
501.22	704.94
501.437	721.94
501.654	702.94
501.871	672.94
502.088	683.94
