Data from 1961.PennyLincolnUp.Lamp.En5.5.200Scan.071719.P1._HRD10591_13-47-05-057.txt Node
Date: Thu Jul 18 13:47:05 EDT 2019
User: cochatt
Spectrometer: HR+D1059
Trigger mode: 1
Integration Time (sec): 1.000000E-1
Scans to average: 1
Electric dark correction enabled: true
Nonlinearity correction enabled: false
Boxcar width: 0
XAxis mode: Wavelengths
Number of Pixels in Spectrum: 2048
>>>>>Begin Spectral Data<<<<<
223.165	-7.5
223.4	-7.5
223.635	-7.5
223.869	-7.5
224.104	-10.5
224.338	-10.5
224.573	-4.5
224.808	-21.5
225.042	-7.5
225.277	-12.5
225.511	1.5
225.746	-20.5
225.98	16.5
226.215	-3.5
226.449	3.5
226.683	22.5
226.918	35.5
227.152	26.5
227.387	34.5
227.621	38.5
227.856	60.5
228.09	39.5
228.324	64.5
228.559	71.5
228.793	68.5
229.027	91.5
229.262	98.5
229.496	103.5
229.73	108.5
229.964	136.5
230.199	120.5
230.433	104.5
230.667	109.5
230.901	112.5
231.136	104.5
231.37	105.5
231.604	98.5
231.838	116.5
232.072	97.5
232.306	110.5
232.541	97.5
232.775	105.5
233.009	96.5
233.243	98.5
233.477	114.5
233.711	100.5
233.945	111.5
234.179	114.5
234.413	117.5
234.647	106.5
234.881	104.5
235.115	114.5
235.349	112.5
235.583	122.5
235.817	113.5
236.051	110.5
236.285	116.5
236.519	126.5
236.753	103.5
236.987	118.5
237.221	160.5
237.455	190.5
237.689	167.5
237.922	136.5
238.156	128.5
238.39	117.5
238.624	111.5
238.858	91.5
239.091	105.5
239.325	111.5
239.559	130.5
239.793	100.5
240.027	124.5
240.26	118.5
240.494	141.5
240.728	128.5
240.961	130.5
241.195	137.5
241.429	127.5
241.662	112.5
241.896	125.5
242.13	108.5
242.363	123.5
242.597	120.5
242.83	121.5
243.064	104.5
243.298	119.5
243.531	122.5
243.765	133.5
243.998	116.5
244.232	125.5
244.465	121.5
244.699	130.5
244.932	134.5
245.166	131.5
245.399	124.5
245.633	124.5
245.866	124.5
246.099	120.5
246.333	135.5
246.566	130.5
246.8	142.5
247.033	128.5
247.266	133.5
247.5	146.5
247.733	143.5
247.966	150.5
248.2	138.5
248.433	134.5
248.666	150.5
248.899	159.5
249.133	168.5
249.366	184.5
249.599	158.5
249.832	170.5
250.066	155.5
250.299	154.5
250.532	169.5
250.765	171.5
250.998	177.5
251.231	189.5
251.465	181.5
251.698	178.5
251.931	155.5
252.164	160.5
252.397	168.5
252.63	169.5
252.863	167.5
253.096	165.5
253.329	178.5
253.562	184.5
253.795	178.5
254.028	172.5
254.261	180.5
254.494	195.5
254.727	197.5
254.96	209.5
255.193	196.5
255.426	195.5
255.659	182.5
255.892	189.5
256.124	183.5
256.357	196.5
256.59	168.5
256.823	176.5
257.056	170.5
257.289	180.5
257.521	178.5
257.754	177.5
257.987	177.5
258.22	183.5
258.452	178.5
258.685	164.5
258.918	181.5
259.151	170.5
259.383	156.5
259.616	167.5
259.849	189.5
260.081	171.5
260.314	209.5
260.547	210.5
260.779	196.5
261.012	191.5
261.244	176.5
261.477	184.5
261.71	166.5
261.942	188.5
262.175	193.5
262.407	203.5
262.64	175.5
262.872	188.5
263.105	179.5
263.337	187.5
263.57	182.5
263.802	181.5
264.035	172.5
264.267	154.5
264.499	163.5
264.732	173.5
264.964	173.5
265.197	190.5
265.429	180.5
265.661	169.5
265.894	166.5
266.126	167.5
266.358	178.5
266.591	166.5
266.823	178.5
267.055	178.5
267.287	185.5
267.52	184.5
267.752	179.5
267.984	203.5
268.216	179.5
268.448	199.5
268.681	179.5
268.913	175.5
269.145	196.5
269.377	220.5
269.609	202.5
269.841	212.5
270.073	195.5
270.306	230.5
270.538	244.5
270.77	244.5
271.002	228.5
271.234	230.5
271.466	235.5
271.698	246.5
271.93	251.5
272.162	237.5
272.394	235.5
272.626	225.5
272.858	213.5
273.09	213.5
273.322	228.5
273.553	210.5
273.785	202.5
274.017	232.5
274.249	204.5
274.481	225.5
274.713	219.5
274.945	218.5
275.176	201.5
275.408	219.5
275.64	206.5
275.872	219.5
276.104	194.5
276.335	208.5
276.567	213.5
276.799	210.5
277.031	230.5
277.262	246.5
277.494	252.5
277.726	216.5
277.957	220.5
278.189	211.5
278.421	212.5
278.652	217.5
278.884	226.5
279.115	214.5
279.347	207.5
279.579	218.5
279.81	219.5
280.042	201.5
280.273	206.5
280.505	220.5
280.736	205.5
280.968	202.5
281.199	212.5
281.431	200.5
281.662	212.5
281.894	192.5
282.125	209.5
282.356	213.5
282.588	237.5
282.819	233.5
283.051	196.5
283.282	201.5
283.513	211.5
283.745	209.5
283.976	211.5
284.207	230.5
284.439	209.5
284.67	211.5
284.901	215.5
285.132	218.5
285.364	209.5
285.595	198.5
285.826	208.5
286.057	224.5
286.288	227.5
286.52	217.5
286.751	205.5
286.982	196.5
287.213	218.5
287.444	209.5
287.675	201.5
287.906	221.5
288.138	229.5
288.369	234.5
288.6	241.5
288.831	225.5
289.062	213.5
289.293	224.5
289.524	225.5
289.755	229.5
289.986	227.5
290.217	220.5
290.448	230.5
290.679	218.5
290.91	238.5
291.141	229.5
291.371	217.5
291.602	216.5
291.833	220.5
292.064	218.5
292.295	225.5
292.526	230.5
292.757	206.5
292.987	213.5
293.218	224.5
293.449	224.5
293.68	209.5
293.91	220.5
294.141	220.5
294.372	237.5
294.603	219.5
294.833	220.5
295.064	226.5
295.295	221.5
295.525	216.5
295.756	227.5
295.987	238.5
296.217	247.5
296.448	254.5
296.679	241.5
296.909	220.5
297.14	232.5
297.37	223.5
297.601	224.5
297.831	229.5
298.062	225.5
298.292	228.5
298.523	227.5
298.753	236.5
298.984	233.5
299.214	224.5
299.445	228.5
299.675	234.5
299.905	249.5
300.136	248.5
300.366	227.5
300.597	229.5
300.827	228.5
301.057	240.5
301.288	247.5
301.518	232.5
301.748	235.5
301.979	221.5
302.209	245.5
302.439	248.5
302.669	246.5
302.9	239.5
303.13	255.5
303.36	242.5
303.59	241.5
303.82	242.5
304.051	249.5
304.281	243.5
304.511	247.5
304.741	249.5
304.971	231.5
305.201	257.5
305.431	236.5
305.661	237.5
305.891	250.5
306.121	245.5
306.352	238.5
306.582	271.5
306.812	250.5
307.042	252.5
307.272	252.5
307.502	250.5
307.731	245.5
307.961	278.5
308.191	254.5
308.421	243.5
308.651	271.5
308.881	260.5
309.111	260.5
309.341	261.5
309.571	243.5
309.8	261.5
310.03	284.5
310.26	288.5
310.49	292.5
310.72	312.5
310.949	312.5
311.179	331.5
311.409	310.5
311.639	269.5
311.868	293.5
312.098	285.5
312.328	277.5
312.557	288.5
312.787	325.5
313.017	314.5
313.246	309.5
313.476	295.5
313.706	298.5
313.935	286.5
314.165	298.5
314.394	319.5
314.624	314.5
314.853	290.5
315.083	297.5
315.312	277.5
315.542	292.5
315.771	283.5
316.001	291.5
316.23	294.5
316.46	283.5
316.689	300.5
316.919	296.5
317.148	305.5
317.377	288.5
317.607	307.5
317.836	300.5
318.065	286.5
318.295	292.5
318.524	294.5
318.753	288.5
318.983	290.5
319.212	293.5
319.441	293.5
319.67	299.5
319.9	300.5
320.129	281.5
320.358	288.5
320.587	299.5
320.816	291.5
321.046	329.5
321.275	319.5
321.504	316.5
321.733	312.5
321.962	314.5
322.191	337.5
322.42	352.5
322.649	354.5
322.878	354.5
323.108	340.5
323.337	385.5
323.566	384.5
323.795	432.5
324.024	479.5
324.253	594.5
324.482	839.5
324.71	1294.5
324.939	1789.5
325.168	1540.5
325.397	785.5
325.626	568.5
325.855	450.5
326.084	420.5
326.313	435.5
326.542	419.5
326.77	457.5
326.999	546.5
327.228	762.5
327.457	1131.5
327.686	1326.5
327.914	893.5
328.143	588.5
328.372	519.5
328.6	486.5
328.829	466.5
329.058	454.5
329.287	474.5
329.515	440.5
329.744	403.5
329.972	396.5
330.201	454.5
330.43	469.5
330.658	496.5
330.887	480.5
331.115	467.5
331.344	395.5
331.572	389.5
331.801	407.5
332.03	384.5
332.258	376.5
332.486	348.5
332.715	356.5
332.943	348.5
333.172	350.5
333.4	346.5
333.629	357.5
333.857	364.5
334.085	362.5
334.314	399.5
334.542	402.5
334.771	418.5
334.999	381.5
335.227	351.5
335.455	342.5
335.684	341.5
335.912	340.5
336.14	332.5
336.369	344.5
336.597	342.5
336.825	347.5
337.053	315.5
337.281	338.5
337.51	327.5
337.738	339.5
337.966	330.5
338.194	334.5
338.422	336.5
338.65	338.5
338.878	334.5
339.106	329.5
339.334	328.5
339.562	329.5
339.79	329.5
340.018	327.5
340.246	342.5
340.474	322.5
340.702	307.5
340.93	319.5
341.158	317.5
341.386	313.5
341.614	327.5
341.842	316.5
342.07	324.5
342.298	323.5
342.526	328.5
342.754	324.5
342.981	306.5
343.209	310.5
343.437	312.5
343.665	332.5
343.893	312.5
344.12	312.5
344.348	310.5
344.576	332.5
344.804	354.5
345.031	333.5
345.259	336.5
345.487	352.5
345.714	330.5
345.942	340.5
346.17	314.5
346.397	317.5
346.625	313.5
346.853	322.5
347.08	336.5
347.308	308.5
347.535	327.5
347.763	353.5
347.99	326.5
348.218	313.5
348.445	338.5
348.673	328.5
348.9	333.5
349.128	324.5
349.355	314.5
349.583	319.5
349.81	314.5
350.037	286.5
350.265	296.5
350.492	321.5
350.72	312.5
350.947	328.5
351.174	329.5
351.402	339.5
351.629	340.5
351.856	340.5
352.083	328.5
352.311	327.5
352.538	314.5
352.765	313.5
352.992	341.5
353.22	327.5
353.447	332.5
353.674	314.5
353.901	297.5
354.128	321.5
354.355	308.5
354.583	299.5
354.81	274.5
355.037	289.5
355.264	300.5
355.491	278.5
355.718	287.5
355.945	290.5
356.172	293.5
356.399	297.5
356.626	282.5
356.853	311.5
357.08	291.5
357.307	280.5
357.534	285.5
357.761	304.5
357.988	300.5
358.215	299.5
358.441	298.5
358.668	299.5
358.895	300.5
359.122	315.5
359.349	311.5
359.576	323.5
359.802	343.5
360.029	371.5
360.256	362.5
360.483	361.5
360.709	333.5
360.936	312.5
361.163	318.5
361.39	336.5
361.616	301.5
361.843	327.5
362.07	316.5
362.296	328.5
362.523	299.5
362.749	327.5
362.976	320.5
363.203	327.5
363.429	314.5
363.656	310.5
363.882	308.5
364.109	304.5
364.335	320.5
364.562	322.5
364.788	289.5
365.015	328.5
365.241	300.5
365.468	313.5
365.694	311.5
365.92	314.5
366.147	300.5
366.373	304.5
366.599	304.5
366.826	316.5
367.052	313.5
367.278	314.5
367.505	288.5
367.731	311.5
367.957	308.5
368.184	304.5
368.41	333.5
368.636	312.5
368.862	327.5
369.089	318.5
369.315	306.5
369.541	311.5
369.767	300.5
369.993	282.5
370.219	300.5
370.445	310.5
370.672	310.5
370.898	294.5
371.124	313.5
371.35	296.5
371.576	294.5
371.802	301.5
372.028	294.5
372.254	304.5
372.48	306.5
372.706	309.5
372.932	302.5
373.158	305.5
373.384	321.5
373.61	311.5
373.835	299.5
374.061	300.5
374.287	314.5
374.513	302.5
374.739	297.5
374.965	294.5
375.191	312.5
375.416	308.5
375.642	302.5
375.868	326.5
376.094	317.5
376.319	289.5
376.545	297.5
376.771	296.5
376.997	304.5
377.222	292.5
377.448	319.5
377.674	289.5
377.899	293.5
378.125	294.5
378.35	310.5
378.576	306.5
378.802	295.5
379.027	285.5
379.253	299.5
379.478	301.5
379.704	298.5
379.929	301.5
380.155	308.5
380.38	305.5
380.606	321.5
380.831	307.5
381.057	289.5
381.282	307.5
381.507	311.5
381.733	307.5
381.958	304.5
382.184	299.5
382.409	312.5
382.634	307.5
382.86	308.5
383.085	299.5
383.31	310.5
383.535	311.5
383.761	298.5
383.986	315.5
384.211	324.5
384.436	309.5
384.662	310.5
384.887	338.5
385.112	299.5
385.337	306.5
385.562	313.5
385.787	340.5
386.013	317.5
386.238	334.5
386.463	325.5
386.688	332.5
386.913	318.5
387.138	314.5
387.363	325.5
387.588	318.5
387.813	326.5
388.038	332.5
388.263	342.5
388.488	325.5
388.713	321.5
388.938	337.5
389.163	326.5
389.387	332.5
389.612	312.5
389.837	325.5
390.062	325.5
390.287	320.5
390.512	329.5
390.736	306.5
390.961	318.5
391.186	309.5
391.411	314.5
391.636	323.5
391.86	345.5
392.085	322.5
392.31	325.5
392.534	331.5
392.759	339.5
392.984	329.5
393.208	332.5
393.433	316.5
393.658	333.5
393.882	365.5
394.107	334.5
394.331	337.5
394.556	328.5
394.78	334.5
395.005	318.5
395.229	330.5
395.454	348.5
395.678	339.5
395.903	330.5
396.127	351.5
396.352	360.5
396.576	339.5
396.801	328.5
397.025	337.5
397.249	337.5
397.474	358.5
397.698	348.5
397.922	358.5
398.147	379.5
398.371	338.5
398.595	350.5
398.82	366.5
399.044	377.5
399.268	382.5
399.492	392.5
399.717	419.5
399.941	412.5
400.165	426.5
400.389	451.5
400.613	422.5
400.837	383.5
401.062	380.5
401.286	380.5
401.51	372.5
401.734	369.5
401.958	374.5
402.182	376.5
402.406	380.5
402.63	389.5
402.854	372.5
403.078	374.5
403.302	380.5
403.526	375.5
403.75	381.5
403.974	381.5
404.198	364.5
404.422	362.5
404.645	397.5
404.869	394.5
405.093	400.5
405.317	440.5
405.541	453.5
405.765	437.5
405.988	413.5
406.212	388.5
406.436	418.5
406.66	429.5
406.883	443.5
407.107	448.5
407.331	463.5
407.555	508.5
407.778	510.5
408.002	457.5
408.226	422.5
408.449	425.5
408.673	424.5
408.896	459.5
409.12	464.5
409.344	450.5
409.567	429.5
409.791	386.5
410.014	402.5
410.238	385.5
410.461	384.5
410.685	396.5
410.908	419.5
411.132	421.5
411.355	448.5
411.578	413.5
411.802	388.5
412.025	388.5
412.249	408.5
412.472	408.5
412.695	458.5
412.919	435.5
413.142	410.5
413.365	375.5
413.589	397.5
413.812	360.5
414.035	391.5
414.258	383.5
414.482	360.5
414.705	384.5
414.928	364.5
415.151	350.5
415.374	364.5
415.597	381.5
415.821	362.5
416.044	371.5
416.267	368.5
416.49	363.5
416.713	350.5
416.936	362.5
417.159	362.5
417.382	368.5
417.605	377.5
417.828	376.5
418.051	373.5
418.274	410.5
418.497	358.5
418.72	366.5
418.943	357.5
419.166	378.5
419.389	386.5
419.611	376.5
419.834	394.5
420.057	385.5
420.28	378.5
420.503	388.5
420.726	384.5
420.948	399.5
421.171	437.5
421.394	436.5
421.617	399.5
421.839	369.5
422.062	397.5
422.285	411.5
422.507	433.5
422.73	514.5
422.953	481.5
423.175	413.5
423.398	392.5
423.621	384.5
423.843	402.5
424.066	408.5
424.288	404.5
424.511	422.5
424.733	468.5
424.956	533.5
425.178	514.5
425.401	506.5
425.623	531.5
425.846	468.5
426.068	418.5
426.291	416.5
426.513	414.5
426.735	409.5
426.958	458.5
427.18	531.5
427.402	614.5
427.625	680.5
427.847	587.5
428.069	534.5
428.292	476.5
428.514	430.5
428.736	394.5
428.958	390.5
429.181	411.5
429.403	390.5
429.625	400.5
429.847	422.5
430.069	477.5
430.292	475.5
430.514	408.5
430.736	385.5
430.958	394.5
431.18	372.5
431.402	376.5
431.624	348.5
431.846	353.5
432.068	363.5
432.29	389.5
432.512	366.5
432.734	376.5
432.956	372.5
433.178	391.5
433.4	373.5
433.622	391.5
433.844	356.5
434.066	376.5
434.287	374.5
434.509	395.5
434.731	372.5
434.953	372.5
435.175	397.5
435.397	440.5
435.618	407.5
435.84	448.5
436.062	505.5
436.284	570.5
436.505	485.5
436.727	413.5
436.949	405.5
437.17	392.5
437.392	414.5
437.614	406.5
437.835	442.5
438.057	494.5
438.278	591.5
438.5	578.5
438.721	635.5
438.943	612.5
439.165	481.5
439.386	448.5
439.608	448.5
439.829	439.5
440.05	462.5
440.272	488.5
440.493	461.5
440.715	427.5
440.936	403.5
441.158	409.5
441.379	398.5
441.6	401.5
441.822	436.5
442.043	456.5
442.264	507.5
442.486	560.5
442.707	453.5
442.928	440.5
443.149	434.5
443.371	446.5
443.592	482.5
443.813	544.5
444.034	574.5
444.255	508.5
444.476	454.5
444.698	428.5
444.919	430.5
445.14	512.5
445.361	457.5
445.582	466.5
445.803	522.5
446.024	605.5
446.245	592.5
446.466	518.5
446.687	455.5
446.908	452.5
447.129	417.5
447.35	411.5
447.571	387.5
447.792	385.5
448.013	405.5
448.234	419.5
448.455	442.5
448.675	526.5
448.896	618.5
449.117	519.5
449.338	507.5
449.559	587.5
449.779	610.5
450	522.5
450.221	447.5
450.442	417.5
450.662	398.5
450.883	409.5
451.104	402.5
451.324	393.5
451.545	390.5
451.766	378.5
451.986	371.5
452.207	368.5
452.428	376.5
452.648	369.5
452.869	351.5
453.089	368.5
453.31	394.5
453.53	377.5
453.751	351.5
453.971	370.5
454.192	362.5
454.412	375.5
454.633	374.5
454.853	341.5
455.073	344.5
455.294	378.5
455.514	432.5
455.734	391.5
455.955	357.5
456.175	345.5
456.395	345.5
456.616	337.5
456.836	340.5
457.056	343.5
457.276	333.5
457.497	344.5
457.717	334.5
457.937	331.5
458.157	347.5
458.377	370.5
458.598	370.5
458.818	432.5
459.038	482.5
459.258	484.5
459.478	422.5
459.698	374.5
459.918	388.5
460.138	378.5
460.358	376.5
460.578	362.5
460.798	380.5
461.018	394.5
461.238	356.5
461.458	367.5
461.678	384.5
461.898	378.5
462.118	379.5
462.338	364.5
462.558	397.5
462.777	396.5
462.997	381.5
463.217	374.5
463.437	381.5
463.657	390.5
463.876	395.5
464.096	388.5
464.316	402.5
464.536	386.5
464.755	380.5
464.975	412.5
465.195	424.5
465.414	509.5
465.634	459.5
465.854	401.5
466.073	411.5
466.293	376.5
466.512	377.5
466.732	361.5
466.951	390.5
467.171	378.5
467.391	369.5
467.61	365.5
467.829	386.5
468.049	386.5
468.268	367.5
468.488	382.5
468.707	349.5
468.927	348.5
469.146	362.5
469.365	366.5
469.585	371.5
469.804	363.5
470.023	381.5
470.243	362.5
470.462	363.5
470.681	390.5
470.901	381.5
471.12	376.5
471.339	378.5
471.558	382.5
471.777	367.5
471.997	369.5
472.216	380.5
472.435	417.5
472.654	412.5
472.873	380.5
473.092	368.5
473.311	374.5
473.53	372.5
473.749	388.5
473.968	424.5
474.187	512.5
474.406	518.5
474.625	393.5
474.844	407.5
475.063	401.5
475.282	396.5
475.501	404.5
475.72	384.5
475.939	388.5
476.158	392.5
476.377	377.5
476.596	381.5
476.814	396.5
477.033	401.5
477.252	404.5
477.471	382.5
477.69	409.5
477.908	387.5
478.127	388.5
478.346	410.5
478.564	394.5
478.783	402.5
479.002	411.5
479.22	415.5
479.439	438.5
479.658	444.5
479.876	444.5
480.095	440.5
480.313	467.5
480.532	471.5
480.751	459.5
480.969	439.5
481.188	515.5
481.406	541.5
481.624	483.5
481.843	466.5
482.061	445.5
482.28	443.5
482.498	449.5
482.717	443.5
482.935	443.5
483.153	426.5
483.372	439.5
483.59	444.5
483.808	426.5
484.027	445.5
484.245	440.5
484.463	439.5
484.681	461.5
484.9	434.5
485.118	446.5
485.336	448.5
485.554	444.5
485.772	447.5
485.99	444.5
486.209	455.5
486.427	445.5
486.645	477.5
486.863	472.5
487.081	472.5
487.299	461.5
487.517	486.5
487.735	469.5
487.953	449.5
488.171	453.5
488.389	461.5
488.607	467.5
488.825	456.5
489.043	456.5
489.261	470.5
489.479	479.5
489.696	463.5
489.914	461.5
490.132	463.5
490.35	462.5
490.568	498.5
490.786	497.5
491.003	499.5
491.221	520.5
491.439	509.5
491.657	514.5
491.874	542.5
492.092	514.5
492.31	536.5
492.527	516.5
492.745	523.5
492.963	525.5
493.18	530.5
493.398	545.5
493.615	555.5
493.833	557.5
494.05	534.5
494.268	554.5
494.485	539.5
494.703	538.5
494.92	546.5
495.138	540.5
495.355	522.5
495.573	551.5
495.79	554.5
496.008	551.5
496.225	549.5
496.442	573.5
496.66	584.5
496.877	557.5
497.094	552.5
497.312	535.5
497.529	578.5
497.746	552.5
497.963	583.5
498.181	570.5
498.398	591.5
498.615	585.5
498.832	603.5
499.049	582.5
499.267	590.5
499.484	617.5
499.701	629.5
499.918	674.5
500.135	669.5
500.352	666.5
500.569	696.5
500.786	686.5
501.003	676.5
501.22	689.5
501.437	674.5
501.654	661.5
501.871	662.5
502.088	643.5
502.305	636.5
502.522	634.5
502.739	610.5
502.956	579.5
503.172	570.5
503.389	591.5
503.606	585.5
503.823	573.5
504.04	574.5
504.256	561.5
504.473	558.5
504.69	546.5
504.907	560.5
505.123	545.5
505.34	520.5
505.557	517.5
505.773	536.5
505.99	540.5
506.207	534.5
506.423	538.5
506.64	544.5
506.856	527.5
507.073	510.5
507.289	504.5
507.506	507.5
507.722	548.5
507.939	532.5
508.155	519.5
508.372	539.5
508.588	515.5
508.805	512.5
509.021	517.5
509.238	517.5
509.454	510.5
509.67	500.5
509.887	507.5
510.103	500.5
510.319	521.5
510.536	637.5
510.752	1032.5
510.968	839.5
511.184	568.5
511.401	524.5
511.617	508.5
511.833	497.5
512.049	489.5
512.265	502.5
512.481	493.5
512.698	480.5
512.914	486.5
513.13	487.5
513.346	491.5
513.562	503.5
513.778	514.5
513.994	514.5
514.21	490.5
514.426	535.5
514.642	568.5
514.858	576.5
515.074	641.5
515.29	737.5
515.506	1069.5
515.721	882.5
515.937	629.5
516.153	547.5
516.369	543.5
516.585	536.5
516.801	521.5
517.016	514.5
517.232	512.5
517.448	494.5
517.664	502.5
517.879	493.5
518.095	486.5
518.311	500.5
518.527	498.5
518.742	512.5
518.958	498.5
519.173	515.5
519.389	497.5
519.605	497.5
519.82	501.5
520.036	519.5
