Data from 1961.PennyLincolnUp.Lamp.En5.5.200Scan.071719.P1._HRD10591_13-47-39-057.txt Node
Date: Thu Jul 18 13:47:39 EDT 2019
User: cochatt
Spectrometer: HR+D1059
Trigger mode: 1
Integration Time (sec): 1.000000E-1
Scans to average: 1
Electric dark correction enabled: true
Nonlinearity correction enabled: false
Boxcar width: 0
XAxis mode: Wavelengths
Number of Pixels in Spectrum: 2048
>>>>>Begin Spectral Data<<<<<
223.165	-27.62
223.4	-27.62
223.635	-27.62
223.869	-9.62
224.104	-21.62
224.338	-12.62
224.573	-21.62
224.808	-8.62
225.042	-7.62
225.277	2.38
225.511	-13.62
225.746	15.38
225.98	3.38
226.215	5.38
226.449	19.38
226.683	13.38
226.918	34.38
227.152	29.38
227.387	48.38
227.621	30.38
227.856	46.38
228.09	47.38
228.324	51.38
228.559	53.38
228.793	56.38
229.027	89.38
229.262	97.38
229.496	101.38
229.73	124.38
229.964	136.38
230.199	123.38
230.433	112.38
230.667	120.38
230.901	122.38
231.136	99.38
231.37	93.38
231.604	112.38
231.838	103.38
232.072	114.38
232.306	114.38
232.541	113.38
232.775	113.38
233.009	106.38
233.243	102.38
233.477	112.38
233.711	122.38
233.945	101.38
234.179	122.38
234.413	128.38
234.647	106.38
234.881	118.38
235.115	103.38
235.349	118.38
235.583	107.38
235.817	98.38
236.051	118.38
236.285	124.38
236.519	123.38
236.753	124.38
236.987	124.38
237.221	170.38
237.455	213.38
237.689	179.38
237.922	135.38
238.156	125.38
238.39	131.38
238.624	120.38
238.858	108.38
239.091	101.38
239.325	116.38
239.559	108.38
239.793	136.38
240.027	136.38
240.26	126.38
240.494	136.38
240.728	132.38
240.961	139.38
241.195	142.38
241.429	124.38
241.662	131.38
241.896	119.38
242.13	120.38
242.363	111.38
242.597	125.38
242.83	136.38
243.064	127.38
243.298	132.38
243.531	119.38
243.765	128.38
243.998	136.38
244.232	137.38
244.465	157.38
244.699	124.38
244.932	125.38
245.166	125.38
245.399	120.38
245.633	123.38
245.866	120.38
246.099	137.38
246.333	132.38
246.566	136.38
246.8	150.38
247.033	136.38
247.266	124.38
247.5	141.38
247.733	166.38
247.966	153.38
248.2	162.38
248.433	153.38
248.666	157.38
248.899	154.38
249.133	185.38
249.366	199.38
249.599	166.38
249.832	159.38
250.066	175.38
250.299	164.38
250.532	176.38
250.765	189.38
250.998	179.38
251.231	194.38
251.465	200.38
251.698	194.38
251.931	183.38
252.164	172.38
252.397	170.38
252.63	186.38
252.863	172.38
253.096	194.38
253.329	185.38
253.562	193.38
253.795	185.38
254.028	189.38
254.261	197.38
254.494	184.38
254.727	214.38
254.96	230.38
255.193	222.38
255.426	207.38
255.659	202.38
255.892	189.38
256.124	188.38
256.357	209.38
256.59	184.38
256.823	182.38
257.056	176.38
257.289	186.38
257.521	175.38
257.754	199.38
257.987	173.38
258.22	183.38
258.452	186.38
258.685	197.38
258.918	177.38
259.151	192.38
259.383	170.38
259.616	186.38
259.849	181.38
260.081	208.38
260.314	217.38
260.547	212.38
260.779	209.38
261.012	197.38
261.244	190.38
261.477	203.38
261.71	186.38
261.942	185.38
262.175	206.38
262.407	196.38
262.64	204.38
262.872	203.38
263.105	184.38
263.337	177.38
263.57	194.38
263.802	186.38
264.035	175.38
264.267	183.38
264.499	171.38
264.732	174.38
264.964	190.38
265.197	180.38
265.429	172.38
265.661	180.38
265.894	172.38
266.126	188.38
266.358	181.38
266.591	180.38
266.823	177.38
267.055	196.38
267.287	203.38
267.52	192.38
267.752	209.38
267.984	194.38
268.216	211.38
268.448	198.38
268.681	195.38
268.913	224.38
269.145	217.38
269.377	218.38
269.609	237.38
269.841	213.38
270.073	218.38
270.306	245.38
270.538	246.38
270.77	234.38
271.002	262.38
271.234	252.38
271.466	242.38
271.698	262.38
271.93	291.38
272.162	254.38
272.394	267.38
272.626	255.38
272.858	245.38
273.09	235.38
273.322	237.38
273.553	241.38
273.785	222.38
274.017	193.38
274.249	216.38
274.481	210.38
274.713	211.38
274.945	218.38
275.176	221.38
275.408	241.38
275.64	198.38
275.872	211.38
276.104	224.38
276.335	219.38
276.567	222.38
276.799	249.38
277.031	257.38
277.262	270.38
277.494	253.38
277.726	264.38
277.957	247.38
278.189	236.38
278.421	221.38
278.652	212.38
278.884	233.38
279.115	233.38
279.347	221.38
279.579	232.38
279.81	209.38
280.042	241.38
280.273	222.38
280.505	215.38
280.736	237.38
280.968	240.38
281.199	226.38
281.431	232.38
281.662	222.38
281.894	223.38
282.125	234.38
282.356	242.38
282.588	268.38
282.819	249.38
283.051	241.38
283.282	212.38
283.513	235.38
283.745	220.38
283.976	226.38
284.207	234.38
284.439	215.38
284.67	236.38
284.901	247.38
285.132	229.38
285.364	229.38
285.595	228.38
285.826	206.38
286.057	218.38
286.288	232.38
286.52	228.38
286.751	232.38
286.982	228.38
287.213	231.38
287.444	230.38
287.675	254.38
287.906	247.38
288.138	254.38
288.369	260.38
288.6	244.38
288.831	237.38
289.062	262.38
289.293	259.38
289.524	251.38
289.755	230.38
289.986	227.38
290.217	219.38
290.448	227.38
290.679	241.38
290.91	257.38
291.141	230.38
291.371	239.38
291.602	240.38
291.833	232.38
292.064	237.38
292.295	247.38
292.526	244.38
292.757	235.38
292.987	228.38
293.218	232.38
293.449	252.38
293.68	257.38
293.91	216.38
294.141	230.38
294.372	239.38
294.603	232.38
294.833	248.38
295.064	236.38
295.295	265.38
295.525	237.38
295.756	245.38
295.987	261.38
296.217	268.38
296.448	271.38
296.679	258.38
296.909	249.38
297.14	260.38
297.37	261.38
297.601	247.38
297.831	240.38
298.062	230.38
298.292	251.38
298.523	245.38
298.753	250.38
298.984	248.38
299.214	256.38
299.445	245.38
299.675	248.38
299.905	264.38
300.136	270.38
300.366	258.38
300.597	236.38
300.827	258.38
301.057	268.38
301.288	259.38
301.518	259.38
301.748	262.38
301.979	270.38
302.209	277.38
302.439	263.38
302.669	266.38
302.9	267.38
303.13	264.38
303.36	262.38
303.59	268.38
303.82	281.38
304.051	279.38
304.281	288.38
304.511	276.38
304.741	258.38
304.971	274.38
305.201	268.38
305.431	274.38
305.661	270.38
305.891	284.38
306.121	272.38
306.352	277.38
306.582	271.38
306.812	260.38
307.042	279.38
307.272	288.38
307.502	271.38
307.731	283.38
307.961	269.38
308.191	282.38
308.421	276.38
308.651	269.38
308.881	286.38
309.111	280.38
309.341	280.38
309.571	294.38
309.8	284.38
310.03	312.38
310.26	322.38
310.49	315.38
310.72	315.38
310.949	326.38
311.179	356.38
311.409	309.38
311.639	323.38
311.868	311.38
312.098	324.38
312.328	334.38
312.557	339.38
312.787	340.38
313.017	337.38
313.246	320.38
313.476	308.38
313.706	316.38
313.935	344.38
314.165	328.38
314.394	350.38
314.624	320.38
314.853	323.38
315.083	317.38
315.312	316.38
315.542	309.38
315.771	298.38
316.001	315.38
316.23	317.38
316.46	306.38
316.689	322.38
316.919	319.38
317.148	328.38
317.377	329.38
317.607	350.38
317.836	324.38
318.065	305.38
318.295	301.38
318.524	307.38
318.753	308.38
318.983	317.38
319.212	317.38
319.441	324.38
319.67	330.38
319.9	325.38
320.129	320.38
320.358	309.38
320.587	338.38
320.816	333.38
321.046	330.38
321.275	343.38
321.504	348.38
321.733	352.38
321.962	325.38
322.191	354.38
322.42	376.38
322.649	390.38
322.878	386.38
323.108	414.38
323.337	420.38
323.566	448.38
323.795	511.38
324.024	532.38
324.253	664.38
324.482	999.38
324.71	1527.38
324.939	2105.38
325.168	1761.38
325.397	953.38
325.626	624.38
325.855	521.38
326.084	483.38
326.313	437.38
326.542	468.38
326.77	502.38
326.999	604.38
327.228	865.38
327.457	1336.38
327.686	1580.38
327.914	1037.38
328.143	700.38
328.372	570.38
328.6	542.38
328.829	526.38
329.058	537.38
329.287	537.38
329.515	490.38
329.744	458.38
329.972	472.38
330.201	488.38
330.43	530.38
330.658	534.38
330.887	595.38
331.115	548.38
331.344	474.38
331.572	434.38
331.801	422.38
332.03	425.38
332.258	400.38
332.486	399.38
332.715	372.38
332.943	384.38
333.172	376.38
333.4	382.38
333.629	389.38
333.857	430.38
334.085	408.38
334.314	428.38
334.542	459.38
334.771	487.38
334.999	434.38
335.227	378.38
335.455	388.38
335.684	368.38
335.912	360.38
336.14	372.38
336.369	377.38
336.597	383.38
336.825	387.38
337.053	380.38
337.281	360.38
337.51	347.38
337.738	364.38
337.966	360.38
338.194	385.38
338.422	380.38
338.65	363.38
338.878	378.38
339.106	342.38
339.334	351.38
339.562	360.38
339.79	353.38
340.018	360.38
340.246	360.38
340.474	381.38
340.702	360.38
340.93	361.38
341.158	350.38
341.386	339.38
341.614	377.38
341.842	350.38
342.07	343.38
342.298	352.38
342.526	353.38
342.754	332.38
342.981	351.38
343.209	337.38
343.437	348.38
343.665	346.38
343.893	354.38
344.12	377.38
344.348	364.38
344.576	345.38
344.804	368.38
345.031	360.38
345.259	374.38
345.487	376.38
345.714	370.38
345.942	363.38
346.17	346.38
346.397	350.38
346.625	348.38
346.853	345.38
347.08	351.38
347.308	347.38
347.535	362.38
347.763	389.38
347.99	376.38
348.218	361.38
348.445	385.38
348.673	356.38
348.9	342.38
349.128	333.38
349.355	322.38
349.583	344.38
349.81	342.38
350.037	339.38
350.265	349.38
350.492	358.38
350.72	335.38
350.947	356.38
351.174	352.38
351.402	367.38
351.629	365.38
351.856	350.38
352.083	371.38
352.311	372.38
352.538	381.38
352.765	358.38
352.992	352.38
353.22	372.38
353.447	328.38
353.674	347.38
353.901	320.38
354.128	322.38
354.355	302.38
354.583	322.38
354.81	338.38
355.037	327.38
355.264	300.38
355.491	323.38
355.718	326.38
355.945	334.38
356.172	328.38
356.399	308.38
356.626	325.38
356.853	308.38
357.08	329.38
357.307	339.38
357.534	329.38
357.761	305.38
357.988	332.38
358.215	321.38
358.441	327.38
358.668	324.38
358.895	315.38
359.122	328.38
359.349	333.38
359.576	321.38
359.802	358.38
360.029	396.38
360.256	396.38
360.483	402.38
360.709	351.38
360.936	366.38
361.163	355.38
361.39	354.38
361.616	371.38
361.843	350.38
362.07	344.38
362.296	361.38
362.523	356.38
362.749	342.38
362.976	350.38
363.203	347.38
363.429	334.38
363.656	333.38
363.882	345.38
364.109	343.38
364.335	341.38
364.562	337.38
364.788	318.38
365.015	351.38
365.241	335.38
365.468	359.38
365.694	337.38
365.92	332.38
366.147	337.38
366.373	333.38
366.599	323.38
366.826	327.38
367.052	316.38
367.278	319.38
367.505	330.38
367.731	338.38
367.957	345.38
368.184	346.38
368.41	330.38
368.636	349.38
368.862	341.38
369.089	353.38
369.315	338.38
369.541	329.38
369.767	335.38
369.993	315.38
370.219	347.38
370.445	323.38
370.672	328.38
370.898	314.38
371.124	326.38
371.35	321.38
371.576	336.38
371.802	328.38
372.028	332.38
372.254	326.38
372.48	316.38
372.706	310.38
372.932	331.38
373.158	314.38
373.384	336.38
373.61	343.38
373.835	324.38
374.061	329.38
374.287	340.38
374.513	329.38
374.739	363.38
374.965	354.38
375.191	349.38
375.416	319.38
375.642	322.38
375.868	329.38
376.094	340.38
376.319	324.38
376.545	340.38
376.771	319.38
376.997	326.38
377.222	340.38
377.448	332.38
377.674	326.38
377.899	328.38
378.125	324.38
378.35	322.38
378.576	323.38
378.802	334.38
379.027	350.38
379.253	327.38
379.478	329.38
379.704	315.38
379.929	316.38
380.155	330.38
380.38	328.38
380.606	331.38
380.831	320.38
381.057	324.38
381.282	342.38
381.507	334.38
381.733	338.38
381.958	315.38
382.184	338.38
382.409	321.38
382.634	328.38
382.86	327.38
383.085	338.38
383.31	305.38
383.535	337.38
383.761	333.38
383.986	325.38
384.211	320.38
384.436	333.38
384.662	336.38
384.887	334.38
385.112	334.38
385.337	334.38
385.562	349.38
385.787	345.38
386.013	342.38
386.238	348.38
386.463	357.38
386.688	362.38
386.913	342.38
387.138	353.38
387.363	359.38
387.588	348.38
387.813	360.38
388.038	350.38
388.263	362.38
388.488	326.38
388.713	352.38
388.938	355.38
389.163	339.38
389.387	361.38
389.612	343.38
389.837	350.38
390.062	349.38
390.287	320.38
390.512	343.38
390.736	355.38
390.961	342.38
391.186	352.38
391.411	333.38
391.636	349.38
391.86	345.38
392.085	355.38
392.31	364.38
392.534	361.38
392.759	351.38
392.984	363.38
393.208	380.38
393.433	352.38
393.658	357.38
393.882	354.38
394.107	364.38
394.331	350.38
394.556	363.38
394.78	358.38
395.005	354.38
395.229	340.38
395.454	348.38
395.678	355.38
395.903	376.38
396.127	376.38
396.352	382.38
396.576	370.38
396.801	364.38
397.025	372.38
397.249	373.38
397.474	377.38
397.698	385.38
397.922	380.38
398.147	392.38
398.371	406.38
398.595	404.38
398.82	383.38
399.044	397.38
399.268	386.38
399.492	417.38
399.717	442.38
399.941	441.38
400.165	482.38
400.389	489.38
400.613	446.38
400.837	402.38
401.062	403.38
401.286	398.38
401.51	406.38
401.734	406.38
401.958	383.38
402.182	388.38
402.406	436.38
402.63	416.38
402.854	410.38
403.078	417.38
403.302	398.38
403.526	412.38
403.75	409.38
403.974	424.38
404.198	406.38
404.422	410.38
404.645	383.38
404.869	425.38
405.093	461.38
405.317	472.38
405.541	492.38
405.765	461.38
405.988	448.38
406.212	434.38
406.436	460.38
406.66	477.38
406.883	468.38
407.107	484.38
407.331	532.38
407.555	563.38
407.778	563.38
408.002	497.38
408.226	465.38
408.449	465.38
408.673	467.38
408.896	468.38
409.12	513.38
409.344	476.38
409.567	441.38
409.791	427.38
410.014	416.38
410.238	399.38
410.461	410.38
410.685	408.38
410.908	437.38
411.132	455.38
411.355	490.38
411.578	488.38
411.802	421.38
412.025	423.38
412.249	423.38
412.472	447.38
412.695	475.38
412.919	475.38
413.142	432.38
413.365	414.38
413.589	412.38
413.812	405.38
414.035	405.38
414.258	384.38
414.482	403.38
414.705	412.38
414.928	373.38
415.151	379.38
415.374	391.38
415.597	400.38
415.821	388.38
416.044	393.38
416.267	418.38
416.49	413.38
416.713	397.38
416.936	409.38
417.159	405.38
417.382	411.38
417.605	409.38
417.828	421.38
418.051	417.38
418.274	390.38
418.497	404.38
418.72	376.38
418.943	397.38
419.166	380.38
419.389	399.38
419.611	425.38
419.834	415.38
420.057	433.38
420.28	432.38
420.503	408.38
420.726	422.38
420.948	432.38
421.171	458.38
421.394	477.38
421.617	418.38
421.839	423.38
422.062	422.38
422.285	427.38
422.507	485.38
422.73	542.38
422.953	527.38
423.175	458.38
423.398	443.38
423.621	434.38
423.843	441.38
424.066	449.38
424.288	437.38
424.511	472.38
424.733	501.38
424.956	580.38
425.178	538.38
425.401	559.38
425.623	563.38
425.846	478.38
426.068	474.38
426.291	450.38
426.513	451.38
426.735	478.38
426.958	524.38
427.18	584.38
427.402	660.38
427.625	728.38
427.847	668.38
428.069	592.38
428.292	514.38
428.514	470.38
428.736	442.38
428.958	437.38
429.181	423.38
429.403	426.38
429.625	449.38
429.847	451.38
430.069	524.38
430.292	536.38
430.514	442.38
430.736	420.38
430.958	416.38
431.18	409.38
431.402	403.38
431.624	417.38
431.846	386.38
432.068	399.38
432.29	390.38
432.512	405.38
432.734	409.38
432.956	397.38
433.178	416.38
433.4	423.38
433.622	421.38
433.844	413.38
434.066	393.38
434.287	402.38
434.509	404.38
434.731	404.38
434.953	412.38
435.175	431.38
435.397	453.38
435.618	463.38
435.84	497.38
436.062	562.38
436.284	622.38
436.505	530.38
436.727	483.38
436.949	437.38
437.17	432.38
437.392	439.38
437.614	443.38
437.835	491.38
438.057	562.38
438.278	642.38
438.5	630.38
438.721	688.38
438.943	666.38
439.165	524.38
439.386	477.38
439.608	457.38
439.829	493.38
440.05	493.38
440.272	547.38
440.493	505.38
440.715	451.38
440.936	454.38
441.158	434.38
441.379	454.38
441.6	442.38
441.822	463.38
442.043	512.38
442.264	571.38
442.486	582.38
442.707	512.38
442.928	476.38
443.149	492.38
443.371	514.38
443.592	525.38
443.813	594.38
444.034	636.38
444.255	546.38
444.476	496.38
444.698	438.38
444.919	470.38
445.14	568.38
445.361	511.38
445.582	491.38
445.803	581.38
446.024	643.38
446.245	634.38
446.466	610.38
446.687	514.38
446.908	481.38
447.129	456.38
447.35	442.38
447.571	411.38
447.792	425.38
448.013	417.38
448.234	443.38
448.455	488.38
448.675	591.38
448.896	686.38
449.117	564.38
449.338	562.38
449.559	628.38
449.779	700.38
450	576.38
450.221	487.38
450.442	447.38
450.662	426.38
450.883	448.38
451.104	445.38
451.324	428.38
451.545	424.38
451.766	374.38
451.986	398.38
452.207	389.38
452.428	396.38
452.648	388.38
452.869	398.38
453.089	411.38
453.31	418.38
453.53	387.38
453.751	393.38
453.971	386.38
454.192	418.38
454.412	427.38
454.633	394.38
454.853	378.38
455.073	399.38
455.294	409.38
455.514	488.38
455.734	434.38
455.955	402.38
456.175	381.38
456.395	357.38
456.616	365.38
456.836	359.38
457.056	351.38
457.276	341.38
457.497	368.38
457.717	362.38
457.937	364.38
458.157	362.38
458.377	399.38
458.598	415.38
458.818	439.38
459.038	522.38
459.258	525.38
459.478	424.38
459.698	422.38
459.918	407.38
460.138	429.38
460.358	377.38
460.578	410.38
460.798	392.38
461.018	416.38
461.238	384.38
461.458	395.38
461.678	392.38
461.898	407.38
462.118	400.38
462.338	403.38
462.558	410.38
462.777	406.38
462.997	421.38
463.217	437.38
463.437	423.38
463.657	430.38
463.876	429.38
464.096	427.38
464.316	414.38
464.536	434.38
464.755	443.38
464.975	428.38
465.195	499.38
465.414	569.38
465.634	496.38
465.854	458.38
466.073	423.38
466.293	414.38
466.512	425.38
466.732	393.38
466.951	403.38
467.171	382.38
467.391	398.38
467.61	395.38
467.829	408.38
468.049	404.38
468.268	407.38
468.488	425.38
468.707	382.38
468.927	379.38
469.146	380.38
469.365	385.38
469.585	390.38
469.804	386.38
470.023	412.38
470.243	426.38
470.462	401.38
470.681	409.38
470.901	407.38
471.12	415.38
471.339	395.38
471.558	438.38
471.777	411.38
471.997	394.38
472.216	421.38
472.435	430.38
472.654	470.38
472.873	404.38
473.092	418.38
473.311	410.38
473.53	433.38
473.749	415.38
473.968	449.38
474.187	522.38
474.406	527.38
474.625	436.38
474.844	408.38
475.063	401.38
475.282	409.38
475.501	408.38
475.72	401.38
475.939	406.38
476.158	397.38
476.377	397.38
476.596	419.38
476.814	410.38
477.033	412.38
477.252	430.38
477.471	421.38
477.69	443.38
477.908	439.38
478.127	428.38
478.346	418.38
478.564	452.38
478.783	438.38
479.002	472.38
479.22	447.38
479.439	464.38
479.658	475.38
479.876	468.38
480.095	484.38
480.313	492.38
480.532	482.38
480.751	459.38
480.969	499.38
481.188	587.38
481.406	599.38
481.624	538.38
481.843	504.38
482.061	474.38
482.28	485.38
482.498	498.38
482.717	476.38
482.935	492.38
483.153	478.38
483.372	492.38
483.59	463.38
483.808	471.38
484.027	468.38
484.245	470.38
484.463	490.38
484.681	482.38
484.9	477.38
485.118	466.38
485.336	478.38
485.554	470.38
485.772	498.38
485.99	467.38
486.209	518.38
486.427	491.38
486.645	502.38
486.863	504.38
487.081	512.38
487.299	480.38
487.517	500.38
487.735	498.38
487.953	501.38
488.171	485.38
488.389	501.38
488.607	508.38
488.825	508.38
489.043	491.38
489.261	517.38
489.479	500.38
489.696	529.38
489.914	521.38
490.132	511.38
490.35	539.38
490.568	520.38
490.786	531.38
491.003	542.38
491.221	540.38
491.439	565.38
491.657	562.38
491.874	571.38
492.092	562.38
492.31	569.38
492.527	598.38
492.745	565.38
492.963	587.38
493.18	589.38
493.398	590.38
493.615	586.38
493.833	589.38
494.05	605.38
494.268	569.38
494.485	576.38
494.703	583.38
494.92	596.38
495.138	592.38
495.355	615.38
495.573	589.38
495.79	601.38
496.008	596.38
496.225	591.38
496.442	587.38
496.66	605.38
496.877	590.38
497.094	607.38
497.312	617.38
497.529	626.38
497.746	606.38
497.963	628.38
498.181	650.38
498.398	640.38
498.615	664.38
498.832	662.38
499.049	664.38
499.267	681.38
499.484	678.38
499.701	695.38
499.918	714.38
500.135	725.38
500.352	739.38
500.569	744.38
500.786	749.38
501.003	756.38
501.22	754.38
501.437	712.38
501.654	706.38
501.871	726.38
502.088	722.38
