Data from 1961.PennyLincolnUp.Lamp.En5.5.200Scan.071719.P1._HRD10591_13-48-53-059.txt Node
Date: Thu Jul 18 13:48:53 EDT 2019
User: cochatt
Spectrometer: HR+D1059
Trigger mode: 1
Integration Time (sec): 1.000000E-1
Scans to average: 1
Electric dark correction enabled: true
Nonlinearity correction enabled: false
Boxcar width: 0
XAxis mode: Wavelengths
Number of Pixels in Spectrum: 2048
>>>>>Begin Spectral Data<<<<<
223.165	-18.19
223.4	-18.19
223.635	-18.19
223.869	-11.19
224.104	-14.19
224.338	-2.19
224.573	-22.19
224.808	-13.19
225.042	-18.19
225.277	-17.19
225.511	-11.19
225.746	8.81
225.98	8.81
226.215	12.81
226.449	19.81
226.683	3.81
226.918	39.81
227.152	33.81
227.387	30.81
227.621	30.81
227.856	38.81
228.09	42.81
228.324	51.81
228.559	48.81
228.793	62.81
229.027	80.81
229.262	112.81
229.496	110.81
229.73	128.81
229.964	130.81
230.199	135.81
230.433	107.81
230.667	110.81
230.901	130.81
231.136	102.81
231.37	116.81
231.604	102.81
231.838	97.81
232.072	109.81
232.306	101.81
232.541	120.81
232.775	121.81
233.009	120.81
233.243	110.81
233.477	120.81
233.711	109.81
233.945	118.81
234.179	119.81
234.413	109.81
234.647	97.81
234.881	122.81
235.115	94.81
235.349	116.81
235.583	109.81
235.817	109.81
236.051	120.81
236.285	124.81
236.519	117.81
236.753	136.81
236.987	139.81
237.221	180.81
237.455	209.81
237.689	176.81
237.922	140.81
238.156	134.81
238.39	108.81
238.624	101.81
238.858	118.81
239.091	107.81
239.325	117.81
239.559	124.81
239.793	122.81
240.027	118.81
240.26	135.81
240.494	153.81
240.728	134.81
240.961	146.81
241.195	137.81
241.429	128.81
241.662	135.81
241.896	125.81
242.13	140.81
242.363	116.81
242.597	114.81
242.83	127.81
243.064	112.81
243.298	121.81
243.531	129.81
243.765	129.81
243.998	124.81
244.232	116.81
244.465	116.81
244.699	130.81
244.932	136.81
245.166	116.81
245.399	142.81
245.633	134.81
245.866	116.81
246.099	135.81
246.333	156.81
246.566	129.81
246.8	140.81
247.033	136.81
247.266	130.81
247.5	157.81
247.733	139.81
247.966	157.81
248.2	151.81
248.433	157.81
248.666	161.81
248.899	169.81
249.133	185.81
249.366	190.81
249.599	177.81
249.832	165.81
250.066	152.81
250.299	174.81
250.532	166.81
250.765	185.81
250.998	192.81
251.231	210.81
251.465	192.81
251.698	180.81
251.931	174.81
252.164	159.81
252.397	167.81
252.63	171.81
252.863	178.81
253.096	192.81
253.329	204.81
253.562	208.81
253.795	195.81
254.028	180.81
254.261	192.81
254.494	194.81
254.727	219.81
254.96	241.81
255.193	216.81
255.426	217.81
255.659	210.81
255.892	200.81
256.124	188.81
256.357	208.81
256.59	214.81
256.823	185.81
257.056	184.81
257.289	199.81
257.521	183.81
257.754	187.81
257.987	174.81
258.22	199.81
258.452	187.81
258.685	167.81
258.918	176.81
259.151	173.81
259.383	207.81
259.616	197.81
259.849	200.81
260.081	192.81
260.314	206.81
260.547	229.81
260.779	205.81
261.012	210.81
261.244	192.81
261.477	183.81
261.71	206.81
261.942	210.81
262.175	202.81
262.407	197.81
262.64	191.81
262.872	192.81
263.105	199.81
263.337	191.81
263.57	193.81
263.802	187.81
264.035	183.81
264.267	183.81
264.499	172.81
264.732	157.81
264.964	188.81
265.197	198.81
265.429	193.81
265.661	185.81
265.894	176.81
266.126	188.81
266.358	183.81
266.591	170.81
266.823	200.81
267.055	179.81
267.287	182.81
267.52	190.81
267.752	194.81
267.984	203.81
268.216	188.81
268.448	210.81
268.681	202.81
268.913	218.81
269.145	227.81
269.377	242.81
269.609	223.81
269.841	223.81
270.073	225.81
270.306	240.81
270.538	268.81
270.77	266.81
271.002	251.81
271.234	254.81
271.466	254.81
271.698	254.81
271.93	257.81
272.162	290.81
272.394	277.81
272.626	251.81
272.858	271.81
273.09	244.81
273.322	221.81
273.553	231.81
273.785	221.81
274.017	232.81
274.249	223.81
274.481	227.81
274.713	233.81
274.945	222.81
275.176	226.81
275.408	230.81
275.64	219.81
275.872	203.81
276.104	230.81
276.335	219.81
276.567	245.81
276.799	247.81
277.031	267.81
277.262	269.81
277.494	291.81
277.726	264.81
277.957	245.81
278.189	227.81
278.421	237.81
278.652	224.81
278.884	228.81
279.115	219.81
279.347	233.81
279.579	237.81
279.81	218.81
280.042	209.81
280.273	214.81
280.505	213.81
280.736	235.81
280.968	227.81
281.199	217.81
281.431	226.81
281.662	224.81
281.894	220.81
282.125	221.81
282.356	230.81
282.588	248.81
282.819	270.81
283.051	225.81
283.282	224.81
283.513	228.81
283.745	223.81
283.976	230.81
284.207	240.81
284.439	233.81
284.67	242.81
284.901	242.81
285.132	212.81
285.364	209.81
285.595	236.81
285.826	244.81
286.057	230.81
286.288	233.81
286.52	219.81
286.751	224.81
286.982	236.81
287.213	236.81
287.444	236.81
287.675	241.81
287.906	259.81
288.138	246.81
288.369	250.81
288.6	238.81
288.831	232.81
289.062	255.81
289.293	237.81
289.524	245.81
289.755	238.81
289.986	242.81
290.217	218.81
290.448	233.81
290.679	235.81
290.91	235.81
291.141	237.81
291.371	232.81
291.602	260.81
291.833	244.81
292.064	221.81
292.295	244.81
292.526	249.81
292.757	254.81
292.987	266.81
293.218	245.81
293.449	254.81
293.68	242.81
293.91	252.81
294.141	237.81
294.372	238.81
294.603	244.81
294.833	252.81
295.064	240.81
295.295	235.81
295.525	244.81
295.756	241.81
295.987	261.81
296.217	284.81
296.448	269.81
296.679	266.81
296.909	237.81
297.14	247.81
297.37	258.81
297.601	266.81
297.831	246.81
298.062	251.81
298.292	247.81
298.523	225.81
298.753	249.81
298.984	233.81
299.214	255.81
299.445	261.81
299.675	280.81
299.905	240.81
300.136	261.81
300.366	245.81
300.597	254.81
300.827	255.81
301.057	253.81
301.288	267.81
301.518	284.81
301.748	271.81
301.979	245.81
302.209	259.81
302.439	269.81
302.669	272.81
302.9	266.81
303.13	262.81
303.36	286.81
303.59	285.81
303.82	286.81
304.051	281.81
304.281	280.81
304.511	265.81
304.741	262.81
304.971	265.81
305.201	255.81
305.431	273.81
305.661	250.81
305.891	258.81
306.121	264.81
306.352	276.81
306.582	290.81
306.812	293.81
307.042	264.81
307.272	261.81
307.502	284.81
307.731	291.81
307.961	274.81
308.191	280.81
308.421	288.81
308.651	294.81
308.881	277.81
309.111	284.81
309.341	300.81
309.571	325.81
309.8	314.81
310.03	311.81
310.26	338.81
310.49	315.81
310.72	342.81
310.949	350.81
311.179	357.81
311.409	314.81
311.639	315.81
311.868	317.81
312.098	318.81
312.328	330.81
312.557	346.81
312.787	371.81
313.017	349.81
313.246	306.81
313.476	325.81
313.706	321.81
313.935	316.81
314.165	348.81
314.394	331.81
314.624	340.81
314.853	337.81
315.083	330.81
315.312	314.81
315.542	304.81
315.771	313.81
316.001	317.81
316.23	305.81
316.46	312.81
316.689	315.81
316.919	333.81
317.148	330.81
317.377	336.81
317.607	340.81
317.836	337.81
318.065	338.81
318.295	338.81
318.524	322.81
318.753	308.81
318.983	298.81
319.212	308.81
319.441	325.81
319.67	336.81
319.9	334.81
320.129	310.81
320.358	330.81
320.587	339.81
320.816	342.81
321.046	339.81
321.275	338.81
321.504	338.81
321.733	340.81
321.962	372.81
322.191	372.81
322.42	384.81
322.649	396.81
322.878	429.81
323.108	442.81
323.337	445.81
323.566	464.81
323.795	503.81
324.024	566.81
324.253	724.81
324.482	1030.81
324.71	1626.81
324.939	2214.81
325.168	1881.81
325.397	978.81
325.626	646.81
325.855	545.81
326.084	504.81
326.313	470.81
326.542	477.81
326.77	523.81
326.999	646.81
327.228	924.81
327.457	1414.81
327.686	1644.81
327.914	1074.81
328.143	702.81
328.372	628.81
328.6	560.81
328.829	536.81
329.058	543.81
329.287	564.81
329.515	506.81
329.744	481.81
329.972	466.81
330.201	491.81
330.43	521.81
330.658	578.81
330.887	601.81
331.115	558.81
331.344	461.81
331.572	440.81
331.801	426.81
332.03	425.81
332.258	395.81
332.486	381.81
332.715	377.81
332.943	393.81
333.172	386.81
333.4	388.81
333.629	398.81
333.857	411.81
334.085	419.81
334.314	424.81
334.542	466.81
334.771	497.81
334.999	448.81
335.227	388.81
335.455	396.81
335.684	396.81
335.912	376.81
336.14	380.81
336.369	372.81
336.597	383.81
336.825	377.81
337.053	371.81
337.281	377.81
337.51	363.81
337.738	382.81
337.966	378.81
338.194	378.81
338.422	375.81
338.65	363.81
338.878	353.81
339.106	375.81
339.334	369.81
339.562	350.81
339.79	362.81
340.018	372.81
340.246	366.81
340.474	362.81
340.702	368.81
340.93	355.81
341.158	356.81
341.386	363.81
341.614	358.81
341.842	373.81
342.07	374.81
342.298	359.81
342.526	344.81
342.754	343.81
342.981	345.81
343.209	354.81
343.437	356.81
343.665	358.81
343.893	358.81
344.12	359.81
344.348	357.81
344.576	350.81
344.804	373.81
345.031	381.81
345.259	387.81
345.487	383.81
345.714	369.81
345.942	379.81
346.17	356.81
346.397	352.81
346.625	348.81
346.853	363.81
347.08	364.81
347.308	368.81
347.535	354.81
347.763	370.81
347.99	360.81
348.218	373.81
348.445	380.81
348.673	362.81
348.9	362.81
349.128	372.81
349.355	336.81
349.583	356.81
349.81	330.81
350.037	355.81
350.265	342.81
350.492	347.81
350.72	347.81
350.947	368.81
351.174	352.81
351.402	359.81
351.629	370.81
351.856	376.81
352.083	372.81
352.311	379.81
352.538	386.81
352.765	371.81
352.992	344.81
353.22	365.81
353.447	353.81
353.674	357.81
353.901	319.81
354.128	339.81
354.355	334.81
354.583	305.81
354.81	320.81
355.037	320.81
355.264	334.81
355.491	321.81
355.718	334.81
355.945	334.81
356.172	306.81
356.399	305.81
356.626	324.81
356.853	325.81
357.08	316.81
357.307	333.81
357.534	324.81
357.761	327.81
357.988	322.81
358.215	320.81
358.441	319.81
358.668	338.81
358.895	323.81
359.122	334.81
359.349	337.81
359.576	356.81
359.802	372.81
360.029	405.81
360.256	427.81
360.483	405.81
360.709	397.81
360.936	361.81
361.163	373.81
361.39	392.81
361.616	364.81
361.843	350.81
362.07	354.81
362.296	378.81
362.523	365.81
362.749	354.81
362.976	353.81
363.203	355.81
363.429	352.81
363.656	337.81
363.882	348.81
364.109	337.81
364.335	343.81
364.562	335.81
364.788	327.81
365.015	347.81
365.241	335.81
365.468	348.81
365.694	342.81
365.92	344.81
366.147	334.81
366.373	331.81
366.599	316.81
366.826	331.81
367.052	323.81
367.278	332.81
367.505	337.81
367.731	333.81
367.957	342.81
368.184	331.81
368.41	340.81
368.636	349.81
368.862	317.81
369.089	336.81
369.315	333.81
369.541	322.81
369.767	342.81
369.993	342.81
370.219	339.81
370.445	340.81
370.672	329.81
370.898	315.81
371.124	310.81
371.35	326.81
371.576	356.81
371.802	339.81
372.028	329.81
372.254	322.81
372.48	323.81
372.706	334.81
372.932	327.81
373.158	328.81
373.384	334.81
373.61	334.81
373.835	337.81
374.061	314.81
374.287	327.81
374.513	346.81
374.739	349.81
374.965	316.81
375.191	320.81
375.416	312.81
375.642	316.81
375.868	321.81
376.094	331.81
376.319	326.81
376.545	331.81
376.771	343.81
376.997	316.81
377.222	329.81
377.448	322.81
377.674	317.81
377.899	316.81
378.125	310.81
378.35	307.81
378.576	342.81
378.802	326.81
379.027	322.81
379.253	315.81
379.478	332.81
379.704	323.81
379.929	334.81
380.155	313.81
380.38	342.81
380.606	336.81
380.831	317.81
381.057	296.81
381.282	320.81
381.507	336.81
381.733	317.81
381.958	321.81
382.184	329.81
382.409	321.81
382.634	316.81
382.86	347.81
383.085	333.81
383.31	338.81
383.535	342.81
383.761	337.81
383.986	348.81
384.211	350.81
384.436	353.81
384.662	341.81
384.887	348.81
385.112	354.81
385.337	359.81
385.562	343.81
385.787	353.81
386.013	387.81
386.238	351.81
386.463	342.81
386.688	360.81
386.913	331.81
387.138	349.81
387.363	352.81
387.588	345.81
387.813	344.81
388.038	352.81
388.263	336.81
388.488	348.81
388.713	350.81
388.938	348.81
389.163	362.81
389.387	360.81
389.612	348.81
389.837	368.81
390.062	351.81
390.287	344.81
390.512	364.81
390.736	334.81
390.961	352.81
391.186	357.81
391.411	331.81
391.636	347.81
391.86	369.81
392.085	348.81
392.31	349.81
392.534	366.81
392.759	355.81
392.984	363.81
393.208	350.81
393.433	361.81
393.658	366.81
393.882	345.81
394.107	365.81
394.331	346.81
394.556	371.81
394.78	365.81
395.005	351.81
395.229	373.81
395.454	351.81
395.678	351.81
395.903	373.81
396.127	376.81
396.352	391.81
396.576	362.81
396.801	362.81
397.025	356.81
397.249	372.81
397.474	371.81
397.698	382.81
397.922	390.81
398.147	404.81
398.371	384.81
398.595	395.81
398.82	384.81
399.044	397.81
399.268	392.81
399.492	418.81
399.717	446.81
399.941	451.81
400.165	477.81
400.389	457.81
400.613	435.81
400.837	438.81
401.062	405.81
401.286	412.81
401.51	403.81
401.734	394.81
401.958	400.81
402.182	416.81
402.406	414.81
402.63	450.81
402.854	406.81
403.078	412.81
403.302	410.81
403.526	415.81
403.75	418.81
403.974	434.81
404.198	417.81
404.422	427.81
404.645	411.81
404.869	438.81
405.093	466.81
405.317	482.81
405.541	508.81
405.765	481.81
405.988	441.81
406.212	452.81
406.436	459.81
406.66	476.81
406.883	457.81
407.107	477.81
407.331	515.81
407.555	588.81
407.778	571.81
408.002	512.81
408.226	472.81
408.449	464.81
408.673	468.81
408.896	495.81
409.12	525.81
409.344	498.81
409.567	450.81
409.791	425.81
410.014	426.81
410.238	413.81
410.461	428.81
410.685	411.81
410.908	422.81
411.132	476.81
411.355	489.81
411.578	484.81
411.802	451.81
412.025	425.81
412.249	446.81
412.472	448.81
412.695	476.81
412.919	483.81
413.142	432.81
413.365	408.81
413.589	410.81
413.812	395.81
414.035	385.81
414.258	425.81
414.482	409.81
414.705	398.81
414.928	395.81
415.151	403.81
415.374	399.81
415.597	389.81
415.821	388.81
416.044	408.81
416.267	417.81
416.49	398.81
416.713	402.81
416.936	406.81
417.159	405.81
417.382	409.81
417.605	400.81
417.828	413.81
418.051	417.81
418.274	413.81
418.497	386.81
418.72	402.81
418.943	370.81
419.166	404.81
419.389	434.81
419.611	416.81
419.834	411.81
420.057	450.81
420.28	438.81
420.503	429.81
420.726	443.81
420.948	450.81
421.171	470.81
421.394	491.81
421.617	441.81
421.839	422.81
422.062	422.81
422.285	429.81
422.507	493.81
422.73	550.81
422.953	536.81
423.175	474.81
423.398	455.81
423.621	430.81
423.843	446.81
424.066	443.81
424.288	465.81
424.511	488.81
424.733	527.81
424.956	591.81
425.178	590.81
425.401	568.81
425.623	568.81
425.846	520.81
426.068	469.81
426.291	449.81
426.513	462.81
426.735	514.81
426.958	497.81
427.18	585.81
427.402	682.81
427.625	742.81
427.847	667.81
428.069	598.81
428.292	544.81
428.514	501.81
428.736	452.81
428.958	452.81
429.181	451.81
429.403	444.81
429.625	443.81
429.847	469.81
430.069	510.81
430.292	508.81
430.514	462.81
430.736	436.81
430.958	421.81
431.18	433.81
431.402	418.81
431.624	406.81
431.846	402.81
432.068	417.81
432.29	424.81
432.512	406.81
432.734	414.81
432.956	416.81
433.178	426.81
433.4	427.81
433.622	413.81
433.844	399.81
434.066	417.81
434.287	401.81
434.509	405.81
434.731	397.81
434.953	423.81
435.175	427.81
435.397	461.81
435.618	481.81
435.84	501.81
436.062	599.81
436.284	646.81
436.505	544.81
436.727	483.81
436.949	446.81
437.17	419.81
437.392	440.81
437.614	450.81
437.835	492.81
438.057	585.81
438.278	668.81
438.5	634.81
438.721	706.81
438.943	652.81
439.165	546.81
439.386	480.81
439.608	484.81
439.829	459.81
440.05	516.81
440.272	546.81
440.493	519.81
440.715	474.81
440.936	474.81
441.158	416.81
441.379	434.81
441.6	454.81
441.822	454.81
442.043	487.81
442.264	580.81
442.486	613.81
442.707	504.81
442.928	466.81
443.149	494.81
443.371	489.81
443.592	556.81
443.813	608.81
444.034	654.81
444.255	558.81
444.476	500.81
444.698	452.81
444.919	447.81
445.14	558.81
445.361	516.81
445.582	519.81
445.803	598.81
446.024	657.81
446.245	692.81
446.466	601.81
446.687	516.81
446.908	489.81
447.129	452.81
447.35	461.81
447.571	429.81
447.792	440.81
448.013	443.81
448.234	470.81
448.455	513.81
448.675	596.81
448.896	722.81
449.117	577.81
449.338	567.81
449.559	661.81
449.779	727.81
450	595.81
450.221	509.81
450.442	460.81
450.662	437.81
450.883	443.81
451.104	456.81
451.324	444.81
451.545	415.81
451.766	424.81
451.986	396.81
452.207	395.81
452.428	393.81
452.648	413.81
452.869	383.81
453.089	418.81
453.31	426.81
453.53	398.81
453.751	393.81
453.971	421.81
454.192	418.81
454.412	408.81
454.633	412.81
454.853	398.81
455.073	382.81
455.294	419.81
455.514	484.81
455.734	476.81
455.955	400.81
456.175	377.81
456.395	386.81
456.616	376.81
456.836	383.81
457.056	379.81
457.276	365.81
457.497	360.81
457.717	360.81
457.937	375.81
458.157	376.81
458.377	403.81
458.598	410.81
458.818	467.81
459.038	545.81
459.258	562.81
459.478	455.81
459.698	435.81
459.918	421.81
460.138	420.81
460.358	380.81
460.578	385.81
460.798	404.81
461.018	404.81
461.238	403.81
461.458	403.81
461.678	402.81
461.898	404.81
462.118	424.81
462.338	408.81
462.558	396.81
462.777	398.81
462.997	409.81
463.217	407.81
463.437	413.81
463.657	413.81
463.876	419.81
464.096	434.81
464.316	417.81
464.536	435.81
464.755	448.81
464.975	465.81
465.195	520.81
465.414	562.81
465.634	523.81
465.854	470.81
466.073	451.81
466.293	425.81
466.512	421.81
466.732	388.81
466.951	412.81
467.171	404.81
467.391	393.81
467.61	419.81
467.829	428.81
468.049	419.81
468.268	421.81
468.488	402.81
468.707	393.81
468.927	391.81
469.146	397.81
469.365	369.81
469.585	392.81
469.804	405.81
470.023	412.81
470.243	394.81
470.462	407.81
470.681	440.81
470.901	435.81
471.12	413.81
471.339	415.81
471.558	413.81
471.777	425.81
471.997	401.81
472.216	419.81
472.435	450.81
472.654	460.81
472.873	422.81
473.092	416.81
473.311	403.81
473.53	413.81
473.749	424.81
473.968	475.81
474.187	556.81
474.406	565.81
474.625	472.81
474.844	427.81
475.063	424.81
475.282	415.81
475.501	425.81
475.72	424.81
475.939	423.81
476.158	437.81
476.377	420.81
476.596	407.81
476.814	432.81
477.033	442.81
477.252	456.81
477.471	414.81
477.69	429.81
477.908	430.81
478.127	437.81
478.346	438.81
478.564	431.81
478.783	458.81
479.002	444.81
479.22	443.81
479.439	462.81
479.658	484.81
479.876	468.81
480.095	469.81
480.313	524.81
480.532	525.81
480.751	508.81
480.969	533.81
481.188	566.81
481.406	610.81
481.624	550.81
481.843	528.81
482.061	497.81
482.28	491.81
482.498	498.81
482.717	485.81
482.935	484.81
483.153	466.81
483.372	473.81
483.59	480.81
483.808	491.81
484.027	480.81
484.245	482.81
484.463	482.81
484.681	473.81
484.9	476.81
485.118	498.81
485.336	491.81
485.554	482.81
485.772	468.81
485.99	475.81
486.209	475.81
486.427	480.81
486.645	518.81
486.863	547.81
487.081	528.81
487.299	542.81
487.517	522.81
487.735	518.81
487.953	516.81
488.171	531.81
488.389	506.81
488.607	522.81
488.825	520.81
489.043	549.81
489.261	540.81
489.479	513.81
489.696	516.81
489.914	524.81
490.132	524.81
490.35	539.81
490.568	547.81
490.786	532.81
491.003	550.81
491.221	548.81
491.439	572.81
491.657	589.81
491.874	578.81
492.092	565.81
492.31	564.81
492.527	598.81
492.745	585.81
492.963	594.81
493.18	596.81
493.398	611.81
493.615	597.81
493.833	595.81
494.05	611.81
494.268	609.81
494.485	588.81
494.703	590.81
494.92	619.81
495.138	598.81
495.355	608.81
495.573	621.81
495.79	598.81
496.008	612.81
496.225	614.81
496.442	602.81
496.66	627.81
496.877	600.81
497.094	618.81
497.312	632.81
497.529	624.81
497.746	635.81
497.963	650.81
498.181	631.81
498.398	658.81
498.615	644.81
498.832	660.81
499.049	665.81
499.267	680.81
499.484	696.81
499.701	721.81
499.918	730.81
500.135	737.81
500.352	770.81
500.569	744.81
500.786	754.81
501.003	762.81
501.22	755.81
501.437	721.81
501.654	739.81
501.871	765.81
