Data from 1961.PennyLincolnUp.Lamp.En5.5.200Scan.071719.P1._HRD10591_13-46-22-058.txt Node
Date: Thu Jul 18 13:46:22 EDT 2019
User: cochatt
Spectrometer: HR+D1059
Trigger mode: 1
Integration Time (sec): 1.000000E-1
Scans to average: 1
Electric dark correction enabled: true
Nonlinearity correction enabled: false
Boxcar width: 0
XAxis mode: Wavelengths
Number of Pixels in Spectrum: 2048
>>>>>Begin Spectral Data<<<<<
223.165	-7.06
223.4	-7.06
223.635	-7.06
223.869	-17.06
224.104	-30.06
224.338	-17.06
224.573	-27.06
224.808	-18.06
225.042	-6.06
225.277	4.94
225.511	0.94
225.746	3.94
225.98	10.94
226.215	10.94
226.449	13.94
226.683	30.94
226.918	16.94
227.152	28.94
227.387	34.94
227.621	43.94
227.856	48.94
228.09	34.94
228.324	41.94
228.559	46.94
228.793	62.94
229.027	73.94
229.262	91.94
229.496	104.94
229.73	86.94
229.964	118.94
230.199	115.94
230.433	106.94
230.667	108.94
230.901	93.94
231.136	96.94
231.37	104.94
231.604	102.94
231.838	105.94
232.072	88.94
232.306	105.94
232.541	116.94
232.775	110.94
233.009	85.94
233.243	98.94
233.477	103.94
233.711	94.94
233.945	89.94
234.179	115.94
234.413	116.94
234.647	93.94
234.881	94.94
235.115	105.94
235.349	104.94
235.583	97.94
235.817	102.94
236.051	109.94
236.285	112.94
236.519	90.94
236.753	110.94
236.987	113.94
237.221	146.94
237.455	180.94
237.689	128.94
237.922	113.94
238.156	112.94
238.39	119.94
238.624	96.94
238.858	112.94
239.091	108.94
239.325	107.94
239.559	105.94
239.793	112.94
240.027	114.94
240.26	117.94
240.494	120.94
240.728	117.94
240.961	113.94
241.195	119.94
241.429	115.94
241.662	107.94
241.896	115.94
242.13	102.94
242.363	112.94
242.597	120.94
242.83	117.94
243.064	107.94
243.298	126.94
243.531	107.94
243.765	117.94
243.998	116.94
244.232	107.94
244.465	98.94
244.699	111.94
244.932	104.94
245.166	112.94
245.399	125.94
245.633	121.94
245.866	114.94
246.099	137.94
246.333	117.94
246.566	109.94
246.8	112.94
247.033	120.94
247.266	132.94
247.5	108.94
247.733	128.94
247.966	122.94
248.2	134.94
248.433	142.94
248.666	127.94
248.899	124.94
249.133	140.94
249.366	129.94
249.599	136.94
249.832	150.94
250.066	146.94
250.299	145.94
250.532	156.94
250.765	148.94
250.998	149.94
251.231	167.94
251.465	163.94
251.698	151.94
251.931	160.94
252.164	146.94
252.397	130.94
252.63	157.94
252.863	150.94
253.096	157.94
253.329	163.94
253.562	149.94
253.795	158.94
254.028	152.94
254.261	165.94
254.494	159.94
254.727	177.94
254.96	184.94
255.193	164.94
255.426	163.94
255.659	177.94
255.892	162.94
256.124	152.94
256.357	161.94
256.59	166.94
256.823	163.94
257.056	163.94
257.289	153.94
257.521	168.94
257.754	155.94
257.987	137.94
258.22	132.94
258.452	142.94
258.685	133.94
258.918	148.94
259.151	128.94
259.383	156.94
259.616	158.94
259.849	180.94
260.081	165.94
260.314	171.94
260.547	177.94
260.779	168.94
261.012	183.94
261.244	169.94
261.477	164.94
261.71	160.94
261.942	162.94
262.175	162.94
262.407	165.94
262.64	138.94
262.872	145.94
263.105	156.94
263.337	157.94
263.57	152.94
263.802	148.94
264.035	159.94
264.267	154.94
264.499	149.94
264.732	160.94
264.964	160.94
265.197	157.94
265.429	140.94
265.661	153.94
265.894	152.94
266.126	151.94
266.358	148.94
266.591	150.94
266.823	157.94
267.055	152.94
267.287	172.94
267.52	145.94
267.752	145.94
267.984	155.94
268.216	146.94
268.448	160.94
268.681	170.94
268.913	168.94
269.145	173.94
269.377	203.94
269.609	186.94
269.841	188.94
270.073	183.94
270.306	187.94
270.538	208.94
270.77	200.94
271.002	196.94
271.234	202.94
271.466	210.94
271.698	202.94
271.93	199.94
272.162	190.94
272.394	190.94
272.626	198.94
272.858	194.94
273.09	190.94
273.322	178.94
273.553	168.94
273.785	186.94
274.017	171.94
274.249	192.94
274.481	182.94
274.713	182.94
274.945	194.94
275.176	172.94
275.408	187.94
275.64	192.94
275.872	188.94
276.104	200.94
276.335	188.94
276.567	180.94
276.799	186.94
277.031	193.94
277.262	206.94
277.494	212.94
277.726	200.94
277.957	199.94
278.189	184.94
278.421	183.94
278.652	183.94
278.884	184.94
279.115	181.94
279.347	184.94
279.579	178.94
279.81	187.94
280.042	191.94
280.273	161.94
280.505	189.94
280.736	192.94
280.968	178.94
281.199	184.94
281.431	190.94
281.662	184.94
281.894	190.94
282.125	177.94
282.356	205.94
282.588	202.94
282.819	202.94
283.051	194.94
283.282	177.94
283.513	204.94
283.745	178.94
283.976	198.94
284.207	187.94
284.439	185.94
284.67	185.94
284.901	181.94
285.132	189.94
285.364	183.94
285.595	199.94
285.826	186.94
286.057	179.94
286.288	198.94
286.52	193.94
286.751	182.94
286.982	181.94
287.213	189.94
287.444	228.94
287.675	197.94
287.906	203.94
288.138	202.94
288.369	189.94
288.6	203.94
288.831	197.94
289.062	188.94
289.293	196.94
289.524	203.94
289.755	227.94
289.986	212.94
290.217	208.94
290.448	182.94
290.679	190.94
290.91	198.94
291.141	203.94
291.371	192.94
291.602	195.94
291.833	206.94
292.064	199.94
292.295	206.94
292.526	179.94
292.757	186.94
292.987	192.94
293.218	196.94
293.449	198.94
293.68	191.94
293.91	198.94
294.141	207.94
294.372	206.94
294.603	202.94
294.833	177.94
295.064	177.94
295.295	207.94
295.525	201.94
295.756	210.94
295.987	194.94
296.217	232.94
296.448	211.94
296.679	196.94
296.909	211.94
297.14	197.94
297.37	194.94
297.601	216.94
297.831	199.94
298.062	209.94
298.292	205.94
298.523	209.94
298.753	205.94
298.984	209.94
299.214	218.94
299.445	210.94
299.675	207.94
299.905	217.94
300.136	219.94
300.366	199.94
300.597	218.94
300.827	211.94
301.057	232.94
301.288	224.94
301.518	244.94
301.748	212.94
301.979	213.94
302.209	214.94
302.439	212.94
302.669	218.94
302.9	213.94
303.13	215.94
303.36	241.94
303.59	226.94
303.82	220.94
304.051	235.94
304.281	218.94
304.511	219.94
304.741	212.94
304.971	224.94
305.201	236.94
305.431	221.94
305.661	221.94
305.891	215.94
306.121	213.94
306.352	216.94
306.582	216.94
306.812	229.94
307.042	235.94
307.272	243.94
307.502	231.94
307.731	220.94
307.961	207.94
308.191	212.94
308.421	211.94
308.651	222.94
308.881	204.94
309.111	222.94
309.341	222.94
309.571	236.94
309.8	246.94
310.03	237.94
310.26	242.94
310.49	234.94
310.72	254.94
310.949	251.94
311.179	252.94
311.409	263.94
311.639	249.94
311.868	258.94
312.098	259.94
312.328	246.94
312.557	272.94
312.787	256.94
313.017	261.94
313.246	264.94
313.476	245.94
313.706	255.94
313.935	232.94
314.165	253.94
314.394	268.94
314.624	258.94
314.853	252.94
315.083	268.94
315.312	235.94
315.542	253.94
315.771	259.94
316.001	255.94
316.23	242.94
316.46	242.94
316.689	234.94
316.919	250.94
317.148	253.94
317.377	282.94
317.607	249.94
317.836	256.94
318.065	264.94
318.295	249.94
318.524	235.94
318.753	253.94
318.983	258.94
319.212	243.94
319.441	260.94
319.67	263.94
319.9	252.94
320.129	235.94
320.358	264.94
320.587	259.94
320.816	262.94
321.046	240.94
321.275	268.94
321.504	251.94
321.733	268.94
321.962	269.94
322.191	297.94
322.42	283.94
322.649	284.94
322.878	285.94
323.108	305.94
323.337	308.94
323.566	323.94
323.795	331.94
324.024	355.94
324.253	425.94
324.482	600.94
324.71	930.94
324.939	1238.94
325.168	1076.94
325.397	591.94
325.626	410.94
325.855	341.94
326.084	346.94
326.313	324.94
326.542	334.94
326.77	329.94
326.999	410.94
327.228	556.94
327.457	810.94
327.686	955.94
327.914	648.94
328.143	460.94
328.372	408.94
328.6	365.94
328.829	352.94
329.058	367.94
329.287	365.94
329.515	354.94
329.744	350.94
329.972	326.94
330.201	335.94
330.43	342.94
330.658	380.94
330.887	370.94
331.115	379.94
331.344	339.94
331.572	308.94
331.801	321.94
332.03	314.94
332.258	309.94
332.486	300.94
332.715	281.94
332.943	310.94
333.172	302.94
333.4	314.94
333.629	300.94
333.857	305.94
334.085	300.94
334.314	296.94
334.542	361.94
334.771	341.94
334.999	329.94
335.227	328.94
335.455	315.94
335.684	293.94
335.912	292.94
336.14	290.94
336.369	285.94
336.597	281.94
336.825	298.94
337.053	300.94
337.281	294.94
337.51	285.94
337.738	289.94
337.966	279.94
338.194	301.94
338.422	288.94
338.65	273.94
338.878	298.94
339.106	301.94
339.334	290.94
339.562	289.94
339.79	291.94
340.018	276.94
340.246	274.94
340.474	270.94
340.702	291.94
340.93	304.94
341.158	291.94
341.386	286.94
341.614	286.94
341.842	280.94
342.07	282.94
342.298	273.94
342.526	264.94
342.754	290.94
342.981	301.94
343.209	290.94
343.437	284.94
343.665	288.94
343.893	314.94
344.12	288.94
344.348	293.94
344.576	286.94
344.804	278.94
345.031	316.94
345.259	280.94
345.487	294.94
345.714	291.94
345.942	288.94
346.17	290.94
346.397	291.94
346.625	271.94
346.853	282.94
347.08	274.94
347.308	277.94
347.535	289.94
347.763	287.94
347.99	266.94
348.218	292.94
348.445	285.94
348.673	288.94
348.9	279.94
349.128	274.94
349.355	254.94
349.583	267.94
349.81	284.94
350.037	284.94
350.265	272.94
350.492	282.94
350.72	256.94
350.947	264.94
351.174	279.94
351.402	296.94
351.629	280.94
351.856	274.94
352.083	298.94
352.311	304.94
352.538	292.94
352.765	283.94
352.992	299.94
353.22	275.94
353.447	266.94
353.674	266.94
353.901	265.94
354.128	251.94
354.355	271.94
354.583	278.94
354.81	268.94
355.037	253.94
355.264	265.94
355.491	276.94
355.718	256.94
355.945	279.94
356.172	257.94
356.399	267.94
356.626	265.94
356.853	269.94
357.08	266.94
357.307	266.94
357.534	266.94
357.761	277.94
357.988	261.94
358.215	262.94
358.441	258.94
358.668	266.94
358.895	265.94
359.122	261.94
359.349	260.94
359.576	265.94
359.802	292.94
360.029	295.94
360.256	309.94
360.483	294.94
360.709	288.94
360.936	298.94
361.163	288.94
361.39	298.94
361.616	295.94
361.843	287.94
362.07	268.94
362.296	280.94
362.523	276.94
362.749	286.94
362.976	284.94
363.203	292.94
363.429	280.94
363.656	285.94
363.882	278.94
364.109	281.94
364.335	267.94
364.562	282.94
364.788	264.94
365.015	288.94
365.241	294.94
365.468	298.94
365.694	281.94
365.92	275.94
366.147	278.94
366.373	277.94
366.599	282.94
366.826	280.94
367.052	266.94
367.278	264.94
367.505	278.94
367.731	282.94
367.957	273.94
368.184	268.94
368.41	291.94
368.636	275.94
368.862	288.94
369.089	281.94
369.315	289.94
369.541	272.94
369.767	260.94
369.993	256.94
370.219	265.94
370.445	284.94
370.672	292.94
370.898	260.94
371.124	278.94
371.35	275.94
371.576	267.94
371.802	269.94
372.028	271.94
372.254	278.94
372.48	276.94
372.706	267.94
372.932	265.94
373.158	263.94
373.384	267.94
373.61	285.94
373.835	284.94
374.061	275.94
374.287	284.94
374.513	277.94
374.739	286.94
374.965	280.94
375.191	280.94
375.416	280.94
375.642	282.94
375.868	287.94
376.094	274.94
376.319	275.94
376.545	286.94
376.771	289.94
376.997	274.94
377.222	280.94
377.448	277.94
377.674	276.94
377.899	286.94
378.125	274.94
378.35	281.94
378.576	269.94
378.802	277.94
379.027	282.94
379.253	275.94
379.478	292.94
379.704	281.94
379.929	278.94
380.155	269.94
380.38	270.94
380.606	279.94
380.831	299.94
381.057	289.94
381.282	292.94
381.507	268.94
381.733	267.94
381.958	279.94
382.184	273.94
382.409	286.94
382.634	281.94
382.86	282.94
383.085	278.94
383.31	283.94
383.535	290.94
383.761	289.94
383.986	297.94
384.211	284.94
384.436	294.94
384.662	290.94
384.887	305.94
385.112	299.94
385.337	310.94
385.562	312.94
385.787	296.94
386.013	319.94
386.238	297.94
386.463	309.94
386.688	305.94
386.913	304.94
387.138	305.94
387.363	288.94
387.588	312.94
387.813	317.94
388.038	311.94
388.263	307.94
388.488	300.94
388.713	317.94
388.938	299.94
389.163	316.94
389.387	290.94
389.612	304.94
389.837	309.94
390.062	305.94
390.287	312.94
390.512	286.94
390.736	291.94
390.961	293.94
391.186	296.94
391.411	297.94
391.636	304.94
391.86	311.94
392.085	322.94
392.31	300.94
392.534	312.94
392.759	327.94
392.984	308.94
393.208	298.94
393.433	329.94
393.658	324.94
393.882	302.94
394.107	304.94
394.331	319.94
394.556	315.94
394.78	287.94
395.005	303.94
395.229	308.94
395.454	310.94
395.678	312.94
395.903	328.94
396.127	345.94
396.352	317.94
396.576	327.94
396.801	320.94
397.025	316.94
397.249	336.94
397.474	315.94
397.698	318.94
397.922	351.94
398.147	342.94
398.371	348.94
398.595	323.94
398.82	320.94
399.044	336.94
399.268	335.94
399.492	361.94
399.717	373.94
399.941	408.94
400.165	410.94
400.389	397.94
400.613	375.94
400.837	362.94
401.062	357.94
401.286	350.94
401.51	330.94
401.734	354.94
401.958	349.94
402.182	349.94
402.406	354.94
402.63	343.94
402.854	335.94
403.078	328.94
403.302	342.94
403.526	354.94
403.75	330.94
403.974	375.94
404.198	373.94
404.422	355.94
404.645	370.94
404.869	352.94
405.093	386.94
405.317	412.94
405.541	432.94
405.765	388.94
405.988	368.94
406.212	362.94
406.436	367.94
406.66	389.94
406.883	376.94
407.107	406.94
407.331	418.94
407.555	450.94
407.778	447.94
408.002	429.94
408.226	408.94
408.449	393.94
408.673	371.94
408.896	387.94
409.12	438.94
409.344	393.94
409.567	354.94
409.791	370.94
410.014	372.94
410.238	370.94
410.461	362.94
410.685	368.94
410.908	365.94
411.132	390.94
411.355	391.94
411.578	383.94
411.802	373.94
412.025	365.94
412.249	352.94
412.472	379.94
412.695	396.94
412.919	395.94
413.142	374.94
413.365	358.94
413.589	351.94
413.812	352.94
414.035	349.94
414.258	328.94
414.482	325.94
414.705	353.94
414.928	349.94
415.151	343.94
415.374	340.94
415.597	333.94
415.821	317.94
416.044	350.94
416.267	353.94
416.49	334.94
416.713	344.94
416.936	339.94
417.159	352.94
417.382	364.94
417.605	343.94
417.828	355.94
418.051	336.94
418.274	368.94
418.497	344.94
418.72	343.94
418.943	332.94
419.166	358.94
419.389	348.94
419.611	370.94
419.834	346.94
420.057	364.94
420.28	354.94
420.503	349.94
420.726	357.94
420.948	343.94
421.171	382.94
421.394	387.94
421.617	340.94
421.839	359.94
422.062	338.94
422.285	357.94
422.507	381.94
422.73	425.94
422.953	421.94
423.175	386.94
423.398	360.94
423.621	365.94
423.843	370.94
424.066	374.94
424.288	372.94
424.511	390.94
424.733	410.94
424.956	452.94
425.178	457.94
425.401	428.94
425.623	438.94
425.846	402.94
426.068	363.94
426.291	385.94
426.513	386.94
426.735	383.94
426.958	424.94
427.18	460.94
427.402	550.94
427.625	597.94
427.847	515.94
428.069	448.94
428.292	408.94
428.514	386.94
428.736	374.94
428.958	347.94
429.181	359.94
429.403	355.94
429.625	356.94
429.847	381.94
430.069	403.94
430.292	421.94
430.514	367.94
430.736	358.94
430.958	342.94
431.18	346.94
431.402	345.94
431.624	356.94
431.846	334.94
432.068	344.94
432.29	325.94
432.512	340.94
432.734	346.94
432.956	338.94
433.178	338.94
433.4	356.94
433.622	341.94
433.844	358.94
434.066	327.94
434.287	334.94
434.509	342.94
434.731	355.94
434.953	354.94
435.175	369.94
435.397	375.94
435.618	371.94
435.84	405.94
436.062	473.94
436.284	506.94
436.505	412.94
436.727	392.94
436.949	361.94
437.17	349.94
437.392	346.94
437.614	368.94
437.835	375.94
438.057	422.94
438.278	501.94
438.5	504.94
438.721	564.94
438.943	515.94
439.165	418.94
439.386	380.94
439.608	388.94
439.829	380.94
440.05	407.94
440.272	440.94
440.493	404.94
440.715	389.94
440.936	346.94
441.158	361.94
441.379	361.94
441.6	372.94
441.822	384.94
442.043	393.94
442.264	457.94
442.486	481.94
442.707	412.94
442.928	377.94
443.149	404.94
443.371	400.94
443.592	430.94
443.813	490.94
444.034	518.94
444.255	454.94
444.476	400.94
444.698	386.94
444.919	384.94
445.14	520.94
445.361	443.94
445.582	420.94
445.803	418.94
446.024	509.94
446.245	532.94
446.466	480.94
446.687	406.94
446.908	369.94
447.129	345.94
447.35	359.94
447.571	347.94
447.792	366.94
448.013	357.94
448.234	377.94
448.455	414.94
448.675	473.94
448.896	565.94
449.117	467.94
449.338	451.94
449.559	501.94
449.779	558.94
450	446.94
450.221	394.94
450.442	353.94
450.662	320.94
450.883	347.94
451.104	361.94
451.324	342.94
451.545	346.94
451.766	342.94
451.986	306.94
452.207	319.94
452.428	349.94
452.648	324.94
452.869	332.94
453.089	332.94
453.31	345.94
453.53	331.94
453.751	316.94
453.971	322.94
454.192	330.94
454.412	318.94
454.633	323.94
454.853	314.94
455.073	324.94
455.294	339.94
455.514	380.94
455.734	364.94
455.955	328.94
456.175	307.94
456.395	299.94
456.616	310.94
456.836	311.94
457.056	288.94
457.276	281.94
457.497	311.94
457.717	315.94
457.937	314.94
458.157	315.94
458.377	318.94
458.598	337.94
458.818	376.94
459.038	410.94
459.258	424.94
459.478	357.94
459.698	340.94
459.918	337.94
460.138	324.94
460.358	335.94
460.578	352.94
460.798	358.94
461.018	353.94
461.238	341.94
461.458	369.94
461.678	343.94
461.898	368.94
462.118	356.94
462.338	341.94
462.558	365.94
462.777	353.94
462.997	370.94
463.217	360.94
463.437	371.94
463.657	376.94
463.876	358.94
464.096	366.94
464.316	354.94
464.536	338.94
464.755	356.94
464.975	388.94
465.195	378.94
465.414	416.94
465.634	388.94
465.854	362.94
466.073	350.94
466.293	348.94
466.512	339.94
466.732	331.94
466.951	344.94
467.171	338.94
467.391	340.94
467.61	337.94
467.829	353.94
468.049	333.94
468.268	326.94
468.488	321.94
468.707	328.94
468.927	327.94
469.146	330.94
469.365	338.94
469.585	321.94
469.804	325.94
470.023	329.94
470.243	345.94
470.462	340.94
470.681	339.94
470.901	355.94
471.12	350.94
471.339	331.94
471.558	345.94
471.777	344.94
471.997	356.94
472.216	342.94
472.435	341.94
472.654	361.94
472.873	350.94
473.092	341.94
473.311	339.94
473.53	370.94
473.749	345.94
473.968	365.94
474.187	408.94
474.406	438.94
474.625	399.94
474.844	369.94
475.063	358.94
475.282	351.94
475.501	338.94
475.72	348.94
475.939	347.94
476.158	333.94
476.377	369.94
476.596	341.94
476.814	366.94
477.033	341.94
477.252	339.94
477.471	376.94
477.69	381.94
477.908	364.94
478.127	370.94
478.346	361.94
478.564	374.94
478.783	369.94
479.002	388.94
479.22	375.94
479.439	388.94
479.658	408.94
479.876	403.94
480.095	388.94
480.313	406.94
480.532	398.94
480.751	361.94
480.969	407.94
481.188	425.94
481.406	481.94
481.624	414.94
481.843	416.94
482.061	412.94
482.28	389.94
482.498	393.94
482.717	393.94
482.935	405.94
483.153	400.94
483.372	394.94
483.59	411.94
483.808	389.94
484.027	393.94
484.245	391.94
484.463	407.94
484.681	395.94
484.9	390.94
485.118	417.94
485.336	410.94
485.554	417.94
485.772	416.94
485.99	388.94
486.209	406.94
486.427	396.94
486.645	427.94
486.863	419.94
487.081	427.94
487.299	433.94
487.517	400.94
487.735	425.94
487.953	409.94
488.171	413.94
488.389	412.94
488.607	424.94
488.825	426.94
489.043	419.94
489.261	422.94
489.479	413.94
489.696	427.94
489.914	454.94
490.132	442.94
490.35	424.94
490.568	434.94
490.786	444.94
491.003	464.94
491.221	446.94
491.439	469.94
491.657	458.94
491.874	472.94
492.092	466.94
492.31	458.94
492.527	444.94
492.745	480.94
492.963	472.94
493.18	473.94
493.398	486.94
493.615	494.94
493.833	493.94
494.05	498.94
494.268	484.94
494.485	473.94
494.703	492.94
494.92	482.94
495.138	499.94
495.355	490.94
495.573	476.94
495.79	478.94
496.008	532.94
496.225	500.94
496.442	495.94
496.66	513.94
496.877	495.94
497.094	479.94
497.312	503.94
497.529	525.94
497.746	518.94
497.963	521.94
498.181	519.94
498.398	546.94
498.615	565.94
498.832	536.94
499.049	567.94
499.267	572.94
499.484	563.94
499.701	581.94
499.918	608.94
500.135	647.94
500.352	641.94
500.569	634.94
500.786	640.94
501.003	660.94
501.22	639.94
501.437	634.94
501.654	600.94
501.871	613.94
502.088	571.94
502.305	556.94
