Data from 1961.PennyLincolnUp.Lamp.En5.5.200Scan.071719.P1._HRD10591_13-49-15-058.txt Node
Date: Thu Jul 18 13:49:15 EDT 2019
User: cochatt
Spectrometer: HR+D1059
Trigger mode: 1
Integration Time (sec): 1.000000E-1
Scans to average: 1
Electric dark correction enabled: true
Nonlinearity correction enabled: false
Boxcar width: 0
XAxis mode: Wavelengths
Number of Pixels in Spectrum: 2048
>>>>>Begin Spectral Data<<<<<
223.165	-15.25
223.4	-15.25
223.635	-15.25
223.869	-21.25
224.104	-20.25
224.338	-20.25
224.573	-17.25
224.808	-8.25
225.042	-7.25
225.277	-4.25
225.511	3.75
225.746	9.75
225.98	10.75
226.215	15.75
226.449	12.75
226.683	25.75
226.918	10.75
227.152	24.75
227.387	35.75
227.621	34.75
227.856	46.75
228.09	36.75
228.324	43.75
228.559	47.75
228.793	77.75
229.027	83.75
229.262	103.75
229.496	110.75
229.73	129.75
229.964	130.75
230.199	124.75
230.433	116.75
230.667	112.75
230.901	117.75
231.136	102.75
231.37	101.75
231.604	104.75
231.838	119.75
232.072	100.75
232.306	95.75
232.541	104.75
232.775	103.75
233.009	100.75
233.243	101.75
233.477	116.75
233.711	107.75
233.945	104.75
234.179	114.75
234.413	106.75
234.647	112.75
234.881	96.75
235.115	96.75
235.349	120.75
235.583	105.75
235.817	103.75
236.051	123.75
236.285	106.75
236.519	111.75
236.753	133.75
236.987	133.75
237.221	164.75
237.455	207.75
237.689	179.75
237.922	127.75
238.156	135.75
238.39	130.75
238.624	121.75
238.858	122.75
239.091	125.75
239.325	129.75
239.559	122.75
239.793	113.75
240.027	145.75
240.26	130.75
240.494	145.75
240.728	135.75
240.961	134.75
241.195	132.75
241.429	120.75
241.662	115.75
241.896	126.75
242.13	117.75
242.363	124.75
242.597	120.75
242.83	124.75
243.064	109.75
243.298	110.75
243.531	117.75
243.765	131.75
243.998	134.75
244.232	140.75
244.465	124.75
244.699	127.75
244.932	125.75
245.166	121.75
245.399	134.75
245.633	122.75
245.866	131.75
246.099	131.75
246.333	123.75
246.566	136.75
246.8	120.75
247.033	130.75
247.266	147.75
247.5	143.75
247.733	138.75
247.966	142.75
248.2	164.75
248.433	127.75
248.666	143.75
248.899	167.75
249.133	171.75
249.366	179.75
249.599	178.75
249.832	165.75
250.066	166.75
250.299	154.75
250.532	167.75
250.765	175.75
250.998	188.75
251.231	198.75
251.465	185.75
251.698	190.75
251.931	180.75
252.164	169.75
252.397	171.75
252.63	164.75
252.863	169.75
253.096	194.75
253.329	191.75
253.562	190.75
253.795	192.75
254.028	182.75
254.261	182.75
254.494	214.75
254.727	229.75
254.96	262.75
255.193	238.75
255.426	220.75
255.659	220.75
255.892	214.75
256.124	227.75
256.357	216.75
256.59	196.75
256.823	190.75
257.056	187.75
257.289	190.75
257.521	186.75
257.754	178.75
257.987	184.75
258.22	192.75
258.452	196.75
258.685	185.75
258.918	192.75
259.151	167.75
259.383	175.75
259.616	197.75
259.849	185.75
260.081	206.75
260.314	220.75
260.547	215.75
260.779	207.75
261.012	200.75
261.244	192.75
261.477	193.75
261.71	186.75
261.942	200.75
262.175	203.75
262.407	205.75
262.64	199.75
262.872	191.75
263.105	177.75
263.337	177.75
263.57	169.75
263.802	172.75
264.035	192.75
264.267	185.75
264.499	178.75
264.732	185.75
264.964	189.75
265.197	166.75
265.429	193.75
265.661	192.75
265.894	176.75
266.126	176.75
266.358	202.75
266.591	184.75
266.823	191.75
267.055	193.75
267.287	181.75
267.52	193.75
267.752	191.75
267.984	211.75
268.216	202.75
268.448	186.75
268.681	204.75
268.913	203.75
269.145	222.75
269.377	238.75
269.609	234.75
269.841	231.75
270.073	233.75
270.306	255.75
270.538	265.75
270.77	259.75
271.002	252.75
271.234	227.75
271.466	246.75
271.698	262.75
271.93	268.75
272.162	268.75
272.394	260.75
272.626	261.75
272.858	263.75
273.09	235.75
273.322	235.75
273.553	243.75
273.785	236.75
274.017	210.75
274.249	215.75
274.481	228.75
274.713	236.75
274.945	233.75
275.176	211.75
275.408	235.75
275.64	235.75
275.872	233.75
276.104	226.75
276.335	232.75
276.567	224.75
276.799	244.75
277.031	264.75
277.262	263.75
277.494	279.75
277.726	278.75
277.957	243.75
278.189	244.75
278.421	245.75
278.652	238.75
278.884	224.75
279.115	238.75
279.347	205.75
279.579	239.75
279.81	222.75
280.042	232.75
280.273	227.75
280.505	219.75
280.736	223.75
280.968	238.75
281.199	225.75
281.431	213.75
281.662	211.75
281.894	217.75
282.125	226.75
282.356	229.75
282.588	251.75
282.819	268.75
283.051	242.75
283.282	210.75
283.513	227.75
283.745	218.75
283.976	219.75
284.207	241.75
284.439	232.75
284.67	234.75
284.901	225.75
285.132	218.75
285.364	231.75
285.595	234.75
285.826	233.75
286.057	235.75
286.288	239.75
286.52	231.75
286.751	225.75
286.982	225.75
287.213	227.75
287.444	233.75
287.675	238.75
287.906	231.75
288.138	248.75
288.369	262.75
288.6	250.75
288.831	241.75
289.062	244.75
289.293	235.75
289.524	240.75
289.755	236.75
289.986	230.75
290.217	249.75
290.448	226.75
290.679	234.75
290.91	253.75
291.141	225.75
291.371	217.75
291.602	231.75
291.833	228.75
292.064	246.75
292.295	229.75
292.526	243.75
292.757	235.75
292.987	232.75
293.218	224.75
293.449	259.75
293.68	246.75
293.91	230.75
294.141	233.75
294.372	241.75
294.603	227.75
294.833	240.75
295.064	235.75
295.295	235.75
295.525	242.75
295.756	238.75
295.987	258.75
296.217	266.75
296.448	272.75
296.679	254.75
296.909	242.75
297.14	241.75
297.37	253.75
297.601	255.75
297.831	250.75
298.062	250.75
298.292	257.75
298.523	240.75
298.753	241.75
298.984	267.75
299.214	263.75
299.445	232.75
299.675	238.75
299.905	268.75
300.136	278.75
300.366	254.75
300.597	244.75
300.827	256.75
301.057	271.75
301.288	274.75
301.518	278.75
301.748	243.75
301.979	276.75
302.209	268.75
302.439	262.75
302.669	279.75
302.9	258.75
303.13	254.75
303.36	286.75
303.59	285.75
303.82	267.75
304.051	282.75
304.281	267.75
304.511	267.75
304.741	267.75
304.971	267.75
305.201	278.75
305.431	271.75
305.661	257.75
305.891	272.75
306.121	286.75
306.352	273.75
306.582	277.75
306.812	263.75
307.042	281.75
307.272	286.75
307.502	271.75
307.731	258.75
307.961	278.75
308.191	277.75
308.421	276.75
308.651	274.75
308.881	286.75
309.111	288.75
309.341	269.75
309.571	304.75
309.8	289.75
310.03	322.75
310.26	317.75
310.49	326.75
310.72	336.75
310.949	349.75
311.179	343.75
311.409	332.75
311.639	314.75
311.868	307.75
312.098	316.75
312.328	316.75
312.557	369.75
312.787	354.75
313.017	372.75
313.246	350.75
313.476	325.75
313.706	316.75
313.935	325.75
314.165	343.75
314.394	318.75
314.624	338.75
314.853	332.75
315.083	324.75
315.312	349.75
315.542	308.75
315.771	294.75
316.001	302.75
316.23	302.75
316.46	312.75
316.689	327.75
316.919	329.75
317.148	335.75
317.377	350.75
317.607	312.75
317.836	337.75
318.065	320.75
318.295	315.75
318.524	322.75
318.753	302.75
318.983	330.75
319.212	318.75
319.441	321.75
319.67	338.75
319.9	318.75
320.129	318.75
320.358	326.75
320.587	324.75
320.816	354.75
321.046	374.75
321.275	345.75
321.504	343.75
321.733	339.75
321.962	351.75
322.191	364.75
322.42	382.75
322.649	372.75
322.878	420.75
323.108	428.75
323.337	455.75
323.566	479.75
323.795	516.75
324.024	560.75
324.253	721.75
324.482	1098.75
324.71	1687.75
324.939	2310.75
325.168	1956.75
325.397	1003.75
325.626	666.75
325.855	544.75
326.084	481.75
326.313	476.75
326.542	490.75
326.77	550.75
326.999	646.75
327.228	942.75
327.457	1451.75
327.686	1664.75
327.914	1086.75
328.143	718.75
328.372	632.75
328.6	571.75
328.829	558.75
329.058	547.75
329.287	545.75
329.515	523.75
329.744	475.75
329.972	503.75
330.201	504.75
330.43	552.75
330.658	581.75
330.887	589.75
331.115	551.75
331.344	471.75
331.572	444.75
331.801	431.75
332.03	417.75
332.258	400.75
332.486	393.75
332.715	388.75
332.943	397.75
333.172	386.75
333.4	390.75
333.629	396.75
333.857	419.75
334.085	417.75
334.314	448.75
334.542	489.75
334.771	491.75
334.999	435.75
335.227	406.75
335.455	402.75
335.684	393.75
335.912	368.75
336.14	375.75
336.369	381.75
336.597	383.75
336.825	392.75
337.053	381.75
337.281	394.75
337.51	378.75
337.738	374.75
337.966	373.75
338.194	387.75
338.422	375.75
338.65	362.75
338.878	350.75
339.106	343.75
339.334	356.75
339.562	350.75
339.79	355.75
340.018	367.75
340.246	351.75
340.474	374.75
340.702	374.75
340.93	361.75
341.158	362.75
341.386	357.75
341.614	360.75
341.842	361.75
342.07	347.75
342.298	356.75
342.526	346.75
342.754	345.75
342.981	331.75
343.209	347.75
343.437	353.75
343.665	352.75
343.893	352.75
344.12	367.75
344.348	353.75
344.576	362.75
344.804	379.75
345.031	375.75
345.259	389.75
345.487	362.75
345.714	382.75
345.942	353.75
346.17	351.75
346.397	359.75
346.625	351.75
346.853	343.75
347.08	353.75
347.308	361.75
347.535	351.75
347.763	368.75
347.99	367.75
348.218	363.75
348.445	381.75
348.673	386.75
348.9	358.75
349.128	352.75
349.355	353.75
349.583	329.75
349.81	359.75
350.037	326.75
350.265	337.75
350.492	337.75
350.72	341.75
350.947	350.75
351.174	359.75
351.402	362.75
351.629	366.75
351.856	345.75
352.083	356.75
352.311	384.75
352.538	382.75
352.765	388.75
352.992	374.75
353.22	360.75
353.447	355.75
353.674	358.75
353.901	318.75
354.128	345.75
354.355	318.75
354.583	338.75
354.81	333.75
355.037	341.75
355.264	336.75
355.491	330.75
355.718	329.75
355.945	326.75
356.172	319.75
356.399	319.75
356.626	322.75
356.853	334.75
357.08	305.75
357.307	311.75
357.534	316.75
357.761	325.75
357.988	324.75
358.215	322.75
358.441	318.75
358.668	334.75
358.895	312.75
359.122	337.75
359.349	343.75
359.576	361.75
359.802	379.75
360.029	403.75
360.256	427.75
360.483	406.75
360.709	352.75
360.936	348.75
361.163	354.75
361.39	361.75
361.616	363.75
361.843	355.75
362.07	352.75
362.296	348.75
362.523	335.75
362.749	350.75
362.976	363.75
363.203	325.75
363.429	333.75
363.656	343.75
363.882	329.75
364.109	352.75
364.335	321.75
364.562	322.75
364.788	332.75
365.015	324.75
365.241	346.75
365.468	341.75
365.694	345.75
365.92	323.75
366.147	334.75
366.373	334.75
366.599	330.75
366.826	325.75
367.052	319.75
367.278	315.75
367.505	311.75
367.731	324.75
367.957	325.75
368.184	348.75
368.41	315.75
368.636	342.75
368.862	329.75
369.089	347.75
369.315	331.75
369.541	340.75
369.767	320.75
369.993	318.75
370.219	340.75
370.445	316.75
370.672	332.75
370.898	331.75
371.124	318.75
371.35	322.75
371.576	306.75
371.802	323.75
372.028	328.75
372.254	314.75
372.48	291.75
372.706	325.75
372.932	331.75
373.158	323.75
373.384	329.75
373.61	342.75
373.835	330.75
374.061	325.75
374.287	326.75
374.513	342.75
374.739	314.75
374.965	331.75
375.191	328.75
375.416	343.75
375.642	342.75
375.868	324.75
376.094	320.75
376.319	324.75
376.545	327.75
376.771	332.75
376.997	322.75
377.222	330.75
377.448	314.75
377.674	312.75
377.899	324.75
378.125	324.75
378.35	326.75
378.576	297.75
378.802	317.75
379.027	305.75
379.253	314.75
379.478	324.75
379.704	332.75
379.929	318.75
380.155	336.75
380.38	337.75
380.606	329.75
380.831	336.75
381.057	330.75
381.282	316.75
381.507	331.75
381.733	331.75
381.958	322.75
382.184	340.75
382.409	332.75
382.634	351.75
382.86	331.75
383.085	348.75
383.31	331.75
383.535	318.75
383.761	347.75
383.986	314.75
384.211	332.75
384.436	331.75
384.662	345.75
384.887	328.75
385.112	342.75
385.337	313.75
385.562	328.75
385.787	348.75
386.013	336.75
386.238	335.75
386.463	338.75
386.688	361.75
386.913	330.75
387.138	347.75
387.363	361.75
387.588	356.75
387.813	354.75
388.038	341.75
388.263	361.75
388.488	356.75
388.713	351.75
388.938	344.75
389.163	358.75
389.387	353.75
389.612	348.75
389.837	340.75
390.062	346.75
390.287	361.75
390.512	328.75
390.736	345.75
390.961	332.75
391.186	344.75
391.411	319.75
391.636	355.75
391.86	340.75
392.085	376.75
392.31	352.75
392.534	339.75
392.759	354.75
392.984	346.75
393.208	349.75
393.433	337.75
393.658	341.75
393.882	331.75
394.107	347.75
394.331	350.75
394.556	346.75
394.78	370.75
395.005	356.75
395.229	372.75
395.454	366.75
395.678	357.75
395.903	378.75
396.127	379.75
396.352	381.75
396.576	377.75
396.801	362.75
397.025	362.75
397.249	373.75
397.474	362.75
397.698	379.75
397.922	376.75
398.147	384.75
398.371	396.75
398.595	382.75
398.82	389.75
399.044	395.75
399.268	395.75
399.492	422.75
399.717	419.75
399.941	438.75
400.165	481.75
400.389	478.75
400.613	454.75
400.837	424.75
401.062	404.75
401.286	407.75
401.51	394.75
401.734	382.75
401.958	407.75
402.182	418.75
402.406	402.75
402.63	414.75
402.854	414.75
403.078	395.75
403.302	411.75
403.526	406.75
403.75	418.75
403.974	426.75
404.198	398.75
404.422	428.75
404.645	436.75
404.869	426.75
405.093	470.75
405.317	485.75
405.541	497.75
405.765	452.75
405.988	449.75
406.212	448.75
406.436	469.75
406.66	464.75
406.883	462.75
407.107	468.75
407.331	532.75
407.555	576.75
407.778	545.75
408.002	518.75
408.226	472.75
408.449	466.75
408.673	466.75
408.896	493.75
409.12	500.75
409.344	486.75
409.567	438.75
409.791	417.75
410.014	410.75
410.238	412.75
410.461	419.75
410.685	428.75
410.908	422.75
411.132	459.75
411.355	492.75
411.578	474.75
411.802	443.75
412.025	402.75
412.249	439.75
412.472	462.75
412.695	467.75
412.919	494.75
413.142	427.75
413.365	414.75
413.589	416.75
413.812	419.75
414.035	408.75
414.258	392.75
414.482	397.75
414.705	392.75
414.928	370.75
415.151	398.75
415.374	385.75
415.597	390.75
415.821	388.75
416.044	391.75
416.267	375.75
416.49	379.75
416.713	403.75
416.936	404.75
417.159	386.75
417.382	407.75
417.605	412.75
417.828	388.75
418.051	439.75
418.274	404.75
418.497	392.75
418.72	377.75
418.943	374.75
419.166	390.75
419.389	418.75
419.611	394.75
419.834	420.75
420.057	408.75
420.28	406.75
420.503	425.75
420.726	402.75
420.948	443.75
421.171	482.75
421.394	475.75
421.617	424.75
421.839	430.75
422.062	406.75
422.285	424.75
422.507	494.75
422.73	537.75
422.953	520.75
423.175	471.75
423.398	446.75
423.621	425.75
423.843	457.75
424.066	457.75
424.288	466.75
424.511	489.75
424.733	541.75
424.956	586.75
425.178	589.75
425.401	558.75
425.623	581.75
425.846	505.75
426.068	458.75
426.291	448.75
426.513	452.75
426.735	459.75
426.958	491.75
427.18	583.75
427.402	698.75
427.625	771.75
427.847	666.75
428.069	594.75
428.292	539.75
428.514	490.75
428.736	444.75
428.958	437.75
429.181	432.75
429.403	450.75
429.625	436.75
429.847	481.75
430.069	525.75
430.292	516.75
430.514	432.75
430.736	426.75
430.958	434.75
431.18	424.75
431.402	405.75
431.624	402.75
431.846	389.75
432.068	409.75
432.29	394.75
432.512	411.75
432.734	403.75
432.956	411.75
433.178	413.75
433.4	427.75
433.622	397.75
433.844	406.75
434.066	389.75
434.287	395.75
434.509	402.75
434.731	386.75
434.953	406.75
435.175	423.75
435.397	462.75
435.618	468.75
435.84	506.75
436.062	581.75
436.284	638.75
436.505	547.75
436.727	499.75
436.949	467.75
437.17	450.75
437.392	434.75
437.614	450.75
437.835	491.75
438.057	555.75
438.278	687.75
438.5	640.75
438.721	708.75
438.943	669.75
439.165	547.75
439.386	508.75
439.608	487.75
439.829	500.75
440.05	528.75
440.272	572.75
440.493	512.75
440.715	440.75
440.936	455.75
441.158	450.75
441.379	454.75
441.6	455.75
441.822	471.75
442.043	499.75
442.264	581.75
442.486	614.75
442.707	535.75
442.928	478.75
443.149	498.75
443.371	516.75
443.592	546.75
443.813	620.75
444.034	667.75
444.255	542.75
444.476	472.75
444.698	454.75
444.919	456.75
445.14	536.75
445.361	520.75
445.582	530.75
445.803	588.75
446.024	654.75
446.245	680.75
446.466	632.75
446.687	521.75
446.908	488.75
447.129	446.75
447.35	434.75
447.571	426.75
447.792	426.75
448.013	430.75
448.234	453.75
448.455	501.75
448.675	606.75
448.896	686.75
449.117	596.75
449.338	558.75
449.559	659.75
449.779	724.75
450	600.75
450.221	497.75
450.442	424.75
450.662	411.75
450.883	442.75
451.104	457.75
451.324	439.75
451.545	431.75
451.766	403.75
451.986	375.75
452.207	379.75
452.428	383.75
452.648	381.75
452.869	410.75
453.089	413.75
453.31	422.75
453.53	398.75
453.751	398.75
453.971	414.75
454.192	426.75
454.412	403.75
454.633	392.75
454.853	395.75
455.073	411.75
455.294	424.75
455.514	475.75
455.734	460.75
455.955	398.75
456.175	366.75
456.395	377.75
456.616	355.75
456.836	376.75
457.056	341.75
457.276	362.75
457.497	375.75
457.717	378.75
457.937	353.75
458.157	372.75
458.377	378.75
458.598	395.75
458.818	469.75
459.038	563.75
459.258	555.75
459.478	475.75
459.698	412.75
459.918	406.75
460.138	414.75
460.358	389.75
460.578	385.75
460.798	387.75
461.018	399.75
461.238	406.75
461.458	385.75
461.678	406.75
461.898	393.75
462.118	390.75
462.338	410.75
462.558	407.75
462.777	408.75
462.997	414.75
463.217	411.75
463.437	425.75
463.657	418.75
463.876	422.75
464.096	411.75
464.316	422.75
464.536	417.75
464.755	412.75
464.975	428.75
465.195	514.75
465.414	560.75
465.634	519.75
465.854	432.75
466.073	405.75
466.293	404.75
466.512	398.75
466.732	386.75
466.951	382.75
467.171	393.75
467.391	426.75
467.61	408.75
467.829	443.75
468.049	432.75
468.268	404.75
468.488	392.75
468.707	374.75
468.927	375.75
469.146	371.75
469.365	386.75
469.585	385.75
469.804	370.75
470.023	418.75
470.243	402.75
470.462	419.75
470.681	419.75
470.901	408.75
471.12	390.75
471.339	396.75
471.558	400.75
471.777	382.75
471.997	402.75
472.216	418.75
472.435	453.75
472.654	449.75
472.873	419.75
473.092	419.75
473.311	415.75
473.53	396.75
473.749	417.75
473.968	462.75
474.187	549.75
474.406	578.75
474.625	477.75
474.844	436.75
475.063	408.75
475.282	415.75
475.501	396.75
475.72	401.75
475.939	414.75
476.158	426.75
476.377	402.75
476.596	404.75
476.814	434.75
477.033	427.75
477.252	427.75
477.471	425.75
477.69	422.75
477.908	426.75
478.127	430.75
478.346	421.75
478.564	446.75
478.783	429.75
479.002	464.75
479.22	453.75
479.439	458.75
479.658	509.75
479.876	457.75
480.095	485.75
480.313	528.75
480.532	494.75
480.751	486.75
480.969	511.75
481.188	582.75
481.406	610.75
481.624	538.75
481.843	511.75
482.061	485.75
482.28	471.75
482.498	483.75
482.717	450.75
482.935	483.75
483.153	478.75
483.372	474.75
483.59	468.75
483.808	464.75
484.027	479.75
484.245	496.75
484.463	486.75
484.681	485.75
484.9	477.75
485.118	487.75
485.336	478.75
485.554	504.75
485.772	479.75
485.99	498.75
486.209	473.75
486.427	479.75
486.645	498.75
486.863	518.75
487.081	543.75
487.299	518.75
487.517	510.75
487.735	510.75
487.953	498.75
488.171	513.75
488.389	515.75
488.607	490.75
488.825	491.75
489.043	524.75
489.261	524.75
489.479	533.75
489.696	505.75
489.914	534.75
490.132	527.75
490.35	523.75
490.568	533.75
490.786	514.75
491.003	537.75
491.221	565.75
491.439	567.75
491.657	553.75
491.874	574.75
492.092	555.75
492.31	560.75
492.527	592.75
492.745	591.75
492.963	585.75
493.18	566.75
493.398	574.75
493.615	601.75
493.833	600.75
494.05	607.75
494.268	589.75
494.485	583.75
494.703	606.75
494.92	589.75
495.138	618.75
495.355	602.75
495.573	619.75
495.79	591.75
496.008	600.75
496.225	601.75
496.442	615.75
496.66	609.75
496.877	608.75
497.094	604.75
497.312	603.75
497.529	598.75
497.746	608.75
497.963	629.75
498.181	642.75
498.398	635.75
498.615	662.75
498.832	636.75
499.049	647.75
499.267	678.75
499.484	691.75
499.701	684.75
499.918	743.75
500.135	743.75
500.352	743.75
500.569	753.75
500.786	747.75
501.003	763.75
501.22	736.75
501.437	696.75
501.654	702.75
501.871	752.75
