Data from 1961.PennyLincolnUp.Lamp.En5.5.200Scan.071719.P1._HRD10591_13-49-23-058.txt Node
Date: Thu Jul 18 13:49:23 EDT 2019
User: cochatt
Spectrometer: HR+D1059
Trigger mode: 1
Integration Time (sec): 1.000000E-1
Scans to average: 1
Electric dark correction enabled: true
Nonlinearity correction enabled: false
Boxcar width: 0
XAxis mode: Wavelengths
Number of Pixels in Spectrum: 2048
>>>>>Begin Spectral Data<<<<<
223.165	-12.75
223.4	-12.75
223.635	-12.75
223.869	-10.75
224.104	-15.75
224.338	-12.75
224.573	-13.75
224.808	-9.75
225.042	-4.75
225.277	-16.75
225.511	0.25
225.746	0.25
225.98	-1.75
226.215	7.25
226.449	10.25
226.683	32.25
226.918	28.25
227.152	20.25
227.387	53.25
227.621	49.25
227.856	36.25
228.09	43.25
228.324	51.25
228.559	53.25
228.793	68.25
229.027	103.25
229.262	87.25
229.496	123.25
229.73	120.25
229.964	136.25
230.199	121.25
230.433	100.25
230.667	113.25
230.901	118.25
231.136	115.25
231.37	92.25
231.604	97.25
231.838	112.25
232.072	121.25
232.306	115.25
232.541	104.25
232.775	119.25
233.009	108.25
233.243	113.25
233.477	101.25
233.711	119.25
233.945	105.25
234.179	117.25
234.413	117.25
234.647	107.25
234.881	105.25
235.115	123.25
235.349	114.25
235.583	108.25
235.817	111.25
236.051	126.25
236.285	116.25
236.519	125.25
236.753	125.25
236.987	129.25
237.221	173.25
237.455	210.25
237.689	177.25
237.922	135.25
238.156	134.25
238.39	113.25
238.624	116.25
238.858	126.25
239.091	115.25
239.325	107.25
239.559	139.25
239.793	125.25
240.027	114.25
240.26	140.25
240.494	148.25
240.728	141.25
240.961	125.25
241.195	128.25
241.429	137.25
241.662	122.25
241.896	126.25
242.13	118.25
242.363	123.25
242.597	102.25
242.83	139.25
243.064	129.25
243.298	119.25
243.531	124.25
243.765	145.25
243.998	133.25
244.232	121.25
244.465	138.25
244.699	127.25
244.932	129.25
245.166	128.25
245.399	133.25
245.633	129.25
245.866	130.25
246.099	129.25
246.333	145.25
246.566	125.25
246.8	140.25
247.033	136.25
247.266	144.25
247.5	149.25
247.733	145.25
247.966	146.25
248.2	166.25
248.433	156.25
248.666	169.25
248.899	170.25
249.133	198.25
249.366	188.25
249.599	191.25
249.832	165.25
250.066	160.25
250.299	143.25
250.532	170.25
250.765	188.25
250.998	182.25
251.231	211.25
251.465	170.25
251.698	177.25
251.931	184.25
252.164	164.25
252.397	170.25
252.63	175.25
252.863	180.25
253.096	200.25
253.329	200.25
253.562	193.25
253.795	200.25
254.028	195.25
254.261	192.25
254.494	215.25
254.727	220.25
254.96	243.25
255.193	240.25
255.426	230.25
255.659	210.25
255.892	208.25
256.124	199.25
256.357	218.25
256.59	199.25
256.823	193.25
257.056	194.25
257.289	188.25
257.521	183.25
257.754	178.25
257.987	170.25
258.22	189.25
258.452	206.25
258.685	187.25
258.918	188.25
259.151	192.25
259.383	183.25
259.616	180.25
259.849	207.25
260.081	196.25
260.314	203.25
260.547	226.25
260.779	199.25
261.012	209.25
261.244	209.25
261.477	206.25
261.71	184.25
261.942	217.25
262.175	199.25
262.407	221.25
262.64	185.25
262.872	205.25
263.105	173.25
263.337	199.25
263.57	186.25
263.802	178.25
264.035	180.25
264.267	185.25
264.499	193.25
264.732	187.25
264.964	193.25
265.197	192.25
265.429	202.25
265.661	179.25
265.894	164.25
266.126	177.25
266.358	176.25
266.591	172.25
266.823	191.25
267.055	201.25
267.287	197.25
267.52	177.25
267.752	202.25
267.984	185.25
268.216	178.25
268.448	208.25
268.681	211.25
268.913	202.25
269.145	213.25
269.377	240.25
269.609	219.25
269.841	243.25
270.073	225.25
270.306	238.25
270.538	278.25
270.77	281.25
271.002	246.25
271.234	252.25
271.466	248.25
271.698	283.25
271.93	263.25
272.162	288.25
272.394	275.25
272.626	264.25
272.858	255.25
273.09	237.25
273.322	232.25
273.553	235.25
273.785	232.25
274.017	215.25
274.249	209.25
274.481	228.25
274.713	234.25
274.945	242.25
275.176	220.25
275.408	213.25
275.64	233.25
275.872	223.25
276.104	224.25
276.335	212.25
276.567	234.25
276.799	264.25
277.031	281.25
277.262	276.25
277.494	276.25
277.726	262.25
277.957	257.25
278.189	255.25
278.421	231.25
278.652	229.25
278.884	248.25
279.115	223.25
279.347	216.25
279.579	241.25
279.81	212.25
280.042	209.25
280.273	238.25
280.505	210.25
280.736	229.25
280.968	205.25
281.199	229.25
281.431	218.25
281.662	222.25
281.894	207.25
282.125	221.25
282.356	265.25
282.588	251.25
282.819	265.25
283.051	244.25
283.282	239.25
283.513	231.25
283.745	240.25
283.976	251.25
284.207	243.25
284.439	239.25
284.67	229.25
284.901	219.25
285.132	212.25
285.364	236.25
285.595	226.25
285.826	229.25
286.057	234.25
286.288	225.25
286.52	244.25
286.751	234.25
286.982	224.25
287.213	224.25
287.444	236.25
287.675	232.25
287.906	254.25
288.138	250.25
288.369	243.25
288.6	249.25
288.831	245.25
289.062	246.25
289.293	251.25
289.524	226.25
289.755	239.25
289.986	239.25
290.217	245.25
290.448	235.25
290.679	251.25
290.91	244.25
291.141	234.25
291.371	240.25
291.602	240.25
291.833	226.25
292.064	257.25
292.295	232.25
292.526	245.25
292.757	225.25
292.987	245.25
293.218	245.25
293.449	242.25
293.68	245.25
293.91	236.25
294.141	241.25
294.372	230.25
294.603	239.25
294.833	228.25
295.064	249.25
295.295	245.25
295.525	250.25
295.756	250.25
295.987	264.25
296.217	287.25
296.448	289.25
296.679	260.25
296.909	236.25
297.14	257.25
297.37	243.25
297.601	252.25
297.831	247.25
298.062	236.25
298.292	241.25
298.523	247.25
298.753	244.25
298.984	249.25
299.214	261.25
299.445	256.25
299.675	251.25
299.905	258.25
300.136	267.25
300.366	261.25
300.597	247.25
300.827	255.25
301.057	262.25
301.288	279.25
301.518	267.25
301.748	260.25
301.979	279.25
302.209	261.25
302.439	274.25
302.669	263.25
302.9	265.25
303.13	270.25
303.36	259.25
303.59	285.25
303.82	284.25
304.051	295.25
304.281	267.25
304.511	269.25
304.741	283.25
304.971	264.25
305.201	277.25
305.431	265.25
305.661	273.25
305.891	277.25
306.121	275.25
306.352	279.25
306.582	303.25
306.812	290.25
307.042	293.25
307.272	267.25
307.502	264.25
307.731	284.25
307.961	270.25
308.191	295.25
308.421	278.25
308.651	287.25
308.881	285.25
309.111	288.25
309.341	315.25
309.571	305.25
309.8	304.25
310.03	330.25
310.26	328.25
310.49	320.25
310.72	331.25
310.949	359.25
311.179	353.25
311.409	305.25
311.639	355.25
311.868	334.25
312.098	328.25
312.328	350.25
312.557	356.25
312.787	358.25
313.017	366.25
313.246	328.25
313.476	335.25
313.706	332.25
313.935	322.25
314.165	330.25
314.394	352.25
314.624	358.25
314.853	354.25
315.083	333.25
315.312	316.25
315.542	311.25
315.771	307.25
316.001	321.25
316.23	327.25
316.46	324.25
316.689	318.25
316.919	331.25
317.148	326.25
317.377	345.25
317.607	321.25
317.836	314.25
318.065	319.25
318.295	329.25
318.524	327.25
318.753	305.25
318.983	316.25
319.212	322.25
319.441	337.25
319.67	345.25
319.9	328.25
320.129	327.25
320.358	341.25
320.587	322.25
320.816	340.25
321.046	353.25
321.275	354.25
321.504	377.25
321.733	377.25
321.962	368.25
322.191	374.25
322.42	392.25
322.649	390.25
322.878	413.25
323.108	389.25
323.337	457.25
323.566	471.25
323.795	497.25
324.024	568.25
324.253	713.25
324.482	1084.25
324.71	1673.25
324.939	2355.25
325.168	1951.25
325.397	988.25
325.626	657.25
325.855	559.25
326.084	502.25
326.313	472.25
326.542	497.25
326.77	546.25
326.999	667.25
327.228	898.25
327.457	1452.25
327.686	1658.25
327.914	1102.25
328.143	705.25
328.372	623.25
328.6	578.25
328.829	564.25
329.058	552.25
329.287	565.25
329.515	543.25
329.744	472.25
329.972	505.25
330.201	514.25
330.43	546.25
330.658	580.25
330.887	596.25
331.115	573.25
331.344	497.25
331.572	459.25
331.801	458.25
332.03	442.25
332.258	416.25
332.486	404.25
332.715	403.25
332.943	396.25
333.172	389.25
333.4	407.25
333.629	393.25
333.857	412.25
334.085	415.25
334.314	465.25
334.542	477.25
334.771	496.25
334.999	433.25
335.227	397.25
335.455	405.25
335.684	403.25
335.912	384.25
336.14	384.25
336.369	376.25
336.597	386.25
336.825	390.25
337.053	383.25
337.281	367.25
337.51	368.25
337.738	375.25
337.966	371.25
338.194	380.25
338.422	373.25
338.65	362.25
338.878	344.25
339.106	354.25
339.334	356.25
339.562	361.25
339.79	348.25
340.018	364.25
340.246	374.25
340.474	357.25
340.702	364.25
340.93	358.25
341.158	371.25
341.386	376.25
341.614	361.25
341.842	380.25
342.07	352.25
342.298	368.25
342.526	354.25
342.754	337.25
342.981	343.25
343.209	345.25
343.437	357.25
343.665	353.25
343.893	363.25
344.12	337.25
344.348	329.25
344.576	360.25
344.804	384.25
345.031	381.25
345.259	387.25
345.487	387.25
345.714	365.25
345.942	370.25
346.17	369.25
346.397	347.25
346.625	358.25
346.853	343.25
347.08	372.25
347.308	369.25
347.535	371.25
347.763	358.25
347.99	391.25
348.218	361.25
348.445	375.25
348.673	367.25
348.9	377.25
349.128	358.25
349.355	339.25
349.583	344.25
349.81	331.25
350.037	326.25
350.265	351.25
350.492	337.25
350.72	345.25
350.947	340.25
351.174	378.25
351.402	378.25
351.629	362.25
351.856	367.25
352.083	375.25
352.311	389.25
352.538	365.25
352.765	359.25
352.992	353.25
353.22	375.25
353.447	360.25
353.674	351.25
353.901	333.25
354.128	328.25
354.355	329.25
354.583	324.25
354.81	317.25
355.037	328.25
355.264	330.25
355.491	321.25
355.718	323.25
355.945	322.25
356.172	328.25
356.399	313.25
356.626	313.25
356.853	334.25
357.08	337.25
357.307	323.25
357.534	323.25
357.761	335.25
357.988	326.25
358.215	325.25
358.441	333.25
358.668	339.25
358.895	327.25
359.122	337.25
359.349	344.25
359.576	376.25
359.802	372.25
360.029	418.25
360.256	418.25
360.483	416.25
360.709	377.25
360.936	352.25
361.163	351.25
361.39	358.25
361.616	363.25
361.843	337.25
362.07	357.25
362.296	362.25
362.523	349.25
362.749	366.25
362.976	364.25
363.203	365.25
363.429	354.25
363.656	346.25
363.882	340.25
364.109	332.25
364.335	332.25
364.562	329.25
364.788	333.25
365.015	360.25
365.241	344.25
365.468	344.25
365.694	353.25
365.92	333.25
366.147	335.25
366.373	323.25
366.599	351.25
366.826	347.25
367.052	328.25
367.278	328.25
367.505	330.25
367.731	344.25
367.957	328.25
368.184	332.25
368.41	338.25
368.636	353.25
368.862	351.25
369.089	349.25
369.315	323.25
369.541	321.25
369.767	349.25
369.993	342.25
370.219	335.25
370.445	335.25
370.672	336.25
370.898	329.25
371.124	322.25
371.35	333.25
371.576	330.25
371.802	320.25
372.028	316.25
372.254	341.25
372.48	317.25
372.706	337.25
372.932	330.25
373.158	323.25
373.384	346.25
373.61	324.25
373.835	339.25
374.061	337.25
374.287	330.25
374.513	325.25
374.739	313.25
374.965	325.25
375.191	341.25
375.416	361.25
375.642	330.25
375.868	323.25
376.094	323.25
376.319	330.25
376.545	341.25
376.771	334.25
376.997	315.25
377.222	329.25
377.448	327.25
377.674	320.25
377.899	339.25
378.125	326.25
378.35	308.25
378.576	335.25
378.802	318.25
379.027	320.25
379.253	313.25
379.478	315.25
379.704	323.25
379.929	319.25
380.155	331.25
380.38	351.25
380.606	334.25
380.831	344.25
381.057	342.25
381.282	347.25
381.507	336.25
381.733	323.25
381.958	333.25
382.184	331.25
382.409	327.25
382.634	351.25
382.86	329.25
383.085	330.25
383.31	330.25
383.535	350.25
383.761	344.25
383.986	331.25
384.211	329.25
384.436	363.25
384.662	337.25
384.887	345.25
385.112	343.25
385.337	340.25
385.562	331.25
385.787	335.25
386.013	360.25
386.238	355.25
386.463	354.25
386.688	358.25
386.913	361.25
387.138	338.25
387.363	327.25
387.588	314.25
387.813	328.25
388.038	343.25
388.263	353.25
388.488	375.25
388.713	348.25
388.938	352.25
389.163	362.25
389.387	355.25
389.612	363.25
389.837	343.25
390.062	350.25
390.287	338.25
390.512	325.25
390.736	337.25
390.961	335.25
391.186	348.25
391.411	347.25
391.636	362.25
391.86	372.25
392.085	353.25
392.31	350.25
392.534	353.25
392.759	370.25
392.984	359.25
393.208	364.25
393.433	375.25
393.658	343.25
393.882	343.25
394.107	351.25
394.331	338.25
394.556	329.25
394.78	361.25
395.005	345.25
395.229	354.25
395.454	352.25
395.678	382.25
395.903	377.25
396.127	381.25
396.352	383.25
396.576	379.25
396.801	373.25
397.025	365.25
397.249	381.25
397.474	395.25
397.698	372.25
397.922	394.25
398.147	395.25
398.371	388.25
398.595	388.25
398.82	388.25
399.044	386.25
399.268	411.25
399.492	428.25
399.717	436.25
399.941	468.25
400.165	482.25
400.389	515.25
400.613	471.25
400.837	414.25
401.062	416.25
401.286	392.25
401.51	379.25
401.734	412.25
401.958	396.25
402.182	425.25
402.406	411.25
402.63	436.25
402.854	402.25
403.078	400.25
403.302	413.25
403.526	413.25
403.75	412.25
403.974	419.25
404.198	389.25
404.422	412.25
404.645	424.25
404.869	412.25
405.093	447.25
405.317	500.25
405.541	513.25
405.765	461.25
405.988	447.25
406.212	469.25
406.436	465.25
406.66	476.25
406.883	469.25
407.107	471.25
407.331	506.25
407.555	579.25
407.778	552.25
408.002	525.25
408.226	478.25
408.449	483.25
408.673	472.25
408.896	480.25
409.12	515.25
409.344	503.25
409.567	453.25
409.791	447.25
410.014	437.25
410.238	451.25
410.461	421.25
410.685	436.25
410.908	443.25
411.132	484.25
411.355	503.25
411.578	457.25
411.802	424.25
412.025	417.25
412.249	437.25
412.472	455.25
412.695	501.25
412.919	482.25
413.142	439.25
413.365	425.25
413.589	419.25
413.812	400.25
414.035	409.25
414.258	402.25
414.482	415.25
414.705	390.25
414.928	398.25
415.151	399.25
415.374	413.25
415.597	403.25
415.821	380.25
416.044	392.25
416.267	421.25
416.49	395.25
416.713	389.25
416.936	405.25
417.159	379.25
417.382	401.25
417.605	409.25
417.828	400.25
418.051	389.25
418.274	416.25
418.497	413.25
418.72	407.25
418.943	385.25
419.166	397.25
419.389	419.25
419.611	432.25
419.834	425.25
420.057	439.25
420.28	428.25
420.503	431.25
420.726	413.25
420.948	448.25
421.171	467.25
421.394	493.25
421.617	463.25
421.839	452.25
422.062	421.25
422.285	435.25
422.507	482.25
422.73	544.25
422.953	528.25
423.175	482.25
423.398	439.25
423.621	453.25
423.843	453.25
424.066	457.25
424.288	471.25
424.511	481.25
424.733	522.25
424.956	598.25
425.178	593.25
425.401	557.25
425.623	575.25
425.846	484.25
426.068	472.25
426.291	481.25
426.513	477.25
426.735	490.25
426.958	491.25
427.18	593.25
427.402	659.25
427.625	745.25
427.847	668.25
428.069	599.25
428.292	529.25
428.514	474.25
428.736	456.25
428.958	433.25
429.181	443.25
429.403	429.25
429.625	435.25
429.847	472.25
430.069	509.25
430.292	499.25
430.514	440.25
430.736	435.25
430.958	433.25
431.18	433.25
431.402	402.25
431.624	402.25
431.846	398.25
432.068	399.25
432.29	428.25
432.512	386.25
432.734	422.25
432.956	411.25
433.178	396.25
433.4	423.25
433.622	419.25
433.844	391.25
434.066	405.25
434.287	414.25
434.509	397.25
434.731	428.25
434.953	422.25
435.175	419.25
435.397	461.25
435.618	463.25
435.84	523.25
436.062	584.25
436.284	634.25
436.505	559.25
436.727	477.25
436.949	465.25
437.17	432.25
437.392	448.25
437.614	455.25
437.835	484.25
438.057	582.25
438.278	639.25
438.5	665.25
438.721	700.25
438.943	669.25
439.165	538.25
439.386	501.25
439.608	483.25
439.829	495.25
440.05	517.25
440.272	553.25
440.493	522.25
440.715	497.25
440.936	452.25
441.158	452.25
441.379	426.25
441.6	449.25
441.822	463.25
442.043	522.25
442.264	588.25
442.486	604.25
442.707	530.25
442.928	487.25
443.149	505.25
443.371	516.25
443.592	541.25
443.813	613.25
444.034	669.25
444.255	556.25
444.476	488.25
444.698	468.25
444.919	459.25
445.14	583.25
445.361	536.25
445.582	521.25
445.803	590.25
446.024	666.25
446.245	673.25
446.466	603.25
446.687	533.25
446.908	484.25
447.129	454.25
447.35	469.25
447.571	434.25
447.792	443.25
448.013	431.25
448.234	472.25
448.455	530.25
448.675	614.25
448.896	703.25
449.117	588.25
449.338	568.25
449.559	648.25
449.779	718.25
450	593.25
450.221	483.25
450.442	459.25
450.662	445.25
450.883	456.25
451.104	458.25
451.324	446.25
451.545	417.25
451.766	426.25
451.986	398.25
452.207	392.25
452.428	381.25
452.648	397.25
452.869	389.25
453.089	415.25
453.31	412.25
453.53	410.25
453.751	392.25
453.971	405.25
454.192	426.25
454.412	397.25
454.633	417.25
454.853	395.25
455.073	405.25
455.294	423.25
455.514	493.25
455.734	461.25
455.955	394.25
456.175	372.25
456.395	363.25
456.616	374.25
456.836	356.25
457.056	359.25
457.276	362.25
457.497	375.25
457.717	374.25
457.937	368.25
458.157	380.25
458.377	380.25
458.598	420.25
458.818	481.25
459.038	556.25
459.258	557.25
459.478	467.25
459.698	433.25
459.918	411.25
460.138	393.25
460.358	396.25
460.578	422.25
460.798	392.25
461.018	408.25
461.238	409.25
461.458	404.25
461.678	402.25
461.898	409.25
462.118	401.25
462.338	402.25
462.558	411.25
462.777	420.25
462.997	417.25
463.217	426.25
463.437	438.25
463.657	416.25
463.876	408.25
464.096	436.25
464.316	423.25
464.536	419.25
464.755	437.25
464.975	461.25
465.195	490.25
465.414	573.25
465.634	498.25
465.854	462.25
466.073	437.25
466.293	417.25
466.512	412.25
466.732	402.25
466.951	409.25
467.171	401.25
467.391	408.25
467.61	417.25
467.829	423.25
468.049	422.25
468.268	404.25
468.488	424.25
468.707	405.25
468.927	377.25
469.146	384.25
469.365	386.25
469.585	362.25
469.804	402.25
470.023	385.25
470.243	408.25
470.462	422.25
470.681	427.25
470.901	405.25
471.12	405.25
471.339	403.25
471.558	423.25
471.777	415.25
471.997	393.25
472.216	415.25
472.435	475.25
472.654	427.25
472.873	404.25
473.092	429.25
473.311	398.25
473.53	408.25
473.749	415.25
473.968	472.25
474.187	560.25
474.406	564.25
474.625	479.25
474.844	425.25
475.063	410.25
475.282	419.25
475.501	415.25
475.72	412.25
475.939	419.25
476.158	434.25
476.377	423.25
476.596	417.25
476.814	419.25
477.033	453.25
477.252	436.25
477.471	442.25
477.69	437.25
477.908	429.25
478.127	422.25
478.346	439.25
478.564	433.25
478.783	434.25
479.002	476.25
479.22	447.25
479.439	467.25
479.658	498.25
479.876	509.25
480.095	506.25
480.313	507.25
480.532	508.25
480.751	513.25
480.969	528.25
481.188	579.25
481.406	621.25
481.624	530.25
481.843	514.25
482.061	489.25
482.28	498.25
482.498	501.25
482.717	468.25
482.935	472.25
483.153	469.25
483.372	480.25
483.59	475.25
483.808	483.25
484.027	457.25
484.245	459.25
484.463	482.25
484.681	505.25
484.9	481.25
485.118	489.25
485.336	496.25
485.554	497.25
485.772	503.25
485.99	498.25
486.209	495.25
486.427	483.25
486.645	500.25
486.863	526.25
487.081	522.25
487.299	522.25
487.517	520.25
487.735	505.25
487.953	498.25
488.171	511.25
488.389	513.25
488.607	532.25
488.825	547.25
489.043	526.25
489.261	529.25
489.479	540.25
489.696	522.25
489.914	522.25
490.132	529.25
490.35	556.25
490.568	536.25
490.786	564.25
491.003	537.25
491.221	569.25
491.439	569.25
491.657	584.25
491.874	588.25
492.092	588.25
492.31	587.25
492.527	628.25
492.745	595.25
492.963	588.25
493.18	593.25
493.398	589.25
493.615	607.25
493.833	621.25
494.05	622.25
494.268	607.25
494.485	597.25
494.703	606.25
494.92	616.25
495.138	596.25
495.355	601.25
495.573	599.25
495.79	610.25
496.008	602.25
496.225	601.25
496.442	613.25
496.66	600.25
496.877	591.25
497.094	601.25
497.312	636.25
497.529	637.25
497.746	630.25
497.963	635.25
498.181	651.25
498.398	666.25
498.615	640.25
498.832	654.25
499.049	671.25
499.267	717.25
499.484	667.25
499.701	686.25
499.918	708.25
500.135	716.25
500.352	736.25
500.569	739.25
500.786	770.25
501.003	736.25
501.22	738.25
501.437	707.25
501.654	727.25
501.871	736.25
