Data from 1961.PennyLincolnUp.Lamp.En5.5.200Scan.071719.P1._HRD10591_13-48-30-057.txt Node
Date: Thu Jul 18 13:48:30 EDT 2019
User: cochatt
Spectrometer: HR+D1059
Trigger mode: 1
Integration Time (sec): 1.000000E-1
Scans to average: 1
Electric dark correction enabled: true
Nonlinearity correction enabled: false
Boxcar width: 0
XAxis mode: Wavelengths
Number of Pixels in Spectrum: 2048
>>>>>Begin Spectral Data<<<<<
223.165	-13.06
223.4	-13.06
223.635	-13.06
223.869	-18.06
224.104	-17.06
224.338	-14.06
224.573	-7.06
224.808	-13.06
225.042	-12.06
225.277	-24.06
225.511	1.94
225.746	-9.06
225.98	11.94
226.215	12.94
226.449	11.94
226.683	19.94
226.918	29.94
227.152	38.94
227.387	27.94
227.621	24.94
227.856	42.94
228.09	53.94
228.324	31.94
228.559	48.94
228.793	69.94
229.027	86.94
229.262	89.94
229.496	119.94
229.73	120.94
229.964	151.94
230.199	134.94
230.433	103.94
230.667	100.94
230.901	112.94
231.136	106.94
231.37	104.94
231.604	107.94
231.838	102.94
232.072	109.94
232.306	121.94
232.541	108.94
232.775	111.94
233.009	121.94
233.243	107.94
233.477	110.94
233.711	103.94
233.945	120.94
234.179	95.94
234.413	118.94
234.647	93.94
234.881	98.94
235.115	115.94
235.349	96.94
235.583	102.94
235.817	102.94
236.051	105.94
236.285	118.94
236.519	106.94
236.753	116.94
236.987	118.94
237.221	176.94
237.455	223.94
237.689	161.94
237.922	126.94
238.156	119.94
238.39	119.94
238.624	112.94
238.858	120.94
239.091	114.94
239.325	121.94
239.559	110.94
239.793	117.94
240.027	137.94
240.26	134.94
240.494	143.94
240.728	135.94
240.961	134.94
241.195	126.94
241.429	126.94
241.662	122.94
241.896	128.94
242.13	120.94
242.363	92.94
242.597	121.94
242.83	131.94
243.064	139.94
243.298	132.94
243.531	124.94
243.765	129.94
243.998	117.94
244.232	121.94
244.465	118.94
244.699	113.94
244.932	131.94
245.166	138.94
245.399	125.94
245.633	133.94
245.866	121.94
246.099	125.94
246.333	139.94
246.566	142.94
246.8	122.94
247.033	128.94
247.266	143.94
247.5	137.94
247.733	159.94
247.966	141.94
248.2	150.94
248.433	146.94
248.666	149.94
248.899	148.94
249.133	176.94
249.366	190.94
249.599	175.94
249.832	171.94
250.066	160.94
250.299	156.94
250.532	164.94
250.765	178.94
250.998	179.94
251.231	198.94
251.465	201.94
251.698	181.94
251.931	168.94
252.164	171.94
252.397	191.94
252.63	164.94
252.863	178.94
253.096	175.94
253.329	176.94
253.562	179.94
253.795	191.94
254.028	184.94
254.261	183.94
254.494	185.94
254.727	220.94
254.96	231.94
255.193	245.94
255.426	201.94
255.659	187.94
255.892	205.94
256.124	205.94
256.357	204.94
256.59	215.94
256.823	194.94
257.056	186.94
257.289	175.94
257.521	177.94
257.754	195.94
257.987	186.94
258.22	187.94
258.452	179.94
258.685	170.94
258.918	181.94
259.151	179.94
259.383	181.94
259.616	185.94
259.849	201.94
260.081	177.94
260.314	203.94
260.547	223.94
260.779	211.94
261.012	186.94
261.244	186.94
261.477	189.94
261.71	201.94
261.942	200.94
262.175	205.94
262.407	192.94
262.64	196.94
262.872	181.94
263.105	186.94
263.337	197.94
263.57	163.94
263.802	180.94
264.035	201.94
264.267	183.94
264.499	181.94
264.732	192.94
264.964	192.94
265.197	185.94
265.429	182.94
265.661	180.94
265.894	163.94
266.126	177.94
266.358	176.94
266.591	198.94
266.823	187.94
267.055	191.94
267.287	193.94
267.52	178.94
267.752	202.94
267.984	179.94
268.216	200.94
268.448	198.94
268.681	194.94
268.913	201.94
269.145	218.94
269.377	222.94
269.609	245.94
269.841	232.94
270.073	221.94
270.306	257.94
270.538	268.94
270.77	253.94
271.002	253.94
271.234	258.94
271.466	267.94
271.698	275.94
271.93	271.94
272.162	264.94
272.394	282.94
272.626	256.94
272.858	230.94
273.09	203.94
273.322	237.94
273.553	214.94
273.785	220.94
274.017	215.94
274.249	255.94
274.481	232.94
274.713	226.94
274.945	217.94
275.176	230.94
275.408	238.94
275.64	225.94
275.872	213.94
276.104	188.94
276.335	224.94
276.567	238.94
276.799	234.94
277.031	259.94
277.262	254.94
277.494	274.94
277.726	263.94
277.957	237.94
278.189	247.94
278.421	226.94
278.652	207.94
278.884	207.94
279.115	227.94
279.347	243.94
279.579	222.94
279.81	225.94
280.042	220.94
280.273	225.94
280.505	226.94
280.736	229.94
280.968	223.94
281.199	218.94
281.431	217.94
281.662	222.94
281.894	214.94
282.125	217.94
282.356	238.94
282.588	257.94
282.819	253.94
283.051	232.94
283.282	221.94
283.513	241.94
283.745	213.94
283.976	221.94
284.207	228.94
284.439	214.94
284.67	226.94
284.901	226.94
285.132	228.94
285.364	215.94
285.595	215.94
285.826	232.94
286.057	225.94
286.288	227.94
286.52	226.94
286.751	241.94
286.982	220.94
287.213	251.94
287.444	243.94
287.675	229.94
287.906	238.94
288.138	240.94
288.369	241.94
288.6	262.94
288.831	243.94
289.062	255.94
289.293	234.94
289.524	219.94
289.755	245.94
289.986	197.94
290.217	233.94
290.448	239.94
290.679	228.94
290.91	232.94
291.141	215.94
291.371	224.94
291.602	233.94
291.833	228.94
292.064	217.94
292.295	231.94
292.526	220.94
292.757	251.94
292.987	234.94
293.218	228.94
293.449	231.94
293.68	242.94
293.91	229.94
294.141	240.94
294.372	254.94
294.603	242.94
294.833	254.94
295.064	243.94
295.295	229.94
295.525	227.94
295.756	237.94
295.987	253.94
296.217	280.94
296.448	282.94
296.679	254.94
296.909	245.94
297.14	231.94
297.37	232.94
297.601	221.94
297.831	234.94
298.062	259.94
298.292	232.94
298.523	254.94
298.753	233.94
298.984	241.94
299.214	252.94
299.445	256.94
299.675	245.94
299.905	255.94
300.136	264.94
300.366	248.94
300.597	239.94
300.827	255.94
301.057	263.94
301.288	267.94
301.518	245.94
301.748	247.94
301.979	278.94
302.209	262.94
302.439	279.94
302.669	270.94
302.9	259.94
303.13	252.94
303.36	249.94
303.59	263.94
303.82	270.94
304.051	279.94
304.281	270.94
304.511	264.94
304.741	258.94
304.971	279.94
305.201	246.94
305.431	241.94
305.661	275.94
305.891	271.94
306.121	263.94
306.352	267.94
306.582	266.94
306.812	273.94
307.042	274.94
307.272	263.94
307.502	269.94
307.731	292.94
307.961	250.94
308.191	285.94
308.421	265.94
308.651	278.94
308.881	265.94
309.111	297.94
309.341	293.94
309.571	306.94
309.8	290.94
310.03	322.94
310.26	311.94
310.49	307.94
310.72	315.94
310.949	333.94
311.179	348.94
311.409	326.94
311.639	314.94
311.868	329.94
312.098	310.94
312.328	325.94
312.557	336.94
312.787	339.94
313.017	349.94
313.246	336.94
313.476	321.94
313.706	322.94
313.935	330.94
314.165	336.94
314.394	339.94
314.624	344.94
314.853	319.94
315.083	320.94
315.312	312.94
315.542	313.94
315.771	304.94
316.001	293.94
316.23	309.94
316.46	320.94
316.689	308.94
316.919	331.94
317.148	334.94
317.377	326.94
317.607	317.94
317.836	317.94
318.065	326.94
318.295	311.94
318.524	326.94
318.753	290.94
318.983	303.94
319.212	319.94
319.441	330.94
319.67	354.94
319.9	320.94
320.129	323.94
320.358	313.94
320.587	336.94
320.816	348.94
321.046	337.94
321.275	350.94
321.504	343.94
321.733	338.94
321.962	357.94
322.191	371.94
322.42	368.94
322.649	401.94
322.878	402.94
323.108	406.94
323.337	430.94
323.566	462.94
323.795	483.94
324.024	551.94
324.253	700.94
324.482	1053.94
324.71	1600.94
324.939	2217.94
325.168	1882.94
325.397	965.94
325.626	617.94
325.855	517.94
326.084	488.94
326.313	484.94
326.542	471.94
326.77	552.94
326.999	629.94
327.228	919.94
327.457	1378.94
327.686	1613.94
327.914	1076.94
328.143	687.94
328.372	602.94
328.6	561.94
328.829	521.94
329.058	537.94
329.287	536.94
329.515	498.94
329.744	470.94
329.972	472.94
330.201	493.94
330.43	541.94
330.658	549.94
330.887	542.94
331.115	560.94
331.344	477.94
331.572	433.94
331.801	419.94
332.03	423.94
332.258	412.94
332.486	393.94
332.715	381.94
332.943	383.94
333.172	372.94
333.4	376.94
333.629	402.94
333.857	407.94
334.085	402.94
334.314	430.94
334.542	462.94
334.771	469.94
334.999	429.94
335.227	396.94
335.455	374.94
335.684	363.94
335.912	373.94
336.14	373.94
336.369	372.94
336.597	373.94
336.825	367.94
337.053	363.94
337.281	369.94
337.51	346.94
337.738	373.94
337.966	374.94
338.194	349.94
338.422	368.94
338.65	373.94
338.878	347.94
339.106	367.94
339.334	351.94
339.562	343.94
339.79	357.94
340.018	344.94
340.246	360.94
340.474	371.94
340.702	381.94
340.93	353.94
341.158	362.94
341.386	348.94
341.614	353.94
341.842	361.94
342.07	335.94
342.298	353.94
342.526	355.94
342.754	327.94
342.981	330.94
343.209	339.94
343.437	347.94
343.665	331.94
343.893	363.94
344.12	367.94
344.348	358.94
344.576	334.94
344.804	357.94
345.031	374.94
345.259	393.94
345.487	371.94
345.714	373.94
345.942	359.94
346.17	344.94
346.397	336.94
346.625	335.94
346.853	340.94
347.08	331.94
347.308	343.94
347.535	383.94
347.763	377.94
347.99	359.94
348.218	357.94
348.445	376.94
348.673	354.94
348.9	343.94
349.128	341.94
349.355	345.94
349.583	342.94
349.81	336.94
350.037	326.94
350.265	329.94
350.492	345.94
350.72	344.94
350.947	347.94
351.174	363.94
351.402	347.94
351.629	367.94
351.856	353.94
352.083	372.94
352.311	371.94
352.538	390.94
352.765	380.94
352.992	335.94
353.22	351.94
353.447	335.94
353.674	329.94
353.901	340.94
354.128	329.94
354.355	310.94
354.583	320.94
354.81	336.94
355.037	325.94
355.264	316.94
355.491	305.94
355.718	314.94
355.945	301.94
356.172	315.94
356.399	320.94
356.626	321.94
356.853	327.94
357.08	313.94
357.307	302.94
357.534	301.94
357.761	298.94
357.988	318.94
358.215	307.94
358.441	330.94
358.668	311.94
358.895	334.94
359.122	327.94
359.349	348.94
359.576	350.94
359.802	385.94
360.029	399.94
360.256	419.94
360.483	386.94
360.709	369.94
360.936	354.94
361.163	350.94
361.39	347.94
361.616	348.94
361.843	346.94
362.07	335.94
362.296	349.94
362.523	344.94
362.749	344.94
362.976	343.94
363.203	362.94
363.429	331.94
363.656	355.94
363.882	325.94
364.109	318.94
364.335	339.94
364.562	346.94
364.788	318.94
365.015	332.94
365.241	341.94
365.468	335.94
365.694	351.94
365.92	325.94
366.147	328.94
366.373	334.94
366.599	330.94
366.826	331.94
367.052	314.94
367.278	352.94
367.505	319.94
367.731	326.94
367.957	334.94
368.184	327.94
368.41	321.94
368.636	327.94
368.862	333.94
369.089	324.94
369.315	322.94
369.541	323.94
369.767	322.94
369.993	330.94
370.219	336.94
370.445	318.94
370.672	307.94
370.898	304.94
371.124	304.94
371.35	306.94
371.576	314.94
371.802	333.94
372.028	321.94
372.254	318.94
372.48	319.94
372.706	332.94
372.932	317.94
373.158	325.94
373.384	317.94
373.61	331.94
373.835	329.94
374.061	334.94
374.287	338.94
374.513	310.94
374.739	339.94
374.965	333.94
375.191	326.94
375.416	323.94
375.642	314.94
375.868	330.94
376.094	317.94
376.319	314.94
376.545	317.94
376.771	309.94
376.997	329.94
377.222	312.94
377.448	314.94
377.674	311.94
377.899	311.94
378.125	323.94
378.35	330.94
378.576	302.94
378.802	318.94
379.027	302.94
379.253	292.94
379.478	295.94
379.704	305.94
379.929	297.94
380.155	326.94
380.38	313.94
380.606	317.94
380.831	320.94
381.057	325.94
381.282	322.94
381.507	328.94
381.733	307.94
381.958	299.94
382.184	331.94
382.409	310.94
382.634	313.94
382.86	320.94
383.085	329.94
383.31	319.94
383.535	338.94
383.761	330.94
383.986	326.94
384.211	329.94
384.436	338.94
384.662	344.94
384.887	338.94
385.112	336.94
385.337	328.94
385.562	338.94
385.787	336.94
386.013	340.94
386.238	345.94
386.463	328.94
386.688	341.94
386.913	334.94
387.138	351.94
387.363	333.94
387.588	344.94
387.813	330.94
388.038	344.94
388.263	329.94
388.488	336.94
388.713	342.94
388.938	339.94
389.163	355.94
389.387	341.94
389.612	329.94
389.837	371.94
390.062	325.94
390.287	346.94
390.512	322.94
390.736	336.94
390.961	339.94
391.186	341.94
391.411	340.94
391.636	346.94
391.86	333.94
392.085	347.94
392.31	360.94
392.534	353.94
392.759	345.94
392.984	339.94
393.208	352.94
393.433	335.94
393.658	349.94
393.882	326.94
394.107	341.94
394.331	342.94
394.556	349.94
394.78	344.94
395.005	360.94
395.229	351.94
395.454	348.94
395.678	362.94
395.903	356.94
396.127	377.94
396.352	386.94
396.576	350.94
396.801	343.94
397.025	372.94
397.249	358.94
397.474	369.94
397.698	368.94
397.922	390.94
398.147	371.94
398.371	387.94
398.595	389.94
398.82	366.94
399.044	392.94
399.268	386.94
399.492	391.94
399.717	429.94
399.941	437.94
400.165	463.94
400.389	476.94
400.613	422.94
400.837	416.94
401.062	392.94
401.286	400.94
401.51	401.94
401.734	376.94
401.958	394.94
402.182	387.94
402.406	410.94
402.63	410.94
402.854	406.94
403.078	406.94
403.302	384.94
403.526	407.94
403.75	401.94
403.974	392.94
404.198	405.94
404.422	415.94
404.645	407.94
404.869	408.94
405.093	447.94
405.317	488.94
405.541	499.94
405.765	466.94
405.988	437.94
406.212	455.94
406.436	469.94
406.66	489.94
406.883	467.94
407.107	482.94
407.331	515.94
407.555	559.94
407.778	535.94
408.002	498.94
408.226	469.94
408.449	454.94
408.673	451.94
408.896	473.94
409.12	508.94
409.344	469.94
409.567	437.94
409.791	426.94
410.014	425.94
410.238	398.94
410.461	402.94
410.685	413.94
410.908	431.94
411.132	452.94
411.355	465.94
411.578	452.94
411.802	418.94
412.025	413.94
412.249	422.94
412.472	426.94
412.695	472.94
412.919	455.94
413.142	419.94
413.365	381.94
413.589	383.94
413.812	407.94
414.035	381.94
414.258	379.94
414.482	354.94
414.705	381.94
414.928	393.94
415.151	402.94
415.374	375.94
415.597	384.94
415.821	393.94
416.044	378.94
416.267	393.94
416.49	393.94
416.713	381.94
416.936	386.94
417.159	397.94
417.382	379.94
417.605	389.94
417.828	410.94
418.051	400.94
418.274	414.94
418.497	400.94
418.72	373.94
418.943	391.94
419.166	406.94
419.389	408.94
419.611	402.94
419.834	390.94
420.057	406.94
420.28	409.94
420.503	412.94
420.726	407.94
420.948	412.94
421.171	472.94
421.394	497.94
421.617	434.94
421.839	388.94
422.062	417.94
422.285	433.94
422.507	463.94
422.73	546.94
422.953	515.94
423.175	472.94
423.398	413.94
423.621	426.94
423.843	457.94
424.066	440.94
424.288	424.94
424.511	475.94
424.733	520.94
424.956	563.94
425.178	564.94
425.401	571.94
425.623	571.94
425.846	490.94
426.068	445.94
426.291	471.94
426.513	441.94
426.735	450.94
426.958	490.94
427.18	560.94
427.402	681.94
427.625	727.94
427.847	678.94
428.069	594.94
428.292	518.94
428.514	463.94
428.736	472.94
428.958	434.94
429.181	413.94
429.403	409.94
429.625	431.94
429.847	463.94
430.069	528.94
430.292	509.94
430.514	443.94
430.736	413.94
430.958	399.94
431.18	409.94
431.402	386.94
431.624	370.94
431.846	399.94
432.068	385.94
432.29	385.94
432.512	376.94
432.734	390.94
432.956	419.94
433.178	390.94
433.4	426.94
433.622	392.94
433.844	408.94
434.066	383.94
434.287	402.94
434.509	399.94
434.731	407.94
434.953	416.94
435.175	404.94
435.397	447.94
435.618	466.94
435.84	495.94
436.062	565.94
436.284	621.94
436.505	528.94
436.727	484.94
436.949	453.94
437.17	429.94
437.392	429.94
437.614	454.94
437.835	460.94
438.057	579.94
438.278	643.94
438.5	608.94
438.721	678.94
438.943	629.94
439.165	523.94
439.386	461.94
439.608	468.94
439.829	471.94
440.05	499.94
440.272	540.94
440.493	503.94
440.715	459.94
440.936	431.94
441.158	439.94
441.379	435.94
441.6	444.94
441.822	441.94
442.043	484.94
442.264	563.94
442.486	591.94
442.707	498.94
442.928	474.94
443.149	487.94
443.371	514.94
443.592	542.94
443.813	594.94
444.034	638.94
444.255	532.94
444.476	489.94
444.698	461.94
444.919	441.94
445.14	551.94
445.361	505.94
445.582	504.94
445.803	558.94
446.024	646.94
446.245	663.94
446.466	593.94
446.687	499.94
446.908	458.94
447.129	448.94
447.35	439.94
447.571	417.94
447.792	435.94
448.013	413.94
448.234	469.94
448.455	476.94
448.675	578.94
448.896	693.94
449.117	555.94
449.338	549.94
449.559	634.94
449.779	697.94
450	574.94
450.221	482.94
450.442	442.94
450.662	431.94
450.883	447.94
451.104	445.94
451.324	449.94
451.545	413.94
451.766	398.94
451.986	362.94
452.207	381.94
452.428	397.94
452.648	378.94
452.869	382.94
453.089	379.94
453.31	412.94
453.53	379.94
453.751	381.94
453.971	391.94
454.192	406.94
454.412	409.94
454.633	389.94
454.853	386.94
455.073	377.94
455.294	415.94
455.514	465.94
455.734	459.94
455.955	394.94
456.175	382.94
456.395	332.94
456.616	360.94
456.836	355.94
457.056	358.94
457.276	350.94
457.497	355.94
457.717	355.94
457.937	371.94
458.157	365.94
458.377	389.94
458.598	373.94
458.818	444.94
459.038	531.94
459.258	520.94
459.478	445.94
459.698	405.94
459.918	390.94
460.138	405.94
460.358	403.94
460.578	376.94
460.798	404.94
461.018	394.94
461.238	387.94
461.458	402.94
461.678	390.94
461.898	396.94
462.118	399.94
462.338	402.94
462.558	431.94
462.777	402.94
462.997	412.94
463.217	407.94
463.437	406.94
463.657	394.94
463.876	419.94
464.096	418.94
464.316	415.94
464.536	430.94
464.755	410.94
464.975	421.94
465.195	480.94
465.414	575.94
465.634	480.94
465.854	475.94
466.073	442.94
466.293	404.94
466.512	377.94
466.732	380.94
466.951	406.94
467.171	402.94
467.391	394.94
467.61	403.94
467.829	435.94
468.049	418.94
468.268	413.94
468.488	401.94
468.707	373.94
468.927	376.94
469.146	391.94
469.365	379.94
469.585	368.94
469.804	397.94
470.023	396.94
470.243	403.94
470.462	407.94
470.681	403.94
470.901	420.94
471.12	393.94
471.339	374.94
471.558	357.94
471.777	395.94
471.997	387.94
472.216	414.94
472.435	457.94
472.654	432.94
472.873	411.94
473.092	398.94
473.311	386.94
473.53	405.94
473.749	415.94
473.968	430.94
474.187	551.94
474.406	545.94
474.625	448.94
474.844	419.94
475.063	405.94
475.282	395.94
475.501	404.94
475.72	418.94
475.939	414.94
476.158	419.94
476.377	405.94
476.596	407.94
476.814	419.94
477.033	409.94
477.252	399.94
477.471	423.94
477.69	399.94
477.908	404.94
478.127	425.94
478.346	406.94
478.564	411.94
478.783	435.94
479.002	464.94
479.22	442.94
479.439	456.94
479.658	462.94
479.876	457.94
480.095	490.94
480.313	501.94
480.532	485.94
480.751	487.94
480.969	490.94
481.188	574.94
481.406	632.94
481.624	541.94
481.843	479.94
482.061	483.94
482.28	477.94
482.498	462.94
482.717	463.94
482.935	473.94
483.153	450.94
483.372	470.94
483.59	482.94
483.808	475.94
484.027	447.94
484.245	471.94
484.463	461.94
484.681	456.94
484.9	467.94
485.118	482.94
485.336	482.94
485.554	476.94
485.772	493.94
485.99	471.94
486.209	498.94
486.427	490.94
486.645	499.94
486.863	507.94
487.081	527.94
487.299	510.94
487.517	509.94
487.735	484.94
487.953	489.94
488.171	505.94
488.389	490.94
488.607	498.94
488.825	515.94
489.043	543.94
489.261	506.94
489.479	489.94
489.696	529.94
489.914	509.94
490.132	533.94
490.35	520.94
490.568	526.94
490.786	523.94
491.003	511.94
491.221	552.94
491.439	572.94
491.657	554.94
491.874	573.94
492.092	567.94
492.31	549.94
492.527	563.94
492.745	575.94
492.963	578.94
493.18	578.94
493.398	558.94
493.615	581.94
493.833	591.94
494.05	590.94
494.268	602.94
494.485	571.94
494.703	579.94
494.92	592.94
495.138	571.94
495.355	608.94
495.573	575.94
495.79	599.94
496.008	587.94
496.225	591.94
496.442	597.94
496.66	590.94
496.877	609.94
497.094	606.94
497.312	615.94
497.529	611.94
497.746	591.94
497.963	597.94
498.181	640.94
498.398	630.94
498.615	627.94
498.832	624.94
499.049	645.94
499.267	670.94
499.484	673.94
499.701	686.94
499.918	699.94
500.135	713.94
500.352	715.94
500.569	738.94
500.786	752.94
501.003	724.94
501.22	718.94
501.437	713.94
501.654	709.94
501.871	717.94
