Data from 1961.PennyLincolnUp.Lamp.En5.5.200Scan.071719.P1._HRD10591_13-47-40-058.txt Node
Date: Thu Jul 18 13:47:40 EDT 2019
User: cochatt
Spectrometer: HR+D1059
Trigger mode: 1
Integration Time (sec): 1.000000E-1
Scans to average: 1
Electric dark correction enabled: true
Nonlinearity correction enabled: false
Boxcar width: 0
XAxis mode: Wavelengths
Number of Pixels in Spectrum: 2048
>>>>>Begin Spectral Data<<<<<
223.165	-15.25
223.4	-15.25
223.635	-15.25
223.869	-16.25
224.104	-13.25
224.338	-14.25
224.573	-1.25
224.808	-14.25
225.042	-16.25
225.277	-2.25
225.511	-11.25
225.746	5.75
225.98	5.75
226.215	9.75
226.449	16.75
226.683	23.75
226.918	16.75
227.152	25.75
227.387	27.75
227.621	32.75
227.856	35.75
228.09	36.75
228.324	49.75
228.559	43.75
228.793	56.75
229.027	94.75
229.262	112.75
229.496	103.75
229.73	114.75
229.964	131.75
230.199	132.75
230.433	116.75
230.667	115.75
230.901	106.75
231.136	90.75
231.37	99.75
231.604	102.75
231.838	100.75
232.072	91.75
232.306	99.75
232.541	92.75
232.775	120.75
233.009	110.75
233.243	101.75
233.477	114.75
233.711	95.75
233.945	89.75
234.179	108.75
234.413	103.75
234.647	115.75
234.881	112.75
235.115	114.75
235.349	109.75
235.583	105.75
235.817	105.75
236.051	121.75
236.285	113.75
236.519	100.75
236.753	113.75
236.987	138.75
237.221	169.75
237.455	206.75
237.689	158.75
237.922	121.75
238.156	113.75
238.39	122.75
238.624	105.75
238.858	106.75
239.091	106.75
239.325	105.75
239.559	113.75
239.793	125.75
240.027	123.75
240.26	129.75
240.494	137.75
240.728	138.75
240.961	125.75
241.195	120.75
241.429	109.75
241.662	117.75
241.896	128.75
242.13	117.75
242.363	122.75
242.597	118.75
242.83	119.75
243.064	134.75
243.298	131.75
243.531	138.75
243.765	111.75
243.998	108.75
244.232	124.75
244.465	126.75
244.699	126.75
244.932	131.75
245.166	122.75
245.399	115.75
245.633	118.75
245.866	133.75
246.099	136.75
246.333	113.75
246.566	124.75
246.8	120.75
247.033	131.75
247.266	126.75
247.5	134.75
247.733	135.75
247.966	140.75
248.2	146.75
248.433	142.75
248.666	151.75
248.899	142.75
249.133	163.75
249.366	172.75
249.599	157.75
249.832	169.75
250.066	142.75
250.299	133.75
250.532	155.75
250.765	172.75
250.998	178.75
251.231	192.75
251.465	182.75
251.698	160.75
251.931	166.75
252.164	175.75
252.397	172.75
252.63	141.75
252.863	166.75
253.096	175.75
253.329	196.75
253.562	192.75
253.795	182.75
254.028	177.75
254.261	197.75
254.494	188.75
254.727	219.75
254.96	224.75
255.193	226.75
255.426	199.75
255.659	198.75
255.892	194.75
256.124	198.75
256.357	197.75
256.59	182.75
256.823	184.75
257.056	165.75
257.289	185.75
257.521	162.75
257.754	180.75
257.987	176.75
258.22	183.75
258.452	169.75
258.685	172.75
258.918	168.75
259.151	174.75
259.383	172.75
259.616	185.75
259.849	180.75
260.081	195.75
260.314	220.75
260.547	214.75
260.779	195.75
261.012	198.75
261.244	188.75
261.477	173.75
261.71	183.75
261.942	190.75
262.175	190.75
262.407	206.75
262.64	184.75
262.872	176.75
263.105	172.75
263.337	189.75
263.57	176.75
263.802	180.75
264.035	173.75
264.267	180.75
264.499	170.75
264.732	180.75
264.964	176.75
265.197	177.75
265.429	175.75
265.661	175.75
265.894	197.75
266.126	187.75
266.358	160.75
266.591	164.75
266.823	197.75
267.055	182.75
267.287	175.75
267.52	184.75
267.752	186.75
267.984	180.75
268.216	199.75
268.448	193.75
268.681	184.75
268.913	201.75
269.145	205.75
269.377	223.75
269.609	232.75
269.841	226.75
270.073	207.75
270.306	231.75
270.538	251.75
270.77	246.75
271.002	237.75
271.234	240.75
271.466	227.75
271.698	248.75
271.93	258.75
272.162	251.75
272.394	242.75
272.626	242.75
272.858	245.75
273.09	215.75
273.322	227.75
273.553	227.75
273.785	217.75
274.017	206.75
274.249	211.75
274.481	221.75
274.713	209.75
274.945	206.75
275.176	210.75
275.408	209.75
275.64	212.75
275.872	209.75
276.104	225.75
276.335	213.75
276.567	218.75
276.799	230.75
277.031	255.75
277.262	256.75
277.494	260.75
277.726	243.75
277.957	225.75
278.189	238.75
278.421	215.75
278.652	227.75
278.884	210.75
279.115	222.75
279.347	216.75
279.579	219.75
279.81	215.75
280.042	210.75
280.273	208.75
280.505	211.75
280.736	216.75
280.968	217.75
281.199	204.75
281.431	217.75
281.662	229.75
281.894	197.75
282.125	212.75
282.356	249.75
282.588	243.75
282.819	265.75
283.051	225.75
283.282	213.75
283.513	228.75
283.745	234.75
283.976	228.75
284.207	208.75
284.439	231.75
284.67	212.75
284.901	218.75
285.132	225.75
285.364	225.75
285.595	224.75
285.826	208.75
286.057	229.75
286.288	213.75
286.52	207.75
286.751	220.75
286.982	231.75
287.213	224.75
287.444	216.75
287.675	221.75
287.906	231.75
288.138	232.75
288.369	259.75
288.6	246.75
288.831	226.75
289.062	230.75
289.293	226.75
289.524	242.75
289.755	234.75
289.986	226.75
290.217	202.75
290.448	222.75
290.679	232.75
290.91	235.75
291.141	217.75
291.371	232.75
291.602	218.75
291.833	222.75
292.064	218.75
292.295	200.75
292.526	222.75
292.757	210.75
292.987	227.75
293.218	221.75
293.449	228.75
293.68	239.75
293.91	220.75
294.141	231.75
294.372	221.75
294.603	236.75
294.833	227.75
295.064	236.75
295.295	222.75
295.525	232.75
295.756	240.75
295.987	246.75
296.217	239.75
296.448	256.75
296.679	230.75
296.909	229.75
297.14	229.75
297.37	254.75
297.601	239.75
297.831	232.75
298.062	225.75
298.292	236.75
298.523	224.75
298.753	241.75
298.984	254.75
299.214	240.75
299.445	229.75
299.675	242.75
299.905	248.75
300.136	240.75
300.366	237.75
300.597	229.75
300.827	231.75
301.057	260.75
301.288	259.75
301.518	259.75
301.748	256.75
301.979	253.75
302.209	263.75
302.439	246.75
302.669	244.75
302.9	250.75
303.13	237.75
303.36	243.75
303.59	255.75
303.82	276.75
304.051	258.75
304.281	260.75
304.511	260.75
304.741	262.75
304.971	231.75
305.201	239.75
305.431	259.75
305.661	248.75
305.891	248.75
306.121	241.75
306.352	254.75
306.582	287.75
306.812	259.75
307.042	266.75
307.272	245.75
307.502	269.75
307.731	259.75
307.961	273.75
308.191	266.75
308.421	264.75
308.651	282.75
308.881	280.75
309.111	254.75
309.341	264.75
309.571	276.75
309.8	284.75
310.03	295.75
310.26	285.75
310.49	300.75
310.72	307.75
310.949	310.75
311.179	326.75
311.409	294.75
311.639	297.75
311.868	298.75
312.098	302.75
312.328	295.75
312.557	312.75
312.787	328.75
313.017	327.75
313.246	320.75
313.476	291.75
313.706	304.75
313.935	319.75
314.165	307.75
314.394	315.75
314.624	312.75
314.853	319.75
315.083	283.75
315.312	284.75
315.542	297.75
315.771	300.75
316.001	288.75
316.23	287.75
316.46	306.75
316.689	291.75
316.919	305.75
317.148	308.75
317.377	324.75
317.607	311.75
317.836	329.75
318.065	307.75
318.295	286.75
318.524	292.75
318.753	280.75
318.983	296.75
319.212	300.75
319.441	316.75
319.67	321.75
319.9	316.75
320.129	297.75
320.358	289.75
320.587	308.75
320.816	329.75
321.046	309.75
321.275	343.75
321.504	345.75
321.733	329.75
321.962	340.75
322.191	376.75
322.42	340.75
322.649	374.75
322.878	376.75
323.108	394.75
323.337	426.75
323.566	435.75
323.795	452.75
324.024	512.75
324.253	647.75
324.482	930.75
324.71	1474.75
324.939	2007.75
325.168	1702.75
325.397	937.75
325.626	599.75
325.855	476.75
326.084	458.75
326.313	445.75
326.542	462.75
326.77	520.75
326.999	581.75
327.228	832.75
327.457	1292.75
327.686	1512.75
327.914	1001.75
328.143	650.75
328.372	596.75
328.6	551.75
328.829	501.75
329.058	512.75
329.287	549.75
329.515	511.75
329.744	435.75
329.972	459.75
330.201	468.75
330.43	494.75
330.658	548.75
330.887	514.75
331.115	523.75
331.344	455.75
331.572	388.75
331.801	414.75
332.03	404.75
332.258	372.75
332.486	368.75
332.715	359.75
332.943	356.75
333.172	348.75
333.4	370.75
333.629	370.75
333.857	392.75
334.085	399.75
334.314	388.75
334.542	441.75
334.771	462.75
334.999	426.75
335.227	380.75
335.455	367.75
335.684	369.75
335.912	356.75
336.14	353.75
336.369	351.75
336.597	349.75
336.825	359.75
337.053	352.75
337.281	353.75
337.51	336.75
337.738	345.75
337.966	330.75
338.194	361.75
338.422	354.75
338.65	336.75
338.878	322.75
339.106	352.75
339.334	326.75
339.562	344.75
339.79	316.75
340.018	322.75
340.246	338.75
340.474	334.75
340.702	337.75
340.93	332.75
341.158	333.75
341.386	343.75
341.614	344.75
341.842	356.75
342.07	332.75
342.298	337.75
342.526	320.75
342.754	324.75
342.981	328.75
343.209	326.75
343.437	344.75
343.665	329.75
343.893	325.75
344.12	348.75
344.348	326.75
344.576	348.75
344.804	335.75
345.031	354.75
345.259	342.75
345.487	358.75
345.714	334.75
345.942	341.75
346.17	344.75
346.397	345.75
346.625	330.75
346.853	314.75
347.08	326.75
347.308	339.75
347.535	343.75
347.763	341.75
347.99	333.75
348.218	353.75
348.445	350.75
348.673	337.75
348.9	339.75
349.128	305.75
349.355	330.75
349.583	300.75
349.81	323.75
350.037	326.75
350.265	328.75
350.492	294.75
350.72	314.75
350.947	333.75
351.174	340.75
351.402	364.75
351.629	343.75
351.856	340.75
352.083	344.75
352.311	352.75
352.538	346.75
352.765	352.75
352.992	348.75
353.22	320.75
353.447	351.75
353.674	336.75
353.901	318.75
354.128	312.75
354.355	324.75
354.583	307.75
354.81	301.75
355.037	294.75
355.264	312.75
355.491	312.75
355.718	311.75
355.945	283.75
356.172	306.75
356.399	304.75
356.626	294.75
356.853	294.75
357.08	282.75
357.307	292.75
357.534	307.75
357.761	309.75
357.988	309.75
358.215	297.75
358.441	319.75
358.668	306.75
358.895	305.75
359.122	322.75
359.349	329.75
359.576	342.75
359.802	354.75
360.029	368.75
360.256	380.75
360.483	366.75
360.709	350.75
360.936	332.75
361.163	345.75
361.39	316.75
361.616	352.75
361.843	340.75
362.07	346.75
362.296	326.75
362.523	331.75
362.749	321.75
362.976	330.75
363.203	346.75
363.429	299.75
363.656	297.75
363.882	320.75
364.109	316.75
364.335	341.75
364.562	329.75
364.788	297.75
365.015	312.75
365.241	320.75
365.468	303.75
365.694	330.75
365.92	311.75
366.147	301.75
366.373	321.75
366.599	302.75
366.826	317.75
367.052	300.75
367.278	313.75
367.505	311.75
367.731	318.75
367.957	321.75
368.184	316.75
368.41	306.75
368.636	320.75
368.862	341.75
369.089	323.75
369.315	319.75
369.541	304.75
369.767	326.75
369.993	311.75
370.219	309.75
370.445	317.75
370.672	319.75
370.898	326.75
371.124	309.75
371.35	309.75
371.576	328.75
371.802	313.75
372.028	308.75
372.254	296.75
372.48	317.75
372.706	295.75
372.932	314.75
373.158	299.75
373.384	315.75
373.61	307.75
373.835	329.75
374.061	301.75
374.287	310.75
374.513	304.75
374.739	308.75
374.965	312.75
375.191	307.75
375.416	321.75
375.642	315.75
375.868	313.75
376.094	315.75
376.319	323.75
376.545	311.75
376.771	321.75
376.997	305.75
377.222	310.75
377.448	322.75
377.674	315.75
377.899	282.75
378.125	321.75
378.35	312.75
378.576	308.75
378.802	314.75
379.027	296.75
379.253	293.75
379.478	300.75
379.704	315.75
379.929	302.75
380.155	290.75
380.38	307.75
380.606	286.75
380.831	290.75
381.057	303.75
381.282	311.75
381.507	318.75
381.733	314.75
381.958	333.75
382.184	314.75
382.409	339.75
382.634	321.75
382.86	301.75
383.085	317.75
383.31	331.75
383.535	312.75
383.761	320.75
383.986	315.75
384.211	308.75
384.436	300.75
384.662	337.75
384.887	356.75
385.112	322.75
385.337	333.75
385.562	328.75
385.787	318.75
386.013	352.75
386.238	337.75
386.463	321.75
386.688	317.75
386.913	332.75
387.138	328.75
387.363	338.75
387.588	337.75
387.813	325.75
388.038	325.75
388.263	325.75
388.488	334.75
388.713	339.75
388.938	322.75
389.163	342.75
389.387	343.75
389.612	322.75
389.837	310.75
390.062	342.75
390.287	355.75
390.512	326.75
390.736	318.75
390.961	338.75
391.186	339.75
391.411	333.75
391.636	332.75
391.86	341.75
392.085	350.75
392.31	346.75
392.534	347.75
392.759	322.75
392.984	328.75
393.208	333.75
393.433	321.75
393.658	359.75
393.882	335.75
394.107	336.75
394.331	340.75
394.556	337.75
394.78	335.75
395.005	338.75
395.229	332.75
395.454	346.75
395.678	347.75
395.903	347.75
396.127	380.75
396.352	378.75
396.576	360.75
396.801	359.75
397.025	355.75
397.249	365.75
397.474	360.75
397.698	358.75
397.922	377.75
398.147	345.75
398.371	366.75
398.595	334.75
398.82	354.75
399.044	370.75
399.268	381.75
399.492	397.75
399.717	421.75
399.941	436.75
400.165	459.75
400.389	477.75
400.613	435.75
400.837	398.75
401.062	407.75
401.286	369.75
401.51	382.75
401.734	364.75
401.958	368.75
402.182	375.75
402.406	410.75
402.63	399.75
402.854	377.75
403.078	410.75
403.302	387.75
403.526	398.75
403.75	367.75
403.974	388.75
404.198	372.75
404.422	403.75
404.645	371.75
404.869	404.75
405.093	433.75
405.317	481.75
405.541	488.75
405.765	453.75
405.988	417.75
406.212	438.75
406.436	454.75
406.66	457.75
406.883	441.75
407.107	447.75
407.331	472.75
407.555	511.75
407.778	520.75
408.002	465.75
408.226	434.75
408.449	436.75
408.673	446.75
408.896	477.75
409.12	479.75
409.344	472.75
409.567	407.75
409.791	406.75
410.014	403.75
410.238	403.75
410.461	400.75
410.685	406.75
410.908	430.75
411.132	439.75
411.355	459.75
411.578	438.75
411.802	426.75
412.025	413.75
412.249	409.75
412.472	411.75
412.695	446.75
412.919	416.75
413.142	412.75
413.365	384.75
413.589	375.75
413.812	389.75
414.035	375.75
414.258	374.75
414.482	383.75
414.705	372.75
414.928	374.75
415.151	368.75
415.374	387.75
415.597	391.75
415.821	372.75
416.044	384.75
416.267	366.75
416.49	351.75
416.713	369.75
416.936	366.75
417.159	395.75
417.382	388.75
417.605	381.75
417.828	386.75
418.051	389.75
418.274	366.75
418.497	360.75
418.72	395.75
418.943	388.75
419.166	371.75
419.389	392.75
419.611	395.75
419.834	392.75
420.057	414.75
420.28	383.75
420.503	398.75
420.726	398.75
420.948	396.75
421.171	432.75
421.394	442.75
421.617	401.75
421.839	390.75
422.062	386.75
422.285	378.75
422.507	454.75
422.73	506.75
422.953	500.75
423.175	435.75
423.398	416.75
423.621	428.75
423.843	409.75
424.066	423.75
424.288	426.75
424.511	455.75
424.733	489.75
424.956	534.75
425.178	536.75
425.401	535.75
425.623	523.75
425.846	480.75
426.068	434.75
426.291	423.75
426.513	441.75
426.735	433.75
426.958	468.75
427.18	548.75
427.402	624.75
427.625	696.75
427.847	644.75
428.069	548.75
428.292	495.75
428.514	446.75
428.736	412.75
428.958	432.75
429.181	412.75
429.403	419.75
429.625	411.75
429.847	437.75
430.069	508.75
430.292	496.75
430.514	430.75
430.736	400.75
430.958	393.75
431.18	385.75
431.402	391.75
431.624	375.75
431.846	376.75
432.068	372.75
432.29	389.75
432.512	375.75
432.734	377.75
432.956	372.75
433.178	387.75
433.4	392.75
433.622	404.75
433.844	380.75
434.066	372.75
434.287	380.75
434.509	391.75
434.731	395.75
434.953	383.75
435.175	408.75
435.397	433.75
435.618	433.75
435.84	469.75
436.062	559.75
436.284	609.75
436.505	514.75
436.727	447.75
436.949	420.75
437.17	402.75
437.392	420.75
437.614	435.75
437.835	466.75
438.057	536.75
438.278	606.75
438.5	595.75
438.721	668.75
438.943	622.75
439.165	500.75
439.386	475.75
439.608	460.75
439.829	465.75
440.05	489.75
440.272	517.75
440.493	477.75
440.715	432.75
440.936	443.75
441.158	416.75
441.379	405.75
441.6	416.75
441.822	420.75
442.043	465.75
442.264	542.75
442.486	562.75
442.707	481.75
442.928	438.75
443.149	462.75
443.371	479.75
443.592	529.75
443.813	559.75
444.034	616.75
444.255	490.75
444.476	440.75
444.698	433.75
444.919	423.75
445.14	530.75
445.361	507.75
445.582	488.75
445.803	558.75
446.024	622.75
446.245	617.75
446.466	564.75
446.687	485.75
446.908	432.75
447.129	436.75
447.35	429.75
447.571	426.75
447.792	402.75
448.013	416.75
448.234	424.75
448.455	457.75
448.675	572.75
448.896	632.75
449.117	535.75
449.338	528.75
449.559	621.75
449.779	648.75
450	542.75
450.221	458.75
450.442	420.75
450.662	420.75
450.883	433.75
451.104	431.75
451.324	423.75
451.545	395.75
451.766	393.75
451.986	379.75
452.207	360.75
452.428	364.75
452.648	365.75
452.869	374.75
453.089	374.75
453.31	404.75
453.53	375.75
453.751	369.75
453.971	384.75
454.192	416.75
454.412	404.75
454.633	380.75
454.853	363.75
455.073	370.75
455.294	388.75
455.514	441.75
455.734	440.75
455.955	366.75
456.175	362.75
456.395	359.75
456.616	348.75
456.836	348.75
457.056	366.75
457.276	336.75
457.497	329.75
457.717	349.75
457.937	361.75
458.157	355.75
458.377	372.75
458.598	400.75
458.818	431.75
459.038	523.75
459.258	495.75
459.478	438.75
459.698	411.75
459.918	377.75
460.138	377.75
460.358	366.75
460.578	373.75
460.798	377.75
461.018	390.75
461.238	365.75
461.458	381.75
461.678	364.75
461.898	386.75
462.118	388.75
462.338	396.75
462.558	385.75
462.777	387.75
462.997	370.75
463.217	399.75
463.437	412.75
463.657	394.75
463.876	410.75
464.096	422.75
464.316	416.75
464.536	392.75
464.755	386.75
464.975	415.75
465.195	470.75
465.414	540.75
465.634	477.75
465.854	426.75
466.073	425.75
466.293	402.75
466.512	381.75
466.732	388.75
466.951	389.75
467.171	378.75
467.391	394.75
467.61	370.75
467.829	393.75
468.049	400.75
468.268	400.75
468.488	388.75
468.707	378.75
468.927	376.75
469.146	369.75
469.365	350.75
469.585	359.75
469.804	378.75
470.023	376.75
470.243	386.75
470.462	377.75
470.681	395.75
470.901	394.75
471.12	382.75
471.339	370.75
471.558	389.75
471.777	387.75
471.997	383.75
472.216	388.75
472.435	457.75
472.654	413.75
472.873	374.75
473.092	393.75
473.311	389.75
473.53	377.75
473.749	408.75
473.968	419.75
474.187	516.75
474.406	533.75
474.625	435.75
474.844	402.75
475.063	398.75
475.282	386.75
475.501	375.75
475.72	381.75
475.939	399.75
476.158	394.75
476.377	390.75
476.596	400.75
476.814	390.75
477.033	412.75
477.252	391.75
477.471	393.75
477.69	398.75
477.908	392.75
478.127	418.75
478.346	408.75
478.564	411.75
478.783	417.75
479.002	417.75
479.22	435.75
479.439	449.75
479.658	462.75
479.876	460.75
480.095	466.75
480.313	485.75
480.532	471.75
480.751	492.75
480.969	480.75
481.188	536.75
481.406	602.75
481.624	507.75
481.843	483.75
482.061	466.75
482.28	474.75
482.498	474.75
482.717	457.75
482.935	479.75
483.153	456.75
483.372	439.75
483.59	453.75
483.808	421.75
484.027	452.75
484.245	463.75
484.463	450.75
484.681	429.75
484.9	469.75
485.118	462.75
485.336	449.75
485.554	441.75
485.772	467.75
485.99	478.75
486.209	458.75
486.427	478.75
486.645	455.75
486.863	498.75
487.081	518.75
487.299	478.75
487.517	495.75
487.735	478.75
487.953	483.75
488.171	458.75
488.389	504.75
488.607	485.75
488.825	473.75
489.043	495.75
489.261	494.75
489.479	490.75
489.696	501.75
489.914	498.75
490.132	493.75
490.35	463.75
490.568	508.75
490.786	504.75
491.003	504.75
491.221	521.75
491.439	528.75
491.657	540.75
491.874	536.75
492.092	521.75
492.31	581.75
492.527	540.75
492.745	537.75
492.963	539.75
493.18	550.75
493.398	579.75
493.615	556.75
493.833	557.75
494.05	572.75
494.268	533.75
494.485	586.75
494.703	560.75
494.92	543.75
495.138	552.75
495.355	573.75
495.573	578.75
495.79	541.75
496.008	577.75
496.225	581.75
496.442	591.75
496.66	579.75
496.877	560.75
497.094	582.75
497.312	565.75
497.529	590.75
497.746	598.75
497.963	617.75
498.181	621.75
498.398	618.75
498.615	622.75
498.832	628.75
499.049	620.75
499.267	641.75
499.484	630.75
499.701	659.75
499.918	675.75
500.135	709.75
500.352	708.75
500.569	714.75
500.786	706.75
501.003	709.75
501.22	711.75
501.437	685.75
501.654	712.75
501.871	702.75
502.088	677.75
