Data from 1961.PennyLincolnUp.Lamp.En5.5.200Scan.071719.P1._HRD10591_13-49-12-058.txt Node
Date: Thu Jul 18 13:49:12 EDT 2019
User: cochatt
Spectrometer: HR+D1059
Trigger mode: 1
Integration Time (sec): 1.000000E-1
Scans to average: 1
Electric dark correction enabled: true
Nonlinearity correction enabled: false
Boxcar width: 0
XAxis mode: Wavelengths
Number of Pixels in Spectrum: 2048
>>>>>Begin Spectral Data<<<<<
223.165	-20.44
223.4	-20.44
223.635	-20.44
223.869	-29.44
224.104	-20.44
224.338	-14.44
224.573	-18.44
224.808	-0.44
225.042	-7.44
225.277	-1.44
225.511	-9.44
225.746	6.56
225.98	0.56
226.215	12.56
226.449	5.56
226.683	21.56
226.918	37.56
227.152	37.56
227.387	43.56
227.621	41.56
227.856	29.56
228.09	32.56
228.324	61.56
228.559	67.56
228.793	64.56
229.027	83.56
229.262	95.56
229.496	113.56
229.73	117.56
229.964	148.56
230.199	130.56
230.433	116.56
230.667	116.56
230.901	104.56
231.136	107.56
231.37	115.56
231.604	104.56
231.838	124.56
232.072	122.56
232.306	106.56
232.541	113.56
232.775	106.56
233.009	100.56
233.243	109.56
233.477	112.56
233.711	119.56
233.945	111.56
234.179	109.56
234.413	112.56
234.647	122.56
234.881	121.56
235.115	116.56
235.349	123.56
235.583	106.56
235.817	111.56
236.051	118.56
236.285	132.56
236.519	121.56
236.753	126.56
236.987	143.56
237.221	178.56
237.455	199.56
237.689	180.56
237.922	147.56
238.156	120.56
238.39	126.56
238.624	130.56
238.858	121.56
239.091	117.56
239.325	117.56
239.559	112.56
239.793	138.56
240.027	114.56
240.26	131.56
240.494	137.56
240.728	144.56
240.961	141.56
241.195	132.56
241.429	134.56
241.662	124.56
241.896	127.56
242.13	120.56
242.363	132.56
242.597	129.56
242.83	114.56
243.064	128.56
243.298	140.56
243.531	129.56
243.765	110.56
243.998	110.56
244.232	125.56
244.465	129.56
244.699	130.56
244.932	124.56
245.166	133.56
245.399	130.56
245.633	116.56
245.866	140.56
246.099	140.56
246.333	138.56
246.566	140.56
246.8	124.56
247.033	139.56
247.266	153.56
247.5	156.56
247.733	138.56
247.966	156.56
248.2	158.56
248.433	144.56
248.666	157.56
248.899	158.56
249.133	166.56
249.366	177.56
249.599	182.56
249.832	151.56
250.066	157.56
250.299	173.56
250.532	186.56
250.765	176.56
250.998	190.56
251.231	205.56
251.465	178.56
251.698	190.56
251.931	183.56
252.164	173.56
252.397	173.56
252.63	168.56
252.863	169.56
253.096	196.56
253.329	200.56
253.562	205.56
253.795	204.56
254.028	178.56
254.261	192.56
254.494	217.56
254.727	235.56
254.96	261.56
255.193	238.56
255.426	226.56
255.659	213.56
255.892	190.56
256.124	221.56
256.357	208.56
256.59	207.56
256.823	190.56
257.056	180.56
257.289	198.56
257.521	203.56
257.754	196.56
257.987	190.56
258.22	169.56
258.452	171.56
258.685	170.56
258.918	188.56
259.151	183.56
259.383	198.56
259.616	210.56
259.849	172.56
260.081	208.56
260.314	221.56
260.547	220.56
260.779	230.56
261.012	207.56
261.244	196.56
261.477	182.56
261.71	194.56
261.942	197.56
262.175	201.56
262.407	216.56
262.64	192.56
262.872	194.56
263.105	196.56
263.337	195.56
263.57	181.56
263.802	176.56
264.035	188.56
264.267	176.56
264.499	159.56
264.732	186.56
264.964	174.56
265.197	173.56
265.429	185.56
265.661	157.56
265.894	184.56
266.126	196.56
266.358	179.56
266.591	181.56
266.823	202.56
267.055	184.56
267.287	188.56
267.52	194.56
267.752	194.56
267.984	187.56
268.216	209.56
268.448	203.56
268.681	217.56
268.913	201.56
269.145	233.56
269.377	254.56
269.609	237.56
269.841	221.56
270.073	234.56
270.306	245.56
270.538	265.56
270.77	284.56
271.002	278.56
271.234	241.56
271.466	250.56
271.698	261.56
271.93	263.56
272.162	284.56
272.394	274.56
272.626	264.56
272.858	236.56
273.09	261.56
273.322	254.56
273.553	244.56
273.785	232.56
274.017	228.56
274.249	227.56
274.481	227.56
274.713	212.56
274.945	245.56
275.176	229.56
275.408	228.56
275.64	228.56
275.872	206.56
276.104	236.56
276.335	237.56
276.567	232.56
276.799	244.56
277.031	280.56
277.262	290.56
277.494	274.56
277.726	243.56
277.957	250.56
278.189	237.56
278.421	235.56
278.652	242.56
278.884	252.56
279.115	213.56
279.347	240.56
279.579	214.56
279.81	221.56
280.042	235.56
280.273	230.56
280.505	236.56
280.736	237.56
280.968	244.56
281.199	229.56
281.431	227.56
281.662	243.56
281.894	231.56
282.125	235.56
282.356	256.56
282.588	270.56
282.819	263.56
283.051	227.56
283.282	227.56
283.513	222.56
283.745	235.56
283.976	238.56
284.207	245.56
284.439	256.56
284.67	230.56
284.901	231.56
285.132	235.56
285.364	219.56
285.595	224.56
285.826	230.56
286.057	228.56
286.288	243.56
286.52	226.56
286.751	233.56
286.982	236.56
287.213	226.56
287.444	238.56
287.675	250.56
287.906	244.56
288.138	227.56
288.369	240.56
288.6	266.56
288.831	252.56
289.062	225.56
289.293	244.56
289.524	236.56
289.755	244.56
289.986	246.56
290.217	224.56
290.448	237.56
290.679	227.56
290.91	236.56
291.141	242.56
291.371	233.56
291.602	250.56
291.833	239.56
292.064	241.56
292.295	233.56
292.526	234.56
292.757	229.56
292.987	242.56
293.218	242.56
293.449	245.56
293.68	244.56
293.91	240.56
294.141	245.56
294.372	235.56
294.603	244.56
294.833	244.56
295.064	243.56
295.295	261.56
295.525	262.56
295.756	263.56
295.987	267.56
296.217	271.56
296.448	281.56
296.679	256.56
296.909	244.56
297.14	236.56
297.37	258.56
297.601	239.56
297.831	235.56
298.062	265.56
298.292	261.56
298.523	250.56
298.753	270.56
298.984	254.56
299.214	242.56
299.445	260.56
299.675	263.56
299.905	266.56
300.136	256.56
300.366	259.56
300.597	245.56
300.827	264.56
301.057	288.56
301.288	276.56
301.518	287.56
301.748	267.56
301.979	277.56
302.209	279.56
302.439	276.56
302.669	268.56
302.9	261.56
303.13	263.56
303.36	287.56
303.59	281.56
303.82	293.56
304.051	288.56
304.281	264.56
304.511	286.56
304.741	278.56
304.971	276.56
305.201	268.56
305.431	261.56
305.661	280.56
305.891	270.56
306.121	266.56
306.352	275.56
306.582	278.56
306.812	278.56
307.042	287.56
307.272	272.56
307.502	282.56
307.731	279.56
307.961	293.56
308.191	254.56
308.421	277.56
308.651	296.56
308.881	290.56
309.111	296.56
309.341	293.56
309.571	308.56
309.8	322.56
310.03	329.56
310.26	339.56
310.49	319.56
310.72	333.56
310.949	366.56
311.179	347.56
311.409	327.56
311.639	323.56
311.868	322.56
312.098	330.56
312.328	332.56
312.557	349.56
312.787	347.56
313.017	360.56
313.246	354.56
313.476	340.56
313.706	329.56
313.935	330.56
314.165	348.56
314.394	357.56
314.624	344.56
314.853	336.56
315.083	332.56
315.312	338.56
315.542	320.56
315.771	311.56
316.001	322.56
316.23	318.56
316.46	324.56
316.689	332.56
316.919	320.56
317.148	342.56
317.377	308.56
317.607	343.56
317.836	328.56
318.065	334.56
318.295	340.56
318.524	320.56
318.753	316.56
318.983	320.56
319.212	325.56
319.441	341.56
319.67	342.56
319.9	322.56
320.129	313.56
320.358	313.56
320.587	334.56
320.816	340.56
321.046	342.56
321.275	357.56
321.504	350.56
321.733	360.56
321.962	365.56
322.191	370.56
322.42	395.56
322.649	384.56
322.878	408.56
323.108	420.56
323.337	455.56
323.566	489.56
323.795	523.56
324.024	546.56
324.253	724.56
324.482	1096.56
324.71	1694.56
324.939	2345.56
325.168	1958.56
325.397	1014.56
325.626	683.56
325.855	542.56
326.084	491.56
326.313	514.56
326.542	525.56
326.77	544.56
326.999	675.56
327.228	950.56
327.457	1444.56
327.686	1705.56
327.914	1141.56
328.143	733.56
328.372	629.56
328.6	586.56
328.829	546.56
329.058	560.56
329.287	556.56
329.515	517.56
329.744	487.56
329.972	482.56
330.201	518.56
330.43	550.56
330.658	570.56
330.887	612.56
331.115	582.56
331.344	491.56
331.572	456.56
331.801	460.56
332.03	444.56
332.258	434.56
332.486	402.56
332.715	384.56
332.943	391.56
333.172	392.56
333.4	394.56
333.629	396.56
333.857	412.56
334.085	418.56
334.314	454.56
334.542	469.56
334.771	481.56
334.999	442.56
335.227	406.56
335.455	400.56
335.684	376.56
335.912	366.56
336.14	376.56
336.369	371.56
336.597	393.56
336.825	404.56
337.053	380.56
337.281	365.56
337.51	351.56
337.738	375.56
337.966	374.56
338.194	379.56
338.422	380.56
338.65	385.56
338.878	376.56
339.106	372.56
339.334	344.56
339.562	347.56
339.79	357.56
340.018	358.56
340.246	367.56
340.474	364.56
340.702	380.56
340.93	360.56
341.158	361.56
341.386	366.56
341.614	369.56
341.842	380.56
342.07	373.56
342.298	358.56
342.526	354.56
342.754	352.56
342.981	358.56
343.209	325.56
343.437	340.56
343.665	348.56
343.893	347.56
344.12	356.56
344.348	374.56
344.576	350.56
344.804	378.56
345.031	392.56
345.259	385.56
345.487	390.56
345.714	368.56
345.942	350.56
346.17	379.56
346.397	353.56
346.625	354.56
346.853	356.56
347.08	329.56
347.308	352.56
347.535	349.56
347.763	378.56
347.99	386.56
348.218	364.56
348.445	383.56
348.673	386.56
348.9	357.56
349.128	354.56
349.355	346.56
349.583	332.56
349.81	349.56
350.037	360.56
350.265	349.56
350.492	345.56
350.72	365.56
350.947	348.56
351.174	372.56
351.402	363.56
351.629	368.56
351.856	365.56
352.083	363.56
352.311	392.56
352.538	381.56
352.765	369.56
352.992	381.56
353.22	366.56
353.447	360.56
353.674	336.56
353.901	361.56
354.128	324.56
354.355	334.56
354.583	337.56
354.81	326.56
355.037	322.56
355.264	322.56
355.491	344.56
355.718	326.56
355.945	314.56
356.172	333.56
356.399	328.56
356.626	327.56
356.853	313.56
357.08	328.56
357.307	341.56
357.534	320.56
357.761	337.56
357.988	320.56
358.215	329.56
358.441	337.56
358.668	327.56
358.895	329.56
359.122	355.56
359.349	346.56
359.576	366.56
359.802	390.56
360.029	399.56
360.256	432.56
360.483	380.56
360.709	371.56
360.936	372.56
361.163	370.56
361.39	353.56
361.616	355.56
361.843	351.56
362.07	367.56
362.296	374.56
362.523	356.56
362.749	345.56
362.976	355.56
363.203	362.56
363.429	356.56
363.656	351.56
363.882	346.56
364.109	360.56
364.335	330.56
364.562	343.56
364.788	345.56
365.015	339.56
365.241	355.56
365.468	352.56
365.694	356.56
365.92	341.56
366.147	353.56
366.373	340.56
366.599	325.56
366.826	331.56
367.052	328.56
367.278	332.56
367.505	334.56
367.731	333.56
367.957	328.56
368.184	333.56
368.41	366.56
368.636	348.56
368.862	341.56
369.089	339.56
369.315	338.56
369.541	344.56
369.767	330.56
369.993	311.56
370.219	323.56
370.445	345.56
370.672	323.56
370.898	324.56
371.124	332.56
371.35	328.56
371.576	326.56
371.802	339.56
372.028	324.56
372.254	327.56
372.48	318.56
372.706	307.56
372.932	342.56
373.158	316.56
373.384	341.56
373.61	326.56
373.835	328.56
374.061	335.56
374.287	357.56
374.513	345.56
374.739	349.56
374.965	338.56
375.191	333.56
375.416	347.56
375.642	341.56
375.868	332.56
376.094	327.56
376.319	332.56
376.545	327.56
376.771	321.56
376.997	312.56
377.222	336.56
377.448	339.56
377.674	316.56
377.899	317.56
378.125	321.56
378.35	319.56
378.576	327.56
378.802	302.56
379.027	331.56
379.253	334.56
379.478	316.56
379.704	317.56
379.929	324.56
380.155	341.56
380.38	334.56
380.606	354.56
380.831	308.56
381.057	326.56
381.282	321.56
381.507	338.56
381.733	342.56
381.958	328.56
382.184	334.56
382.409	334.56
382.634	329.56
382.86	334.56
383.085	335.56
383.31	329.56
383.535	328.56
383.761	336.56
383.986	347.56
384.211	337.56
384.436	314.56
384.662	333.56
384.887	361.56
385.112	366.56
385.337	323.56
385.562	330.56
385.787	344.56
386.013	346.56
386.238	346.56
386.463	361.56
386.688	355.56
386.913	351.56
387.138	337.56
387.363	332.56
387.588	340.56
387.813	348.56
388.038	346.56
388.263	352.56
388.488	327.56
388.713	352.56
388.938	357.56
389.163	354.56
389.387	368.56
389.612	342.56
389.837	352.56
390.062	346.56
390.287	368.56
390.512	343.56
390.736	348.56
390.961	364.56
391.186	348.56
391.411	369.56
391.636	341.56
391.86	348.56
392.085	370.56
392.31	351.56
392.534	352.56
392.759	357.56
392.984	345.56
393.208	343.56
393.433	360.56
393.658	364.56
393.882	360.56
394.107	334.56
394.331	350.56
394.556	353.56
394.78	372.56
395.005	363.56
395.229	359.56
395.454	368.56
395.678	360.56
395.903	392.56
396.127	380.56
396.352	388.56
396.576	389.56
396.801	362.56
397.025	353.56
397.249	378.56
397.474	368.56
397.698	382.56
397.922	369.56
398.147	421.56
398.371	383.56
398.595	391.56
398.82	381.56
399.044	400.56
399.268	413.56
399.492	408.56
399.717	445.56
399.941	467.56
400.165	476.56
400.389	474.56
400.613	466.56
400.837	445.56
401.062	416.56
401.286	394.56
401.51	407.56
401.734	392.56
401.958	436.56
402.182	406.56
402.406	411.56
402.63	423.56
402.854	428.56
403.078	410.56
403.302	427.56
403.526	411.56
403.75	431.56
403.974	431.56
404.198	387.56
404.422	411.56
404.645	421.56
404.869	421.56
405.093	468.56
405.317	484.56
405.541	515.56
405.765	472.56
405.988	426.56
406.212	446.56
406.436	462.56
406.66	478.56
406.883	461.56
407.107	475.56
407.331	516.56
407.555	562.56
407.778	564.56
408.002	503.56
408.226	481.56
408.449	470.56
408.673	483.56
408.896	517.56
409.12	540.56
409.344	474.56
409.567	446.56
409.791	444.56
410.014	429.56
410.238	444.56
410.461	422.56
410.685	421.56
410.908	460.56
411.132	468.56
411.355	507.56
411.578	476.56
411.802	439.56
412.025	434.56
412.249	459.56
412.472	486.56
412.695	484.56
412.919	469.56
413.142	446.56
413.365	416.56
413.589	390.56
413.812	388.56
414.035	414.56
414.258	391.56
414.482	404.56
414.705	418.56
414.928	413.56
415.151	396.56
415.374	427.56
415.597	389.56
415.821	384.56
416.044	411.56
416.267	432.56
416.49	411.56
416.713	402.56
416.936	382.56
417.159	396.56
417.382	412.56
417.605	396.56
417.828	404.56
418.051	427.56
418.274	403.56
418.497	427.56
418.72	412.56
418.943	389.56
419.166	410.56
419.389	444.56
419.611	425.56
419.834	438.56
420.057	436.56
420.28	444.56
420.503	416.56
420.726	424.56
420.948	452.56
421.171	479.56
421.394	488.56
421.617	436.56
421.839	401.56
422.062	431.56
422.285	440.56
422.507	479.56
422.73	542.56
422.953	522.56
423.175	452.56
423.398	434.56
423.621	440.56
423.843	457.56
424.066	460.56
424.288	467.56
424.511	469.56
424.733	529.56
424.956	587.56
425.178	565.56
425.401	563.56
425.623	584.56
425.846	496.56
426.068	455.56
426.291	460.56
426.513	466.56
426.735	472.56
426.958	508.56
427.18	584.56
427.402	691.56
427.625	781.56
427.847	696.56
428.069	626.56
428.292	533.56
428.514	477.56
428.736	448.56
428.958	443.56
429.181	414.56
429.403	437.56
429.625	432.56
429.847	481.56
430.069	520.56
430.292	535.56
430.514	438.56
430.736	453.56
430.958	414.56
431.18	414.56
431.402	417.56
431.624	385.56
431.846	393.56
432.068	398.56
432.29	399.56
432.512	417.56
432.734	423.56
432.956	404.56
433.178	401.56
433.4	438.56
433.622	417.56
433.844	428.56
434.066	425.56
434.287	399.56
434.509	408.56
434.731	404.56
434.953	412.56
435.175	442.56
435.397	458.56
435.618	454.56
435.84	525.56
436.062	577.56
436.284	642.56
436.505	546.56
436.727	474.56
436.949	467.56
437.17	456.56
437.392	407.56
437.614	443.56
437.835	497.56
438.057	592.56
438.278	672.56
438.5	629.56
438.721	697.56
438.943	668.56
439.165	557.56
439.386	483.56
439.608	497.56
439.829	480.56
440.05	518.56
440.272	557.56
440.493	551.56
440.715	474.56
440.936	441.56
441.158	433.56
441.379	436.56
441.6	462.56
441.822	489.56
442.043	496.56
442.264	596.56
442.486	625.56
442.707	542.56
442.928	506.56
443.149	487.56
443.371	543.56
443.592	555.56
443.813	629.56
444.034	669.56
444.255	541.56
444.476	500.56
444.698	487.56
444.919	442.56
445.14	563.56
445.361	533.56
445.582	503.56
445.803	595.56
446.024	677.56
446.245	691.56
446.466	625.56
446.687	521.56
446.908	488.56
447.129	460.56
447.35	431.56
447.571	451.56
447.792	443.56
448.013	476.56
448.234	466.56
448.455	509.56
448.675	605.56
448.896	686.56
449.117	598.56
449.338	571.56
449.559	666.56
449.779	710.56
450	606.56
450.221	494.56
450.442	470.56
450.662	454.56
450.883	427.56
451.104	434.56
451.324	461.56
451.545	452.56
451.766	420.56
451.986	405.56
452.207	393.56
452.428	386.56
452.648	381.56
452.869	397.56
453.089	396.56
453.31	425.56
453.53	397.56
453.751	401.56
453.971	408.56
454.192	422.56
454.412	429.56
454.633	398.56
454.853	389.56
455.073	410.56
455.294	445.56
455.514	477.56
455.734	467.56
455.955	378.56
456.175	380.56
456.395	401.56
456.616	372.56
456.836	373.56
457.056	382.56
457.276	375.56
457.497	355.56
457.717	361.56
457.937	379.56
458.157	380.56
458.377	379.56
458.598	415.56
458.818	462.56
459.038	564.56
459.258	554.56
459.478	476.56
459.698	407.56
459.918	415.56
460.138	383.56
460.358	398.56
460.578	410.56
460.798	387.56
461.018	397.56
461.238	418.56
461.458	409.56
461.678	389.56
461.898	395.56
462.118	388.56
462.338	415.56
462.558	419.56
462.777	415.56
462.997	441.56
463.217	434.56
463.437	416.56
463.657	427.56
463.876	404.56
464.096	426.56
464.316	420.56
464.536	429.56
464.755	436.56
464.975	443.56
465.195	490.56
465.414	576.56
465.634	501.56
465.854	469.56
466.073	428.56
466.293	408.56
466.512	385.56
466.732	404.56
466.951	382.56
467.171	401.56
467.391	394.56
467.61	399.56
467.829	418.56
468.049	420.56
468.268	421.56
468.488	399.56
468.707	402.56
468.927	397.56
469.146	386.56
469.365	402.56
469.585	390.56
469.804	399.56
470.023	410.56
470.243	406.56
470.462	427.56
470.681	426.56
470.901	427.56
471.12	399.56
471.339	406.56
471.558	394.56
471.777	409.56
471.997	401.56
472.216	397.56
472.435	438.56
472.654	447.56
472.873	401.56
473.092	424.56
473.311	410.56
473.53	426.56
473.749	412.56
473.968	461.56
474.187	554.56
474.406	582.56
474.625	475.56
474.844	414.56
475.063	412.56
475.282	411.56
475.501	409.56
475.72	406.56
475.939	410.56
476.158	398.56
476.377	413.56
476.596	432.56
476.814	426.56
477.033	429.56
477.252	414.56
477.471	420.56
477.69	420.56
477.908	468.56
478.127	454.56
478.346	444.56
478.564	431.56
478.783	445.56
479.002	457.56
479.22	453.56
479.439	476.56
479.658	503.56
479.876	489.56
480.095	472.56
480.313	498.56
480.532	504.56
480.751	482.56
480.969	526.56
481.188	586.56
481.406	661.56
481.624	549.56
481.843	537.56
482.061	497.56
482.28	483.56
482.498	493.56
482.717	479.56
482.935	475.56
483.153	485.56
483.372	506.56
483.59	481.56
483.808	463.56
484.027	493.56
484.245	473.56
484.463	478.56
484.681	501.56
484.9	462.56
485.118	499.56
485.336	477.56
485.554	500.56
485.772	478.56
485.99	483.56
486.209	495.56
486.427	483.56
486.645	517.56
486.863	545.56
487.081	536.56
487.299	530.56
487.517	501.56
487.735	520.56
487.953	504.56
488.171	511.56
488.389	502.56
488.607	502.56
488.825	504.56
489.043	518.56
489.261	517.56
489.479	526.56
489.696	526.56
489.914	508.56
490.132	534.56
490.35	528.56
490.568	545.56
490.786	551.56
491.003	557.56
491.221	534.56
491.439	551.56
491.657	596.56
491.874	564.56
492.092	604.56
492.31	595.56
492.527	594.56
492.745	585.56
492.963	579.56
493.18	595.56
493.398	586.56
493.615	599.56
493.833	608.56
494.05	597.56
494.268	584.56
494.485	604.56
494.703	596.56
494.92	585.56
495.138	603.56
495.355	619.56
495.573	621.56
495.79	617.56
496.008	608.56
496.225	595.56
496.442	619.56
496.66	606.56
496.877	608.56
497.094	608.56
497.312	642.56
497.529	629.56
497.746	644.56
497.963	656.56
498.181	661.56
498.398	660.56
498.615	669.56
498.832	685.56
499.049	689.56
499.267	672.56
499.484	694.56
499.701	710.56
499.918	726.56
500.135	726.56
500.352	756.56
500.569	767.56
500.786	760.56
501.003	788.56
501.22	764.56
501.437	760.56
501.654	738.56
501.871	754.56
