Data from 1961.PennyLincolnUp.Lamp.En5.5.200Scan.071719.P1._HRD10591_13-48-20-057.txt Node
Date: Thu Jul 18 13:48:20 EDT 2019
User: cochatt
Spectrometer: HR+D1059
Trigger mode: 1
Integration Time (sec): 1.000000E-1
Scans to average: 1
Electric dark correction enabled: true
Nonlinearity correction enabled: false
Boxcar width: 0
XAxis mode: Wavelengths
Number of Pixels in Spectrum: 2048
>>>>>Begin Spectral Data<<<<<
223.165	-11.12
223.4	-11.12
223.635	-11.12
223.869	-10.12
224.104	-12.12
224.338	-12.12
224.573	-13.12
224.808	-9.12
225.042	-21.12
225.277	1.88
225.511	-3.12
225.746	-0.12
225.98	-5.12
226.215	4.88
226.449	16.88
226.683	22.88
226.918	21.88
227.152	28.88
227.387	27.88
227.621	43.88
227.856	30.88
228.09	44.88
228.324	48.88
228.559	46.88
228.793	56.88
229.027	84.88
229.262	99.88
229.496	104.88
229.73	117.88
229.964	140.88
230.199	118.88
230.433	101.88
230.667	113.88
230.901	110.88
231.136	93.88
231.37	102.88
231.604	129.88
231.838	108.88
232.072	106.88
232.306	105.88
232.541	98.88
232.775	113.88
233.009	95.88
233.243	111.88
233.477	100.88
233.711	100.88
233.945	105.88
234.179	90.88
234.413	100.88
234.647	100.88
234.881	110.88
235.115	113.88
235.349	119.88
235.583	120.88
235.817	114.88
236.051	114.88
236.285	124.88
236.519	123.88
236.753	120.88
236.987	138.88
237.221	151.88
237.455	194.88
237.689	170.88
237.922	131.88
238.156	105.88
238.39	133.88
238.624	108.88
238.858	97.88
239.091	104.88
239.325	113.88
239.559	114.88
239.793	104.88
240.027	123.88
240.26	137.88
240.494	150.88
240.728	138.88
240.961	129.88
241.195	131.88
241.429	130.88
241.662	132.88
241.896	121.88
242.13	123.88
242.363	118.88
242.597	113.88
242.83	112.88
243.064	112.88
243.298	124.88
243.531	120.88
243.765	125.88
243.998	90.88
244.232	119.88
244.465	111.88
244.699	129.88
244.932	121.88
245.166	136.88
245.399	121.88
245.633	120.88
245.866	121.88
246.099	123.88
246.333	132.88
246.566	136.88
246.8	137.88
247.033	126.88
247.266	141.88
247.5	134.88
247.733	156.88
247.966	151.88
248.2	164.88
248.433	150.88
248.666	123.88
248.899	167.88
249.133	181.88
249.366	190.88
249.599	181.88
249.832	155.88
250.066	157.88
250.299	156.88
250.532	177.88
250.765	173.88
250.998	188.88
251.231	193.88
251.465	197.88
251.698	184.88
251.931	174.88
252.164	167.88
252.397	169.88
252.63	184.88
252.863	171.88
253.096	178.88
253.329	195.88
253.562	186.88
253.795	175.88
254.028	183.88
254.261	179.88
254.494	191.88
254.727	221.88
254.96	222.88
255.193	228.88
255.426	214.88
255.659	181.88
255.892	202.88
256.124	206.88
256.357	212.88
256.59	193.88
256.823	180.88
257.056	191.88
257.289	193.88
257.521	168.88
257.754	186.88
257.987	172.88
258.22	169.88
258.452	160.88
258.685	183.88
258.918	172.88
259.151	187.88
259.383	178.88
259.616	171.88
259.849	179.88
260.081	188.88
260.314	211.88
260.547	229.88
260.779	220.88
261.012	188.88
261.244	194.88
261.477	207.88
261.71	185.88
261.942	202.88
262.175	211.88
262.407	197.88
262.64	185.88
262.872	182.88
263.105	173.88
263.337	184.88
263.57	188.88
263.802	184.88
264.035	170.88
264.267	168.88
264.499	190.88
264.732	182.88
264.964	171.88
265.197	193.88
265.429	175.88
265.661	175.88
265.894	193.88
266.126	179.88
266.358	186.88
266.591	179.88
266.823	175.88
267.055	192.88
267.287	186.88
267.52	196.88
267.752	189.88
267.984	198.88
268.216	210.88
268.448	187.88
268.681	211.88
268.913	212.88
269.145	222.88
269.377	211.88
269.609	227.88
269.841	215.88
270.073	228.88
270.306	237.88
270.538	252.88
270.77	251.88
271.002	250.88
271.234	239.88
271.466	239.88
271.698	256.88
271.93	268.88
272.162	272.88
272.394	257.88
272.626	239.88
272.858	245.88
273.09	248.88
273.322	250.88
273.553	223.88
273.785	225.88
274.017	204.88
274.249	204.88
274.481	219.88
274.713	232.88
274.945	224.88
275.176	222.88
275.408	214.88
275.64	223.88
275.872	202.88
276.104	219.88
276.335	236.88
276.567	214.88
276.799	233.88
277.031	264.88
277.262	241.88
277.494	261.88
277.726	253.88
277.957	244.88
278.189	214.88
278.421	224.88
278.652	229.88
278.884	200.88
279.115	226.88
279.347	205.88
279.579	241.88
279.81	208.88
280.042	220.88
280.273	236.88
280.505	220.88
280.736	203.88
280.968	227.88
281.199	216.88
281.431	210.88
281.662	223.88
281.894	212.88
282.125	230.88
282.356	247.88
282.588	249.88
282.819	243.88
283.051	236.88
283.282	213.88
283.513	209.88
283.745	228.88
283.976	229.88
284.207	223.88
284.439	225.88
284.67	202.88
284.901	223.88
285.132	222.88
285.364	219.88
285.595	225.88
285.826	207.88
286.057	224.88
286.288	253.88
286.52	236.88
286.751	229.88
286.982	223.88
287.213	216.88
287.444	223.88
287.675	247.88
287.906	234.88
288.138	227.88
288.369	235.88
288.6	235.88
288.831	241.88
289.062	240.88
289.293	242.88
289.524	215.88
289.755	233.88
289.986	239.88
290.217	227.88
290.448	222.88
290.679	236.88
290.91	222.88
291.141	235.88
291.371	228.88
291.602	228.88
291.833	212.88
292.064	231.88
292.295	219.88
292.526	231.88
292.757	236.88
292.987	217.88
293.218	232.88
293.449	228.88
293.68	236.88
293.91	242.88
294.141	222.88
294.372	223.88
294.603	229.88
294.833	227.88
295.064	232.88
295.295	242.88
295.525	231.88
295.756	253.88
295.987	234.88
296.217	273.88
296.448	265.88
296.679	263.88
296.909	220.88
297.14	242.88
297.37	246.88
297.601	233.88
297.831	241.88
298.062	239.88
298.292	255.88
298.523	232.88
298.753	228.88
298.984	228.88
299.214	228.88
299.445	257.88
299.675	244.88
299.905	256.88
300.136	251.88
300.366	265.88
300.597	233.88
300.827	251.88
301.057	267.88
301.288	261.88
301.518	257.88
301.748	244.88
301.979	248.88
302.209	263.88
302.439	267.88
302.669	268.88
302.9	246.88
303.13	263.88
303.36	261.88
303.59	259.88
303.82	259.88
304.051	274.88
304.281	281.88
304.511	281.88
304.741	255.88
304.971	267.88
305.201	265.88
305.431	235.88
305.661	243.88
305.891	246.88
306.121	235.88
306.352	275.88
306.582	269.88
306.812	245.88
307.042	258.88
307.272	247.88
307.502	265.88
307.731	259.88
307.961	282.88
308.191	265.88
308.421	269.88
308.651	277.88
308.881	265.88
309.111	276.88
309.341	277.88
309.571	279.88
309.8	281.88
310.03	297.88
310.26	318.88
310.49	310.88
310.72	311.88
310.949	350.88
311.179	343.88
311.409	311.88
311.639	297.88
311.868	321.88
312.098	329.88
312.328	314.88
312.557	335.88
312.787	335.88
313.017	348.88
313.246	311.88
313.476	322.88
313.706	321.88
313.935	293.88
314.165	329.88
314.394	335.88
314.624	328.88
314.853	330.88
315.083	306.88
315.312	295.88
315.542	303.88
315.771	293.88
316.001	299.88
316.23	292.88
316.46	309.88
316.689	302.88
316.919	323.88
317.148	337.88
317.377	319.88
317.607	332.88
317.836	300.88
318.065	311.88
318.295	319.88
318.524	309.88
318.753	319.88
318.983	314.88
319.212	345.88
319.441	326.88
319.67	321.88
319.9	323.88
320.129	303.88
320.358	308.88
320.587	313.88
320.816	323.88
321.046	322.88
321.275	329.88
321.504	330.88
321.733	346.88
321.962	345.88
322.191	364.88
322.42	375.88
322.649	374.88
322.878	398.88
323.108	419.88
323.337	433.88
323.566	439.88
323.795	481.88
324.024	524.88
324.253	686.88
324.482	1007.88
324.71	1575.88
324.939	2202.88
325.168	1833.88
325.397	947.88
325.626	644.88
325.855	505.88
326.084	487.88
326.313	471.88
326.542	461.88
326.77	497.88
326.999	637.88
327.228	903.88
327.457	1350.88
327.686	1580.88
327.914	1069.88
328.143	699.88
328.372	610.88
328.6	560.88
328.829	539.88
329.058	537.88
329.287	533.88
329.515	491.88
329.744	457.88
329.972	452.88
330.201	468.88
330.43	490.88
330.658	551.88
330.887	558.88
331.115	533.88
331.344	463.88
331.572	449.88
331.801	420.88
332.03	421.88
332.258	422.88
332.486	386.88
332.715	385.88
332.943	361.88
333.172	362.88
333.4	383.88
333.629	392.88
333.857	381.88
334.085	396.88
334.314	431.88
334.542	456.88
334.771	467.88
334.999	416.88
335.227	408.88
335.455	388.88
335.684	370.88
335.912	364.88
336.14	361.88
336.369	376.88
336.597	367.88
336.825	375.88
337.053	363.88
337.281	380.88
337.51	349.88
337.738	321.88
337.966	352.88
338.194	351.88
338.422	374.88
338.65	353.88
338.878	337.88
339.106	368.88
339.334	351.88
339.562	349.88
339.79	332.88
340.018	346.88
340.246	357.88
340.474	345.88
340.702	371.88
340.93	353.88
341.158	346.88
341.386	347.88
341.614	336.88
341.842	335.88
342.07	342.88
342.298	343.88
342.526	337.88
342.754	343.88
342.981	343.88
343.209	335.88
343.437	344.88
343.665	327.88
343.893	353.88
344.12	354.88
344.348	345.88
344.576	326.88
344.804	346.88
345.031	374.88
345.259	379.88
345.487	351.88
345.714	356.88
345.942	340.88
346.17	339.88
346.397	336.88
346.625	349.88
346.853	339.88
347.08	344.88
347.308	340.88
347.535	358.88
347.763	367.88
347.99	355.88
348.218	361.88
348.445	348.88
348.673	336.88
348.9	331.88
349.128	345.88
349.355	339.88
349.583	303.88
349.81	328.88
350.037	307.88
350.265	328.88
350.492	319.88
350.72	320.88
350.947	328.88
351.174	349.88
351.402	347.88
351.629	347.88
351.856	338.88
352.083	355.88
352.311	349.88
352.538	364.88
352.765	348.88
352.992	350.88
353.22	358.88
353.447	344.88
353.674	343.88
353.901	321.88
354.128	324.88
354.355	312.88
354.583	318.88
354.81	307.88
355.037	285.88
355.264	299.88
355.491	299.88
355.718	288.88
355.945	307.88
356.172	314.88
356.399	306.88
356.626	310.88
356.853	319.88
357.08	300.88
357.307	308.88
357.534	298.88
357.761	313.88
357.988	315.88
358.215	314.88
358.441	321.88
358.668	329.88
358.895	325.88
359.122	323.88
359.349	324.88
359.576	347.88
359.802	360.88
360.029	380.88
360.256	391.88
360.483	398.88
360.709	355.88
360.936	352.88
361.163	318.88
361.39	346.88
361.616	344.88
361.843	313.88
362.07	323.88
362.296	328.88
362.523	345.88
362.749	317.88
362.976	309.88
363.203	329.88
363.429	313.88
363.656	312.88
363.882	330.88
364.109	303.88
364.335	322.88
364.562	329.88
364.788	318.88
365.015	328.88
365.241	330.88
365.468	332.88
365.694	319.88
365.92	327.88
366.147	339.88
366.373	327.88
366.599	307.88
366.826	311.88
367.052	311.88
367.278	307.88
367.505	308.88
367.731	323.88
367.957	326.88
368.184	317.88
368.41	328.88
368.636	340.88
368.862	346.88
369.089	308.88
369.315	336.88
369.541	327.88
369.767	330.88
369.993	301.88
370.219	307.88
370.445	309.88
370.672	313.88
370.898	321.88
371.124	306.88
371.35	316.88
371.576	313.88
371.802	305.88
372.028	317.88
372.254	298.88
372.48	298.88
372.706	322.88
372.932	320.88
373.158	317.88
373.384	309.88
373.61	325.88
373.835	316.88
374.061	305.88
374.287	327.88
374.513	321.88
374.739	323.88
374.965	311.88
375.191	314.88
375.416	333.88
375.642	315.88
375.868	322.88
376.094	313.88
376.319	315.88
376.545	305.88
376.771	306.88
376.997	313.88
377.222	327.88
377.448	314.88
377.674	312.88
377.899	306.88
378.125	322.88
378.35	311.88
378.576	300.88
378.802	283.88
379.027	299.88
379.253	313.88
379.478	307.88
379.704	309.88
379.929	311.88
380.155	290.88
380.38	303.88
380.606	292.88
380.831	312.88
381.057	320.88
381.282	338.88
381.507	316.88
381.733	329.88
381.958	323.88
382.184	311.88
382.409	326.88
382.634	319.88
382.86	309.88
383.085	310.88
383.31	311.88
383.535	335.88
383.761	320.88
383.986	319.88
384.211	323.88
384.436	323.88
384.662	322.88
384.887	313.88
385.112	347.88
385.337	346.88
385.562	327.88
385.787	331.88
386.013	339.88
386.238	343.88
386.463	345.88
386.688	363.88
386.913	329.88
387.138	324.88
387.363	331.88
387.588	336.88
387.813	325.88
388.038	349.88
388.263	329.88
388.488	327.88
388.713	338.88
388.938	337.88
389.163	356.88
389.387	351.88
389.612	340.88
389.837	323.88
390.062	328.88
390.287	343.88
390.512	326.88
390.736	335.88
390.961	345.88
391.186	324.88
391.411	321.88
391.636	320.88
391.86	326.88
392.085	350.88
392.31	330.88
392.534	335.88
392.759	340.88
392.984	341.88
393.208	337.88
393.433	335.88
393.658	316.88
393.882	334.88
394.107	341.88
394.331	333.88
394.556	323.88
394.78	332.88
395.005	328.88
395.229	335.88
395.454	345.88
395.678	346.88
395.903	360.88
396.127	384.88
396.352	377.88
396.576	373.88
396.801	343.88
397.025	353.88
397.249	351.88
397.474	348.88
397.698	372.88
397.922	364.88
398.147	391.88
398.371	373.88
398.595	363.88
398.82	375.88
399.044	383.88
399.268	389.88
399.492	389.88
399.717	409.88
399.941	439.88
400.165	448.88
400.389	468.88
400.613	445.88
400.837	375.88
401.062	395.88
401.286	396.88
401.51	383.88
401.734	378.88
401.958	366.88
402.182	384.88
402.406	378.88
402.63	414.88
402.854	397.88
403.078	409.88
403.302	389.88
403.526	417.88
403.75	405.88
403.974	391.88
404.198	386.88
404.422	397.88
404.645	405.88
404.869	412.88
405.093	435.88
405.317	461.88
405.541	479.88
405.765	452.88
405.988	433.88
406.212	437.88
406.436	440.88
406.66	465.88
406.883	461.88
407.107	465.88
407.331	487.88
407.555	547.88
407.778	525.88
408.002	507.88
408.226	461.88
408.449	457.88
408.673	434.88
408.896	452.88
409.12	499.88
409.344	456.88
409.567	409.88
409.791	423.88
410.014	407.88
410.238	395.88
410.461	408.88
410.685	401.88
410.908	396.88
411.132	443.88
411.355	478.88
411.578	457.88
411.802	404.88
412.025	406.88
412.249	411.88
412.472	431.88
412.695	488.88
412.919	449.88
413.142	434.88
413.365	407.88
413.589	386.88
413.812	375.88
414.035	387.88
414.258	372.88
414.482	377.88
414.705	393.88
414.928	385.88
415.151	384.88
415.374	396.88
415.597	385.88
415.821	381.88
416.044	367.88
416.267	388.88
416.49	390.88
416.713	391.88
416.936	364.88
417.159	379.88
417.382	387.88
417.605	379.88
417.828	378.88
418.051	412.88
418.274	391.88
418.497	376.88
418.72	375.88
418.943	397.88
419.166	393.88
419.389	427.88
419.611	410.88
419.834	409.88
420.057	391.88
420.28	390.88
420.503	407.88
420.726	393.88
420.948	393.88
421.171	444.88
421.394	453.88
421.617	410.88
421.839	411.88
422.062	395.88
422.285	406.88
422.507	466.88
422.73	530.88
422.953	509.88
423.175	438.88
423.398	427.88
423.621	414.88
423.843	434.88
424.066	436.88
424.288	435.88
424.511	455.88
424.733	523.88
424.956	568.88
425.178	535.88
425.401	557.88
425.623	562.88
425.846	471.88
426.068	457.88
426.291	427.88
426.513	423.88
426.735	455.88
426.958	490.88
427.18	550.88
427.402	649.88
427.625	749.88
427.847	661.88
428.069	548.88
428.292	497.88
428.514	446.88
428.736	429.88
428.958	416.88
429.181	405.88
429.403	412.88
429.625	411.88
429.847	443.88
430.069	496.88
430.292	484.88
430.514	412.88
430.736	407.88
430.958	417.88
431.18	396.88
431.402	384.88
431.624	376.88
431.846	376.88
432.068	360.88
432.29	373.88
432.512	385.88
432.734	398.88
432.956	406.88
433.178	407.88
433.4	411.88
433.622	415.88
433.844	423.88
434.066	385.88
434.287	393.88
434.509	402.88
434.731	369.88
434.953	399.88
435.175	406.88
435.397	432.88
435.618	428.88
435.84	493.88
436.062	537.88
436.284	617.88
436.505	534.88
436.727	459.88
436.949	433.88
437.17	405.88
437.392	434.88
437.614	425.88
437.835	449.88
438.057	538.88
438.278	663.88
438.5	620.88
438.721	671.88
438.943	619.88
439.165	493.88
439.386	487.88
439.608	464.88
439.829	471.88
440.05	518.88
440.272	549.88
440.493	511.88
440.715	449.88
440.936	443.88
441.158	410.88
441.379	420.88
441.6	431.88
441.822	442.88
442.043	492.88
442.264	564.88
442.486	581.88
442.707	505.88
442.928	463.88
443.149	450.88
443.371	481.88
443.592	529.88
443.813	597.88
444.034	645.88
444.255	507.88
444.476	457.88
444.698	465.88
444.919	439.88
445.14	526.88
445.361	509.88
445.582	489.88
445.803	555.88
446.024	639.88
446.245	634.88
446.466	593.88
446.687	507.88
446.908	451.88
447.129	434.88
447.35	426.88
447.571	405.88
447.792	401.88
448.013	412.88
448.234	443.88
448.455	486.88
448.675	579.88
448.896	658.88
449.117	567.88
449.338	532.88
449.559	633.88
449.779	681.88
450	580.88
450.221	481.88
450.442	435.88
450.662	417.88
450.883	428.88
451.104	452.88
451.324	441.88
451.545	421.88
451.766	393.88
451.986	392.88
452.207	383.88
452.428	378.88
452.648	375.88
452.869	358.88
453.089	395.88
453.31	382.88
453.53	389.88
453.751	376.88
453.971	364.88
454.192	396.88
454.412	395.88
454.633	371.88
454.853	383.88
455.073	377.88
455.294	422.88
455.514	453.88
455.734	460.88
455.955	378.88
456.175	343.88
456.395	357.88
456.616	355.88
456.836	349.88
457.056	348.88
457.276	355.88
457.497	354.88
457.717	358.88
457.937	364.88
458.157	357.88
458.377	377.88
458.598	394.88
458.818	415.88
459.038	524.88
459.258	541.88
459.478	458.88
459.698	385.88
459.918	392.88
460.138	386.88
460.358	379.88
460.578	376.88
460.798	374.88
461.018	384.88
461.238	383.88
461.458	385.88
461.678	379.88
461.898	389.88
462.118	384.88
462.338	376.88
462.558	397.88
462.777	390.88
462.997	404.88
463.217	393.88
463.437	427.88
463.657	391.88
463.876	408.88
464.096	411.88
464.316	397.88
464.536	417.88
464.755	399.88
464.975	420.88
465.195	462.88
465.414	571.88
465.634	489.88
465.854	441.88
466.073	415.88
466.293	427.88
466.512	403.88
466.732	373.88
466.951	385.88
467.171	376.88
467.391	377.88
467.61	399.88
467.829	407.88
468.049	388.88
468.268	397.88
468.488	387.88
468.707	364.88
468.927	388.88
469.146	360.88
469.365	376.88
469.585	363.88
469.804	360.88
470.023	392.88
470.243	395.88
470.462	393.88
470.681	405.88
470.901	395.88
471.12	397.88
471.339	388.88
471.558	402.88
471.777	385.88
471.997	389.88
472.216	408.88
472.435	424.88
472.654	431.88
472.873	415.88
473.092	391.88
473.311	372.88
473.53	392.88
473.749	391.88
473.968	451.88
474.187	524.88
474.406	541.88
474.625	451.88
474.844	411.88
475.063	405.88
475.282	374.88
475.501	396.88
475.72	400.88
475.939	400.88
476.158	413.88
476.377	401.88
476.596	395.88
476.814	399.88
477.033	401.88
477.252	409.88
477.471	406.88
477.69	413.88
477.908	400.88
478.127	410.88
478.346	419.88
478.564	413.88
478.783	438.88
479.002	439.88
479.22	460.88
479.439	441.88
479.658	465.88
479.876	451.88
480.095	464.88
480.313	492.88
480.532	483.88
480.751	467.88
480.969	507.88
481.188	552.88
481.406	605.88
481.624	529.88
481.843	489.88
482.061	467.88
482.28	458.88
482.498	441.88
482.717	463.88
482.935	470.88
483.153	468.88
483.372	451.88
483.59	476.88
483.808	469.88
484.027	445.88
484.245	455.88
484.463	439.88
484.681	457.88
484.9	448.88
485.118	466.88
485.336	457.88
485.554	456.88
485.772	463.88
485.99	455.88
486.209	469.88
486.427	478.88
486.645	528.88
486.863	496.88
487.081	503.88
487.299	501.88
487.517	511.88
487.735	487.88
487.953	477.88
488.171	480.88
488.389	480.88
488.607	487.88
488.825	487.88
489.043	482.88
489.261	516.88
489.479	497.88
489.696	500.88
489.914	497.88
490.132	496.88
490.35	523.88
490.568	512.88
490.786	534.88
491.003	533.88
491.221	516.88
491.439	564.88
491.657	536.88
491.874	573.88
492.092	546.88
492.31	562.88
492.527	554.88
492.745	554.88
492.963	561.88
493.18	585.88
493.398	585.88
493.615	600.88
493.833	579.88
494.05	574.88
494.268	564.88
494.485	575.88
494.703	572.88
494.92	552.88
495.138	571.88
495.355	575.88
495.573	583.88
495.79	583.88
496.008	562.88
496.225	582.88
496.442	587.88
496.66	595.88
496.877	571.88
497.094	585.88
497.312	596.88
497.529	619.88
497.746	587.88
497.963	607.88
498.181	606.88
498.398	604.88
498.615	624.88
498.832	649.88
499.049	664.88
499.267	657.88
499.484	650.88
499.701	661.88
499.918	696.88
500.135	708.88
500.352	685.88
500.569	705.88
500.786	739.88
501.003	707.88
501.22	731.88
501.437	720.88
501.654	707.88
501.871	721.88
502.088	673.88
