Data from 1961.PennyLincolnUp.Lamp.En5.5.200Scan.071719.P1._HRD10591_13-48-26-058.txt Node
Date: Thu Jul 18 13:48:26 EDT 2019
User: cochatt
Spectrometer: HR+D1059
Trigger mode: 1
Integration Time (sec): 1.000000E-1
Scans to average: 1
Electric dark correction enabled: true
Nonlinearity correction enabled: false
Boxcar width: 0
XAxis mode: Wavelengths
Number of Pixels in Spectrum: 2048
>>>>>Begin Spectral Data<<<<<
223.165	-13.44
223.4	-13.44
223.635	-13.44
223.869	-24.44
224.104	-22.44
224.338	-20.44
224.573	-12.44
224.808	-13.44
225.042	3.56
225.277	-8.44
225.511	3.56
225.746	0.56
225.98	4.56
226.215	21.56
226.449	8.56
226.683	19.56
226.918	16.56
227.152	36.56
227.387	23.56
227.621	52.56
227.856	54.56
228.09	41.56
228.324	48.56
228.559	58.56
228.793	72.56
229.027	86.56
229.262	101.56
229.496	115.56
229.73	120.56
229.964	161.56
230.199	130.56
230.433	95.56
230.667	118.56
230.901	106.56
231.136	103.56
231.37	114.56
231.604	106.56
231.838	107.56
232.072	109.56
232.306	110.56
232.541	99.56
232.775	96.56
233.009	111.56
233.243	111.56
233.477	109.56
233.711	126.56
233.945	114.56
234.179	111.56
234.413	118.56
234.647	108.56
234.881	121.56
235.115	112.56
235.349	109.56
235.583	110.56
235.817	106.56
236.051	128.56
236.285	123.56
236.519	114.56
236.753	132.56
236.987	148.56
237.221	180.56
237.455	223.56
237.689	178.56
237.922	151.56
238.156	128.56
238.39	128.56
238.624	121.56
238.858	110.56
239.091	126.56
239.325	121.56
239.559	128.56
239.793	125.56
240.027	134.56
240.26	138.56
240.494	146.56
240.728	142.56
240.961	132.56
241.195	144.56
241.429	139.56
241.662	130.56
241.896	138.56
242.13	128.56
242.363	137.56
242.597	126.56
242.83	127.56
243.064	128.56
243.298	130.56
243.531	137.56
243.765	128.56
243.998	144.56
244.232	134.56
244.465	133.56
244.699	115.56
244.932	132.56
245.166	138.56
245.399	142.56
245.633	156.56
245.866	136.56
246.099	126.56
246.333	142.56
246.566	153.56
246.8	135.56
247.033	131.56
247.266	126.56
247.5	138.56
247.733	158.56
247.966	153.56
248.2	156.56
248.433	155.56
248.666	160.56
248.899	169.56
249.133	173.56
249.366	172.56
249.599	175.56
249.832	185.56
250.066	152.56
250.299	164.56
250.532	179.56
250.765	190.56
250.998	180.56
251.231	178.56
251.465	186.56
251.698	196.56
251.931	181.56
252.164	184.56
252.397	180.56
252.63	173.56
252.863	174.56
253.096	175.56
253.329	193.56
253.562	208.56
253.795	195.56
254.028	183.56
254.261	215.56
254.494	198.56
254.727	209.56
254.96	227.56
255.193	238.56
255.426	220.56
255.659	217.56
255.892	212.56
256.124	203.56
256.357	202.56
256.59	206.56
256.823	196.56
257.056	196.56
257.289	188.56
257.521	196.56
257.754	184.56
257.987	189.56
258.22	181.56
258.452	199.56
258.685	183.56
258.918	192.56
259.151	190.56
259.383	190.56
259.616	201.56
259.849	207.56
260.081	221.56
260.314	231.56
260.547	216.56
260.779	198.56
261.012	212.56
261.244	203.56
261.477	198.56
261.71	204.56
261.942	197.56
262.175	226.56
262.407	205.56
262.64	204.56
262.872	197.56
263.105	188.56
263.337	190.56
263.57	216.56
263.802	182.56
264.035	197.56
264.267	204.56
264.499	192.56
264.732	190.56
264.964	184.56
265.197	183.56
265.429	167.56
265.661	197.56
265.894	188.56
266.126	192.56
266.358	194.56
266.591	195.56
266.823	194.56
267.055	191.56
267.287	202.56
267.52	183.56
267.752	200.56
267.984	176.56
268.216	205.56
268.448	224.56
268.681	227.56
268.913	215.56
269.145	231.56
269.377	236.56
269.609	229.56
269.841	239.56
270.073	228.56
270.306	260.56
270.538	271.56
270.77	259.56
271.002	260.56
271.234	267.56
271.466	261.56
271.698	280.56
271.93	299.56
272.162	297.56
272.394	273.56
272.626	272.56
272.858	232.56
273.09	237.56
273.322	248.56
273.553	234.56
273.785	224.56
274.017	241.56
274.249	220.56
274.481	220.56
274.713	220.56
274.945	219.56
275.176	220.56
275.408	232.56
275.64	244.56
275.872	226.56
276.104	237.56
276.335	230.56
276.567	242.56
276.799	250.56
277.031	267.56
277.262	273.56
277.494	262.56
277.726	280.56
277.957	268.56
278.189	232.56
278.421	239.56
278.652	239.56
278.884	214.56
279.115	208.56
279.347	243.56
279.579	249.56
279.81	234.56
280.042	221.56
280.273	220.56
280.505	231.56
280.736	237.56
280.968	236.56
281.199	229.56
281.431	239.56
281.662	237.56
281.894	240.56
282.125	242.56
282.356	246.56
282.588	288.56
282.819	277.56
283.051	246.56
283.282	238.56
283.513	248.56
283.745	232.56
283.976	247.56
284.207	241.56
284.439	242.56
284.67	229.56
284.901	249.56
285.132	242.56
285.364	227.56
285.595	240.56
285.826	228.56
286.057	230.56
286.288	236.56
286.52	242.56
286.751	235.56
286.982	244.56
287.213	238.56
287.444	241.56
287.675	232.56
287.906	236.56
288.138	223.56
288.369	245.56
288.6	260.56
288.831	250.56
289.062	239.56
289.293	225.56
289.524	246.56
289.755	233.56
289.986	251.56
290.217	216.56
290.448	234.56
290.679	249.56
290.91	241.56
291.141	251.56
291.371	231.56
291.602	245.56
291.833	259.56
292.064	238.56
292.295	240.56
292.526	236.56
292.757	236.56
292.987	244.56
293.218	240.56
293.449	253.56
293.68	239.56
293.91	253.56
294.141	231.56
294.372	276.56
294.603	252.56
294.833	262.56
295.064	252.56
295.295	238.56
295.525	244.56
295.756	253.56
295.987	259.56
296.217	276.56
296.448	291.56
296.679	276.56
296.909	254.56
297.14	231.56
297.37	256.56
297.601	258.56
297.831	246.56
298.062	256.56
298.292	278.56
298.523	249.56
298.753	252.56
298.984	256.56
299.214	262.56
299.445	252.56
299.675	249.56
299.905	273.56
300.136	250.56
300.366	264.56
300.597	281.56
300.827	253.56
301.057	278.56
301.288	297.56
301.518	260.56
301.748	268.56
301.979	279.56
302.209	286.56
302.439	280.56
302.669	277.56
302.9	281.56
303.13	267.56
303.36	292.56
303.59	283.56
303.82	273.56
304.051	290.56
304.281	274.56
304.511	277.56
304.741	271.56
304.971	269.56
305.201	266.56
305.431	298.56
305.661	278.56
305.891	270.56
306.121	275.56
306.352	276.56
306.582	291.56
306.812	283.56
307.042	279.56
307.272	284.56
307.502	275.56
307.731	281.56
307.961	311.56
308.191	292.56
308.421	263.56
308.651	290.56
308.881	289.56
309.111	308.56
309.341	293.56
309.571	315.56
309.8	311.56
310.03	316.56
310.26	345.56
310.49	334.56
310.72	327.56
310.949	357.56
311.179	359.56
311.409	356.56
311.639	322.56
311.868	319.56
312.098	329.56
312.328	327.56
312.557	346.56
312.787	378.56
313.017	360.56
313.246	360.56
313.476	358.56
313.706	329.56
313.935	333.56
314.165	356.56
314.394	361.56
314.624	347.56
314.853	324.56
315.083	354.56
315.312	333.56
315.542	332.56
315.771	316.56
316.001	331.56
316.23	320.56
316.46	346.56
316.689	332.56
316.919	321.56
317.148	332.56
317.377	339.56
317.607	334.56
317.836	322.56
318.065	335.56
318.295	332.56
318.524	328.56
318.753	334.56
318.983	326.56
319.212	317.56
319.441	330.56
319.67	333.56
319.9	322.56
320.129	331.56
320.358	326.56
320.587	342.56
320.816	352.56
321.046	354.56
321.275	358.56
321.504	359.56
321.733	370.56
321.962	360.56
322.191	371.56
322.42	392.56
322.649	399.56
322.878	417.56
323.108	432.56
323.337	463.56
323.566	469.56
323.795	501.56
324.024	573.56
324.253	746.56
324.482	1069.56
324.71	1616.56
324.939	2268.56
325.168	1910.56
325.397	1018.56
325.626	645.56
325.855	546.56
326.084	514.56
326.313	476.56
326.542	459.56
326.77	538.56
326.999	647.56
327.228	924.56
327.457	1442.56
327.686	1662.56
327.914	1109.56
328.143	726.56
328.372	644.56
328.6	584.56
328.829	553.56
329.058	553.56
329.287	563.56
329.515	511.56
329.744	486.56
329.972	464.56
330.201	505.56
330.43	547.56
330.658	592.56
330.887	592.56
331.115	581.56
331.344	488.56
331.572	454.56
331.801	430.56
332.03	447.56
332.258	428.56
332.486	410.56
332.715	391.56
332.943	404.56
333.172	430.56
333.4	398.56
333.629	406.56
333.857	425.56
334.085	447.56
334.314	449.56
334.542	472.56
334.771	512.56
334.999	444.56
335.227	409.56
335.455	380.56
335.684	398.56
335.912	399.56
336.14	381.56
336.369	382.56
336.597	401.56
336.825	383.56
337.053	381.56
337.281	386.56
337.51	363.56
337.738	382.56
337.966	382.56
338.194	381.56
338.422	380.56
338.65	399.56
338.878	355.56
339.106	358.56
339.334	359.56
339.562	359.56
339.79	371.56
340.018	382.56
340.246	366.56
340.474	374.56
340.702	394.56
340.93	380.56
341.158	367.56
341.386	375.56
341.614	379.56
341.842	393.56
342.07	379.56
342.298	373.56
342.526	356.56
342.754	368.56
342.981	355.56
343.209	341.56
343.437	351.56
343.665	356.56
343.893	363.56
344.12	353.56
344.348	372.56
344.576	367.56
344.804	380.56
345.031	384.56
345.259	395.56
345.487	407.56
345.714	370.56
345.942	371.56
346.17	364.56
346.397	373.56
346.625	374.56
346.853	353.56
347.08	365.56
347.308	371.56
347.535	373.56
347.763	379.56
347.99	385.56
348.218	384.56
348.445	385.56
348.673	375.56
348.9	378.56
349.128	359.56
349.355	336.56
349.583	340.56
349.81	334.56
350.037	350.56
350.265	352.56
350.492	339.56
350.72	336.56
350.947	342.56
351.174	381.56
351.402	391.56
351.629	374.56
351.856	368.56
352.083	370.56
352.311	380.56
352.538	376.56
352.765	388.56
352.992	371.56
353.22	379.56
353.447	379.56
353.674	368.56
353.901	353.56
354.128	343.56
354.355	333.56
354.583	339.56
354.81	336.56
355.037	347.56
355.264	346.56
355.491	317.56
355.718	329.56
355.945	327.56
356.172	336.56
356.399	331.56
356.626	318.56
356.853	328.56
357.08	356.56
357.307	354.56
357.534	310.56
357.761	339.56
357.988	329.56
358.215	346.56
358.441	347.56
358.668	350.56
358.895	334.56
359.122	338.56
359.349	359.56
359.576	348.56
359.802	383.56
360.029	431.56
360.256	405.56
360.483	390.56
360.709	370.56
360.936	354.56
361.163	366.56
361.39	373.56
361.616	378.56
361.843	371.56
362.07	372.56
362.296	377.56
362.523	374.56
362.749	383.56
362.976	343.56
363.203	334.56
363.429	342.56
363.656	351.56
363.882	338.56
364.109	340.56
364.335	347.56
364.562	331.56
364.788	351.56
365.015	344.56
365.241	363.56
365.468	358.56
365.694	352.56
365.92	373.56
366.147	354.56
366.373	343.56
366.599	354.56
366.826	323.56
367.052	333.56
367.278	326.56
367.505	351.56
367.731	341.56
367.957	335.56
368.184	345.56
368.41	337.56
368.636	340.56
368.862	375.56
369.089	344.56
369.315	333.56
369.541	360.56
369.767	338.56
369.993	322.56
370.219	336.56
370.445	343.56
370.672	345.56
370.898	344.56
371.124	328.56
371.35	323.56
371.576	342.56
371.802	324.56
372.028	330.56
372.254	333.56
372.48	323.56
372.706	333.56
372.932	335.56
373.158	357.56
373.384	334.56
373.61	343.56
373.835	333.56
374.061	325.56
374.287	343.56
374.513	347.56
374.739	344.56
374.965	350.56
375.191	345.56
375.416	347.56
375.642	335.56
375.868	330.56
376.094	323.56
376.319	328.56
376.545	323.56
376.771	339.56
376.997	333.56
377.222	331.56
377.448	344.56
377.674	333.56
377.899	330.56
378.125	316.56
378.35	342.56
378.576	315.56
378.802	330.56
379.027	345.56
379.253	330.56
379.478	322.56
379.704	335.56
379.929	348.56
380.155	336.56
380.38	324.56
380.606	333.56
380.831	335.56
381.057	324.56
381.282	344.56
381.507	341.56
381.733	349.56
381.958	352.56
382.184	328.56
382.409	334.56
382.634	315.56
382.86	346.56
383.085	361.56
383.31	367.56
383.535	354.56
383.761	337.56
383.986	356.56
384.211	365.56
384.436	346.56
384.662	355.56
384.887	354.56
385.112	335.56
385.337	340.56
385.562	346.56
385.787	358.56
386.013	352.56
386.238	382.56
386.463	367.56
386.688	350.56
386.913	338.56
387.138	364.56
387.363	355.56
387.588	351.56
387.813	364.56
388.038	375.56
388.263	367.56
388.488	351.56
388.713	359.56
388.938	371.56
389.163	336.56
389.387	357.56
389.612	367.56
389.837	346.56
390.062	350.56
390.287	358.56
390.512	354.56
390.736	388.56
390.961	379.56
391.186	373.56
391.411	340.56
391.636	364.56
391.86	360.56
392.085	354.56
392.31	377.56
392.534	353.56
392.759	378.56
392.984	351.56
393.208	380.56
393.433	358.56
393.658	352.56
393.882	368.56
394.107	374.56
394.331	342.56
394.556	350.56
394.78	346.56
395.005	361.56
395.229	377.56
395.454	350.56
395.678	378.56
395.903	392.56
396.127	406.56
396.352	398.56
396.576	368.56
396.801	374.56
397.025	359.56
397.249	350.56
397.474	396.56
397.698	376.56
397.922	394.56
398.147	410.56
398.371	409.56
398.595	408.56
398.82	408.56
399.044	394.56
399.268	421.56
399.492	437.56
399.717	448.56
399.941	476.56
400.165	475.56
400.389	476.56
400.613	454.56
400.837	444.56
401.062	447.56
401.286	417.56
401.51	440.56
401.734	415.56
401.958	411.56
402.182	423.56
402.406	428.56
402.63	426.56
402.854	412.56
403.078	423.56
403.302	428.56
403.526	445.56
403.75	436.56
403.974	418.56
404.198	414.56
404.422	421.56
404.645	422.56
404.869	435.56
405.093	468.56
405.317	515.56
405.541	541.56
405.765	495.56
405.988	446.56
406.212	462.56
406.436	485.56
406.66	471.56
406.883	484.56
407.107	482.56
407.331	507.56
407.555	553.56
407.778	573.56
408.002	509.56
408.226	478.56
408.449	460.56
408.673	472.56
408.896	503.56
409.12	529.56
409.344	520.56
409.567	472.56
409.791	446.56
410.014	433.56
410.238	423.56
410.461	436.56
410.685	434.56
410.908	448.56
411.132	476.56
411.355	514.56
411.578	487.56
411.802	448.56
412.025	419.56
412.249	425.56
412.472	461.56
412.695	493.56
412.919	458.56
413.142	454.56
413.365	438.56
413.589	422.56
413.812	411.56
414.035	417.56
414.258	412.56
414.482	403.56
414.705	410.56
414.928	411.56
415.151	401.56
415.374	382.56
415.597	399.56
415.821	394.56
416.044	391.56
416.267	405.56
416.49	398.56
416.713	405.56
416.936	408.56
417.159	423.56
417.382	411.56
417.605	400.56
417.828	415.56
418.051	408.56
418.274	435.56
418.497	407.56
418.72	392.56
418.943	412.56
419.166	427.56
419.389	429.56
419.611	447.56
419.834	446.56
420.057	430.56
420.28	418.56
420.503	425.56
420.726	417.56
420.948	459.56
421.171	490.56
421.394	506.56
421.617	461.56
421.839	435.56
422.062	419.56
422.285	467.56
422.507	494.56
422.73	562.56
422.953	538.56
423.175	472.56
423.398	464.56
423.621	463.56
423.843	485.56
424.066	463.56
424.288	452.56
424.511	471.56
424.733	534.56
424.956	594.56
425.178	592.56
425.401	580.56
425.623	586.56
425.846	499.56
426.068	485.56
426.291	471.56
426.513	467.56
426.735	476.56
426.958	507.56
427.18	613.56
427.402	715.56
427.625	757.56
427.847	686.56
428.069	594.56
428.292	543.56
428.514	483.56
428.736	461.56
428.958	449.56
429.181	446.56
429.403	427.56
429.625	445.56
429.847	479.56
430.069	535.56
430.292	513.56
430.514	452.56
430.736	448.56
430.958	418.56
431.18	427.56
431.402	419.56
431.624	411.56
431.846	396.56
432.068	422.56
432.29	416.56
432.512	420.56
432.734	429.56
432.956	422.56
433.178	428.56
433.4	445.56
433.622	405.56
433.844	421.56
434.066	414.56
434.287	418.56
434.509	408.56
434.731	410.56
434.953	427.56
435.175	437.56
435.397	470.56
435.618	477.56
435.84	519.56
436.062	600.56
436.284	632.56
436.505	561.56
436.727	498.56
436.949	471.56
437.17	449.56
437.392	444.56
437.614	473.56
437.835	489.56
438.057	571.56
438.278	677.56
438.5	676.56
438.721	727.56
438.943	692.56
439.165	529.56
439.386	498.56
439.608	504.56
439.829	488.56
440.05	519.56
440.272	562.56
440.493	518.56
440.715	492.56
440.936	468.56
441.158	440.56
441.379	436.56
441.6	453.56
441.822	489.56
442.043	522.56
442.264	592.56
442.486	609.56
442.707	526.56
442.928	509.56
443.149	487.56
443.371	536.56
443.592	554.56
443.813	650.56
444.034	646.56
444.255	555.56
444.476	508.56
444.698	475.56
444.919	459.56
445.14	542.56
445.361	532.56
445.582	514.56
445.803	601.56
446.024	699.56
446.245	696.56
446.466	632.56
446.687	534.56
446.908	494.56
447.129	458.56
447.35	456.56
447.571	460.56
447.792	468.56
448.013	448.56
448.234	451.56
448.455	526.56
448.675	632.56
448.896	717.56
449.117	612.56
449.338	572.56
449.559	679.56
449.779	753.56
450	602.56
450.221	513.56
450.442	457.56
450.662	443.56
450.883	456.56
451.104	471.56
451.324	464.56
451.545	446.56
451.766	423.56
451.986	388.56
452.207	400.56
452.428	409.56
452.648	404.56
452.869	404.56
453.089	408.56
453.31	424.56
453.53	431.56
453.751	413.56
453.971	430.56
454.192	428.56
454.412	410.56
454.633	392.56
454.853	398.56
455.073	408.56
455.294	418.56
455.514	481.56
455.734	471.56
455.955	404.56
456.175	404.56
456.395	394.56
456.616	400.56
456.836	391.56
457.056	380.56
457.276	374.56
457.497	374.56
457.717	367.56
457.937	384.56
458.157	379.56
458.377	373.56
458.598	414.56
458.818	475.56
459.038	555.56
459.258	559.56
459.478	472.56
459.698	453.56
459.918	409.56
460.138	427.56
460.358	427.56
460.578	417.56
460.798	434.56
461.018	430.56
461.238	399.56
461.458	407.56
461.678	428.56
461.898	423.56
462.118	412.56
462.338	421.56
462.558	445.56
462.777	430.56
462.997	436.56
463.217	424.56
463.437	425.56
463.657	422.56
463.876	441.56
464.096	433.56
464.316	440.56
464.536	443.56
464.755	465.56
464.975	467.56
465.195	515.56
465.414	576.56
465.634	503.56
465.854	434.56
466.073	431.56
466.293	418.56
466.512	408.56
466.732	408.56
466.951	408.56
467.171	411.56
467.391	417.56
467.61	440.56
467.829	424.56
468.049	427.56
468.268	405.56
468.488	418.56
468.707	398.56
468.927	398.56
469.146	391.56
469.365	410.56
469.585	388.56
469.804	402.56
470.023	402.56
470.243	409.56
470.462	421.56
470.681	439.56
470.901	438.56
471.12	431.56
471.339	427.56
471.558	425.56
471.777	404.56
471.997	420.56
472.216	412.56
472.435	475.56
472.654	450.56
472.873	422.56
473.092	412.56
473.311	399.56
473.53	430.56
473.749	429.56
473.968	470.56
474.187	559.56
474.406	583.56
474.625	471.56
474.844	441.56
475.063	410.56
475.282	433.56
475.501	401.56
475.72	434.56
475.939	436.56
476.158	414.56
476.377	438.56
476.596	436.56
476.814	436.56
477.033	444.56
477.252	440.56
477.471	452.56
477.69	443.56
477.908	440.56
478.127	450.56
478.346	446.56
478.564	459.56
478.783	467.56
479.002	451.56
479.22	476.56
479.439	476.56
479.658	506.56
479.876	501.56
480.095	484.56
480.313	546.56
480.532	520.56
480.751	491.56
480.969	518.56
481.188	587.56
481.406	642.56
481.624	569.56
481.843	519.56
482.061	508.56
482.28	514.56
482.498	504.56
482.717	499.56
482.935	503.56
483.153	489.56
483.372	472.56
483.59	469.56
483.808	496.56
484.027	464.56
484.245	475.56
484.463	482.56
484.681	493.56
484.9	484.56
485.118	483.56
485.336	507.56
485.554	482.56
485.772	519.56
485.99	496.56
486.209	495.56
486.427	504.56
486.645	518.56
486.863	546.56
487.081	546.56
487.299	532.56
487.517	496.56
487.735	536.56
487.953	507.56
488.171	534.56
488.389	519.56
488.607	548.56
488.825	530.56
489.043	528.56
489.261	536.56
489.479	528.56
489.696	543.56
489.914	553.56
490.132	552.56
490.35	529.56
490.568	547.56
490.786	541.56
491.003	551.56
491.221	559.56
491.439	570.56
491.657	582.56
491.874	580.56
492.092	610.56
492.31	585.56
492.527	594.56
492.745	602.56
492.963	604.56
493.18	622.56
493.398	618.56
493.615	623.56
493.833	607.56
494.05	606.56
494.268	607.56
494.485	592.56
494.703	584.56
494.92	592.56
495.138	620.56
495.355	614.56
495.573	630.56
495.79	613.56
496.008	608.56
496.225	584.56
496.442	619.56
496.66	626.56
496.877	617.56
497.094	630.56
497.312	621.56
497.529	647.56
497.746	634.56
497.963	651.56
498.181	670.56
498.398	636.56
498.615	671.56
498.832	662.56
499.049	684.56
499.267	700.56
499.484	683.56
499.701	704.56
499.918	720.56
500.135	763.56
500.352	785.56
500.569	756.56
500.786	768.56
501.003	789.56
501.22	772.56
501.437	744.56
501.654	756.56
501.871	743.56
