Data from 1961.PennyLincolnUp.Lamp.En5.5.200Scan.071719.P1._HRD10591_13-46-18-056.txt Node
Date: Thu Jul 18 13:46:18 EDT 2019
User: cochatt
Spectrometer: HR+D1059
Trigger mode: 1
Integration Time (sec): 1.000000E-1
Scans to average: 1
Electric dark correction enabled: true
Nonlinearity correction enabled: false
Boxcar width: 0
XAxis mode: Wavelengths
Number of Pixels in Spectrum: 2048
>>>>>Begin Spectral Data<<<<<
223.165	-21.81
223.4	-21.81
223.635	-21.81
223.869	-5.81
224.104	-27.81
224.338	-10.81
224.573	-20.81
224.808	-0.81
225.042	-5.81
225.277	2.19
225.511	0.19
225.746	8.19
225.98	-5.81
226.215	5.19
226.449	6.19
226.683	24.19
226.918	32.19
227.152	21.19
227.387	38.19
227.621	30.19
227.856	49.19
228.09	47.19
228.324	47.19
228.559	47.19
228.793	58.19
229.027	76.19
229.262	92.19
229.496	82.19
229.73	107.19
229.964	111.19
230.199	96.19
230.433	106.19
230.667	106.19
230.901	81.19
231.136	81.19
231.37	90.19
231.604	81.19
231.838	103.19
232.072	89.19
232.306	97.19
232.541	87.19
232.775	105.19
233.009	97.19
233.243	111.19
233.477	96.19
233.711	96.19
233.945	99.19
234.179	106.19
234.413	105.19
234.647	101.19
234.881	103.19
235.115	99.19
235.349	107.19
235.583	115.19
235.817	106.19
236.051	86.19
236.285	91.19
236.519	97.19
236.753	111.19
236.987	114.19
237.221	136.19
237.455	158.19
237.689	151.19
237.922	103.19
238.156	116.19
238.39	119.19
238.624	98.19
238.858	99.19
239.091	101.19
239.325	100.19
239.559	105.19
239.793	96.19
240.027	110.19
240.26	114.19
240.494	112.19
240.728	112.19
240.961	112.19
241.195	125.19
241.429	103.19
241.662	98.19
241.896	106.19
242.13	97.19
242.363	117.19
242.597	107.19
242.83	110.19
243.064	114.19
243.298	109.19
243.531	112.19
243.765	111.19
243.998	120.19
244.232	96.19
244.465	110.19
244.699	110.19
244.932	122.19
245.166	117.19
245.399	120.19
245.633	102.19
245.866	102.19
246.099	114.19
246.333	114.19
246.566	123.19
246.8	117.19
247.033	122.19
247.266	115.19
247.5	130.19
247.733	126.19
247.966	126.19
248.2	116.19
248.433	122.19
248.666	130.19
248.899	142.19
249.133	132.19
249.366	149.19
249.599	146.19
249.832	142.19
250.066	127.19
250.299	127.19
250.532	134.19
250.765	138.19
250.998	152.19
251.231	166.19
251.465	150.19
251.698	150.19
251.931	168.19
252.164	155.19
252.397	142.19
252.63	148.19
252.863	159.19
253.096	139.19
253.329	141.19
253.562	169.19
253.795	153.19
254.028	149.19
254.261	165.19
254.494	165.19
254.727	160.19
254.96	177.19
255.193	192.19
255.426	168.19
255.659	169.19
255.892	154.19
256.124	165.19
256.357	163.19
256.59	164.19
256.823	163.19
257.056	155.19
257.289	155.19
257.521	148.19
257.754	156.19
257.987	147.19
258.22	153.19
258.452	141.19
258.685	151.19
258.918	147.19
259.151	166.19
259.383	154.19
259.616	158.19
259.849	171.19
260.081	176.19
260.314	158.19
260.547	160.19
260.779	171.19
261.012	166.19
261.244	154.19
261.477	166.19
261.71	161.19
261.942	170.19
262.175	163.19
262.407	166.19
262.64	167.19
262.872	145.19
263.105	150.19
263.337	147.19
263.57	148.19
263.802	150.19
264.035	132.19
264.267	162.19
264.499	148.19
264.732	151.19
264.964	152.19
265.197	154.19
265.429	155.19
265.661	156.19
265.894	163.19
266.126	158.19
266.358	171.19
266.591	163.19
266.823	158.19
267.055	138.19
267.287	155.19
267.52	150.19
267.752	153.19
267.984	159.19
268.216	159.19
268.448	162.19
268.681	159.19
268.913	164.19
269.145	177.19
269.377	185.19
269.609	180.19
269.841	185.19
270.073	187.19
270.306	196.19
270.538	205.19
270.77	194.19
271.002	199.19
271.234	182.19
271.466	201.19
271.698	190.19
271.93	208.19
272.162	217.19
272.394	201.19
272.626	205.19
272.858	193.19
273.09	186.19
273.322	174.19
273.553	168.19
273.785	169.19
274.017	195.19
274.249	187.19
274.481	170.19
274.713	186.19
274.945	176.19
275.176	176.19
275.408	181.19
275.64	174.19
275.872	201.19
276.104	186.19
276.335	161.19
276.567	187.19
276.799	188.19
277.031	203.19
277.262	199.19
277.494	220.19
277.726	201.19
277.957	186.19
278.189	192.19
278.421	184.19
278.652	200.19
278.884	166.19
279.115	181.19
279.347	184.19
279.579	193.19
279.81	195.19
280.042	164.19
280.273	196.19
280.505	186.19
280.736	178.19
280.968	190.19
281.199	179.19
281.431	192.19
281.662	174.19
281.894	182.19
282.125	198.19
282.356	193.19
282.588	208.19
282.819	191.19
283.051	181.19
283.282	170.19
283.513	178.19
283.745	169.19
283.976	204.19
284.207	186.19
284.439	176.19
284.67	198.19
284.901	210.19
285.132	195.19
285.364	169.19
285.595	180.19
285.826	203.19
286.057	198.19
286.288	184.19
286.52	199.19
286.751	196.19
286.982	180.19
287.213	183.19
287.444	184.19
287.675	203.19
287.906	201.19
288.138	185.19
288.369	205.19
288.6	210.19
288.831	197.19
289.062	200.19
289.293	209.19
289.524	195.19
289.755	188.19
289.986	198.19
290.217	179.19
290.448	195.19
290.679	191.19
290.91	204.19
291.141	185.19
291.371	187.19
291.602	187.19
291.833	204.19
292.064	198.19
292.295	184.19
292.526	169.19
292.757	180.19
292.987	204.19
293.218	201.19
293.449	192.19
293.68	199.19
293.91	214.19
294.141	192.19
294.372	187.19
294.603	202.19
294.833	187.19
295.064	203.19
295.295	191.19
295.525	190.19
295.756	209.19
295.987	223.19
296.217	210.19
296.448	210.19
296.679	186.19
296.909	195.19
297.14	203.19
297.37	191.19
297.601	204.19
297.831	198.19
298.062	200.19
298.292	214.19
298.523	193.19
298.753	206.19
298.984	211.19
299.214	194.19
299.445	200.19
299.675	203.19
299.905	223.19
300.136	207.19
300.366	209.19
300.597	221.19
300.827	224.19
301.057	214.19
301.288	229.19
301.518	200.19
301.748	214.19
301.979	217.19
302.209	222.19
302.439	209.19
302.669	204.19
302.9	204.19
303.13	227.19
303.36	224.19
303.59	215.19
303.82	225.19
304.051	209.19
304.281	212.19
304.511	200.19
304.741	224.19
304.971	223.19
305.201	232.19
305.431	205.19
305.661	207.19
305.891	203.19
306.121	219.19
306.352	232.19
306.582	222.19
306.812	225.19
307.042	198.19
307.272	223.19
307.502	226.19
307.731	209.19
307.961	225.19
308.191	203.19
308.421	233.19
308.651	227.19
308.881	210.19
309.111	217.19
309.341	230.19
309.571	239.19
309.8	216.19
310.03	244.19
310.26	226.19
310.49	230.19
310.72	248.19
310.949	251.19
311.179	259.19
311.409	255.19
311.639	248.19
311.868	248.19
312.098	249.19
312.328	250.19
312.557	254.19
312.787	263.19
313.017	254.19
313.246	245.19
313.476	236.19
313.706	247.19
313.935	254.19
314.165	250.19
314.394	270.19
314.624	253.19
314.853	259.19
315.083	242.19
315.312	230.19
315.542	254.19
315.771	236.19
316.001	255.19
316.23	242.19
316.46	246.19
316.689	260.19
316.919	239.19
317.148	251.19
317.377	271.19
317.607	259.19
317.836	256.19
318.065	260.19
318.295	250.19
318.524	255.19
318.753	255.19
318.983	241.19
319.212	234.19
319.441	260.19
319.67	262.19
319.9	257.19
320.129	257.19
320.358	245.19
320.587	234.19
320.816	262.19
321.046	261.19
321.275	267.19
321.504	268.19
321.733	268.19
321.962	264.19
322.191	267.19
322.42	264.19
322.649	271.19
322.878	283.19
323.108	303.19
323.337	314.19
323.566	304.19
323.795	316.19
324.024	357.19
324.253	408.19
324.482	607.19
324.71	884.19
324.939	1259.19
325.168	1028.19
325.397	548.19
325.626	390.19
325.855	331.19
326.084	321.19
326.313	306.19
326.542	308.19
326.77	344.19
326.999	415.19
327.228	533.19
327.457	781.19
327.686	926.19
327.914	610.19
328.143	419.19
328.372	372.19
328.6	359.19
328.829	362.19
329.058	358.19
329.287	351.19
329.515	343.19
329.744	311.19
329.972	313.19
330.201	320.19
330.43	336.19
330.658	363.19
330.887	382.19
331.115	337.19
331.344	314.19
331.572	315.19
331.801	283.19
332.03	314.19
332.258	300.19
332.486	296.19
332.715	292.19
332.943	280.19
333.172	287.19
333.4	303.19
333.629	315.19
333.857	297.19
334.085	303.19
334.314	334.19
334.542	329.19
334.771	358.19
334.999	306.19
335.227	301.19
335.455	308.19
335.684	295.19
335.912	269.19
336.14	297.19
336.369	292.19
336.597	281.19
336.825	288.19
337.053	302.19
337.281	292.19
337.51	282.19
337.738	274.19
337.966	274.19
338.194	279.19
338.422	289.19
338.65	304.19
338.878	283.19
339.106	292.19
339.334	302.19
339.562	278.19
339.79	283.19
340.018	270.19
340.246	278.19
340.474	284.19
340.702	295.19
340.93	288.19
341.158	282.19
341.386	284.19
341.614	288.19
341.842	277.19
342.07	290.19
342.298	268.19
342.526	265.19
342.754	291.19
342.981	267.19
343.209	279.19
343.437	272.19
343.665	275.19
343.893	290.19
344.12	298.19
344.348	286.19
344.576	287.19
344.804	293.19
345.031	292.19
345.259	316.19
345.487	294.19
345.714	279.19
345.942	289.19
346.17	264.19
346.397	297.19
346.625	269.19
346.853	282.19
347.08	273.19
347.308	281.19
347.535	284.19
347.763	278.19
347.99	291.19
348.218	275.19
348.445	254.19
348.673	274.19
348.9	260.19
349.128	266.19
349.355	287.19
349.583	254.19
349.81	260.19
350.037	274.19
350.265	257.19
350.492	273.19
350.72	275.19
350.947	275.19
351.174	282.19
351.402	298.19
351.629	313.19
351.856	291.19
352.083	283.19
352.311	293.19
352.538	281.19
352.765	288.19
352.992	289.19
353.22	287.19
353.447	247.19
353.674	256.19
353.901	254.19
354.128	255.19
354.355	262.19
354.583	288.19
354.81	258.19
355.037	275.19
355.264	259.19
355.491	247.19
355.718	258.19
355.945	258.19
356.172	282.19
356.399	254.19
356.626	277.19
356.853	285.19
357.08	272.19
357.307	260.19
357.534	274.19
357.761	256.19
357.988	268.19
358.215	249.19
358.441	268.19
358.668	275.19
358.895	281.19
359.122	275.19
359.349	272.19
359.576	286.19
359.802	295.19
360.029	300.19
360.256	297.19
360.483	300.19
360.709	271.19
360.936	270.19
361.163	275.19
361.39	279.19
361.616	280.19
361.843	280.19
362.07	278.19
362.296	275.19
362.523	267.19
362.749	280.19
362.976	268.19
363.203	277.19
363.429	270.19
363.656	262.19
363.882	266.19
364.109	296.19
364.335	265.19
364.562	254.19
364.788	250.19
365.015	272.19
365.241	277.19
365.468	298.19
365.694	279.19
365.92	270.19
366.147	258.19
366.373	260.19
366.599	259.19
366.826	248.19
367.052	265.19
367.278	261.19
367.505	270.19
367.731	271.19
367.957	278.19
368.184	275.19
368.41	289.19
368.636	287.19
368.862	294.19
369.089	283.19
369.315	279.19
369.541	282.19
369.767	257.19
369.993	288.19
370.219	281.19
370.445	262.19
370.672	278.19
370.898	288.19
371.124	271.19
371.35	271.19
371.576	279.19
371.802	267.19
372.028	263.19
372.254	267.19
372.48	277.19
372.706	270.19
372.932	272.19
373.158	266.19
373.384	284.19
373.61	286.19
373.835	282.19
374.061	264.19
374.287	288.19
374.513	303.19
374.739	283.19
374.965	286.19
375.191	273.19
375.416	294.19
375.642	278.19
375.868	283.19
376.094	299.19
376.319	292.19
376.545	280.19
376.771	277.19
376.997	279.19
377.222	268.19
377.448	274.19
377.674	264.19
377.899	279.19
378.125	259.19
378.35	280.19
378.576	266.19
378.802	271.19
379.027	282.19
379.253	286.19
379.478	283.19
379.704	278.19
379.929	278.19
380.155	274.19
380.38	271.19
380.606	274.19
380.831	264.19
381.057	279.19
381.282	281.19
381.507	284.19
381.733	286.19
381.958	283.19
382.184	291.19
382.409	284.19
382.634	295.19
382.86	287.19
383.085	306.19
383.31	307.19
383.535	301.19
383.761	283.19
383.986	304.19
384.211	295.19
384.436	303.19
384.662	296.19
384.887	297.19
385.112	297.19
385.337	284.19
385.562	293.19
385.787	298.19
386.013	304.19
386.238	305.19
386.463	308.19
386.688	299.19
386.913	299.19
387.138	290.19
387.363	300.19
387.588	311.19
387.813	292.19
388.038	314.19
388.263	323.19
388.488	300.19
388.713	316.19
388.938	289.19
389.163	306.19
389.387	299.19
389.612	290.19
389.837	302.19
390.062	304.19
390.287	286.19
390.512	314.19
390.736	293.19
390.961	295.19
391.186	296.19
391.411	303.19
391.636	299.19
391.86	305.19
392.085	306.19
392.31	303.19
392.534	309.19
392.759	307.19
392.984	304.19
393.208	320.19
393.433	305.19
393.658	318.19
393.882	313.19
394.107	310.19
394.331	307.19
394.556	298.19
394.78	316.19
395.005	329.19
395.229	316.19
395.454	314.19
395.678	313.19
395.903	314.19
396.127	336.19
396.352	337.19
396.576	302.19
396.801	316.19
397.025	325.19
397.249	325.19
397.474	322.19
397.698	304.19
397.922	339.19
398.147	339.19
398.371	344.19
398.595	352.19
398.82	352.19
399.044	355.19
399.268	368.19
399.492	356.19
399.717	370.19
399.941	392.19
400.165	407.19
400.389	419.19
400.613	375.19
400.837	357.19
401.062	361.19
401.286	327.19
401.51	351.19
401.734	346.19
401.958	334.19
402.182	355.19
402.406	343.19
402.63	337.19
402.854	340.19
403.078	337.19
403.302	338.19
403.526	347.19
403.75	350.19
403.974	351.19
404.198	336.19
404.422	362.19
404.645	345.19
404.869	362.19
405.093	357.19
405.317	390.19
405.541	424.19
405.765	386.19
405.988	372.19
406.212	386.19
406.436	382.19
406.66	387.19
406.883	369.19
407.107	387.19
407.331	421.19
407.555	467.19
407.778	459.19
408.002	406.19
408.226	392.19
408.449	374.19
408.673	368.19
408.896	402.19
409.12	432.19
409.344	409.19
409.567	378.19
409.791	352.19
410.014	352.19
410.238	356.19
410.461	357.19
410.685	351.19
410.908	358.19
411.132	381.19
411.355	404.19
411.578	384.19
411.802	366.19
412.025	368.19
412.249	371.19
412.472	376.19
412.695	395.19
412.919	402.19
413.142	359.19
413.365	332.19
413.589	359.19
413.812	337.19
414.035	343.19
414.258	340.19
414.482	339.19
414.705	347.19
414.928	335.19
415.151	343.19
415.374	346.19
415.597	345.19
415.821	338.19
416.044	341.19
416.267	337.19
416.49	348.19
416.713	355.19
416.936	351.19
417.159	346.19
417.382	343.19
417.605	347.19
417.828	335.19
418.051	338.19
418.274	335.19
418.497	308.19
418.72	322.19
418.943	330.19
419.166	331.19
419.389	351.19
419.611	355.19
419.834	346.19
420.057	366.19
420.28	357.19
420.503	356.19
420.726	347.19
420.948	371.19
421.171	370.19
421.394	391.19
421.617	370.19
421.839	360.19
422.062	364.19
422.285	356.19
422.507	379.19
422.73	394.19
422.953	421.19
423.175	383.19
423.398	363.19
423.621	363.19
423.843	363.19
424.066	353.19
424.288	379.19
424.511	396.19
424.733	394.19
424.956	465.19
425.178	420.19
425.401	426.19
425.623	442.19
425.846	387.19
426.068	363.19
426.291	376.19
426.513	376.19
426.735	390.19
426.958	407.19
427.18	447.19
427.402	548.19
427.625	591.19
427.847	482.19
428.069	450.19
428.292	416.19
428.514	378.19
428.736	356.19
428.958	336.19
429.181	363.19
429.403	368.19
429.625	394.19
429.847	392.19
430.069	423.19
430.292	418.19
430.514	371.19
430.736	345.19
430.958	329.19
431.18	342.19
431.402	329.19
431.624	308.19
431.846	332.19
432.068	328.19
432.29	327.19
432.512	332.19
432.734	352.19
432.956	345.19
433.178	356.19
433.4	359.19
433.622	351.19
433.844	322.19
434.066	321.19
434.287	346.19
434.509	332.19
434.731	352.19
434.953	350.19
435.175	361.19
435.397	357.19
435.618	373.19
435.84	382.19
436.062	441.19
436.284	492.19
436.505	428.19
436.727	373.19
436.949	347.19
437.17	354.19
437.392	363.19
437.614	359.19
437.835	376.19
438.057	426.19
438.278	491.19
438.5	499.19
438.721	548.19
438.943	509.19
439.165	417.19
439.386	370.19
439.608	386.19
439.829	375.19
440.05	382.19
440.272	414.19
440.493	395.19
440.715	368.19
440.936	354.19
441.158	350.19
441.379	351.19
441.6	364.19
441.822	369.19
442.043	402.19
442.264	460.19
442.486	488.19
442.707	399.19
442.928	405.19
443.149	385.19
443.371	399.19
443.592	409.19
443.813	504.19
444.034	533.19
444.255	435.19
444.476	390.19
444.698	371.19
444.919	383.19
445.14	499.19
445.361	432.19
445.582	423.19
445.803	441.19
446.024	495.19
446.245	506.19
446.466	449.19
446.687	394.19
446.908	373.19
447.129	370.19
447.35	354.19
447.571	370.19
447.792	354.19
448.013	343.19
448.234	347.19
448.455	387.19
448.675	457.19
448.896	536.19
449.117	448.19
449.338	426.19
449.559	520.19
449.779	576.19
450	465.19
450.221	403.19
450.442	361.19
450.662	354.19
450.883	341.19
451.104	332.19
451.324	328.19
451.545	318.19
451.766	311.19
451.986	322.19
452.207	308.19
452.428	328.19
452.648	310.19
452.869	316.19
453.089	326.19
453.31	358.19
453.53	315.19
453.751	315.19
453.971	316.19
454.192	341.19
454.412	311.19
454.633	319.19
454.853	299.19
455.073	326.19
455.294	330.19
455.514	387.19
455.734	373.19
455.955	332.19
456.175	310.19
456.395	289.19
456.616	308.19
456.836	310.19
457.056	302.19
457.276	293.19
457.497	290.19
457.717	292.19
457.937	296.19
458.157	304.19
458.377	331.19
458.598	350.19
458.818	361.19
459.038	385.19
459.258	409.19
459.478	351.19
459.698	342.19
459.918	333.19
460.138	349.19
460.358	340.19
460.578	342.19
460.798	329.19
461.018	353.19
461.238	369.19
461.458	342.19
461.678	345.19
461.898	351.19
462.118	345.19
462.338	345.19
462.558	359.19
462.777	355.19
462.997	371.19
463.217	370.19
463.437	373.19
463.657	369.19
463.876	359.19
464.096	370.19
464.316	364.19
464.536	370.19
464.755	354.19
464.975	371.19
465.195	384.19
465.414	421.19
465.634	386.19
465.854	340.19
466.073	344.19
466.293	345.19
466.512	337.19
466.732	339.19
466.951	315.19
467.171	306.19
467.391	330.19
467.61	345.19
467.829	354.19
468.049	347.19
468.268	335.19
468.488	335.19
468.707	315.19
468.927	339.19
469.146	332.19
469.365	328.19
469.585	326.19
469.804	331.19
470.023	331.19
470.243	324.19
470.462	326.19
470.681	354.19
470.901	352.19
471.12	334.19
471.339	349.19
471.558	331.19
471.777	336.19
471.997	337.19
472.216	360.19
472.435	362.19
472.654	360.19
472.873	347.19
473.092	347.19
473.311	348.19
473.53	347.19
473.749	345.19
473.968	357.19
474.187	431.19
474.406	449.19
474.625	377.19
474.844	342.19
475.063	330.19
475.282	332.19
475.501	341.19
475.72	338.19
475.939	348.19
476.158	351.19
476.377	353.19
476.596	347.19
476.814	351.19
477.033	352.19
477.252	363.19
477.471	376.19
477.69	375.19
477.908	367.19
478.127	364.19
478.346	369.19
478.564	358.19
478.783	376.19
479.002	376.19
479.22	387.19
479.439	401.19
479.658	389.19
479.876	400.19
480.095	416.19
480.313	409.19
480.532	388.19
480.751	396.19
480.969	399.19
481.188	451.19
481.406	443.19
481.624	419.19
481.843	414.19
482.061	387.19
482.28	388.19
482.498	385.19
482.717	399.19
482.935	388.19
483.153	401.19
483.372	403.19
483.59	386.19
483.808	395.19
484.027	407.19
484.245	400.19
484.463	390.19
484.681	402.19
484.9	398.19
485.118	414.19
485.336	396.19
485.554	403.19
485.772	407.19
485.99	417.19
486.209	394.19
486.427	414.19
486.645	400.19
486.863	424.19
487.081	416.19
487.299	395.19
487.517	418.19
487.735	412.19
487.953	431.19
488.171	404.19
488.389	410.19
488.607	426.19
488.825	415.19
489.043	412.19
489.261	420.19
489.479	420.19
489.696	422.19
489.914	397.19
490.132	431.19
490.35	434.19
490.568	412.19
490.786	437.19
491.003	442.19
491.221	446.19
491.439	452.19
491.657	453.19
491.874	481.19
492.092	450.19
492.31	475.19
492.527	460.19
492.745	468.19
492.963	468.19
493.18	486.19
493.398	480.19
493.615	460.19
493.833	490.19
494.05	481.19
494.268	496.19
494.485	476.19
494.703	477.19
494.92	478.19
495.138	461.19
495.355	486.19
495.573	492.19
495.79	497.19
496.008	460.19
496.225	473.19
496.442	482.19
496.66	495.19
496.877	510.19
497.094	514.19
497.312	495.19
497.529	495.19
497.746	503.19
497.963	511.19
498.181	534.19
498.398	526.19
498.615	529.19
498.832	548.19
499.049	563.19
499.267	570.19
499.484	594.19
499.701	601.19
499.918	612.19
500.135	648.19
500.352	644.19
500.569	653.19
500.786	634.19
501.003	650.19
501.22	634.19
501.437	626.19
501.654	598.19
501.871	622.19
502.088	609.19
502.305	575.19
