Data from 1961.PennyLincolnUp.Lamp.En5.5.200Scan.071719.P1._HRD10591_13-47-08-057.txt Node
Date: Thu Jul 18 13:47:08 EDT 2019
User: cochatt
Spectrometer: HR+D1059
Trigger mode: 1
Integration Time (sec): 1.000000E-1
Scans to average: 1
Electric dark correction enabled: true
Nonlinearity correction enabled: false
Boxcar width: 0
XAxis mode: Wavelengths
Number of Pixels in Spectrum: 2048
>>>>>Begin Spectral Data<<<<<
223.165	-14.81
223.4	-14.81
223.635	-14.81
223.869	-12.81
224.104	-21.81
224.338	-7.81
224.573	-15.81
224.808	-14.81
225.042	-13.81
225.277	-13.81
225.511	0.19
225.746	5.19
225.98	0.19
226.215	23.19
226.449	9.19
226.683	31.19
226.918	32.19
227.152	14.19
227.387	29.19
227.621	29.19
227.856	39.19
228.09	32.19
228.324	35.19
228.559	61.19
228.793	67.19
229.027	84.19
229.262	88.19
229.496	102.19
229.73	97.19
229.964	138.19
230.199	126.19
230.433	114.19
230.667	104.19
230.901	105.19
231.136	98.19
231.37	111.19
231.604	101.19
231.838	103.19
232.072	103.19
232.306	111.19
232.541	106.19
232.775	102.19
233.009	113.19
233.243	125.19
233.477	112.19
233.711	123.19
233.945	108.19
234.179	113.19
234.413	118.19
234.647	110.19
234.881	103.19
235.115	115.19
235.349	99.19
235.583	113.19
235.817	108.19
236.051	95.19
236.285	116.19
236.519	113.19
236.753	124.19
236.987	130.19
237.221	149.19
237.455	191.19
237.689	169.19
237.922	129.19
238.156	109.19
238.39	112.19
238.624	117.19
238.858	108.19
239.091	104.19
239.325	117.19
239.559	109.19
239.793	108.19
240.027	118.19
240.26	131.19
240.494	142.19
240.728	129.19
240.961	134.19
241.195	115.19
241.429	122.19
241.662	107.19
241.896	116.19
242.13	134.19
242.363	105.19
242.597	119.19
242.83	133.19
243.064	121.19
243.298	127.19
243.531	127.19
243.765	119.19
243.998	132.19
244.232	120.19
244.465	118.19
244.699	126.19
244.932	120.19
245.166	123.19
245.399	132.19
245.633	121.19
245.866	120.19
246.099	144.19
246.333	123.19
246.566	129.19
246.8	131.19
247.033	127.19
247.266	133.19
247.5	146.19
247.733	144.19
247.966	153.19
248.2	148.19
248.433	150.19
248.666	136.19
248.899	157.19
249.133	180.19
249.366	165.19
249.599	146.19
249.832	144.19
250.066	171.19
250.299	165.19
250.532	155.19
250.765	164.19
250.998	185.19
251.231	182.19
251.465	167.19
251.698	186.19
251.931	153.19
252.164	160.19
252.397	153.19
252.63	168.19
252.863	160.19
253.096	179.19
253.329	175.19
253.562	175.19
253.795	188.19
254.028	176.19
254.261	183.19
254.494	190.19
254.727	205.19
254.96	229.19
255.193	201.19
255.426	197.19
255.659	193.19
255.892	196.19
256.124	195.19
256.357	180.19
256.59	168.19
256.823	185.19
257.056	160.19
257.289	172.19
257.521	169.19
257.754	184.19
257.987	163.19
258.22	183.19
258.452	173.19
258.685	179.19
258.918	171.19
259.151	161.19
259.383	164.19
259.616	184.19
259.849	175.19
260.081	192.19
260.314	196.19
260.547	199.19
260.779	189.19
261.012	181.19
261.244	181.19
261.477	192.19
261.71	186.19
261.942	179.19
262.175	187.19
262.407	183.19
262.64	171.19
262.872	187.19
263.105	162.19
263.337	169.19
263.57	189.19
263.802	170.19
264.035	175.19
264.267	171.19
264.499	170.19
264.732	166.19
264.964	184.19
265.197	181.19
265.429	190.19
265.661	173.19
265.894	177.19
266.126	175.19
266.358	169.19
266.591	177.19
266.823	166.19
267.055	170.19
267.287	189.19
267.52	171.19
267.752	181.19
267.984	169.19
268.216	198.19
268.448	184.19
268.681	182.19
268.913	189.19
269.145	196.19
269.377	223.19
269.609	206.19
269.841	198.19
270.073	196.19
270.306	215.19
270.538	247.19
270.77	229.19
271.002	222.19
271.234	242.19
271.466	243.19
271.698	216.19
271.93	247.19
272.162	249.19
272.394	244.19
272.626	241.19
272.858	210.19
273.09	219.19
273.322	211.19
273.553	200.19
273.785	217.19
274.017	205.19
274.249	211.19
274.481	199.19
274.713	204.19
274.945	205.19
275.176	213.19
275.408	204.19
275.64	227.19
275.872	198.19
276.104	217.19
276.335	204.19
276.567	220.19
276.799	226.19
277.031	237.19
277.262	244.19
277.494	244.19
277.726	250.19
277.957	235.19
278.189	212.19
278.421	211.19
278.652	209.19
278.884	204.19
279.115	198.19
279.347	206.19
279.579	215.19
279.81	198.19
280.042	206.19
280.273	209.19
280.505	209.19
280.736	203.19
280.968	204.19
281.199	208.19
281.431	216.19
281.662	187.19
281.894	211.19
282.125	215.19
282.356	212.19
282.588	234.19
282.819	244.19
283.051	239.19
283.282	212.19
283.513	213.19
283.745	209.19
283.976	227.19
284.207	227.19
284.439	206.19
284.67	204.19
284.901	201.19
285.132	214.19
285.364	219.19
285.595	229.19
285.826	227.19
286.057	219.19
286.288	216.19
286.52	210.19
286.751	212.19
286.982	208.19
287.213	210.19
287.444	226.19
287.675	215.19
287.906	213.19
288.138	223.19
288.369	228.19
288.6	212.19
288.831	226.19
289.062	224.19
289.293	215.19
289.524	232.19
289.755	212.19
289.986	220.19
290.217	231.19
290.448	226.19
290.679	216.19
290.91	230.19
291.141	225.19
291.371	230.19
291.602	226.19
291.833	217.19
292.064	228.19
292.295	226.19
292.526	234.19
292.757	223.19
292.987	214.19
293.218	209.19
293.449	221.19
293.68	221.19
293.91	222.19
294.141	223.19
294.372	215.19
294.603	224.19
294.833	226.19
295.064	221.19
295.295	218.19
295.525	228.19
295.756	223.19
295.987	255.19
296.217	249.19
296.448	267.19
296.679	237.19
296.909	243.19
297.14	224.19
297.37	215.19
297.601	241.19
297.831	234.19
298.062	236.19
298.292	243.19
298.523	257.19
298.753	240.19
298.984	236.19
299.214	221.19
299.445	246.19
299.675	245.19
299.905	245.19
300.136	228.19
300.366	244.19
300.597	235.19
300.827	255.19
301.057	247.19
301.288	249.19
301.518	253.19
301.748	246.19
301.979	259.19
302.209	267.19
302.439	271.19
302.669	241.19
302.9	250.19
303.13	235.19
303.36	255.19
303.59	241.19
303.82	254.19
304.051	264.19
304.281	253.19
304.511	243.19
304.741	234.19
304.971	251.19
305.201	247.19
305.431	271.19
305.661	249.19
305.891	254.19
306.121	265.19
306.352	267.19
306.582	275.19
306.812	280.19
307.042	245.19
307.272	236.19
307.502	243.19
307.731	265.19
307.961	264.19
308.191	260.19
308.421	245.19
308.651	266.19
308.881	264.19
309.111	257.19
309.341	285.19
309.571	283.19
309.8	283.19
310.03	293.19
310.26	295.19
310.49	297.19
310.72	309.19
310.949	310.19
311.179	316.19
311.409	314.19
311.639	285.19
311.868	313.19
312.098	304.19
312.328	308.19
312.557	306.19
312.787	328.19
313.017	330.19
313.246	315.19
313.476	297.19
313.706	289.19
313.935	291.19
314.165	307.19
314.394	320.19
314.624	303.19
314.853	318.19
315.083	308.19
315.312	307.19
315.542	287.19
315.771	289.19
316.001	284.19
316.23	275.19
316.46	282.19
316.689	305.19
316.919	282.19
317.148	298.19
317.377	295.19
317.607	290.19
317.836	314.19
318.065	292.19
318.295	303.19
318.524	305.19
318.753	308.19
318.983	292.19
319.212	291.19
319.441	310.19
319.67	309.19
319.9	316.19
320.129	321.19
320.358	281.19
320.587	284.19
320.816	293.19
321.046	328.19
321.275	349.19
321.504	314.19
321.733	321.19
321.962	325.19
322.191	340.19
322.42	355.19
322.649	365.19
322.878	367.19
323.108	371.19
323.337	405.19
323.566	434.19
323.795	421.19
324.024	486.19
324.253	608.19
324.482	888.19
324.71	1391.19
324.939	1875.19
325.168	1551.19
325.397	817.19
325.626	533.19
325.855	462.19
326.084	417.19
326.313	438.19
326.542	415.19
326.77	466.19
326.999	570.19
327.228	794.19
327.457	1169.19
327.686	1407.19
327.914	969.19
328.143	615.19
328.372	535.19
328.6	503.19
328.829	475.19
329.058	484.19
329.287	492.19
329.515	471.19
329.744	431.19
329.972	456.19
330.201	453.19
330.43	489.19
330.658	521.19
330.887	514.19
331.115	482.19
331.344	445.19
331.572	392.19
331.801	386.19
332.03	401.19
332.258	367.19
332.486	359.19
332.715	325.19
332.943	345.19
333.172	336.19
333.4	371.19
333.629	369.19
333.857	384.19
334.085	380.19
334.314	419.19
334.542	414.19
334.771	449.19
334.999	396.19
335.227	369.19
335.455	348.19
335.684	350.19
335.912	369.19
336.14	363.19
336.369	362.19
336.597	341.19
336.825	362.19
337.053	333.19
337.281	328.19
337.51	335.19
337.738	348.19
337.966	352.19
338.194	354.19
338.422	339.19
338.65	314.19
338.878	336.19
339.106	315.19
339.334	334.19
339.562	330.19
339.79	330.19
340.018	325.19
340.246	334.19
340.474	353.19
340.702	330.19
340.93	342.19
341.158	310.19
341.386	322.19
341.614	314.19
341.842	337.19
342.07	322.19
342.298	317.19
342.526	319.19
342.754	316.19
342.981	333.19
343.209	328.19
343.437	333.19
343.665	344.19
343.893	333.19
344.12	326.19
344.348	357.19
344.576	322.19
344.804	342.19
345.031	353.19
345.259	355.19
345.487	363.19
345.714	332.19
345.942	334.19
346.17	328.19
346.397	313.19
346.625	322.19
346.853	324.19
347.08	328.19
347.308	320.19
347.535	344.19
347.763	336.19
347.99	341.19
348.218	346.19
348.445	348.19
348.673	330.19
348.9	339.19
349.128	326.19
349.355	316.19
349.583	330.19
349.81	304.19
350.037	313.19
350.265	330.19
350.492	304.19
350.72	312.19
350.947	320.19
351.174	342.19
351.402	322.19
351.629	333.19
351.856	330.19
352.083	313.19
352.311	364.19
352.538	346.19
352.765	321.19
352.992	324.19
353.22	338.19
353.447	328.19
353.674	315.19
353.901	297.19
354.128	304.19
354.355	286.19
354.583	295.19
354.81	306.19
355.037	315.19
355.264	291.19
355.491	279.19
355.718	296.19
355.945	301.19
356.172	304.19
356.399	303.19
356.626	297.19
356.853	273.19
357.08	277.19
357.307	283.19
357.534	288.19
357.761	311.19
357.988	309.19
358.215	317.19
358.441	299.19
358.668	304.19
358.895	297.19
359.122	307.19
359.349	311.19
359.576	323.19
359.802	341.19
360.029	357.19
360.256	389.19
360.483	364.19
360.709	314.19
360.936	336.19
361.163	351.19
361.39	325.19
361.616	342.19
361.843	342.19
362.07	309.19
362.296	335.19
362.523	320.19
362.749	339.19
362.976	298.19
363.203	319.19
363.429	305.19
363.656	298.19
363.882	326.19
364.109	309.19
364.335	311.19
364.562	317.19
364.788	294.19
365.015	317.19
365.241	312.19
365.468	311.19
365.694	313.19
365.92	317.19
366.147	302.19
366.373	308.19
366.599	309.19
366.826	311.19
367.052	301.19
367.278	317.19
367.505	317.19
367.731	307.19
367.957	319.19
368.184	313.19
368.41	313.19
368.636	321.19
368.862	315.19
369.089	337.19
369.315	312.19
369.541	311.19
369.767	303.19
369.993	313.19
370.219	310.19
370.445	321.19
370.672	318.19
370.898	321.19
371.124	317.19
371.35	298.19
371.576	287.19
371.802	304.19
372.028	308.19
372.254	293.19
372.48	302.19
372.706	291.19
372.932	281.19
373.158	308.19
373.384	305.19
373.61	302.19
373.835	301.19
374.061	303.19
374.287	297.19
374.513	313.19
374.739	315.19
374.965	322.19
375.191	318.19
375.416	328.19
375.642	311.19
375.868	321.19
376.094	301.19
376.319	304.19
376.545	289.19
376.771	309.19
376.997	289.19
377.222	311.19
377.448	316.19
377.674	318.19
377.899	295.19
378.125	278.19
378.35	295.19
378.576	285.19
378.802	296.19
379.027	309.19
379.253	298.19
379.478	296.19
379.704	291.19
379.929	304.19
380.155	303.19
380.38	308.19
380.606	322.19
380.831	303.19
381.057	313.19
381.282	313.19
381.507	295.19
381.733	314.19
381.958	297.19
382.184	299.19
382.409	315.19
382.634	319.19
382.86	301.19
383.085	309.19
383.31	293.19
383.535	318.19
383.761	311.19
383.986	323.19
384.211	321.19
384.436	329.19
384.662	327.19
384.887	306.19
385.112	325.19
385.337	332.19
385.562	319.19
385.787	330.19
386.013	332.19
386.238	339.19
386.463	342.19
386.688	319.19
386.913	319.19
387.138	320.19
387.363	339.19
387.588	326.19
387.813	329.19
388.038	341.19
388.263	315.19
388.488	340.19
388.713	324.19
388.938	316.19
389.163	331.19
389.387	313.19
389.612	318.19
389.837	316.19
390.062	329.19
390.287	317.19
390.512	315.19
390.736	333.19
390.961	331.19
391.186	314.19
391.411	320.19
391.636	337.19
391.86	352.19
392.085	314.19
392.31	321.19
392.534	315.19
392.759	327.19
392.984	330.19
393.208	339.19
393.433	345.19
393.658	338.19
393.882	331.19
394.107	322.19
394.331	338.19
394.556	333.19
394.78	333.19
395.005	329.19
395.229	330.19
395.454	362.19
395.678	343.19
395.903	352.19
396.127	360.19
396.352	352.19
396.576	344.19
396.801	346.19
397.025	337.19
397.249	343.19
397.474	337.19
397.698	356.19
397.922	370.19
398.147	387.19
398.371	360.19
398.595	347.19
398.82	362.19
399.044	374.19
399.268	387.19
399.492	398.19
399.717	387.19
399.941	423.19
400.165	448.19
400.389	463.19
400.613	401.19
400.837	398.19
401.062	375.19
401.286	382.19
401.51	379.19
401.734	378.19
401.958	400.19
402.182	380.19
402.406	367.19
402.63	370.19
402.854	380.19
403.078	391.19
403.302	386.19
403.526	394.19
403.75	383.19
403.974	395.19
404.198	387.19
404.422	396.19
404.645	398.19
404.869	395.19
405.093	431.19
405.317	441.19
405.541	472.19
405.765	445.19
405.988	419.19
406.212	424.19
406.436	433.19
406.66	464.19
406.883	417.19
407.107	439.19
407.331	485.19
407.555	498.19
407.778	501.19
408.002	480.19
408.226	454.19
408.449	436.19
408.673	434.19
408.896	489.19
409.12	484.19
409.344	471.19
409.567	418.19
409.791	382.19
410.014	390.19
410.238	408.19
410.461	387.19
410.685	395.19
410.908	404.19
411.132	416.19
411.355	473.19
411.578	437.19
411.802	416.19
412.025	377.19
412.249	414.19
412.472	414.19
412.695	469.19
412.919	443.19
413.142	395.19
413.365	391.19
413.589	397.19
413.812	383.19
414.035	385.19
414.258	379.19
414.482	373.19
414.705	372.19
414.928	357.19
415.151	380.19
415.374	371.19
415.597	376.19
415.821	370.19
416.044	389.19
416.267	377.19
416.49	358.19
416.713	352.19
416.936	360.19
417.159	374.19
417.382	386.19
417.605	377.19
417.828	404.19
418.051	393.19
418.274	395.19
418.497	367.19
418.72	391.19
418.943	363.19
419.166	377.19
419.389	377.19
419.611	396.19
419.834	380.19
420.057	397.19
420.28	402.19
420.503	403.19
420.726	392.19
420.948	392.19
421.171	430.19
421.394	481.19
421.617	382.19
421.839	393.19
422.062	393.19
422.285	410.19
422.507	447.19
422.73	502.19
422.953	484.19
423.175	424.19
423.398	418.19
423.621	401.19
423.843	413.19
424.066	397.19
424.288	417.19
424.511	444.19
424.733	489.19
424.956	519.19
425.178	525.19
425.401	517.19
425.623	523.19
425.846	466.19
426.068	420.19
426.291	421.19
426.513	420.19
426.735	443.19
426.958	472.19
427.18	523.19
427.402	626.19
427.625	683.19
427.847	613.19
428.069	545.19
428.292	460.19
428.514	435.19
428.736	419.19
428.958	417.19
429.181	397.19
429.403	398.19
429.625	414.19
429.847	410.19
430.069	492.19
430.292	466.19
430.514	407.19
430.736	389.19
430.958	398.19
431.18	391.19
431.402	398.19
431.624	377.19
431.846	360.19
432.068	377.19
432.29	380.19
432.512	351.19
432.734	385.19
432.956	397.19
433.178	375.19
433.4	388.19
433.622	388.19
433.844	392.19
434.066	360.19
434.287	381.19
434.509	377.19
434.731	371.19
434.953	362.19
435.175	395.19
435.397	396.19
435.618	427.19
435.84	454.19
436.062	517.19
436.284	573.19
436.505	498.19
436.727	448.19
436.949	436.19
437.17	395.19
437.392	412.19
437.614	410.19
437.835	437.19
438.057	531.19
438.278	602.19
438.5	592.19
438.721	627.19
438.943	629.19
439.165	482.19
439.386	445.19
439.608	441.19
439.829	429.19
440.05	466.19
440.272	495.19
440.493	458.19
440.715	422.19
440.936	404.19
441.158	401.19
441.379	396.19
441.6	419.19
441.822	445.19
442.043	452.19
442.264	520.19
442.486	542.19
442.707	463.19
442.928	469.19
443.149	433.19
443.371	448.19
443.592	500.19
443.813	540.19
444.034	617.19
444.255	509.19
444.476	439.19
444.698	437.19
444.919	440.19
445.14	504.19
445.361	473.19
445.582	491.19
445.803	538.19
446.024	585.19
446.245	587.19
446.466	577.19
446.687	489.19
446.908	438.19
447.129	408.19
447.35	401.19
447.571	412.19
447.792	372.19
448.013	403.19
448.234	432.19
448.455	461.19
448.675	538.19
448.896	628.19
449.117	539.19
449.338	539.19
449.559	620.19
449.779	650.19
450	561.19
450.221	447.19
450.442	411.19
450.662	404.19
450.883	422.19
451.104	403.19
451.324	414.19
451.545	396.19
451.766	362.19
451.986	352.19
452.207	351.19
452.428	371.19
452.648	364.19
452.869	364.19
453.089	369.19
453.31	364.19
453.53	374.19
453.751	371.19
453.971	361.19
454.192	375.19
454.412	379.19
454.633	370.19
454.853	350.19
455.073	378.19
455.294	387.19
455.514	423.19
455.734	422.19
455.955	356.19
456.175	351.19
456.395	349.19
456.616	350.19
456.836	369.19
457.056	335.19
457.276	319.19
457.497	335.19
457.717	352.19
457.937	341.19
458.157	365.19
458.377	353.19
458.598	385.19
458.818	428.19
459.038	488.19
459.258	497.19
459.478	431.19
459.698	385.19
459.918	377.19
460.138	368.19
460.358	377.19
460.578	374.19
460.798	392.19
461.018	400.19
461.238	377.19
461.458	396.19
461.678	396.19
461.898	387.19
462.118	353.19
462.338	360.19
462.558	373.19
462.777	387.19
462.997	410.19
463.217	413.19
463.437	389.19
463.657	391.19
463.876	396.19
464.096	417.19
464.316	400.19
464.536	391.19
464.755	402.19
464.975	400.19
465.195	433.19
465.414	537.19
465.634	461.19
465.854	437.19
466.073	393.19
466.293	394.19
466.512	385.19
466.732	391.19
466.951	369.19
467.171	353.19
467.391	389.19
467.61	387.19
467.829	380.19
468.049	394.19
468.268	397.19
468.488	384.19
468.707	353.19
468.927	346.19
469.146	369.19
469.365	363.19
469.585	360.19
469.804	386.19
470.023	394.19
470.243	384.19
470.462	371.19
470.681	388.19
470.901	379.19
471.12	377.19
471.339	374.19
471.558	384.19
471.777	383.19
471.997	392.19
472.216	386.19
472.435	417.19
472.654	400.19
472.873	386.19
473.092	386.19
473.311	350.19
473.53	402.19
473.749	385.19
473.968	419.19
474.187	500.19
474.406	507.19
474.625	416.19
474.844	386.19
475.063	372.19
475.282	370.19
475.501	377.19
475.72	391.19
475.939	399.19
476.158	381.19
476.377	394.19
476.596	379.19
476.814	387.19
477.033	405.19
477.252	412.19
477.471	392.19
477.69	387.19
477.908	416.19
478.127	402.19
478.346	408.19
478.564	404.19
478.783	401.19
479.002	415.19
479.22	427.19
479.439	451.19
479.658	456.19
479.876	465.19
480.095	428.19
480.313	463.19
480.532	469.19
480.751	457.19
480.969	453.19
481.188	516.19
481.406	566.19
481.624	508.19
481.843	473.19
482.061	457.19
482.28	460.19
482.498	439.19
482.717	444.19
482.935	440.19
483.153	443.19
483.372	445.19
483.59	445.19
483.808	444.19
484.027	462.19
484.245	448.19
484.463	444.19
484.681	446.19
484.9	448.19
485.118	461.19
485.336	443.19
485.554	444.19
485.772	452.19
485.99	451.19
486.209	460.19
486.427	453.19
486.645	467.19
486.863	503.19
487.081	487.19
487.299	486.19
487.517	482.19
487.735	481.19
487.953	472.19
488.171	481.19
488.389	455.19
488.607	459.19
488.825	469.19
489.043	454.19
489.261	488.19
489.479	484.19
489.696	463.19
489.914	481.19
490.132	489.19
490.35	490.19
490.568	497.19
490.786	490.19
491.003	519.19
491.221	521.19
491.439	521.19
491.657	532.19
491.874	539.19
492.092	540.19
492.31	528.19
492.527	565.19
492.745	525.19
492.963	534.19
493.18	556.19
493.398	536.19
493.615	538.19
493.833	530.19
494.05	544.19
494.268	556.19
494.485	550.19
494.703	550.19
494.92	536.19
495.138	553.19
495.355	568.19
495.573	587.19
495.79	558.19
496.008	543.19
496.225	546.19
496.442	564.19
496.66	568.19
496.877	543.19
497.094	547.19
497.312	559.19
497.529	567.19
497.746	580.19
497.963	571.19
498.181	601.19
498.398	596.19
498.615	592.19
498.832	603.19
499.049	632.19
499.267	661.19
499.484	656.19
499.701	663.19
499.918	681.19
500.135	703.19
500.352	675.19
500.569	694.19
500.786	739.19
501.003	712.19
501.22	707.19
501.437	696.19
501.654	679.19
501.871	670.19
502.088	649.19
