Data from 1961.PennyLincolnUp.Lamp.En5.5.200Scan.071719.P1._HRD10591_13-47-36-058.txt Node
Date: Thu Jul 18 13:47:36 EDT 2019
User: cochatt
Spectrometer: HR+D1059
Trigger mode: 1
Integration Time (sec): 1.000000E-1
Scans to average: 1
Electric dark correction enabled: true
Nonlinearity correction enabled: false
Boxcar width: 0
XAxis mode: Wavelengths
Number of Pixels in Spectrum: 2048
>>>>>Begin Spectral Data<<<<<
223.165	-17.94
223.4	-17.94
223.635	-17.94
223.869	-10.94
224.104	-22.94
224.338	-9.94
224.573	-14.94
224.808	-27.94
225.042	-17.94
225.277	-2.94
225.511	0.06
225.746	8.06
225.98	1.06
226.215	13.06
226.449	32.06
226.683	24.06
226.918	31.06
227.152	16.06
227.387	35.06
227.621	52.06
227.856	49.06
228.09	28.06
228.324	53.06
228.559	64.06
228.793	80.06
229.027	96.06
229.262	103.06
229.496	104.06
229.73	122.06
229.964	144.06
230.199	127.06
230.433	104.06
230.667	108.06
230.901	114.06
231.136	86.06
231.37	96.06
231.604	103.06
231.838	99.06
232.072	118.06
232.306	100.06
232.541	112.06
232.775	118.06
233.009	99.06
233.243	105.06
233.477	93.06
233.711	106.06
233.945	112.06
234.179	104.06
234.413	108.06
234.647	105.06
234.881	107.06
235.115	106.06
235.349	97.06
235.583	119.06
235.817	112.06
236.051	113.06
236.285	112.06
236.519	127.06
236.753	108.06
236.987	130.06
237.221	160.06
237.455	213.06
237.689	173.06
237.922	139.06
238.156	120.06
238.39	118.06
238.624	113.06
238.858	115.06
239.091	112.06
239.325	107.06
239.559	114.06
239.793	122.06
240.027	130.06
240.26	130.06
240.494	144.06
240.728	139.06
240.961	133.06
241.195	131.06
241.429	126.06
241.662	128.06
241.896	111.06
242.13	116.06
242.363	114.06
242.597	107.06
242.83	108.06
243.064	127.06
243.298	129.06
243.531	118.06
243.765	147.06
243.998	137.06
244.232	123.06
244.465	135.06
244.699	144.06
244.932	122.06
245.166	111.06
245.399	119.06
245.633	134.06
245.866	130.06
246.099	135.06
246.333	122.06
246.566	150.06
246.8	128.06
247.033	141.06
247.266	136.06
247.5	127.06
247.733	148.06
247.966	152.06
248.2	148.06
248.433	154.06
248.666	132.06
248.899	163.06
249.133	163.06
249.366	193.06
249.599	169.06
249.832	157.06
250.066	150.06
250.299	160.06
250.532	174.06
250.765	182.06
250.998	185.06
251.231	188.06
251.465	175.06
251.698	184.06
251.931	162.06
252.164	161.06
252.397	163.06
252.63	174.06
252.863	150.06
253.096	172.06
253.329	203.06
253.562	184.06
253.795	182.06
254.028	175.06
254.261	180.06
254.494	184.06
254.727	220.06
254.96	219.06
255.193	224.06
255.426	194.06
255.659	187.06
255.892	197.06
256.124	192.06
256.357	200.06
256.59	199.06
256.823	171.06
257.056	184.06
257.289	162.06
257.521	198.06
257.754	180.06
257.987	179.06
258.22	166.06
258.452	170.06
258.685	176.06
258.918	176.06
259.151	176.06
259.383	187.06
259.616	176.06
259.849	183.06
260.081	202.06
260.314	209.06
260.547	222.06
260.779	200.06
261.012	182.06
261.244	192.06
261.477	182.06
261.71	175.06
261.942	212.06
262.175	208.06
262.407	193.06
262.64	180.06
262.872	180.06
263.105	187.06
263.337	182.06
263.57	171.06
263.802	165.06
264.035	188.06
264.267	187.06
264.499	170.06
264.732	178.06
264.964	182.06
265.197	189.06
265.429	174.06
265.661	176.06
265.894	194.06
266.126	186.06
266.358	187.06
266.591	169.06
266.823	199.06
267.055	191.06
267.287	191.06
267.52	178.06
267.752	192.06
267.984	177.06
268.216	192.06
268.448	202.06
268.681	192.06
268.913	200.06
269.145	209.06
269.377	221.06
269.609	250.06
269.841	221.06
270.073	211.06
270.306	246.06
270.538	260.06
270.77	252.06
271.002	248.06
271.234	239.06
271.466	238.06
271.698	245.06
271.93	264.06
272.162	277.06
272.394	256.06
272.626	239.06
272.858	229.06
273.09	227.06
273.322	222.06
273.553	211.06
273.785	223.06
274.017	232.06
274.249	216.06
274.481	218.06
274.713	227.06
274.945	204.06
275.176	249.06
275.408	225.06
275.64	221.06
275.872	231.06
276.104	227.06
276.335	227.06
276.567	247.06
276.799	221.06
277.031	243.06
277.262	271.06
277.494	265.06
277.726	250.06
277.957	234.06
278.189	201.06
278.421	222.06
278.652	227.06
278.884	229.06
279.115	221.06
279.347	207.06
279.579	217.06
279.81	227.06
280.042	200.06
280.273	235.06
280.505	212.06
280.736	212.06
280.968	217.06
281.199	234.06
281.431	215.06
281.662	209.06
281.894	228.06
282.125	204.06
282.356	249.06
282.588	249.06
282.819	249.06
283.051	234.06
283.282	227.06
283.513	235.06
283.745	227.06
283.976	234.06
284.207	242.06
284.439	226.06
284.67	242.06
284.901	202.06
285.132	236.06
285.364	223.06
285.595	214.06
285.826	200.06
286.057	212.06
286.288	238.06
286.52	218.06
286.751	235.06
286.982	247.06
287.213	244.06
287.444	224.06
287.675	220.06
287.906	244.06
288.138	232.06
288.369	240.06
288.6	245.06
288.831	213.06
289.062	228.06
289.293	215.06
289.524	244.06
289.755	232.06
289.986	224.06
290.217	223.06
290.448	218.06
290.679	235.06
290.91	231.06
291.141	231.06
291.371	223.06
291.602	233.06
291.833	231.06
292.064	230.06
292.295	237.06
292.526	254.06
292.757	236.06
292.987	228.06
293.218	224.06
293.449	224.06
293.68	227.06
293.91	227.06
294.141	210.06
294.372	238.06
294.603	237.06
294.833	236.06
295.064	238.06
295.295	236.06
295.525	235.06
295.756	248.06
295.987	250.06
296.217	256.06
296.448	285.06
296.679	247.06
296.909	232.06
297.14	219.06
297.37	231.06
297.601	239.06
297.831	242.06
298.062	245.06
298.292	240.06
298.523	249.06
298.753	234.06
298.984	241.06
299.214	247.06
299.445	254.06
299.675	241.06
299.905	255.06
300.136	251.06
300.366	261.06
300.597	230.06
300.827	242.06
301.057	254.06
301.288	258.06
301.518	261.06
301.748	254.06
301.979	252.06
302.209	265.06
302.439	255.06
302.669	252.06
302.9	257.06
303.13	263.06
303.36	263.06
303.59	271.06
303.82	283.06
304.051	274.06
304.281	275.06
304.511	270.06
304.741	252.06
304.971	252.06
305.201	246.06
305.431	267.06
305.661	263.06
305.891	249.06
306.121	264.06
306.352	252.06
306.582	272.06
306.812	262.06
307.042	280.06
307.272	249.06
307.502	256.06
307.731	276.06
307.961	256.06
308.191	265.06
308.421	279.06
308.651	258.06
308.881	277.06
309.111	277.06
309.341	277.06
309.571	296.06
309.8	290.06
310.03	315.06
310.26	315.06
310.49	315.06
310.72	319.06
310.949	329.06
311.179	333.06
311.409	307.06
311.639	307.06
311.868	307.06
312.098	318.06
312.328	342.06
312.557	324.06
312.787	335.06
313.017	351.06
313.246	338.06
313.476	318.06
313.706	297.06
313.935	305.06
314.165	334.06
314.394	327.06
314.624	329.06
314.853	331.06
315.083	294.06
315.312	308.06
315.542	310.06
315.771	281.06
316.001	304.06
316.23	310.06
316.46	299.06
316.689	300.06
316.919	298.06
317.148	321.06
317.377	316.06
317.607	326.06
317.836	306.06
318.065	311.06
318.295	293.06
318.524	297.06
318.753	302.06
318.983	293.06
319.212	306.06
319.441	323.06
319.67	320.06
319.9	332.06
320.129	313.06
320.358	311.06
320.587	314.06
320.816	342.06
321.046	337.06
321.275	331.06
321.504	310.06
321.733	345.06
321.962	353.06
322.191	354.06
322.42	370.06
322.649	378.06
322.878	380.06
323.108	388.06
323.337	405.06
323.566	454.06
323.795	472.06
324.024	529.06
324.253	637.06
324.482	948.06
324.71	1486.06
324.939	2083.06
325.168	1740.06
325.397	912.06
325.626	586.06
325.855	530.06
326.084	472.06
326.313	450.06
326.542	438.06
326.77	506.06
326.999	588.06
327.228	848.06
327.457	1316.06
327.686	1554.06
327.914	1011.06
328.143	692.06
328.372	606.06
328.6	514.06
328.829	476.06
329.058	500.06
329.287	526.06
329.515	481.06
329.744	450.06
329.972	454.06
330.201	482.06
330.43	514.06
330.658	541.06
330.887	551.06
331.115	521.06
331.344	473.06
331.572	436.06
331.801	418.06
332.03	410.06
332.258	390.06
332.486	396.06
332.715	358.06
332.943	359.06
333.172	377.06
333.4	367.06
333.629	342.06
333.857	394.06
334.085	400.06
334.314	434.06
334.542	457.06
334.771	464.06
334.999	435.06
335.227	389.06
335.455	376.06
335.684	354.06
335.912	355.06
336.14	362.06
336.369	358.06
336.597	369.06
336.825	368.06
337.053	357.06
337.281	357.06
337.51	363.06
337.738	370.06
337.966	353.06
338.194	359.06
338.422	371.06
338.65	369.06
338.878	349.06
339.106	341.06
339.334	351.06
339.562	341.06
339.79	337.06
340.018	330.06
340.246	353.06
340.474	360.06
340.702	363.06
340.93	336.06
341.158	345.06
341.386	352.06
341.614	348.06
341.842	357.06
342.07	327.06
342.298	353.06
342.526	361.06
342.754	352.06
342.981	331.06
343.209	332.06
343.437	359.06
343.665	350.06
343.893	342.06
344.12	332.06
344.348	352.06
344.576	377.06
344.804	365.06
345.031	362.06
345.259	378.06
345.487	358.06
345.714	353.06
345.942	341.06
346.17	339.06
346.397	342.06
346.625	356.06
346.853	329.06
347.08	342.06
347.308	345.06
347.535	358.06
347.763	340.06
347.99	344.06
348.218	345.06
348.445	383.06
348.673	356.06
348.9	360.06
349.128	343.06
349.355	336.06
349.583	338.06
349.81	326.06
350.037	329.06
350.265	336.06
350.492	326.06
350.72	330.06
350.947	337.06
351.174	361.06
351.402	372.06
351.629	346.06
351.856	352.06
352.083	356.06
352.311	364.06
352.538	359.06
352.765	369.06
352.992	351.06
353.22	361.06
353.447	348.06
353.674	340.06
353.901	335.06
354.128	322.06
354.355	309.06
354.583	323.06
354.81	334.06
355.037	322.06
355.264	318.06
355.491	310.06
355.718	315.06
355.945	317.06
356.172	316.06
356.399	308.06
356.626	313.06
356.853	331.06
357.08	334.06
357.307	314.06
357.534	337.06
357.761	312.06
357.988	325.06
358.215	322.06
358.441	314.06
358.668	306.06
358.895	319.06
359.122	321.06
359.349	329.06
359.576	328.06
359.802	377.06
360.029	386.06
360.256	421.06
360.483	395.06
360.709	340.06
360.936	351.06
361.163	346.06
361.39	336.06
361.616	340.06
361.843	343.06
362.07	337.06
362.296	342.06
362.523	362.06
362.749	343.06
362.976	332.06
363.203	342.06
363.429	344.06
363.656	332.06
363.882	307.06
364.109	320.06
364.335	328.06
364.562	327.06
364.788	297.06
365.015	327.06
365.241	347.06
365.468	335.06
365.694	334.06
365.92	322.06
366.147	321.06
366.373	332.06
366.599	314.06
366.826	327.06
367.052	317.06
367.278	319.06
367.505	332.06
367.731	327.06
367.957	330.06
368.184	326.06
368.41	331.06
368.636	338.06
368.862	336.06
369.089	329.06
369.315	341.06
369.541	310.06
369.767	326.06
369.993	322.06
370.219	320.06
370.445	309.06
370.672	337.06
370.898	320.06
371.124	296.06
371.35	322.06
371.576	311.06
371.802	336.06
372.028	332.06
372.254	319.06
372.48	314.06
372.706	313.06
372.932	304.06
373.158	342.06
373.384	318.06
373.61	318.06
373.835	335.06
374.061	306.06
374.287	326.06
374.513	337.06
374.739	328.06
374.965	319.06
375.191	318.06
375.416	318.06
375.642	327.06
375.868	337.06
376.094	319.06
376.319	300.06
376.545	302.06
376.771	333.06
376.997	323.06
377.222	322.06
377.448	309.06
377.674	310.06
377.899	321.06
378.125	311.06
378.35	320.06
378.576	320.06
378.802	299.06
379.027	317.06
379.253	317.06
379.478	333.06
379.704	335.06
379.929	304.06
380.155	316.06
380.38	320.06
380.606	323.06
380.831	317.06
381.057	345.06
381.282	313.06
381.507	315.06
381.733	319.06
381.958	315.06
382.184	316.06
382.409	330.06
382.634	331.06
382.86	326.06
383.085	316.06
383.31	308.06
383.535	327.06
383.761	332.06
383.986	324.06
384.211	341.06
384.436	340.06
384.662	340.06
384.887	350.06
385.112	342.06
385.337	327.06
385.562	338.06
385.787	346.06
386.013	337.06
386.238	342.06
386.463	344.06
386.688	361.06
386.913	346.06
387.138	335.06
387.363	353.06
387.588	333.06
387.813	349.06
388.038	337.06
388.263	343.06
388.488	339.06
388.713	344.06
388.938	369.06
389.163	360.06
389.387	330.06
389.612	338.06
389.837	345.06
390.062	339.06
390.287	352.06
390.512	340.06
390.736	335.06
390.961	331.06
391.186	322.06
391.411	335.06
391.636	329.06
391.86	342.06
392.085	354.06
392.31	333.06
392.534	336.06
392.759	350.06
392.984	359.06
393.208	331.06
393.433	362.06
393.658	359.06
393.882	362.06
394.107	360.06
394.331	350.06
394.556	332.06
394.78	356.06
395.005	355.06
395.229	342.06
395.454	344.06
395.678	359.06
395.903	380.06
396.127	376.06
396.352	382.06
396.576	374.06
396.801	362.06
397.025	364.06
397.249	376.06
397.474	356.06
397.698	361.06
397.922	382.06
398.147	387.06
398.371	393.06
398.595	386.06
398.82	370.06
399.044	388.06
399.268	393.06
399.492	406.06
399.717	408.06
399.941	424.06
400.165	444.06
400.389	489.06
400.613	430.06
400.837	419.06
401.062	395.06
401.286	409.06
401.51	394.06
401.734	386.06
401.958	375.06
402.182	396.06
402.406	401.06
402.63	433.06
402.854	416.06
403.078	370.06
403.302	378.06
403.526	409.06
403.75	408.06
403.974	410.06
404.198	409.06
404.422	414.06
404.645	412.06
404.869	407.06
405.093	438.06
405.317	441.06
405.541	497.06
405.765	436.06
405.988	437.06
406.212	452.06
406.436	460.06
406.66	474.06
406.883	450.06
407.107	443.06
407.331	503.06
407.555	533.06
407.778	496.06
408.002	459.06
408.226	458.06
408.449	472.06
408.673	449.06
408.896	461.06
409.12	507.06
409.344	499.06
409.567	451.06
409.791	430.06
410.014	415.06
410.238	414.06
410.461	400.06
410.685	425.06
410.908	428.06
411.132	473.06
411.355	498.06
411.578	458.06
411.802	420.06
412.025	395.06
412.249	407.06
412.472	425.06
412.695	471.06
412.919	460.06
413.142	423.06
413.365	410.06
413.589	400.06
413.812	401.06
414.035	413.06
414.258	389.06
414.482	390.06
414.705	389.06
414.928	378.06
415.151	384.06
415.374	384.06
415.597	370.06
415.821	387.06
416.044	361.06
416.267	386.06
416.49	392.06
416.713	374.06
416.936	385.06
417.159	390.06
417.382	379.06
417.605	403.06
417.828	411.06
418.051	399.06
418.274	396.06
418.497	411.06
418.72	376.06
418.943	396.06
419.166	394.06
419.389	397.06
419.611	414.06
419.834	411.06
420.057	407.06
420.28	433.06
420.503	402.06
420.726	424.06
420.948	401.06
421.171	463.06
421.394	475.06
421.617	438.06
421.839	414.06
422.062	399.06
422.285	440.06
422.507	481.06
422.73	520.06
422.953	518.06
423.175	451.06
423.398	430.06
423.621	426.06
423.843	422.06
424.066	436.06
424.288	431.06
424.511	451.06
424.733	486.06
424.956	568.06
425.178	548.06
425.401	546.06
425.623	569.06
425.846	489.06
426.068	458.06
426.291	458.06
426.513	446.06
426.735	469.06
426.958	496.06
427.18	546.06
427.402	641.06
427.625	735.06
427.847	691.06
428.069	561.06
428.292	514.06
428.514	466.06
428.736	430.06
428.958	422.06
429.181	403.06
429.403	412.06
429.625	421.06
429.847	448.06
430.069	505.06
430.292	489.06
430.514	445.06
430.736	406.06
430.958	421.06
431.18	399.06
431.402	394.06
431.624	380.06
431.846	389.06
432.068	393.06
432.29	379.06
432.512	378.06
432.734	383.06
432.956	398.06
433.178	409.06
433.4	395.06
433.622	402.06
433.844	395.06
434.066	377.06
434.287	389.06
434.509	391.06
434.731	391.06
434.953	411.06
435.175	422.06
435.397	437.06
435.618	449.06
435.84	466.06
436.062	545.06
436.284	607.06
436.505	508.06
436.727	442.06
436.949	434.06
437.17	412.06
437.392	421.06
437.614	429.06
437.835	471.06
438.057	558.06
438.278	626.06
438.5	634.06
438.721	688.06
438.943	635.06
439.165	502.06
439.386	482.06
439.608	467.06
439.829	471.06
440.05	492.06
440.272	534.06
440.493	500.06
440.715	451.06
440.936	427.06
441.158	409.06
441.379	400.06
441.6	419.06
441.822	457.06
442.043	487.06
442.264	559.06
442.486	569.06
442.707	495.06
442.928	451.06
443.149	470.06
443.371	498.06
443.592	515.06
443.813	601.06
444.034	648.06
444.255	532.06
444.476	479.06
444.698	452.06
444.919	442.06
445.14	538.06
445.361	473.06
445.582	472.06
445.803	541.06
446.024	632.06
446.245	640.06
446.466	616.06
446.687	487.06
446.908	464.06
447.129	432.06
447.35	421.06
447.571	438.06
447.792	406.06
448.013	424.06
448.234	442.06
448.455	487.06
448.675	572.06
448.896	664.06
449.117	583.06
449.338	560.06
449.559	628.06
449.779	705.06
450	549.06
450.221	480.06
450.442	427.06
450.662	427.06
450.883	444.06
451.104	446.06
451.324	441.06
451.545	412.06
451.766	403.06
451.986	399.06
452.207	380.06
452.428	386.06
452.648	375.06
452.869	375.06
453.089	393.06
453.31	410.06
453.53	391.06
453.751	386.06
453.971	386.06
454.192	411.06
454.412	396.06
454.633	392.06
454.853	393.06
455.073	402.06
455.294	436.06
455.514	446.06
455.734	443.06
455.955	360.06
456.175	366.06
456.395	354.06
456.616	340.06
456.836	354.06
457.056	344.06
457.276	361.06
457.497	350.06
457.717	363.06
457.937	370.06
458.157	379.06
458.377	388.06
458.598	387.06
458.818	445.06
459.038	542.06
459.258	521.06
459.478	443.06
459.698	405.06
459.918	376.06
460.138	375.06
460.358	394.06
460.578	400.06
460.798	392.06
461.018	415.06
461.238	412.06
461.458	386.06
461.678	376.06
461.898	416.06
462.118	394.06
462.338	395.06
462.558	391.06
462.777	397.06
462.997	416.06
463.217	436.06
463.437	420.06
463.657	423.06
463.876	418.06
464.096	418.06
464.316	421.06
464.536	416.06
464.755	425.06
464.975	416.06
465.195	481.06
465.414	556.06
465.634	498.06
465.854	437.06
466.073	433.06
466.293	406.06
466.512	401.06
466.732	389.06
466.951	400.06
467.171	358.06
467.391	396.06
467.61	388.06
467.829	416.06
468.049	418.06
468.268	416.06
468.488	390.06
468.707	384.06
468.927	376.06
469.146	371.06
469.365	386.06
469.585	378.06
469.804	377.06
470.023	387.06
470.243	386.06
470.462	393.06
470.681	431.06
470.901	431.06
471.12	401.06
471.339	385.06
471.558	379.06
471.777	384.06
471.997	380.06
472.216	436.06
472.435	459.06
472.654	441.06
472.873	414.06
473.092	400.06
473.311	394.06
473.53	401.06
473.749	411.06
473.968	447.06
474.187	544.06
474.406	544.06
474.625	449.06
474.844	424.06
475.063	407.06
475.282	402.06
475.501	408.06
475.72	410.06
475.939	406.06
476.158	411.06
476.377	384.06
476.596	405.06
476.814	411.06
477.033	411.06
477.252	397.06
477.471	422.06
477.69	418.06
477.908	411.06
478.127	430.06
478.346	438.06
478.564	451.06
478.783	457.06
479.002	436.06
479.22	447.06
479.439	447.06
479.658	496.06
479.876	464.06
480.095	466.06
480.313	487.06
480.532	512.06
480.751	477.06
480.969	500.06
481.188	578.06
481.406	603.06
481.624	525.06
481.843	476.06
482.061	483.06
482.28	481.06
482.498	457.06
482.717	457.06
482.935	468.06
483.153	450.06
483.372	472.06
483.59	446.06
483.808	465.06
484.027	462.06
484.245	469.06
484.463	480.06
484.681	485.06
484.9	472.06
485.118	473.06
485.336	458.06
485.554	486.06
485.772	499.06
485.99	478.06
486.209	472.06
486.427	490.06
486.645	493.06
486.863	502.06
487.081	525.06
487.299	499.06
487.517	506.06
487.735	501.06
487.953	484.06
488.171	496.06
488.389	498.06
488.607	511.06
488.825	512.06
489.043	510.06
489.261	502.06
489.479	511.06
489.696	504.06
489.914	500.06
490.132	486.06
490.35	497.06
490.568	550.06
490.786	535.06
491.003	543.06
491.221	549.06
491.439	561.06
491.657	564.06
491.874	569.06
492.092	555.06
492.31	558.06
492.527	567.06
492.745	577.06
492.963	568.06
493.18	570.06
493.398	584.06
493.615	589.06
493.833	581.06
494.05	583.06
494.268	599.06
494.485	568.06
494.703	553.06
494.92	584.06
495.138	594.06
495.355	584.06
495.573	599.06
495.79	601.06
496.008	589.06
496.225	606.06
496.442	589.06
496.66	584.06
496.877	586.06
497.094	572.06
497.312	596.06
497.529	614.06
497.746	616.06
497.963	624.06
498.181	614.06
498.398	618.06
498.615	650.06
498.832	626.06
499.049	633.06
499.267	676.06
499.484	676.06
499.701	709.06
499.918	714.06
500.135	724.06
500.352	735.06
500.569	744.06
500.786	740.06
501.003	744.06
501.22	740.06
501.437	722.06
501.654	716.06
501.871	694.06
502.088	704.06
