Data from 1961.PennyLincolnUp.Lamp.En5.5.200Scan.071719.P1._HRD10591_13-48-09-057.txt Node
Date: Thu Jul 18 13:48:09 EDT 2019
User: cochatt
Spectrometer: HR+D1059
Trigger mode: 1
Integration Time (sec): 1.000000E-1
Scans to average: 1
Electric dark correction enabled: true
Nonlinearity correction enabled: false
Boxcar width: 0
XAxis mode: Wavelengths
Number of Pixels in Spectrum: 2048
>>>>>Begin Spectral Data<<<<<
223.165	-25.31
223.4	-25.31
223.635	-25.31
223.869	-14.31
224.104	-14.31
224.338	-19.31
224.573	-24.31
224.808	-20.31
225.042	0.69
225.277	2.69
225.511	4.69
225.746	5.69
225.98	7.69
226.215	4.69
226.449	21.69
226.683	15.69
226.918	28.69
227.152	25.69
227.387	39.69
227.621	38.69
227.856	39.69
228.09	41.69
228.324	42.69
228.559	58.69
228.793	72.69
229.027	87.69
229.262	87.69
229.496	116.69
229.73	127.69
229.964	135.69
230.199	128.69
230.433	112.69
230.667	116.69
230.901	115.69
231.136	84.69
231.37	96.69
231.604	96.69
231.838	123.69
232.072	127.69
232.306	104.69
232.541	106.69
232.775	108.69
233.009	112.69
233.243	121.69
233.477	96.69
233.711	103.69
233.945	97.69
234.179	118.69
234.413	108.69
234.647	110.69
234.881	98.69
235.115	97.69
235.349	103.69
235.583	99.69
235.817	112.69
236.051	122.69
236.285	114.69
236.519	97.69
236.753	111.69
236.987	132.69
237.221	174.69
237.455	204.69
237.689	177.69
237.922	122.69
238.156	121.69
238.39	103.69
238.624	119.69
238.858	109.69
239.091	116.69
239.325	113.69
239.559	110.69
239.793	115.69
240.027	120.69
240.26	130.69
240.494	133.69
240.728	133.69
240.961	122.69
241.195	136.69
241.429	120.69
241.662	122.69
241.896	111.69
242.13	119.69
242.363	113.69
242.597	119.69
242.83	119.69
243.064	138.69
243.298	112.69
243.531	136.69
243.765	125.69
243.998	135.69
244.232	127.69
244.465	127.69
244.699	125.69
244.932	140.69
245.166	123.69
245.399	133.69
245.633	132.69
245.866	135.69
246.099	127.69
246.333	130.69
246.566	136.69
246.8	133.69
247.033	142.69
247.266	135.69
247.5	135.69
247.733	149.69
247.966	157.69
248.2	144.69
248.433	145.69
248.666	151.69
248.899	161.69
249.133	172.69
249.366	170.69
249.599	173.69
249.832	156.69
250.066	164.69
250.299	154.69
250.532	173.69
250.765	184.69
250.998	191.69
251.231	191.69
251.465	191.69
251.698	187.69
251.931	165.69
252.164	165.69
252.397	178.69
252.63	170.69
252.863	179.69
253.096	190.69
253.329	200.69
253.562	193.69
253.795	199.69
254.028	181.69
254.261	183.69
254.494	186.69
254.727	220.69
254.96	222.69
255.193	224.69
255.426	219.69
255.659	208.69
255.892	201.69
256.124	211.69
256.357	200.69
256.59	199.69
256.823	187.69
257.056	169.69
257.289	157.69
257.521	188.69
257.754	188.69
257.987	157.69
258.22	175.69
258.452	171.69
258.685	169.69
258.918	177.69
259.151	179.69
259.383	181.69
259.616	172.69
259.849	189.69
260.081	209.69
260.314	206.69
260.547	212.69
260.779	199.69
261.012	186.69
261.244	181.69
261.477	202.69
261.71	201.69
261.942	201.69
262.175	201.69
262.407	192.69
262.64	201.69
262.872	188.69
263.105	176.69
263.337	188.69
263.57	181.69
263.802	187.69
264.035	178.69
264.267	178.69
264.499	186.69
264.732	176.69
264.964	170.69
265.197	185.69
265.429	180.69
265.661	191.69
265.894	165.69
266.126	173.69
266.358	172.69
266.591	185.69
266.823	187.69
267.055	196.69
267.287	191.69
267.52	178.69
267.752	172.69
267.984	187.69
268.216	187.69
268.448	204.69
268.681	192.69
268.913	203.69
269.145	201.69
269.377	232.69
269.609	216.69
269.841	225.69
270.073	217.69
270.306	229.69
270.538	268.69
270.77	258.69
271.002	250.69
271.234	244.69
271.466	239.69
271.698	257.69
271.93	244.69
272.162	270.69
272.394	278.69
272.626	257.69
272.858	249.69
273.09	243.69
273.322	221.69
273.553	228.69
273.785	225.69
274.017	211.69
274.249	220.69
274.481	211.69
274.713	221.69
274.945	231.69
275.176	224.69
275.408	241.69
275.64	232.69
275.872	233.69
276.104	242.69
276.335	219.69
276.567	221.69
276.799	248.69
277.031	241.69
277.262	258.69
277.494	283.69
277.726	237.69
277.957	236.69
278.189	225.69
278.421	220.69
278.652	224.69
278.884	237.69
279.115	211.69
279.347	215.69
279.579	210.69
279.81	220.69
280.042	214.69
280.273	218.69
280.505	210.69
280.736	210.69
280.968	200.69
281.199	213.69
281.431	215.69
281.662	216.69
281.894	208.69
282.125	207.69
282.356	235.69
282.588	256.69
282.819	253.69
283.051	217.69
283.282	220.69
283.513	214.69
283.745	237.69
283.976	232.69
284.207	224.69
284.439	228.69
284.67	232.69
284.901	235.69
285.132	234.69
285.364	233.69
285.595	232.69
285.826	229.69
286.057	223.69
286.288	223.69
286.52	230.69
286.751	234.69
286.982	237.69
287.213	220.69
287.444	234.69
287.675	225.69
287.906	227.69
288.138	225.69
288.369	251.69
288.6	239.69
288.831	249.69
289.062	243.69
289.293	224.69
289.524	223.69
289.755	231.69
289.986	231.69
290.217	235.69
290.448	219.69
290.679	221.69
290.91	227.69
291.141	233.69
291.371	241.69
291.602	234.69
291.833	217.69
292.064	234.69
292.295	239.69
292.526	226.69
292.757	233.69
292.987	235.69
293.218	236.69
293.449	232.69
293.68	231.69
293.91	243.69
294.141	227.69
294.372	231.69
294.603	233.69
294.833	245.69
295.064	228.69
295.295	229.69
295.525	240.69
295.756	240.69
295.987	241.69
296.217	281.69
296.448	279.69
296.679	247.69
296.909	223.69
297.14	229.69
297.37	249.69
297.601	233.69
297.831	230.69
298.062	245.69
298.292	239.69
298.523	239.69
298.753	249.69
298.984	233.69
299.214	240.69
299.445	253.69
299.675	239.69
299.905	249.69
300.136	259.69
300.366	237.69
300.597	249.69
300.827	249.69
301.057	264.69
301.288	256.69
301.518	258.69
301.748	247.69
301.979	234.69
302.209	264.69
302.439	276.69
302.669	266.69
302.9	241.69
303.13	271.69
303.36	267.69
303.59	274.69
303.82	274.69
304.051	286.69
304.281	275.69
304.511	255.69
304.741	268.69
304.971	280.69
305.201	256.69
305.431	257.69
305.661	261.69
305.891	248.69
306.121	260.69
306.352	275.69
306.582	279.69
306.812	283.69
307.042	272.69
307.272	268.69
307.502	261.69
307.731	262.69
307.961	278.69
308.191	277.69
308.421	247.69
308.651	303.69
308.881	295.69
309.111	288.69
309.341	293.69
309.571	276.69
309.8	285.69
310.03	305.69
310.26	309.69
310.49	313.69
310.72	301.69
310.949	342.69
311.179	329.69
311.409	310.69
311.639	318.69
311.868	327.69
312.098	317.69
312.328	312.69
312.557	337.69
312.787	348.69
313.017	350.69
313.246	305.69
313.476	324.69
313.706	297.69
313.935	303.69
314.165	329.69
314.394	333.69
314.624	325.69
314.853	312.69
315.083	320.69
315.312	307.69
315.542	304.69
315.771	295.69
316.001	315.69
316.23	317.69
316.46	314.69
316.689	314.69
316.919	314.69
317.148	308.69
317.377	321.69
317.607	324.69
317.836	333.69
318.065	322.69
318.295	301.69
318.524	320.69
318.753	304.69
318.983	317.69
319.212	297.69
319.441	302.69
319.67	322.69
319.9	326.69
320.129	315.69
320.358	317.69
320.587	308.69
320.816	316.69
321.046	325.69
321.275	322.69
321.504	355.69
321.733	337.69
321.962	353.69
322.191	364.69
322.42	367.69
322.649	367.69
322.878	396.69
323.108	389.69
323.337	409.69
323.566	441.69
323.795	479.69
324.024	541.69
324.253	671.69
324.482	968.69
324.71	1537.69
324.939	2179.69
325.168	1801.69
325.397	960.69
325.626	625.69
325.855	499.69
326.084	460.69
326.313	466.69
326.542	471.69
326.77	513.69
326.999	616.69
327.228	886.69
327.457	1339.69
327.686	1590.69
327.914	1047.69
328.143	693.69
328.372	593.69
328.6	555.69
328.829	532.69
329.058	517.69
329.287	535.69
329.515	492.69
329.744	441.69
329.972	454.69
330.201	479.69
330.43	511.69
330.658	553.69
330.887	571.69
331.115	526.69
331.344	453.69
331.572	428.69
331.801	417.69
332.03	426.69
332.258	395.69
332.486	379.69
332.715	356.69
332.943	352.69
333.172	373.69
333.4	383.69
333.629	363.69
333.857	391.69
334.085	390.69
334.314	427.69
334.542	440.69
334.771	467.69
334.999	436.69
335.227	400.69
335.455	356.69
335.684	365.69
335.912	368.69
336.14	361.69
336.369	354.69
336.597	373.69
336.825	373.69
337.053	364.69
337.281	343.69
337.51	372.69
337.738	371.69
337.966	361.69
338.194	368.69
338.422	359.69
338.65	351.69
338.878	349.69
339.106	344.69
339.334	341.69
339.562	354.69
339.79	336.69
340.018	333.69
340.246	343.69
340.474	353.69
340.702	357.69
340.93	346.69
341.158	337.69
341.386	341.69
341.614	340.69
341.842	354.69
342.07	339.69
342.298	351.69
342.526	328.69
342.754	328.69
342.981	351.69
343.209	330.69
343.437	338.69
343.665	322.69
343.893	336.69
344.12	332.69
344.348	349.69
344.576	345.69
344.804	348.69
345.031	362.69
345.259	357.69
345.487	380.69
345.714	361.69
345.942	356.69
346.17	341.69
346.397	331.69
346.625	354.69
346.853	338.69
347.08	333.69
347.308	329.69
347.535	343.69
347.763	356.69
347.99	361.69
348.218	350.69
348.445	362.69
348.673	360.69
348.9	352.69
349.128	349.69
349.355	319.69
349.583	326.69
349.81	324.69
350.037	334.69
350.265	331.69
350.492	313.69
350.72	333.69
350.947	324.69
351.174	351.69
351.402	347.69
351.629	328.69
351.856	338.69
352.083	330.69
352.311	367.69
352.538	353.69
352.765	356.69
352.992	363.69
353.22	349.69
353.447	342.69
353.674	344.69
353.901	333.69
354.128	335.69
354.355	317.69
354.583	316.69
354.81	346.69
355.037	326.69
355.264	320.69
355.491	327.69
355.718	305.69
355.945	297.69
356.172	314.69
356.399	305.69
356.626	307.69
356.853	321.69
357.08	308.69
357.307	300.69
357.534	302.69
357.761	325.69
357.988	299.69
358.215	311.69
358.441	312.69
358.668	308.69
358.895	297.69
359.122	340.69
359.349	323.69
359.576	352.69
359.802	350.69
360.029	387.69
360.256	418.69
360.483	386.69
360.709	354.69
360.936	336.69
361.163	340.69
361.39	356.69
361.616	337.69
361.843	345.69
362.07	338.69
362.296	348.69
362.523	345.69
362.749	335.69
362.976	340.69
363.203	344.69
363.429	325.69
363.656	338.69
363.882	315.69
364.109	321.69
364.335	324.69
364.562	328.69
364.788	305.69
365.015	317.69
365.241	325.69
365.468	330.69
365.694	340.69
365.92	332.69
366.147	352.69
366.373	322.69
366.599	317.69
366.826	323.69
367.052	316.69
367.278	325.69
367.505	321.69
367.731	320.69
367.957	306.69
368.184	321.69
368.41	332.69
368.636	348.69
368.862	333.69
369.089	314.69
369.315	324.69
369.541	312.69
369.767	320.69
369.993	338.69
370.219	325.69
370.445	312.69
370.672	310.69
370.898	310.69
371.124	321.69
371.35	311.69
371.576	302.69
371.802	288.69
372.028	318.69
372.254	307.69
372.48	315.69
372.706	306.69
372.932	322.69
373.158	329.69
373.384	319.69
373.61	309.69
373.835	331.69
374.061	311.69
374.287	328.69
374.513	317.69
374.739	305.69
374.965	319.69
375.191	326.69
375.416	320.69
375.642	329.69
375.868	303.69
376.094	328.69
376.319	325.69
376.545	308.69
376.771	315.69
376.997	310.69
377.222	320.69
377.448	311.69
377.674	299.69
377.899	303.69
378.125	313.69
378.35	308.69
378.576	325.69
378.802	315.69
379.027	327.69
379.253	297.69
379.478	323.69
379.704	321.69
379.929	325.69
380.155	324.69
380.38	309.69
380.606	293.69
380.831	321.69
381.057	313.69
381.282	300.69
381.507	322.69
381.733	325.69
381.958	306.69
382.184	323.69
382.409	315.69
382.634	305.69
382.86	311.69
383.085	315.69
383.31	332.69
383.535	327.69
383.761	327.69
383.986	315.69
384.211	344.69
384.436	321.69
384.662	325.69
384.887	364.69
385.112	328.69
385.337	340.69
385.562	333.69
385.787	336.69
386.013	340.69
386.238	339.69
386.463	347.69
386.688	361.69
386.913	346.69
387.138	347.69
387.363	342.69
387.588	356.69
387.813	314.69
388.038	327.69
388.263	332.69
388.488	338.69
388.713	315.69
388.938	337.69
389.163	339.69
389.387	338.69
389.612	323.69
389.837	317.69
390.062	329.69
390.287	325.69
390.512	335.69
390.736	332.69
390.961	350.69
391.186	316.69
391.411	355.69
391.636	356.69
391.86	336.69
392.085	352.69
392.31	344.69
392.534	348.69
392.759	356.69
392.984	343.69
393.208	349.69
393.433	368.69
393.658	355.69
393.882	318.69
394.107	351.69
394.331	354.69
394.556	367.69
394.78	332.69
395.005	348.69
395.229	370.69
395.454	379.69
395.678	361.69
395.903	351.69
396.127	373.69
396.352	391.69
396.576	349.69
396.801	363.69
397.025	360.69
397.249	370.69
397.474	351.69
397.698	376.69
397.922	363.69
398.147	383.69
398.371	375.69
398.595	389.69
398.82	383.69
399.044	390.69
399.268	389.69
399.492	408.69
399.717	416.69
399.941	445.69
400.165	473.69
400.389	476.69
400.613	432.69
400.837	397.69
401.062	401.69
401.286	389.69
401.51	387.69
401.734	380.69
401.958	395.69
402.182	393.69
402.406	402.69
402.63	401.69
402.854	394.69
403.078	387.69
403.302	401.69
403.526	402.69
403.75	391.69
403.974	395.69
404.198	397.69
404.422	394.69
404.645	405.69
404.869	404.69
405.093	444.69
405.317	468.69
405.541	496.69
405.765	467.69
405.988	445.69
406.212	444.69
406.436	464.69
406.66	465.69
406.883	454.69
407.107	447.69
407.331	489.69
407.555	526.69
407.778	543.69
408.002	488.69
408.226	448.69
408.449	454.69
408.673	461.69
408.896	471.69
409.12	502.69
409.344	449.69
409.567	409.69
409.791	432.69
410.014	413.69
410.238	399.69
410.461	397.69
410.685	424.69
410.908	422.69
411.132	441.69
411.355	482.69
411.578	444.69
411.802	435.69
412.025	401.69
412.249	416.69
412.472	453.69
412.695	474.69
412.919	460.69
413.142	400.69
413.365	402.69
413.589	391.69
413.812	397.69
414.035	379.69
414.258	369.69
414.482	376.69
414.705	390.69
414.928	388.69
415.151	371.69
415.374	372.69
415.597	375.69
415.821	389.69
416.044	389.69
416.267	389.69
416.49	386.69
416.713	389.69
416.936	376.69
417.159	367.69
417.382	387.69
417.605	408.69
417.828	409.69
418.051	413.69
418.274	384.69
418.497	364.69
418.72	375.69
418.943	395.69
419.166	395.69
419.389	402.69
419.611	420.69
419.834	401.69
420.057	412.69
420.28	420.69
420.503	409.69
420.726	398.69
420.948	414.69
421.171	454.69
421.394	472.69
421.617	424.69
421.839	423.69
422.062	421.69
422.285	411.69
422.507	464.69
422.73	539.69
422.953	520.69
423.175	435.69
423.398	437.69
423.621	420.69
423.843	444.69
424.066	441.69
424.288	436.69
424.511	444.69
424.733	507.69
424.956	553.69
425.178	545.69
425.401	547.69
425.623	545.69
425.846	467.69
426.068	458.69
426.291	449.69
426.513	442.69
426.735	436.69
426.958	496.69
427.18	587.69
427.402	648.69
427.625	715.69
427.847	660.69
428.069	564.69
428.292	496.69
428.514	453.69
428.736	420.69
428.958	432.69
429.181	434.69
429.403	411.69
429.625	429.69
429.847	447.69
430.069	501.69
430.292	505.69
430.514	426.69
430.736	407.69
430.958	428.69
431.18	407.69
431.402	404.69
431.624	400.69
431.846	401.69
432.068	385.69
432.29	389.69
432.512	386.69
432.734	402.69
432.956	388.69
433.178	419.69
433.4	397.69
433.622	372.69
433.844	385.69
434.066	388.69
434.287	388.69
434.509	392.69
434.731	395.69
434.953	409.69
435.175	423.69
435.397	415.69
435.618	434.69
435.84	493.69
436.062	569.69
436.284	618.69
436.505	525.69
436.727	467.69
436.949	447.69
437.17	415.69
437.392	425.69
437.614	444.69
437.835	463.69
438.057	555.69
438.278	639.69
438.5	624.69
438.721	670.69
438.943	628.69
439.165	535.69
439.386	460.69
439.608	466.69
439.829	451.69
440.05	487.69
440.272	514.69
440.493	511.69
440.715	460.69
440.936	441.69
441.158	429.69
441.379	412.69
441.6	435.69
441.822	456.69
442.043	484.69
442.264	546.69
442.486	584.69
442.707	486.69
442.928	467.69
443.149	475.69
443.371	481.69
443.592	516.69
443.813	607.69
444.034	644.69
444.255	527.69
444.476	481.69
444.698	442.69
444.919	439.69
445.14	527.69
445.361	483.69
445.582	509.69
445.803	561.69
446.024	658.69
446.245	663.69
446.466	601.69
446.687	490.69
446.908	442.69
447.129	459.69
447.35	424.69
447.571	417.69
447.792	414.69
448.013	429.69
448.234	439.69
448.455	483.69
448.675	585.69
448.896	667.69
449.117	555.69
449.338	545.69
449.559	623.69
449.779	700.69
450	569.69
450.221	490.69
450.442	430.69
450.662	434.69
450.883	443.69
451.104	425.69
451.324	435.69
451.545	405.69
451.766	397.69
451.986	380.69
452.207	368.69
452.428	372.69
452.648	385.69
452.869	392.69
453.089	380.69
453.31	401.69
453.53	419.69
453.751	373.69
453.971	387.69
454.192	405.69
454.412	401.69
454.633	388.69
454.853	376.69
455.073	384.69
455.294	404.69
455.514	435.69
455.734	434.69
455.955	378.69
456.175	360.69
456.395	352.69
456.616	369.69
456.836	377.69
457.056	363.69
457.276	335.69
457.497	343.69
457.717	353.69
457.937	360.69
458.157	359.69
458.377	363.69
458.598	385.69
458.818	453.69
459.038	523.69
459.258	540.69
459.478	445.69
459.698	409.69
459.918	394.69
460.138	391.69
460.358	399.69
460.578	398.69
460.798	403.69
461.018	393.69
461.238	386.69
461.458	403.69
461.678	392.69
461.898	397.69
462.118	386.69
462.338	390.69
462.558	401.69
462.777	421.69
462.997	403.69
463.217	421.69
463.437	410.69
463.657	383.69
463.876	423.69
464.096	427.69
464.316	403.69
464.536	411.69
464.755	398.69
464.975	420.69
465.195	458.69
465.414	554.69
465.634	473.69
465.854	425.69
466.073	412.69
466.293	419.69
466.512	393.69
466.732	399.69
466.951	392.69
467.171	397.69
467.391	402.69
467.61	392.69
467.829	393.69
468.049	396.69
468.268	408.69
468.488	391.69
468.707	369.69
468.927	368.69
469.146	361.69
469.365	349.69
469.585	385.69
469.804	375.69
470.023	411.69
470.243	386.69
470.462	384.69
470.681	403.69
470.901	402.69
471.12	402.69
471.339	385.69
471.558	394.69
471.777	392.69
471.997	382.69
472.216	409.69
472.435	457.69
472.654	429.69
472.873	412.69
473.092	393.69
473.311	388.69
473.53	407.69
473.749	403.69
473.968	440.69
474.187	526.69
474.406	525.69
474.625	464.69
474.844	416.69
475.063	407.69
475.282	407.69
475.501	403.69
475.72	409.69
475.939	387.69
476.158	398.69
476.377	414.69
476.596	383.69
476.814	401.69
477.033	425.69
477.252	418.69
477.471	411.69
477.69	407.69
477.908	406.69
478.127	425.69
478.346	423.69
478.564	430.69
478.783	441.69
479.002	423.69
479.22	442.69
479.439	430.69
479.658	475.69
479.876	455.69
480.095	465.69
480.313	490.69
480.532	474.69
480.751	462.69
480.969	509.69
481.188	586.69
481.406	623.69
481.624	509.69
481.843	494.69
482.061	461.69
482.28	463.69
482.498	469.69
482.717	467.69
482.935	471.69
483.153	468.69
483.372	455.69
483.59	464.69
483.808	452.69
484.027	460.69
484.245	441.69
484.463	455.69
484.681	470.69
484.9	464.69
485.118	461.69
485.336	464.69
485.554	465.69
485.772	470.69
485.99	456.69
486.209	492.69
486.427	492.69
486.645	492.69
486.863	499.69
487.081	520.69
487.299	490.69
487.517	468.69
487.735	476.69
487.953	486.69
488.171	491.69
488.389	483.69
488.607	510.69
488.825	512.69
489.043	475.69
489.261	491.69
489.479	491.69
489.696	482.69
489.914	503.69
490.132	495.69
490.35	520.69
490.568	513.69
490.786	550.69
491.003	539.69
491.221	559.69
491.439	540.69
491.657	540.69
491.874	550.69
492.092	552.69
492.31	569.69
492.527	578.69
492.745	563.69
492.963	564.69
493.18	573.69
493.398	559.69
493.615	584.69
493.833	586.69
494.05	595.69
494.268	565.69
494.485	581.69
494.703	594.69
494.92	552.69
495.138	559.69
495.355	580.69
495.573	592.69
495.79	595.69
496.008	592.69
496.225	587.69
496.442	598.69
496.66	579.69
496.877	597.69
497.094	596.69
497.312	598.69
497.529	586.69
497.746	598.69
497.963	583.69
498.181	612.69
498.398	610.69
498.615	659.69
498.832	648.69
499.049	635.69
499.267	667.69
499.484	667.69
499.701	695.69
499.918	700.69
500.135	700.69
500.352	720.69
500.569	713.69
500.786	725.69
501.003	719.69
501.22	749.69
501.437	713.69
501.654	701.69
501.871	705.69
502.088	701.69
