Data from 1961.PennyLincolnUp.Lamp.En5.5.200Scan.071719.P1._HRD10591_13-46-23-057.txt Node
Date: Thu Jul 18 13:46:23 EDT 2019
User: cochatt
Spectrometer: HR+D1059
Trigger mode: 1
Integration Time (sec): 1.000000E-1
Scans to average: 1
Electric dark correction enabled: true
Nonlinearity correction enabled: false
Boxcar width: 0
XAxis mode: Wavelengths
Number of Pixels in Spectrum: 2048
>>>>>Begin Spectral Data<<<<<
223.165	-14.88
223.4	-14.88
223.635	-14.88
223.869	0.12
224.104	-16.88
224.338	-3.88
224.573	-16.88
224.808	-17.88
225.042	-8.88
225.277	1.12
225.511	3.12
225.746	1.12
225.98	6.12
226.215	8.12
226.449	-0.88
226.683	15.12
226.918	14.12
227.152	31.12
227.387	41.12
227.621	53.12
227.856	52.12
228.09	47.12
228.324	53.12
228.559	48.12
228.793	68.12
229.027	93.12
229.262	83.12
229.496	90.12
229.73	97.12
229.964	108.12
230.199	108.12
230.433	86.12
230.667	104.12
230.901	97.12
231.136	101.12
231.37	99.12
231.604	107.12
231.838	76.12
232.072	102.12
232.306	111.12
232.541	97.12
232.775	90.12
233.009	91.12
233.243	93.12
233.477	80.12
233.711	105.12
233.945	99.12
234.179	92.12
234.413	95.12
234.647	103.12
234.881	101.12
235.115	117.12
235.349	100.12
235.583	112.12
235.817	98.12
236.051	118.12
236.285	100.12
236.519	110.12
236.753	102.12
236.987	108.12
237.221	125.12
237.455	154.12
237.689	138.12
237.922	105.12
238.156	113.12
238.39	99.12
238.624	93.12
238.858	103.12
239.091	93.12
239.325	96.12
239.559	101.12
239.793	95.12
240.027	108.12
240.26	101.12
240.494	103.12
240.728	121.12
240.961	114.12
241.195	119.12
241.429	94.12
241.662	104.12
241.896	108.12
242.13	92.12
242.363	100.12
242.597	106.12
242.83	102.12
243.064	111.12
243.298	110.12
243.531	101.12
243.765	120.12
243.998	124.12
244.232	128.12
244.465	121.12
244.699	122.12
244.932	116.12
245.166	111.12
245.399	120.12
245.633	114.12
245.866	117.12
246.099	117.12
246.333	120.12
246.566	117.12
246.8	109.12
247.033	125.12
247.266	121.12
247.5	124.12
247.733	126.12
247.966	128.12
248.2	139.12
248.433	133.12
248.666	118.12
248.899	138.12
249.133	132.12
249.366	140.12
249.599	136.12
249.832	144.12
250.066	127.12
250.299	133.12
250.532	148.12
250.765	156.12
250.998	152.12
251.231	170.12
251.465	142.12
251.698	145.12
251.931	148.12
252.164	152.12
252.397	136.12
252.63	144.12
252.863	138.12
253.096	143.12
253.329	154.12
253.562	149.12
253.795	148.12
254.028	153.12
254.261	152.12
254.494	156.12
254.727	183.12
254.96	188.12
255.193	181.12
255.426	174.12
255.659	166.12
255.892	166.12
256.124	158.12
256.357	165.12
256.59	176.12
256.823	157.12
257.056	163.12
257.289	160.12
257.521	153.12
257.754	156.12
257.987	147.12
258.22	151.12
258.452	154.12
258.685	152.12
258.918	144.12
259.151	158.12
259.383	158.12
259.616	159.12
259.849	153.12
260.081	172.12
260.314	183.12
260.547	153.12
260.779	158.12
261.012	173.12
261.244	165.12
261.477	153.12
261.71	162.12
261.942	168.12
262.175	157.12
262.407	154.12
262.64	149.12
262.872	155.12
263.105	152.12
263.337	160.12
263.57	146.12
263.802	160.12
264.035	158.12
264.267	163.12
264.499	146.12
264.732	141.12
264.964	158.12
265.197	136.12
265.429	145.12
265.661	157.12
265.894	157.12
266.126	153.12
266.358	131.12
266.591	150.12
266.823	154.12
267.055	149.12
267.287	162.12
267.52	152.12
267.752	156.12
267.984	144.12
268.216	158.12
268.448	165.12
268.681	161.12
268.913	174.12
269.145	167.12
269.377	185.12
269.609	171.12
269.841	174.12
270.073	185.12
270.306	196.12
270.538	201.12
270.77	202.12
271.002	189.12
271.234	179.12
271.466	204.12
271.698	194.12
271.93	190.12
272.162	190.12
272.394	211.12
272.626	207.12
272.858	193.12
273.09	188.12
273.322	195.12
273.553	172.12
273.785	174.12
274.017	177.12
274.249	188.12
274.481	172.12
274.713	172.12
274.945	164.12
275.176	176.12
275.408	204.12
275.64	181.12
275.872	196.12
276.104	189.12
276.335	176.12
276.567	172.12
276.799	180.12
277.031	193.12
277.262	215.12
277.494	213.12
277.726	195.12
277.957	196.12
278.189	183.12
278.421	167.12
278.652	181.12
278.884	185.12
279.115	197.12
279.347	188.12
279.579	182.12
279.81	183.12
280.042	173.12
280.273	188.12
280.505	201.12
280.736	197.12
280.968	184.12
281.199	179.12
281.431	180.12
281.662	188.12
281.894	194.12
282.125	181.12
282.356	191.12
282.588	201.12
282.819	207.12
283.051	177.12
283.282	180.12
283.513	175.12
283.745	191.12
283.976	193.12
284.207	188.12
284.439	181.12
284.67	188.12
284.901	193.12
285.132	204.12
285.364	207.12
285.595	169.12
285.826	196.12
286.057	194.12
286.288	195.12
286.52	202.12
286.751	196.12
286.982	204.12
287.213	198.12
287.444	205.12
287.675	201.12
287.906	209.12
288.138	196.12
288.369	200.12
288.6	215.12
288.831	184.12
289.062	198.12
289.293	181.12
289.524	195.12
289.755	198.12
289.986	203.12
290.217	179.12
290.448	185.12
290.679	189.12
290.91	185.12
291.141	199.12
291.371	196.12
291.602	195.12
291.833	206.12
292.064	183.12
292.295	190.12
292.526	199.12
292.757	191.12
292.987	207.12
293.218	198.12
293.449	202.12
293.68	187.12
293.91	202.12
294.141	189.12
294.372	185.12
294.603	182.12
294.833	202.12
295.064	209.12
295.295	198.12
295.525	197.12
295.756	207.12
295.987	201.12
296.217	199.12
296.448	209.12
296.679	206.12
296.909	191.12
297.14	200.12
297.37	204.12
297.601	208.12
297.831	204.12
298.062	206.12
298.292	217.12
298.523	210.12
298.753	202.12
298.984	214.12
299.214	224.12
299.445	213.12
299.675	214.12
299.905	223.12
300.136	204.12
300.366	217.12
300.597	201.12
300.827	210.12
301.057	209.12
301.288	213.12
301.518	207.12
301.748	220.12
301.979	214.12
302.209	224.12
302.439	212.12
302.669	217.12
302.9	216.12
303.13	232.12
303.36	212.12
303.59	204.12
303.82	212.12
304.051	228.12
304.281	217.12
304.511	224.12
304.741	216.12
304.971	221.12
305.201	233.12
305.431	229.12
305.661	202.12
305.891	221.12
306.121	233.12
306.352	233.12
306.582	230.12
306.812	230.12
307.042	224.12
307.272	206.12
307.502	215.12
307.731	212.12
307.961	234.12
308.191	230.12
308.421	223.12
308.651	228.12
308.881	218.12
309.111	233.12
309.341	223.12
309.571	241.12
309.8	230.12
310.03	242.12
310.26	223.12
310.49	236.12
310.72	261.12
310.949	269.12
311.179	256.12
311.409	230.12
311.639	252.12
311.868	233.12
312.098	262.12
312.328	260.12
312.557	255.12
312.787	232.12
313.017	256.12
313.246	250.12
313.476	257.12
313.706	267.12
313.935	241.12
314.165	265.12
314.394	269.12
314.624	269.12
314.853	239.12
315.083	240.12
315.312	228.12
315.542	261.12
315.771	239.12
316.001	245.12
316.23	261.12
316.46	237.12
316.689	244.12
316.919	238.12
317.148	255.12
317.377	262.12
317.607	247.12
317.836	256.12
318.065	253.12
318.295	252.12
318.524	245.12
318.753	252.12
318.983	252.12
319.212	233.12
319.441	245.12
319.67	268.12
319.9	244.12
320.129	246.12
320.358	264.12
320.587	245.12
320.816	266.12
321.046	279.12
321.275	256.12
321.504	267.12
321.733	261.12
321.962	271.12
322.191	266.12
322.42	283.12
322.649	286.12
322.878	279.12
323.108	295.12
323.337	323.12
323.566	320.12
323.795	353.12
324.024	345.12
324.253	433.12
324.482	632.12
324.71	894.12
324.939	1224.12
325.168	1049.12
325.397	579.12
325.626	389.12
325.855	358.12
326.084	316.12
326.313	304.12
326.542	322.12
326.77	355.12
326.999	425.12
327.228	572.12
327.457	807.12
327.686	899.12
327.914	622.12
328.143	414.12
328.372	391.12
328.6	377.12
328.829	348.12
329.058	362.12
329.287	352.12
329.515	345.12
329.744	332.12
329.972	320.12
330.201	349.12
330.43	350.12
330.658	374.12
330.887	376.12
331.115	366.12
331.344	343.12
331.572	317.12
331.801	325.12
332.03	304.12
332.258	301.12
332.486	305.12
332.715	304.12
332.943	297.12
333.172	288.12
333.4	304.12
333.629	289.12
333.857	320.12
334.085	316.12
334.314	320.12
334.542	341.12
334.771	334.12
334.999	310.12
335.227	310.12
335.455	286.12
335.684	302.12
335.912	291.12
336.14	286.12
336.369	278.12
336.597	293.12
336.825	304.12
337.053	293.12
337.281	286.12
337.51	289.12
337.738	287.12
337.966	277.12
338.194	288.12
338.422	297.12
338.65	299.12
338.878	285.12
339.106	275.12
339.334	274.12
339.562	283.12
339.79	271.12
340.018	284.12
340.246	260.12
340.474	288.12
340.702	261.12
340.93	278.12
341.158	286.12
341.386	290.12
341.614	286.12
341.842	282.12
342.07	285.12
342.298	278.12
342.526	279.12
342.754	260.12
342.981	255.12
343.209	266.12
343.437	276.12
343.665	274.12
343.893	301.12
344.12	297.12
344.348	284.12
344.576	291.12
344.804	285.12
345.031	291.12
345.259	312.12
345.487	300.12
345.714	280.12
345.942	272.12
346.17	279.12
346.397	264.12
346.625	287.12
346.853	288.12
347.08	287.12
347.308	283.12
347.535	287.12
347.763	289.12
347.99	274.12
348.218	265.12
348.445	279.12
348.673	269.12
348.9	267.12
349.128	262.12
349.355	266.12
349.583	255.12
349.81	273.12
350.037	253.12
350.265	258.12
350.492	249.12
350.72	266.12
350.947	266.12
351.174	284.12
351.402	277.12
351.629	273.12
351.856	290.12
352.083	287.12
352.311	281.12
352.538	260.12
352.765	281.12
352.992	279.12
353.22	270.12
353.447	274.12
353.674	267.12
353.901	271.12
354.128	277.12
354.355	271.12
354.583	248.12
354.81	261.12
355.037	277.12
355.264	269.12
355.491	264.12
355.718	271.12
355.945	265.12
356.172	267.12
356.399	261.12
356.626	273.12
356.853	264.12
357.08	262.12
357.307	253.12
357.534	263.12
357.761	264.12
357.988	258.12
358.215	261.12
358.441	269.12
358.668	250.12
358.895	266.12
359.122	260.12
359.349	268.12
359.576	267.12
359.802	286.12
360.029	296.12
360.256	284.12
360.483	301.12
360.709	272.12
360.936	297.12
361.163	277.12
361.39	270.12
361.616	280.12
361.843	271.12
362.07	277.12
362.296	277.12
362.523	279.12
362.749	286.12
362.976	280.12
363.203	300.12
363.429	262.12
363.656	270.12
363.882	268.12
364.109	276.12
364.335	267.12
364.562	260.12
364.788	266.12
365.015	273.12
365.241	270.12
365.468	293.12
365.694	278.12
365.92	278.12
366.147	265.12
366.373	265.12
366.599	277.12
366.826	269.12
367.052	281.12
367.278	255.12
367.505	267.12
367.731	287.12
367.957	285.12
368.184	275.12
368.41	278.12
368.636	276.12
368.862	292.12
369.089	254.12
369.315	271.12
369.541	281.12
369.767	267.12
369.993	290.12
370.219	272.12
370.445	272.12
370.672	263.12
370.898	268.12
371.124	257.12
371.35	267.12
371.576	264.12
371.802	275.12
372.028	278.12
372.254	244.12
372.48	242.12
372.706	272.12
372.932	287.12
373.158	288.12
373.384	272.12
373.61	256.12
373.835	266.12
374.061	265.12
374.287	284.12
374.513	282.12
374.739	284.12
374.965	289.12
375.191	275.12
375.416	270.12
375.642	266.12
375.868	255.12
376.094	258.12
376.319	294.12
376.545	282.12
376.771	277.12
376.997	269.12
377.222	280.12
377.448	286.12
377.674	280.12
377.899	267.12
378.125	273.12
378.35	287.12
378.576	288.12
378.802	253.12
379.027	274.12
379.253	285.12
379.478	292.12
379.704	284.12
379.929	279.12
380.155	270.12
380.38	272.12
380.606	271.12
380.831	284.12
381.057	286.12
381.282	269.12
381.507	280.12
381.733	283.12
381.958	280.12
382.184	292.12
382.409	286.12
382.634	307.12
382.86	284.12
383.085	298.12
383.31	313.12
383.535	302.12
383.761	300.12
383.986	279.12
384.211	272.12
384.436	296.12
384.662	297.12
384.887	300.12
385.112	281.12
385.337	292.12
385.562	304.12
385.787	296.12
386.013	310.12
386.238	310.12
386.463	301.12
386.688	290.12
386.913	304.12
387.138	306.12
387.363	302.12
387.588	304.12
387.813	304.12
388.038	302.12
388.263	312.12
388.488	305.12
388.713	291.12
388.938	302.12
389.163	282.12
389.387	303.12
389.612	290.12
389.837	292.12
390.062	305.12
390.287	305.12
390.512	301.12
390.736	298.12
390.961	306.12
391.186	288.12
391.411	290.12
391.636	297.12
391.86	322.12
392.085	313.12
392.31	297.12
392.534	309.12
392.759	329.12
392.984	291.12
393.208	307.12
393.433	309.12
393.658	306.12
393.882	298.12
394.107	318.12
394.331	304.12
394.556	302.12
394.78	298.12
395.005	295.12
395.229	291.12
395.454	321.12
395.678	304.12
395.903	309.12
396.127	328.12
396.352	342.12
396.576	307.12
396.801	326.12
397.025	311.12
397.249	317.12
397.474	328.12
397.698	304.12
397.922	317.12
398.147	326.12
398.371	337.12
398.595	350.12
398.82	345.12
399.044	345.12
399.268	353.12
399.492	362.12
399.717	367.12
399.941	370.12
400.165	374.12
400.389	399.12
400.613	376.12
400.837	359.12
401.062	348.12
401.286	354.12
401.51	356.12
401.734	354.12
401.958	345.12
402.182	348.12
402.406	347.12
402.63	334.12
402.854	344.12
403.078	342.12
403.302	337.12
403.526	349.12
403.75	341.12
403.974	356.12
404.198	343.12
404.422	353.12
404.645	348.12
404.869	361.12
405.093	373.12
405.317	396.12
405.541	413.12
405.765	380.12
405.988	356.12
406.212	380.12
406.436	368.12
406.66	379.12
406.883	377.12
407.107	379.12
407.331	414.12
407.555	435.12
407.778	434.12
408.002	424.12
408.226	372.12
408.449	374.12
408.673	362.12
408.896	389.12
409.12	421.12
409.344	412.12
409.567	371.12
409.791	354.12
410.014	351.12
410.238	349.12
410.461	373.12
410.685	357.12
410.908	358.12
411.132	366.12
411.355	412.12
411.578	406.12
411.802	349.12
412.025	345.12
412.249	345.12
412.472	367.12
412.695	395.12
412.919	380.12
413.142	355.12
413.365	342.12
413.589	358.12
413.812	337.12
414.035	341.12
414.258	328.12
414.482	342.12
414.705	354.12
414.928	329.12
415.151	350.12
415.374	345.12
415.597	337.12
415.821	355.12
416.044	307.12
416.267	343.12
416.49	335.12
416.713	342.12
416.936	334.12
417.159	331.12
417.382	322.12
417.605	340.12
417.828	334.12
418.051	339.12
418.274	356.12
418.497	334.12
418.72	345.12
418.943	352.12
419.166	341.12
419.389	357.12
419.611	344.12
419.834	344.12
420.057	355.12
420.28	335.12
420.503	346.12
420.726	350.12
420.948	340.12
421.171	381.12
421.394	406.12
421.617	394.12
421.839	331.12
422.062	340.12
422.285	354.12
422.507	394.12
422.73	429.12
422.953	422.12
423.175	362.12
423.398	356.12
423.621	346.12
423.843	374.12
424.066	380.12
424.288	374.12
424.511	380.12
424.733	415.12
424.956	471.12
425.178	465.12
425.401	425.12
425.623	441.12
425.846	398.12
426.068	364.12
426.291	358.12
426.513	376.12
426.735	390.12
426.958	410.12
427.18	447.12
427.402	532.12
427.625	572.12
427.847	492.12
428.069	436.12
428.292	407.12
428.514	356.12
428.736	349.12
428.958	332.12
429.181	367.12
429.403	343.12
429.625	363.12
429.847	376.12
430.069	418.12
430.292	420.12
430.514	349.12
430.736	342.12
430.958	340.12
431.18	345.12
431.402	327.12
431.624	338.12
431.846	321.12
432.068	338.12
432.29	348.12
432.512	336.12
432.734	339.12
432.956	341.12
433.178	339.12
433.4	355.12
433.622	324.12
433.844	345.12
434.066	337.12
434.287	323.12
434.509	338.12
434.731	364.12
434.953	348.12
435.175	367.12
435.397	367.12
435.618	394.12
435.84	416.12
436.062	455.12
436.284	508.12
436.505	432.12
436.727	372.12
436.949	359.12
437.17	352.12
437.392	355.12
437.614	366.12
437.835	370.12
438.057	439.12
438.278	497.12
438.5	513.12
438.721	530.12
438.943	512.12
439.165	416.12
439.386	388.12
439.608	383.12
439.829	376.12
440.05	399.12
440.272	422.12
440.493	401.12
440.715	368.12
440.936	362.12
441.158	365.12
441.379	345.12
441.6	359.12
441.822	359.12
442.043	405.12
442.264	464.12
442.486	472.12
442.707	415.12
442.928	388.12
443.149	383.12
443.371	400.12
443.592	412.12
443.813	469.12
444.034	524.12
444.255	433.12
444.476	393.12
444.698	381.12
444.919	362.12
445.14	500.12
445.361	440.12
445.582	414.12
445.803	463.12
446.024	490.12
446.245	496.12
446.466	458.12
446.687	404.12
446.908	376.12
447.129	372.12
447.35	357.12
447.571	351.12
447.792	354.12
448.013	353.12
448.234	378.12
448.455	394.12
448.675	460.12
448.896	498.12
449.117	477.12
449.338	428.12
449.559	498.12
449.779	569.12
450	452.12
450.221	390.12
450.442	353.12
450.662	349.12
450.883	329.12
451.104	352.12
451.324	335.12
451.545	350.12
451.766	335.12
451.986	322.12
452.207	307.12
452.428	305.12
452.648	323.12
452.869	326.12
453.089	319.12
453.31	322.12
453.53	331.12
453.751	308.12
453.971	329.12
454.192	344.12
454.412	334.12
454.633	317.12
454.853	288.12
455.073	324.12
455.294	323.12
455.514	361.12
455.734	368.12
455.955	320.12
456.175	303.12
456.395	312.12
456.616	302.12
456.836	297.12
457.056	305.12
457.276	310.12
457.497	299.12
457.717	291.12
457.937	319.12
458.157	308.12
458.377	314.12
458.598	302.12
458.818	358.12
459.038	406.12
459.258	398.12
459.478	349.12
459.698	316.12
459.918	324.12
460.138	323.12
460.358	347.12
460.578	342.12
460.798	370.12
461.018	361.12
461.238	333.12
461.458	337.12
461.678	317.12
461.898	350.12
462.118	356.12
462.338	365.12
462.558	348.12
462.777	349.12
462.997	369.12
463.217	366.12
463.437	373.12
463.657	393.12
463.876	346.12
464.096	359.12
464.316	352.12
464.536	371.12
464.755	384.12
464.975	362.12
465.195	402.12
465.414	412.12
465.634	388.12
465.854	370.12
466.073	369.12
466.293	359.12
466.512	346.12
466.732	332.12
466.951	340.12
467.171	323.12
467.391	350.12
467.61	335.12
467.829	349.12
468.049	348.12
468.268	337.12
468.488	342.12
468.707	314.12
468.927	316.12
469.146	321.12
469.365	317.12
469.585	333.12
469.804	323.12
470.023	338.12
470.243	327.12
470.462	312.12
470.681	326.12
470.901	356.12
471.12	330.12
471.339	335.12
471.558	325.12
471.777	348.12
471.997	339.12
472.216	352.12
472.435	370.12
472.654	344.12
472.873	344.12
473.092	360.12
473.311	330.12
473.53	347.12
473.749	334.12
473.968	373.12
474.187	434.12
474.406	428.12
474.625	373.12
474.844	348.12
475.063	337.12
475.282	348.12
475.501	338.12
475.72	351.12
475.939	344.12
476.158	348.12
476.377	337.12
476.596	331.12
476.814	337.12
477.033	352.12
477.252	356.12
477.471	359.12
477.69	352.12
477.908	358.12
478.127	354.12
478.346	370.12
478.564	362.12
478.783	368.12
479.002	386.12
479.22	385.12
479.439	405.12
479.658	404.12
479.876	394.12
480.095	399.12
480.313	415.12
480.532	413.12
480.751	411.12
480.969	422.12
481.188	448.12
481.406	456.12
481.624	415.12
481.843	404.12
482.061	407.12
482.28	410.12
482.498	396.12
482.717	392.12
482.935	398.12
483.153	396.12
483.372	385.12
483.59	380.12
483.808	381.12
484.027	409.12
484.245	397.12
484.463	381.12
484.681	426.12
484.9	386.12
485.118	400.12
485.336	386.12
485.554	380.12
485.772	416.12
485.99	370.12
486.209	395.12
486.427	416.12
486.645	404.12
486.863	440.12
487.081	456.12
487.299	439.12
487.517	439.12
487.735	397.12
487.953	415.12
488.171	424.12
488.389	442.12
488.607	425.12
488.825	425.12
489.043	426.12
489.261	430.12
489.479	431.12
489.696	415.12
489.914	448.12
490.132	441.12
490.35	430.12
490.568	424.12
490.786	455.12
491.003	454.12
491.221	464.12
491.439	467.12
491.657	444.12
491.874	476.12
492.092	458.12
492.31	468.12
492.527	443.12
492.745	460.12
492.963	475.12
493.18	477.12
493.398	483.12
493.615	463.12
493.833	486.12
494.05	481.12
494.268	493.12
494.485	467.12
494.703	466.12
494.92	477.12
495.138	476.12
495.355	484.12
495.573	492.12
495.79	477.12
496.008	473.12
496.225	497.12
496.442	512.12
496.66	502.12
496.877	500.12
497.094	516.12
497.312	521.12
497.529	511.12
497.746	513.12
497.963	528.12
498.181	530.12
498.398	538.12
498.615	553.12
498.832	544.12
499.049	557.12
499.267	564.12
499.484	572.12
499.701	589.12
499.918	614.12
500.135	638.12
500.352	650.12
500.569	623.12
500.786	651.12
501.003	672.12
501.22	612.12
501.437	617.12
501.654	630.12
501.871	586.12
502.088	576.12
502.305	577.12
