Data from 1961.PennyLincolnUp.Lamp.En5.5.200Scan.071719.P1._HRD10591_13-49-04-058.txt Node
Date: Thu Jul 18 13:49:04 EDT 2019
User: cochatt
Spectrometer: HR+D1059
Trigger mode: 1
Integration Time (sec): 1.000000E-1
Scans to average: 1
Electric dark correction enabled: true
Nonlinearity correction enabled: false
Boxcar width: 0
XAxis mode: Wavelengths
Number of Pixels in Spectrum: 2048
>>>>>Begin Spectral Data<<<<<
223.165	-13.06
223.4	-13.06
223.635	-13.06
223.869	-18.06
224.104	-25.06
224.338	-11.06
224.573	-20.06
224.808	-23.06
225.042	-11.06
225.277	11.94
225.511	-5.06
225.746	4.94
225.98	5.94
226.215	6.94
226.449	4.94
226.683	23.94
226.918	29.94
227.152	37.94
227.387	31.94
227.621	34.94
227.856	59.94
228.09	39.94
228.324	50.94
228.559	62.94
228.793	64.94
229.027	89.94
229.262	82.94
229.496	95.94
229.73	108.94
229.964	150.94
230.199	120.94
230.433	102.94
230.667	95.94
230.901	102.94
231.136	93.94
231.37	97.94
231.604	112.94
231.838	93.94
232.072	115.94
232.306	98.94
232.541	98.94
232.775	101.94
233.009	112.94
233.243	100.94
233.477	102.94
233.711	98.94
233.945	116.94
234.179	97.94
234.413	101.94
234.647	112.94
234.881	105.94
235.115	108.94
235.349	100.94
235.583	110.94
235.817	125.94
236.051	114.94
236.285	121.94
236.519	103.94
236.753	114.94
236.987	130.94
237.221	179.94
237.455	215.94
237.689	175.94
237.922	136.94
238.156	139.94
238.39	113.94
238.624	111.94
238.858	94.94
239.091	103.94
239.325	116.94
239.559	117.94
239.793	120.94
240.027	139.94
240.26	131.94
240.494	157.94
240.728	131.94
240.961	123.94
241.195	129.94
241.429	126.94
241.662	124.94
241.896	126.94
242.13	118.94
242.363	120.94
242.597	117.94
242.83	126.94
243.064	124.94
243.298	121.94
243.531	122.94
243.765	137.94
243.998	148.94
244.232	118.94
244.465	115.94
244.699	119.94
244.932	129.94
245.166	125.94
245.399	133.94
245.633	119.94
245.866	132.94
246.099	116.94
246.333	118.94
246.566	145.94
246.8	129.94
247.033	126.94
247.266	141.94
247.5	146.94
247.733	131.94
247.966	144.94
248.2	132.94
248.433	153.94
248.666	152.94
248.899	156.94
249.133	176.94
249.366	181.94
249.599	169.94
249.832	151.94
250.066	144.94
250.299	162.94
250.532	177.94
250.765	172.94
250.998	184.94
251.231	193.94
251.465	183.94
251.698	179.94
251.931	185.94
252.164	166.94
252.397	159.94
252.63	177.94
252.863	201.94
253.096	174.94
253.329	200.94
253.562	187.94
253.795	174.94
254.028	187.94
254.261	193.94
254.494	186.94
254.727	222.94
254.96	242.94
255.193	238.94
255.426	209.94
255.659	195.94
255.892	208.94
256.124	195.94
256.357	200.94
256.59	200.94
256.823	196.94
257.056	188.94
257.289	167.94
257.521	184.94
257.754	169.94
257.987	196.94
258.22	188.94
258.452	186.94
258.685	209.94
258.918	180.94
259.151	184.94
259.383	190.94
259.616	198.94
259.849	197.94
260.081	205.94
260.314	213.94
260.547	218.94
260.779	216.94
261.012	214.94
261.244	185.94
261.477	202.94
261.71	196.94
261.942	202.94
262.175	213.94
262.407	213.94
262.64	193.94
262.872	196.94
263.105	184.94
263.337	202.94
263.57	192.94
263.802	172.94
264.035	177.94
264.267	160.94
264.499	184.94
264.732	180.94
264.964	181.94
265.197	189.94
265.429	190.94
265.661	184.94
265.894	177.94
266.126	194.94
266.358	192.94
266.591	192.94
266.823	191.94
267.055	188.94
267.287	184.94
267.52	204.94
267.752	190.94
267.984	190.94
268.216	193.94
268.448	194.94
268.681	213.94
268.913	209.94
269.145	224.94
269.377	233.94
269.609	252.94
269.841	220.94
270.073	228.94
270.306	239.94
270.538	272.94
270.77	271.94
271.002	257.94
271.234	238.94
271.466	260.94
271.698	271.94
271.93	261.94
272.162	276.94
272.394	260.94
272.626	263.94
272.858	241.94
273.09	242.94
273.322	228.94
273.553	238.94
273.785	228.94
274.017	236.94
274.249	236.94
274.481	223.94
274.713	214.94
274.945	217.94
275.176	215.94
275.408	233.94
275.64	227.94
275.872	253.94
276.104	217.94
276.335	239.94
276.567	232.94
276.799	242.94
277.031	252.94
277.262	277.94
277.494	281.94
277.726	250.94
277.957	251.94
278.189	230.94
278.421	212.94
278.652	241.94
278.884	238.94
279.115	226.94
279.347	227.94
279.579	230.94
279.81	214.94
280.042	223.94
280.273	232.94
280.505	241.94
280.736	212.94
280.968	207.94
281.199	205.94
281.431	217.94
281.662	218.94
281.894	225.94
282.125	235.94
282.356	250.94
282.588	269.94
282.819	264.94
283.051	234.94
283.282	227.94
283.513	248.94
283.745	235.94
283.976	216.94
284.207	237.94
284.439	230.94
284.67	231.94
284.901	238.94
285.132	240.94
285.364	229.94
285.595	237.94
285.826	242.94
286.057	228.94
286.288	229.94
286.52	243.94
286.751	229.94
286.982	212.94
287.213	234.94
287.444	211.94
287.675	234.94
287.906	267.94
288.138	260.94
288.369	245.94
288.6	250.94
288.831	261.94
289.062	236.94
289.293	244.94
289.524	242.94
289.755	239.94
289.986	242.94
290.217	220.94
290.448	246.94
290.679	217.94
290.91	233.94
291.141	235.94
291.371	252.94
291.602	242.94
291.833	240.94
292.064	241.94
292.295	242.94
292.526	243.94
292.757	227.94
292.987	228.94
293.218	233.94
293.449	244.94
293.68	234.94
293.91	226.94
294.141	243.94
294.372	246.94
294.603	219.94
294.833	223.94
295.064	239.94
295.295	232.94
295.525	253.94
295.756	248.94
295.987	258.94
296.217	265.94
296.448	282.94
296.679	268.94
296.909	241.94
297.14	252.94
297.37	248.94
297.601	232.94
297.831	258.94
298.062	233.94
298.292	252.94
298.523	252.94
298.753	256.94
298.984	253.94
299.214	256.94
299.445	263.94
299.675	278.94
299.905	252.94
300.136	264.94
300.366	249.94
300.597	265.94
300.827	257.94
301.057	246.94
301.288	287.94
301.518	280.94
301.748	266.94
301.979	271.94
302.209	278.94
302.439	281.94
302.669	270.94
302.9	263.94
303.13	280.94
303.36	276.94
303.59	301.94
303.82	274.94
304.051	290.94
304.281	263.94
304.511	266.94
304.741	269.94
304.971	271.94
305.201	277.94
305.431	274.94
305.661	277.94
305.891	284.94
306.121	278.94
306.352	286.94
306.582	269.94
306.812	278.94
307.042	271.94
307.272	274.94
307.502	279.94
307.731	291.94
307.961	278.94
308.191	274.94
308.421	279.94
308.651	293.94
308.881	297.94
309.111	295.94
309.341	279.94
309.571	303.94
309.8	297.94
310.03	319.94
310.26	306.94
310.49	331.94
310.72	340.94
310.949	359.94
311.179	348.94
311.409	327.94
311.639	337.94
311.868	308.94
312.098	306.94
312.328	336.94
312.557	348.94
312.787	375.94
313.017	366.94
313.246	336.94
313.476	318.94
313.706	319.94
313.935	345.94
314.165	337.94
314.394	366.94
314.624	326.94
314.853	313.94
315.083	320.94
315.312	331.94
315.542	316.94
315.771	309.94
316.001	304.94
316.23	308.94
316.46	325.94
316.689	327.94
316.919	327.94
317.148	324.94
317.377	353.94
317.607	339.94
317.836	321.94
318.065	317.94
318.295	311.94
318.524	325.94
318.753	308.94
318.983	342.94
319.212	317.94
319.441	329.94
319.67	327.94
319.9	334.94
320.129	321.94
320.358	323.94
320.587	340.94
320.816	328.94
321.046	358.94
321.275	354.94
321.504	344.94
321.733	370.94
321.962	369.94
322.191	380.94
322.42	392.94
322.649	417.94
322.878	410.94
323.108	438.94
323.337	455.94
323.566	477.94
323.795	510.94
324.024	584.94
324.253	725.94
324.482	1066.94
324.71	1704.94
324.939	2332.94
325.168	1950.94
325.397	973.94
325.626	649.94
325.855	525.94
326.084	496.94
326.313	490.94
326.542	501.94
326.77	553.94
326.999	679.94
327.228	962.94
327.457	1454.94
327.686	1742.94
327.914	1127.94
328.143	739.94
328.372	632.94
328.6	589.94
328.829	568.94
329.058	567.94
329.287	571.94
329.515	526.94
329.744	471.94
329.972	479.94
330.201	494.94
330.43	556.94
330.658	551.94
330.887	614.94
331.115	581.94
331.344	490.94
331.572	435.94
331.801	468.94
332.03	439.94
332.258	418.94
332.486	404.94
332.715	404.94
332.943	394.94
333.172	398.94
333.4	405.94
333.629	388.94
333.857	413.94
334.085	441.94
334.314	449.94
334.542	473.94
334.771	518.94
334.999	430.94
335.227	412.94
335.455	407.94
335.684	392.94
335.912	377.94
336.14	373.94
336.369	378.94
336.597	375.94
336.825	391.94
337.053	366.94
337.281	380.94
337.51	380.94
337.738	362.94
337.966	359.94
338.194	364.94
338.422	389.94
338.65	376.94
338.878	371.94
339.106	353.94
339.334	357.94
339.562	384.94
339.79	355.94
340.018	375.94
340.246	366.94
340.474	366.94
340.702	364.94
340.93	392.94
341.158	348.94
341.386	374.94
341.614	361.94
341.842	374.94
342.07	347.94
342.298	356.94
342.526	357.94
342.754	354.94
342.981	340.94
343.209	353.94
343.437	364.94
343.665	337.94
343.893	354.94
344.12	377.94
344.348	364.94
344.576	369.94
344.804	354.94
345.031	381.94
345.259	379.94
345.487	370.94
345.714	376.94
345.942	367.94
346.17	341.94
346.397	359.94
346.625	352.94
346.853	348.94
347.08	339.94
347.308	361.94
347.535	361.94
347.763	373.94
347.99	369.94
348.218	373.94
348.445	371.94
348.673	379.94
348.9	354.94
349.128	350.94
349.355	360.94
349.583	337.94
349.81	321.94
350.037	343.94
350.265	341.94
350.492	350.94
350.72	366.94
350.947	346.94
351.174	354.94
351.402	378.94
351.629	379.94
351.856	389.94
352.083	361.94
352.311	384.94
352.538	375.94
352.765	376.94
352.992	366.94
353.22	372.94
353.447	346.94
353.674	364.94
353.901	353.94
354.128	329.94
354.355	313.94
354.583	332.94
354.81	333.94
355.037	310.94
355.264	336.94
355.491	323.94
355.718	326.94
355.945	324.94
356.172	311.94
356.399	313.94
356.626	323.94
356.853	307.94
357.08	307.94
357.307	337.94
357.534	338.94
357.761	319.94
357.988	337.94
358.215	330.94
358.441	325.94
358.668	333.94
358.895	330.94
359.122	350.94
359.349	354.94
359.576	365.94
359.802	371.94
360.029	408.94
360.256	438.94
360.483	421.94
360.709	358.94
360.936	372.94
361.163	382.94
361.39	373.94
361.616	371.94
361.843	365.94
362.07	373.94
362.296	364.94
362.523	360.94
362.749	348.94
362.976	354.94
363.203	354.94
363.429	330.94
363.656	333.94
363.882	355.94
364.109	344.94
364.335	334.94
364.562	338.94
364.788	334.94
365.015	347.94
365.241	350.94
365.468	348.94
365.694	338.94
365.92	358.94
366.147	323.94
366.373	345.94
366.599	351.94
366.826	344.94
367.052	345.94
367.278	343.94
367.505	327.94
367.731	338.94
367.957	340.94
368.184	330.94
368.41	348.94
368.636	337.94
368.862	369.94
369.089	362.94
369.315	338.94
369.541	338.94
369.767	341.94
369.993	336.94
370.219	343.94
370.445	332.94
370.672	346.94
370.898	337.94
371.124	340.94
371.35	326.94
371.576	338.94
371.802	320.94
372.028	319.94
372.254	310.94
372.48	321.94
372.706	314.94
372.932	324.94
373.158	314.94
373.384	330.94
373.61	324.94
373.835	328.94
374.061	346.94
374.287	337.94
374.513	335.94
374.739	319.94
374.965	324.94
375.191	341.94
375.416	338.94
375.642	346.94
375.868	345.94
376.094	324.94
376.319	324.94
376.545	319.94
376.771	333.94
376.997	315.94
377.222	345.94
377.448	332.94
377.674	321.94
377.899	324.94
378.125	320.94
378.35	333.94
378.576	312.94
378.802	314.94
379.027	346.94
379.253	314.94
379.478	319.94
379.704	341.94
379.929	332.94
380.155	321.94
380.38	319.94
380.606	337.94
380.831	342.94
381.057	340.94
381.282	343.94
381.507	328.94
381.733	319.94
381.958	329.94
382.184	326.94
382.409	330.94
382.634	324.94
382.86	335.94
383.085	333.94
383.31	342.94
383.535	313.94
383.761	336.94
383.986	334.94
384.211	328.94
384.436	345.94
384.662	353.94
384.887	343.94
385.112	350.94
385.337	362.94
385.562	340.94
385.787	350.94
386.013	366.94
386.238	354.94
386.463	353.94
386.688	376.94
386.913	350.94
387.138	346.94
387.363	335.94
387.588	324.94
387.813	352.94
388.038	344.94
388.263	363.94
388.488	340.94
388.713	369.94
388.938	351.94
389.163	358.94
389.387	359.94
389.612	347.94
389.837	357.94
390.062	338.94
390.287	345.94
390.512	345.94
390.736	354.94
390.961	352.94
391.186	359.94
391.411	360.94
391.636	360.94
391.86	359.94
392.085	352.94
392.31	368.94
392.534	348.94
392.759	372.94
392.984	371.94
393.208	358.94
393.433	351.94
393.658	344.94
393.882	346.94
394.107	373.94
394.331	372.94
394.556	352.94
394.78	368.94
395.005	359.94
395.229	360.94
395.454	371.94
395.678	371.94
395.903	374.94
396.127	400.94
396.352	402.94
396.576	370.94
396.801	360.94
397.025	372.94
397.249	382.94
397.474	394.94
397.698	383.94
397.922	394.94
398.147	392.94
398.371	426.94
398.595	420.94
398.82	387.94
399.044	404.94
399.268	400.94
399.492	421.94
399.717	418.94
399.941	472.94
400.165	479.94
400.389	498.94
400.613	457.94
400.837	445.94
401.062	424.94
401.286	414.94
401.51	405.94
401.734	404.94
401.958	414.94
402.182	406.94
402.406	408.94
402.63	414.94
402.854	423.94
403.078	399.94
403.302	420.94
403.526	411.94
403.75	405.94
403.974	398.94
404.198	412.94
404.422	418.94
404.645	414.94
404.869	446.94
405.093	460.94
405.317	480.94
405.541	520.94
405.765	478.94
405.988	452.94
406.212	464.94
406.436	492.94
406.66	486.94
406.883	480.94
407.107	493.94
407.331	516.94
407.555	566.94
407.778	574.94
408.002	517.94
408.226	464.94
408.449	461.94
408.673	462.94
408.896	508.94
409.12	501.94
409.344	481.94
409.567	430.94
409.791	444.94
410.014	420.94
410.238	430.94
410.461	437.94
410.685	433.94
410.908	438.94
411.132	471.94
411.355	497.94
411.578	485.94
411.802	441.94
412.025	430.94
412.249	436.94
412.472	454.94
412.695	494.94
412.919	476.94
413.142	446.94
413.365	422.94
413.589	422.94
413.812	402.94
414.035	385.94
414.258	409.94
414.482	422.94
414.705	404.94
414.928	388.94
415.151	400.94
415.374	400.94
415.597	404.94
415.821	401.94
416.044	408.94
416.267	389.94
416.49	403.94
416.713	392.94
416.936	401.94
417.159	374.94
417.382	402.94
417.605	404.94
417.828	392.94
418.051	414.94
418.274	403.94
418.497	414.94
418.72	392.94
418.943	378.94
419.166	390.94
419.389	414.94
419.611	444.94
419.834	436.94
420.057	405.94
420.28	429.94
420.503	400.94
420.726	428.94
420.948	444.94
421.171	469.94
421.394	495.94
421.617	441.94
421.839	422.94
422.062	417.94
422.285	426.94
422.507	474.94
422.73	522.94
422.953	515.94
423.175	462.94
423.398	432.94
423.621	450.94
423.843	446.94
424.066	449.94
424.288	466.94
424.511	465.94
424.733	521.94
424.956	606.94
425.178	580.94
425.401	579.94
425.623	591.94
425.846	511.94
426.068	468.94
426.291	463.94
426.513	453.94
426.735	485.94
426.958	515.94
427.18	584.94
427.402	668.94
427.625	785.94
427.847	669.94
428.069	628.94
428.292	546.94
428.514	482.94
428.736	487.94
428.958	442.94
429.181	423.94
429.403	445.94
429.625	441.94
429.847	478.94
430.069	549.94
430.292	549.94
430.514	451.94
430.736	448.94
430.958	434.94
431.18	406.94
431.402	394.94
431.624	415.94
431.846	421.94
432.068	425.94
432.29	411.94
432.512	414.94
432.734	421.94
432.956	411.94
433.178	407.94
433.4	442.94
433.622	406.94
433.844	392.94
434.066	402.94
434.287	400.94
434.509	407.94
434.731	418.94
434.953	414.94
435.175	442.94
435.397	464.94
435.618	468.94
435.84	534.94
436.062	591.94
436.284	640.94
436.505	564.94
436.727	488.94
436.949	465.94
437.17	444.94
437.392	438.94
437.614	454.94
437.835	491.94
438.057	585.94
438.278	658.94
438.5	642.94
438.721	721.94
438.943	682.94
439.165	533.94
439.386	504.94
439.608	499.94
439.829	487.94
440.05	524.94
440.272	562.94
440.493	519.94
440.715	468.94
440.936	446.94
441.158	439.94
441.379	436.94
441.6	463.94
441.822	473.94
442.043	501.94
442.264	583.94
442.486	616.94
442.707	509.94
442.928	512.94
443.149	502.94
443.371	493.94
443.592	562.94
443.813	623.94
444.034	672.94
444.255	543.94
444.476	487.94
444.698	477.94
444.919	481.94
445.14	565.94
445.361	510.94
445.582	530.94
445.803	584.94
446.024	680.94
446.245	701.94
446.466	630.94
446.687	532.94
446.908	458.94
447.129	455.94
447.35	448.94
447.571	436.94
447.792	435.94
448.013	458.94
448.234	462.94
448.455	504.94
448.675	628.94
448.896	692.94
449.117	606.94
449.338	572.94
449.559	663.94
449.779	724.94
450	592.94
450.221	509.94
450.442	463.94
450.662	442.94
450.883	450.94
451.104	464.94
451.324	463.94
451.545	424.94
451.766	424.94
451.986	403.94
452.207	397.94
452.428	414.94
452.648	382.94
452.869	389.94
453.089	426.94
453.31	417.94
453.53	408.94
453.751	386.94
453.971	410.94
454.192	411.94
454.412	418.94
454.633	393.94
454.853	387.94
455.073	414.94
455.294	451.94
455.514	499.94
455.734	458.94
455.955	411.94
456.175	363.94
456.395	359.94
456.616	374.94
456.836	375.94
457.056	372.94
457.276	347.94
457.497	361.94
457.717	372.94
457.937	364.94
458.157	386.94
458.377	403.94
458.598	414.94
458.818	457.94
459.038	565.94
459.258	568.94
459.478	472.94
459.698	430.94
459.918	429.94
460.138	392.94
460.358	399.94
460.578	409.94
460.798	414.94
461.018	395.94
461.238	398.94
461.458	392.94
461.678	398.94
461.898	398.94
462.118	417.94
462.338	401.94
462.558	423.94
462.777	404.94
462.997	420.94
463.217	422.94
463.437	415.94
463.657	423.94
463.876	432.94
464.096	428.94
464.316	416.94
464.536	440.94
464.755	436.94
464.975	446.94
465.195	506.94
465.414	590.94
465.634	517.94
465.854	459.94
466.073	428.94
466.293	435.94
466.512	410.94
466.732	390.94
466.951	398.94
467.171	425.94
467.391	402.94
467.61	439.94
467.829	455.94
468.049	403.94
468.268	432.94
468.488	413.94
468.707	394.94
468.927	394.94
469.146	377.94
469.365	400.94
469.585	379.94
469.804	404.94
470.023	428.94
470.243	424.94
470.462	436.94
470.681	444.94
470.901	428.94
471.12	412.94
471.339	394.94
471.558	402.94
471.777	404.94
471.997	400.94
472.216	410.94
472.435	486.94
472.654	446.94
472.873	421.94
473.092	407.94
473.311	412.94
473.53	415.94
473.749	429.94
473.968	465.94
474.187	549.94
474.406	562.94
474.625	421.94
474.844	423.94
475.063	413.94
475.282	397.94
475.501	402.94
475.72	417.94
475.939	413.94
476.158	417.94
476.377	427.94
476.596	426.94
476.814	428.94
477.033	442.94
477.252	428.94
477.471	426.94
477.69	439.94
477.908	430.94
478.127	422.94
478.346	438.94
478.564	431.94
478.783	435.94
479.002	458.94
479.22	435.94
479.439	481.94
479.658	484.94
479.876	498.94
480.095	470.94
480.313	530.94
480.532	522.94
480.751	484.94
480.969	524.94
481.188	584.94
481.406	648.94
481.624	545.94
481.843	500.94
482.061	496.94
482.28	507.94
482.498	484.94
482.717	493.94
482.935	484.94
483.153	481.94
483.372	489.94
483.59	470.94
483.808	487.94
484.027	474.94
484.245	496.94
484.463	478.94
484.681	476.94
484.9	475.94
485.118	477.94
485.336	490.94
485.554	473.94
485.772	488.94
485.99	486.94
486.209	485.94
486.427	506.94
486.645	489.94
486.863	516.94
487.081	510.94
487.299	523.94
487.517	504.94
487.735	518.94
487.953	508.94
488.171	522.94
488.389	509.94
488.607	534.94
488.825	522.94
489.043	530.94
489.261	530.94
489.479	532.94
489.696	530.94
489.914	543.94
490.132	530.94
490.35	537.94
490.568	552.94
490.786	566.94
491.003	563.94
491.221	581.94
491.439	591.94
491.657	581.94
491.874	592.94
492.092	596.94
492.31	590.94
492.527	588.94
492.745	597.94
492.963	586.94
493.18	590.94
493.398	599.94
493.615	583.94
493.833	588.94
494.05	590.94
494.268	611.94
494.485	590.94
494.703	610.94
494.92	578.94
495.138	592.94
495.355	612.94
495.573	617.94
495.79	607.94
496.008	636.94
496.225	631.94
496.442	620.94
496.66	599.94
496.877	620.94
497.094	608.94
497.312	609.94
497.529	631.94
497.746	623.94
497.963	631.94
498.181	647.94
498.398	658.94
498.615	656.94
498.832	673.94
499.049	684.94
499.267	679.94
499.484	692.94
499.701	687.94
499.918	702.94
500.135	740.94
500.352	734.94
500.569	754.94
500.786	742.94
501.003	748.94
501.22	745.94
501.437	748.94
501.654	700.94
501.871	740.94
502.088	728.94
