Data from 1961.PennyLincolnUp.Lamp.En5.5.200Scan.071719.P1._HRD10591_13-47-32-057.txt Node
Date: Thu Jul 18 13:47:32 EDT 2019
User: cochatt
Spectrometer: HR+D1059
Trigger mode: 1
Integration Time (sec): 1.000000E-1
Scans to average: 1
Electric dark correction enabled: true
Nonlinearity correction enabled: false
Boxcar width: 0
XAxis mode: Wavelengths
Number of Pixels in Spectrum: 2048
>>>>>Begin Spectral Data<<<<<
223.165	-19.69
223.4	-19.69
223.635	-19.69
223.869	-4.69
224.104	-21.69
224.338	-26.69
224.573	-11.69
224.808	-22.69
225.042	0.31
225.277	-3.69
225.511	4.31
225.746	9.31
225.98	1.31
226.215	2.31
226.449	14.31
226.683	22.31
226.918	19.31
227.152	37.31
227.387	53.31
227.621	29.31
227.856	44.31
228.09	47.31
228.324	38.31
228.559	55.31
228.793	67.31
229.027	104.31
229.262	91.31
229.496	109.31
229.73	129.31
229.964	143.31
230.199	135.31
230.433	109.31
230.667	107.31
230.901	105.31
231.136	100.31
231.37	117.31
231.604	93.31
231.838	112.31
232.072	106.31
232.306	93.31
232.541	113.31
232.775	120.31
233.009	106.31
233.243	104.31
233.477	107.31
233.711	104.31
233.945	117.31
234.179	94.31
234.413	98.31
234.647	107.31
234.881	109.31
235.115	107.31
235.349	109.31
235.583	116.31
235.817	120.31
236.051	120.31
236.285	125.31
236.519	124.31
236.753	119.31
236.987	131.31
237.221	174.31
237.455	202.31
237.689	157.31
237.922	129.31
238.156	109.31
238.39	122.31
238.624	129.31
238.858	125.31
239.091	120.31
239.325	119.31
239.559	115.31
239.793	116.31
240.027	127.31
240.26	131.31
240.494	149.31
240.728	116.31
240.961	135.31
241.195	129.31
241.429	127.31
241.662	124.31
241.896	126.31
242.13	105.31
242.363	115.31
242.597	133.31
242.83	132.31
243.064	128.31
243.298	129.31
243.531	117.31
243.765	109.31
243.998	123.31
244.232	140.31
244.465	128.31
244.699	135.31
244.932	133.31
245.166	131.31
245.399	122.31
245.633	136.31
245.866	130.31
246.099	136.31
246.333	125.31
246.566	137.31
246.8	131.31
247.033	126.31
247.266	122.31
247.5	119.31
247.733	147.31
247.966	156.31
248.2	153.31
248.433	154.31
248.666	159.31
248.899	155.31
249.133	180.31
249.366	172.31
249.599	166.31
249.832	147.31
250.066	139.31
250.299	159.31
250.532	157.31
250.765	166.31
250.998	171.31
251.231	188.31
251.465	170.31
251.698	169.31
251.931	169.31
252.164	165.31
252.397	166.31
252.63	170.31
252.863	175.31
253.096	169.31
253.329	191.31
253.562	180.31
253.795	176.31
254.028	196.31
254.261	190.31
254.494	186.31
254.727	199.31
254.96	232.31
255.193	225.31
255.426	197.31
255.659	204.31
255.892	193.31
256.124	217.31
256.357	195.31
256.59	189.31
256.823	180.31
257.056	198.31
257.289	187.31
257.521	183.31
257.754	180.31
257.987	178.31
258.22	168.31
258.452	169.31
258.685	167.31
258.918	185.31
259.151	175.31
259.383	176.31
259.616	182.31
259.849	185.31
260.081	193.31
260.314	204.31
260.547	221.31
260.779	186.31
261.012	191.31
261.244	187.31
261.477	175.31
261.71	184.31
261.942	199.31
262.175	217.31
262.407	180.31
262.64	185.31
262.872	187.31
263.105	177.31
263.337	182.31
263.57	175.31
263.802	176.31
264.035	182.31
264.267	172.31
264.499	183.31
264.732	170.31
264.964	169.31
265.197	163.31
265.429	183.31
265.661	176.31
265.894	188.31
266.126	171.31
266.358	187.31
266.591	167.31
266.823	183.31
267.055	188.31
267.287	193.31
267.52	188.31
267.752	194.31
267.984	197.31
268.216	186.31
268.448	202.31
268.681	181.31
268.913	195.31
269.145	217.31
269.377	240.31
269.609	210.31
269.841	213.31
270.073	215.31
270.306	230.31
270.538	253.31
270.77	239.31
271.002	271.31
271.234	253.31
271.466	254.31
271.698	246.31
271.93	254.31
272.162	272.31
272.394	242.31
272.626	245.31
272.858	238.31
273.09	237.31
273.322	219.31
273.553	233.31
273.785	207.31
274.017	208.31
274.249	222.31
274.481	217.31
274.713	204.31
274.945	228.31
275.176	216.31
275.408	218.31
275.64	228.31
275.872	202.31
276.104	209.31
276.335	217.31
276.567	230.31
276.799	239.31
277.031	254.31
277.262	259.31
277.494	257.31
277.726	242.31
277.957	242.31
278.189	224.31
278.421	225.31
278.652	214.31
278.884	210.31
279.115	224.31
279.347	219.31
279.579	225.31
279.81	206.31
280.042	221.31
280.273	216.31
280.505	221.31
280.736	222.31
280.968	228.31
281.199	224.31
281.431	224.31
281.662	223.31
281.894	216.31
282.125	218.31
282.356	229.31
282.588	255.31
282.819	255.31
283.051	238.31
283.282	209.31
283.513	216.31
283.745	213.31
283.976	218.31
284.207	224.31
284.439	215.31
284.67	223.31
284.901	229.31
285.132	219.31
285.364	199.31
285.595	233.31
285.826	219.31
286.057	208.31
286.288	218.31
286.52	235.31
286.751	222.31
286.982	223.31
287.213	209.31
287.444	211.31
287.675	221.31
287.906	243.31
288.138	241.31
288.369	233.31
288.6	227.31
288.831	236.31
289.062	241.31
289.293	242.31
289.524	242.31
289.755	229.31
289.986	215.31
290.217	228.31
290.448	234.31
290.679	226.31
290.91	229.31
291.141	225.31
291.371	217.31
291.602	240.31
291.833	216.31
292.064	234.31
292.295	226.31
292.526	212.31
292.757	232.31
292.987	234.31
293.218	224.31
293.449	241.31
293.68	239.31
293.91	220.31
294.141	225.31
294.372	233.31
294.603	232.31
294.833	226.31
295.064	221.31
295.295	216.31
295.525	215.31
295.756	235.31
295.987	239.31
296.217	273.31
296.448	273.31
296.679	237.31
296.909	239.31
297.14	234.31
297.37	232.31
297.601	217.31
297.831	234.31
298.062	249.31
298.292	250.31
298.523	250.31
298.753	262.31
298.984	246.31
299.214	242.31
299.445	218.31
299.675	246.31
299.905	252.31
300.136	243.31
300.366	234.31
300.597	259.31
300.827	258.31
301.057	244.31
301.288	255.31
301.518	273.31
301.748	252.31
301.979	256.31
302.209	251.31
302.439	259.31
302.669	239.31
302.9	265.31
303.13	259.31
303.36	253.31
303.59	271.31
303.82	282.31
304.051	269.31
304.281	268.31
304.511	256.31
304.741	246.31
304.971	257.31
305.201	269.31
305.431	250.31
305.661	240.31
305.891	250.31
306.121	269.31
306.352	270.31
306.582	278.31
306.812	264.31
307.042	266.31
307.272	261.31
307.502	268.31
307.731	261.31
307.961	261.31
308.191	267.31
308.421	269.31
308.651	266.31
308.881	276.31
309.111	264.31
309.341	267.31
309.571	281.31
309.8	280.31
310.03	299.31
310.26	309.31
310.49	304.31
310.72	291.31
310.949	330.31
311.179	328.31
311.409	318.31
311.639	314.31
311.868	296.31
312.098	318.31
312.328	297.31
312.557	341.31
312.787	345.31
313.017	344.31
313.246	312.31
313.476	304.31
313.706	315.31
313.935	311.31
314.165	331.31
314.394	320.31
314.624	328.31
314.853	308.31
315.083	305.31
315.312	315.31
315.542	287.31
315.771	307.31
316.001	303.31
316.23	301.31
316.46	303.31
316.689	313.31
316.919	327.31
317.148	321.31
317.377	315.31
317.607	323.31
317.836	307.31
318.065	307.31
318.295	307.31
318.524	311.31
318.753	296.31
318.983	319.31
319.212	311.31
319.441	309.31
319.67	314.31
319.9	320.31
320.129	311.31
320.358	296.31
320.587	320.31
320.816	312.31
321.046	333.31
321.275	348.31
321.504	338.31
321.733	348.31
321.962	339.31
322.191	360.31
322.42	363.31
322.649	381.31
322.878	387.31
323.108	393.31
323.337	433.31
323.566	446.31
323.795	471.31
324.024	521.31
324.253	665.31
324.482	977.31
324.71	1497.31
324.939	2101.31
325.168	1819.31
325.397	936.31
325.626	601.31
325.855	493.31
326.084	466.31
326.313	441.31
326.542	464.31
326.77	505.31
326.999	627.31
327.228	876.31
327.457	1315.31
327.686	1533.31
327.914	1001.31
328.143	684.31
328.372	591.31
328.6	531.31
328.829	510.31
329.058	531.31
329.287	529.31
329.515	500.31
329.744	450.31
329.972	457.31
330.201	475.31
330.43	539.31
330.658	533.31
330.887	564.31
331.115	525.31
331.344	449.31
331.572	433.31
331.801	411.31
332.03	413.31
332.258	403.31
332.486	384.31
332.715	354.31
332.943	367.31
333.172	381.31
333.4	364.31
333.629	367.31
333.857	388.31
334.085	415.31
334.314	435.31
334.542	458.31
334.771	490.31
334.999	409.31
335.227	397.31
335.455	380.31
335.684	379.31
335.912	341.31
336.14	369.31
336.369	367.31
336.597	369.31
336.825	354.31
337.053	362.31
337.281	345.31
337.51	341.31
337.738	372.31
337.966	345.31
338.194	370.31
338.422	344.31
338.65	343.31
338.878	359.31
339.106	339.31
339.334	345.31
339.562	353.31
339.79	338.31
340.018	339.31
340.246	334.31
340.474	372.31
340.702	350.31
340.93	333.31
341.158	354.31
341.386	351.31
341.614	328.31
341.842	361.31
342.07	348.31
342.298	322.31
342.526	327.31
342.754	342.31
342.981	325.31
343.209	321.31
343.437	316.31
343.665	342.31
343.893	334.31
344.12	341.31
344.348	340.31
344.576	354.31
344.804	353.31
345.031	351.31
345.259	362.31
345.487	361.31
345.714	351.31
345.942	356.31
346.17	355.31
346.397	346.31
346.625	336.31
346.853	343.31
347.08	336.31
347.308	338.31
347.535	364.31
347.763	347.31
347.99	370.31
348.218	377.31
348.445	354.31
348.673	354.31
348.9	339.31
349.128	309.31
349.355	332.31
349.583	327.31
349.81	323.31
350.037	315.31
350.265	329.31
350.492	314.31
350.72	303.31
350.947	327.31
351.174	331.31
351.402	343.31
351.629	346.31
351.856	350.31
352.083	377.31
352.311	351.31
352.538	360.31
352.765	375.31
352.992	358.31
353.22	349.31
353.447	339.31
353.674	330.31
353.901	317.31
354.128	322.31
354.355	318.31
354.583	306.31
354.81	329.31
355.037	325.31
355.264	324.31
355.491	317.31
355.718	305.31
355.945	317.31
356.172	301.31
356.399	313.31
356.626	316.31
356.853	314.31
357.08	311.31
357.307	331.31
357.534	299.31
357.761	321.31
357.988	303.31
358.215	308.31
358.441	311.31
358.668	323.31
358.895	325.31
359.122	341.31
359.349	312.31
359.576	334.31
359.802	380.31
360.029	403.31
360.256	394.31
360.483	395.31
360.709	377.31
360.936	359.31
361.163	346.31
361.39	344.31
361.616	333.31
361.843	337.31
362.07	335.31
362.296	342.31
362.523	346.31
362.749	335.31
362.976	322.31
363.203	339.31
363.429	333.31
363.656	318.31
363.882	317.31
364.109	325.31
364.335	323.31
364.562	328.31
364.788	332.31
365.015	341.31
365.241	330.31
365.468	312.31
365.694	315.31
365.92	329.31
366.147	330.31
366.373	318.31
366.599	318.31
366.826	330.31
367.052	334.31
367.278	332.31
367.505	313.31
367.731	325.31
367.957	319.31
368.184	325.31
368.41	339.31
368.636	337.31
368.862	333.31
369.089	317.31
369.315	335.31
369.541	315.31
369.767	325.31
369.993	328.31
370.219	305.31
370.445	301.31
370.672	311.31
370.898	306.31
371.124	313.31
371.35	317.31
371.576	313.31
371.802	313.31
372.028	305.31
372.254	308.31
372.48	320.31
372.706	303.31
372.932	299.31
373.158	312.31
373.384	319.31
373.61	312.31
373.835	316.31
374.061	304.31
374.287	322.31
374.513	328.31
374.739	329.31
374.965	311.31
375.191	323.31
375.416	315.31
375.642	323.31
375.868	299.31
376.094	311.31
376.319	291.31
376.545	296.31
376.771	317.31
376.997	319.31
377.222	296.31
377.448	311.31
377.674	297.31
377.899	274.31
378.125	301.31
378.35	306.31
378.576	313.31
378.802	313.31
379.027	295.31
379.253	320.31
379.478	298.31
379.704	304.31
379.929	327.31
380.155	317.31
380.38	323.31
380.606	308.31
380.831	320.31
381.057	304.31
381.282	315.31
381.507	323.31
381.733	319.31
381.958	315.31
382.184	311.31
382.409	319.31
382.634	317.31
382.86	329.31
383.085	329.31
383.31	333.31
383.535	322.31
383.761	322.31
383.986	318.31
384.211	313.31
384.436	319.31
384.662	332.31
384.887	322.31
385.112	321.31
385.337	330.31
385.562	315.31
385.787	338.31
386.013	364.31
386.238	332.31
386.463	337.31
386.688	341.31
386.913	347.31
387.138	343.31
387.363	330.31
387.588	332.31
387.813	312.31
388.038	344.31
388.263	352.31
388.488	336.31
388.713	334.31
388.938	340.31
389.163	347.31
389.387	330.31
389.612	331.31
389.837	343.31
390.062	327.31
390.287	330.31
390.512	339.31
390.736	321.31
390.961	339.31
391.186	332.31
391.411	330.31
391.636	354.31
391.86	339.31
392.085	338.31
392.31	357.31
392.534	358.31
392.759	354.31
392.984	339.31
393.208	345.31
393.433	357.31
393.658	357.31
393.882	345.31
394.107	348.31
394.331	331.31
394.556	337.31
394.78	341.31
395.005	332.31
395.229	356.31
395.454	328.31
395.678	341.31
395.903	355.31
396.127	385.31
396.352	383.31
396.576	353.31
396.801	346.31
397.025	344.31
397.249	360.31
397.474	363.31
397.698	371.31
397.922	379.31
398.147	385.31
398.371	392.31
398.595	375.31
398.82	391.31
399.044	385.31
399.268	389.31
399.492	409.31
399.717	420.31
399.941	422.31
400.165	454.31
400.389	469.31
400.613	441.31
400.837	390.31
401.062	378.31
401.286	383.31
401.51	397.31
401.734	387.31
401.958	376.31
402.182	372.31
402.406	378.31
402.63	398.31
402.854	405.31
403.078	387.31
403.302	387.31
403.526	405.31
403.75	387.31
403.974	403.31
404.198	391.31
404.422	404.31
404.645	408.31
404.869	418.31
405.093	448.31
405.317	463.31
405.541	471.31
405.765	448.31
405.988	435.31
406.212	441.31
406.436	439.31
406.66	444.31
406.883	433.31
407.107	474.31
407.331	487.31
407.555	535.31
407.778	553.31
408.002	490.31
408.226	439.31
408.449	440.31
408.673	451.31
408.896	458.31
409.12	500.31
409.344	472.31
409.567	419.31
409.791	425.31
410.014	414.31
410.238	410.31
410.461	408.31
410.685	382.31
410.908	421.31
411.132	456.31
411.355	492.31
411.578	455.31
411.802	435.31
412.025	407.31
412.249	431.31
412.472	449.31
412.695	474.31
412.919	449.31
413.142	418.31
413.365	418.31
413.589	406.31
413.812	373.31
414.035	382.31
414.258	389.31
414.482	372.31
414.705	386.31
414.928	379.31
415.151	388.31
415.374	377.31
415.597	380.31
415.821	374.31
416.044	402.31
416.267	387.31
416.49	379.31
416.713	385.31
416.936	366.31
417.159	385.31
417.382	395.31
417.605	395.31
417.828	396.31
418.051	409.31
418.274	418.31
418.497	372.31
418.72	367.31
418.943	384.31
419.166	395.31
419.389	419.31
419.611	383.31
419.834	387.31
420.057	400.31
420.28	390.31
420.503	407.31
420.726	391.31
420.948	423.31
421.171	457.31
421.394	475.31
421.617	435.31
421.839	419.31
422.062	414.31
422.285	434.31
422.507	468.31
422.73	520.31
422.953	475.31
423.175	439.31
423.398	420.31
423.621	445.31
423.843	420.31
424.066	463.31
424.288	432.31
424.511	456.31
424.733	489.31
424.956	543.31
425.178	554.31
425.401	572.31
425.623	547.31
425.846	472.31
426.068	443.31
426.291	436.31
426.513	439.31
426.735	439.31
426.958	494.31
427.18	551.31
427.402	681.31
427.625	731.31
427.847	671.31
428.069	566.31
428.292	497.31
428.514	452.31
428.736	432.31
428.958	424.31
429.181	408.31
429.403	417.31
429.625	435.31
429.847	443.31
430.069	507.31
430.292	480.31
430.514	437.31
430.736	410.31
430.958	417.31
431.18	375.31
431.402	376.31
431.624	386.31
431.846	394.31
432.068	380.31
432.29	387.31
432.512	375.31
432.734	387.31
432.956	385.31
433.178	394.31
433.4	406.31
433.622	403.31
433.844	396.31
434.066	392.31
434.287	375.31
434.509	377.31
434.731	401.31
434.953	386.31
435.175	396.31
435.397	427.31
435.618	445.31
435.84	472.31
436.062	564.31
436.284	636.31
436.505	523.31
436.727	461.31
436.949	444.31
437.17	424.31
437.392	429.31
437.614	425.31
437.835	465.31
438.057	556.31
438.278	639.31
438.5	620.31
438.721	693.31
438.943	632.31
439.165	517.31
439.386	445.31
439.608	454.31
439.829	480.31
440.05	474.31
440.272	526.31
440.493	499.31
440.715	441.31
440.936	427.31
441.158	423.31
441.379	417.31
441.6	431.31
441.822	447.31
442.043	472.31
442.264	517.31
442.486	581.31
442.707	499.31
442.928	482.31
443.149	465.31
443.371	512.31
443.592	516.31
443.813	583.31
444.034	631.31
444.255	520.31
444.476	469.31
444.698	455.31
444.919	449.31
445.14	522.31
445.361	501.31
445.582	480.31
445.803	552.31
446.024	623.31
446.245	631.31
446.466	595.31
446.687	482.31
446.908	448.31
447.129	419.31
447.35	411.31
447.571	389.31
447.792	408.31
448.013	441.31
448.234	439.31
448.455	481.31
448.675	587.31
448.896	653.31
449.117	567.31
449.338	545.31
449.559	638.31
449.779	684.31
450	570.31
450.221	469.31
450.442	421.31
450.662	429.31
450.883	424.31
451.104	434.31
451.324	433.31
451.545	407.31
451.766	403.31
451.986	400.31
452.207	395.31
452.428	375.31
452.648	372.31
452.869	375.31
453.089	394.31
453.31	411.31
453.53	384.31
453.751	373.31
453.971	399.31
454.192	403.31
454.412	389.31
454.633	388.31
454.853	381.31
455.073	359.31
455.294	401.31
455.514	467.31
455.734	461.31
455.955	391.31
456.175	347.31
456.395	350.31
456.616	357.31
456.836	354.31
457.056	353.31
457.276	341.31
457.497	333.31
457.717	374.31
457.937	353.31
458.157	367.31
458.377	353.31
458.598	386.31
458.818	438.31
459.038	515.31
459.258	507.31
459.478	454.31
459.698	401.31
459.918	400.31
460.138	389.31
460.358	396.31
460.578	403.31
460.798	379.31
461.018	388.31
461.238	393.31
461.458	412.31
461.678	381.31
461.898	394.31
462.118	383.31
462.338	383.31
462.558	392.31
462.777	424.31
462.997	397.31
463.217	412.31
463.437	428.31
463.657	416.31
463.876	428.31
464.096	414.31
464.316	410.31
464.536	413.31
464.755	411.31
464.975	417.31
465.195	466.31
465.414	537.31
465.634	487.31
465.854	435.31
466.073	422.31
466.293	403.31
466.512	384.31
466.732	387.31
466.951	374.31
467.171	390.31
467.391	383.31
467.61	385.31
467.829	390.31
468.049	411.31
468.268	379.31
468.488	404.31
468.707	379.31
468.927	364.31
469.146	377.31
469.365	380.31
469.585	377.31
469.804	395.31
470.023	400.31
470.243	397.31
470.462	393.31
470.681	399.31
470.901	412.31
471.12	397.31
471.339	387.31
471.558	389.31
471.777	404.31
471.997	376.31
472.216	403.31
472.435	439.31
472.654	433.31
472.873	406.31
473.092	397.31
473.311	390.31
473.53	380.31
473.749	391.31
473.968	438.31
474.187	519.31
474.406	549.31
474.625	461.31
474.844	424.31
475.063	393.31
475.282	377.31
475.501	409.31
475.72	415.31
475.939	409.31
476.158	394.31
476.377	395.31
476.596	406.31
476.814	406.31
477.033	410.31
477.252	408.31
477.471	405.31
477.69	402.31
477.908	413.31
478.127	423.31
478.346	425.31
478.564	429.31
478.783	436.31
479.002	453.31
479.22	439.31
479.439	456.31
479.658	463.31
479.876	482.31
480.095	483.31
480.313	467.31
480.532	491.31
480.751	468.31
480.969	489.31
481.188	556.31
481.406	611.31
481.624	490.31
481.843	509.31
482.061	487.31
482.28	445.31
482.498	448.31
482.717	461.31
482.935	468.31
483.153	451.31
483.372	460.31
483.59	465.31
483.808	441.31
484.027	454.31
484.245	462.31
484.463	468.31
484.681	479.31
484.9	478.31
485.118	463.31
485.336	468.31
485.554	477.31
485.772	465.31
485.99	471.31
486.209	483.31
486.427	475.31
486.645	508.31
486.863	476.31
487.081	504.31
487.299	513.31
487.517	496.31
487.735	488.31
487.953	485.31
488.171	489.31
488.389	492.31
488.607	491.31
488.825	473.31
489.043	516.31
489.261	507.31
489.479	481.31
489.696	480.31
489.914	506.31
490.132	513.31
490.35	495.31
490.568	523.31
490.786	523.31
491.003	532.31
491.221	524.31
491.439	545.31
491.657	570.31
491.874	559.31
492.092	556.31
492.31	553.31
492.527	567.31
492.745	579.31
492.963	550.31
493.18	556.31
493.398	565.31
493.615	589.31
493.833	571.31
494.05	586.31
494.268	588.31
494.485	555.31
494.703	551.31
494.92	557.31
495.138	563.31
495.355	567.31
495.573	589.31
495.79	581.31
496.008	600.31
496.225	580.31
496.442	575.31
496.66	573.31
496.877	561.31
497.094	562.31
497.312	592.31
497.529	600.31
497.746	567.31
497.963	623.31
498.181	629.31
498.398	608.31
498.615	625.31
498.832	639.31
499.049	655.31
499.267	630.31
499.484	663.31
499.701	669.31
499.918	704.31
500.135	714.31
500.352	705.31
500.569	724.31
500.786	736.31
501.003	721.31
501.22	714.31
501.437	729.31
501.654	708.31
501.871	713.31
502.088	691.31
