Data from 1961.PennyLincolnUp.Lamp.En5.5.200Scan.071719.P1._HRD10591_13-47-00-057.txt Node
Date: Thu Jul 18 13:47:00 EDT 2019
User: cochatt
Spectrometer: HR+D1059
Trigger mode: 1
Integration Time (sec): 1.000000E-1
Scans to average: 1
Electric dark correction enabled: true
Nonlinearity correction enabled: false
Boxcar width: 0
XAxis mode: Wavelengths
Number of Pixels in Spectrum: 2048
>>>>>Begin Spectral Data<<<<<
223.165	-22.19
223.4	-22.19
223.635	-22.19
223.869	-9.19
224.104	-19.19
224.338	-1.19
224.573	-7.19
224.808	-9.19
225.042	0.81
225.277	-10.19
225.511	-3.19
225.746	7.81
225.98	13.81
226.215	-9.19
226.449	11.81
226.683	4.81
226.918	20.81
227.152	30.81
227.387	42.81
227.621	24.81
227.856	37.81
228.09	36.81
228.324	58.81
228.559	44.81
228.793	75.81
229.027	90.81
229.262	97.81
229.496	101.81
229.73	117.81
229.964	131.81
230.199	108.81
230.433	116.81
230.667	95.81
230.901	100.81
231.136	100.81
231.37	101.81
231.604	95.81
231.838	90.81
232.072	108.81
232.306	118.81
232.541	92.81
232.775	111.81
233.009	91.81
233.243	117.81
233.477	97.81
233.711	111.81
233.945	100.81
234.179	114.81
234.413	95.81
234.647	88.81
234.881	125.81
235.115	107.81
235.349	107.81
235.583	106.81
235.817	112.81
236.051	128.81
236.285	117.81
236.519	102.81
236.753	107.81
236.987	132.81
237.221	162.81
237.455	198.81
237.689	169.81
237.922	123.81
238.156	120.81
238.39	123.81
238.624	104.81
238.858	113.81
239.091	122.81
239.325	115.81
239.559	114.81
239.793	115.81
240.027	118.81
240.26	125.81
240.494	138.81
240.728	129.81
240.961	128.81
241.195	124.81
241.429	115.81
241.662	125.81
241.896	112.81
242.13	119.81
242.363	125.81
242.597	117.81
242.83	119.81
243.064	120.81
243.298	118.81
243.531	108.81
243.765	122.81
243.998	125.81
244.232	133.81
244.465	124.81
244.699	121.81
244.932	130.81
245.166	129.81
245.399	124.81
245.633	128.81
245.866	143.81
246.099	135.81
246.333	105.81
246.566	125.81
246.8	132.81
247.033	136.81
247.266	131.81
247.5	136.81
247.733	135.81
247.966	143.81
248.2	139.81
248.433	156.81
248.666	153.81
248.899	143.81
249.133	159.81
249.366	176.81
249.599	139.81
249.832	147.81
250.066	133.81
250.299	150.81
250.532	156.81
250.765	165.81
250.998	186.81
251.231	176.81
251.465	174.81
251.698	177.81
251.931	160.81
252.164	162.81
252.397	160.81
252.63	168.81
252.863	160.81
253.096	160.81
253.329	171.81
253.562	164.81
253.795	188.81
254.028	168.81
254.261	180.81
254.494	177.81
254.727	201.81
254.96	208.81
255.193	205.81
255.426	195.81
255.659	183.81
255.892	195.81
256.124	178.81
256.357	193.81
256.59	178.81
256.823	168.81
257.056	175.81
257.289	165.81
257.521	165.81
257.754	172.81
257.987	153.81
258.22	175.81
258.452	171.81
258.685	177.81
258.918	170.81
259.151	180.81
259.383	172.81
259.616	178.81
259.849	179.81
260.081	182.81
260.314	196.81
260.547	186.81
260.779	198.81
261.012	187.81
261.244	184.81
261.477	181.81
261.71	182.81
261.942	181.81
262.175	189.81
262.407	172.81
262.64	170.81
262.872	163.81
263.105	178.81
263.337	155.81
263.57	174.81
263.802	175.81
264.035	187.81
264.267	185.81
264.499	163.81
264.732	157.81
264.964	168.81
265.197	183.81
265.429	185.81
265.661	172.81
265.894	163.81
266.126	190.81
266.358	185.81
266.591	180.81
266.823	171.81
267.055	171.81
267.287	188.81
267.52	167.81
267.752	176.81
267.984	175.81
268.216	179.81
268.448	187.81
268.681	185.81
268.913	169.81
269.145	217.81
269.377	218.81
269.609	195.81
269.841	218.81
270.073	212.81
270.306	223.81
270.538	233.81
270.77	227.81
271.002	225.81
271.234	223.81
271.466	221.81
271.698	234.81
271.93	242.81
272.162	235.81
272.394	243.81
272.626	223.81
272.858	217.81
273.09	213.81
273.322	220.81
273.553	229.81
273.785	219.81
274.017	207.81
274.249	201.81
274.481	213.81
274.713	197.81
274.945	222.81
275.176	221.81
275.408	209.81
275.64	205.81
275.872	219.81
276.104	201.81
276.335	211.81
276.567	229.81
276.799	223.81
277.031	241.81
277.262	259.81
277.494	242.81
277.726	220.81
277.957	219.81
278.189	213.81
278.421	201.81
278.652	215.81
278.884	204.81
279.115	216.81
279.347	213.81
279.579	204.81
279.81	207.81
280.042	199.81
280.273	202.81
280.505	218.81
280.736	202.81
280.968	207.81
281.199	204.81
281.431	211.81
281.662	197.81
281.894	214.81
282.125	201.81
282.356	229.81
282.588	240.81
282.819	236.81
283.051	214.81
283.282	202.81
283.513	216.81
283.745	211.81
283.976	212.81
284.207	216.81
284.439	205.81
284.67	212.81
284.901	211.81
285.132	223.81
285.364	220.81
285.595	225.81
285.826	214.81
286.057	204.81
286.288	223.81
286.52	213.81
286.751	218.81
286.982	210.81
287.213	220.81
287.444	216.81
287.675	205.81
287.906	232.81
288.138	213.81
288.369	235.81
288.6	225.81
288.831	217.81
289.062	221.81
289.293	227.81
289.524	225.81
289.755	204.81
289.986	219.81
290.217	207.81
290.448	205.81
290.679	220.81
290.91	233.81
291.141	219.81
291.371	219.81
291.602	225.81
291.833	213.81
292.064	221.81
292.295	225.81
292.526	219.81
292.757	227.81
292.987	213.81
293.218	212.81
293.449	219.81
293.68	208.81
293.91	207.81
294.141	210.81
294.372	207.81
294.603	224.81
294.833	231.81
295.064	232.81
295.295	218.81
295.525	222.81
295.756	242.81
295.987	241.81
296.217	241.81
296.448	277.81
296.679	248.81
296.909	233.81
297.14	224.81
297.37	222.81
297.601	236.81
297.831	213.81
298.062	223.81
298.292	223.81
298.523	232.81
298.753	232.81
298.984	241.81
299.214	231.81
299.445	222.81
299.675	235.81
299.905	242.81
300.136	222.81
300.366	237.81
300.597	249.81
300.827	237.81
301.057	261.81
301.288	230.81
301.518	240.81
301.748	245.81
301.979	239.81
302.209	246.81
302.439	250.81
302.669	248.81
302.9	243.81
303.13	248.81
303.36	253.81
303.59	259.81
303.82	259.81
304.051	273.81
304.281	235.81
304.511	241.81
304.741	261.81
304.971	246.81
305.201	261.81
305.431	241.81
305.661	258.81
305.891	236.81
306.121	247.81
306.352	256.81
306.582	257.81
306.812	261.81
307.042	267.81
307.272	243.81
307.502	266.81
307.731	248.81
307.961	261.81
308.191	243.81
308.421	274.81
308.651	254.81
308.881	258.81
309.111	258.81
309.341	274.81
309.571	285.81
309.8	257.81
310.03	295.81
310.26	294.81
310.49	294.81
310.72	297.81
310.949	309.81
311.179	311.81
311.409	301.81
311.639	287.81
311.868	305.81
312.098	289.81
312.328	301.81
312.557	325.81
312.787	322.81
313.017	300.81
313.246	321.81
313.476	263.81
313.706	288.81
313.935	291.81
314.165	321.81
314.394	317.81
314.624	316.81
314.853	315.81
315.083	303.81
315.312	299.81
315.542	287.81
315.771	292.81
316.001	302.81
316.23	292.81
316.46	285.81
316.689	291.81
316.919	275.81
317.148	308.81
317.377	280.81
317.607	298.81
317.836	293.81
318.065	299.81
318.295	296.81
318.524	300.81
318.753	287.81
318.983	284.81
319.212	286.81
319.441	307.81
319.67	286.81
319.9	303.81
320.129	279.81
320.358	290.81
320.587	292.81
320.816	319.81
321.046	328.81
321.275	328.81
321.504	313.81
321.733	315.81
321.962	327.81
322.191	341.81
322.42	362.81
322.649	337.81
322.878	369.81
323.108	351.81
323.337	387.81
323.566	410.81
323.795	452.81
324.024	484.81
324.253	598.81
324.482	870.81
324.71	1364.81
324.939	1847.81
325.168	1573.81
325.397	817.81
325.626	537.81
325.855	467.81
326.084	425.81
326.313	432.81
326.542	408.81
326.77	465.81
326.999	545.81
327.228	802.81
327.457	1182.81
327.686	1395.81
327.914	927.81
328.143	615.81
328.372	540.81
328.6	484.81
328.829	483.81
329.058	478.81
329.287	498.81
329.515	441.81
329.744	397.81
329.972	392.81
330.201	430.81
330.43	461.81
330.658	493.81
330.887	473.81
331.115	483.81
331.344	443.81
331.572	379.81
331.801	382.81
332.03	385.81
332.258	358.81
332.486	351.81
332.715	361.81
332.943	335.81
333.172	368.81
333.4	358.81
333.629	360.81
333.857	357.81
334.085	383.81
334.314	415.81
334.542	427.81
334.771	425.81
334.999	407.81
335.227	391.81
335.455	339.81
335.684	362.81
335.912	366.81
336.14	343.81
336.369	326.81
336.597	337.81
336.825	375.81
337.053	355.81
337.281	337.81
337.51	311.81
337.738	358.81
337.966	328.81
338.194	349.81
338.422	343.81
338.65	344.81
338.878	356.81
339.106	340.81
339.334	320.81
339.562	312.81
339.79	357.81
340.018	347.81
340.246	339.81
340.474	322.81
340.702	336.81
340.93	347.81
341.158	338.81
341.386	332.81
341.614	335.81
341.842	347.81
342.07	336.81
342.298	321.81
342.526	323.81
342.754	332.81
342.981	332.81
343.209	333.81
343.437	328.81
343.665	329.81
343.893	322.81
344.12	324.81
344.348	329.81
344.576	316.81
344.804	341.81
345.031	350.81
345.259	344.81
345.487	340.81
345.714	347.81
345.942	333.81
346.17	335.81
346.397	327.81
346.625	330.81
346.853	343.81
347.08	329.81
347.308	322.81
347.535	331.81
347.763	347.81
347.99	338.81
348.218	334.81
348.445	364.81
348.673	343.81
348.9	317.81
349.128	335.81
349.355	319.81
349.583	316.81
349.81	312.81
350.037	303.81
350.265	321.81
350.492	326.81
350.72	328.81
350.947	320.81
351.174	324.81
351.402	314.81
351.629	330.81
351.856	348.81
352.083	337.81
352.311	350.81
352.538	339.81
352.765	336.81
352.992	335.81
353.22	312.81
353.447	323.81
353.674	325.81
353.901	314.81
354.128	320.81
354.355	308.81
354.583	331.81
354.81	296.81
355.037	297.81
355.264	304.81
355.491	315.81
355.718	303.81
355.945	286.81
356.172	306.81
356.399	288.81
356.626	284.81
356.853	313.81
357.08	284.81
357.307	314.81
357.534	324.81
357.761	307.81
357.988	301.81
358.215	311.81
358.441	299.81
358.668	306.81
358.895	327.81
359.122	306.81
359.349	323.81
359.576	330.81
359.802	354.81
360.029	365.81
360.256	369.81
360.483	353.81
360.709	339.81
360.936	345.81
361.163	310.81
361.39	332.81
361.616	316.81
361.843	322.81
362.07	343.81
362.296	329.81
362.523	339.81
362.749	327.81
362.976	327.81
363.203	328.81
363.429	319.81
363.656	315.81
363.882	300.81
364.109	308.81
364.335	312.81
364.562	315.81
364.788	313.81
365.015	325.81
365.241	323.81
365.468	328.81
365.694	320.81
365.92	323.81
366.147	322.81
366.373	314.81
366.599	300.81
366.826	293.81
367.052	313.81
367.278	306.81
367.505	309.81
367.731	298.81
367.957	303.81
368.184	306.81
368.41	317.81
368.636	321.81
368.862	320.81
369.089	313.81
369.315	297.81
369.541	310.81
369.767	309.81
369.993	322.81
370.219	300.81
370.445	322.81
370.672	300.81
370.898	311.81
371.124	292.81
371.35	312.81
371.576	312.81
371.802	299.81
372.028	296.81
372.254	320.81
372.48	324.81
372.706	317.81
372.932	322.81
373.158	317.81
373.384	314.81
373.61	312.81
373.835	307.81
374.061	308.81
374.287	310.81
374.513	317.81
374.739	301.81
374.965	306.81
375.191	289.81
375.416	296.81
375.642	320.81
375.868	317.81
376.094	301.81
376.319	318.81
376.545	306.81
376.771	305.81
376.997	292.81
377.222	300.81
377.448	312.81
377.674	293.81
377.899	301.81
378.125	300.81
378.35	309.81
378.576	298.81
378.802	303.81
379.027	297.81
379.253	296.81
379.478	309.81
379.704	293.81
379.929	298.81
380.155	321.81
380.38	303.81
380.606	304.81
380.831	306.81
381.057	315.81
381.282	306.81
381.507	311.81
381.733	314.81
381.958	293.81
382.184	289.81
382.409	304.81
382.634	319.81
382.86	308.81
383.085	328.81
383.31	325.81
383.535	320.81
383.761	319.81
383.986	307.81
384.211	315.81
384.436	319.81
384.662	333.81
384.887	318.81
385.112	300.81
385.337	327.81
385.562	316.81
385.787	332.81
386.013	349.81
386.238	358.81
386.463	326.81
386.688	345.81
386.913	337.81
387.138	324.81
387.363	318.81
387.588	316.81
387.813	328.81
388.038	308.81
388.263	311.81
388.488	323.81
388.713	316.81
388.938	336.81
389.163	354.81
389.387	352.81
389.612	333.81
389.837	324.81
390.062	323.81
390.287	336.81
390.512	317.81
390.736	341.81
390.961	329.81
391.186	322.81
391.411	326.81
391.636	328.81
391.86	339.81
392.085	348.81
392.31	354.81
392.534	342.81
392.759	353.81
392.984	332.81
393.208	344.81
393.433	337.81
393.658	349.81
393.882	327.81
394.107	345.81
394.331	352.81
394.556	336.81
394.78	325.81
395.005	345.81
395.229	318.81
395.454	323.81
395.678	355.81
395.903	353.81
396.127	363.81
396.352	367.81
396.576	360.81
396.801	347.81
397.025	356.81
397.249	341.81
397.474	343.81
397.698	359.81
397.922	372.81
398.147	377.81
398.371	376.81
398.595	362.81
398.82	359.81
399.044	380.81
399.268	365.81
399.492	421.81
399.717	421.81
399.941	436.81
400.165	446.81
400.389	443.81
400.613	417.81
400.837	400.81
401.062	401.81
401.286	394.81
401.51	395.81
401.734	380.81
401.958	385.81
402.182	389.81
402.406	379.81
402.63	377.81
402.854	400.81
403.078	381.81
403.302	378.81
403.526	397.81
403.75	385.81
403.974	400.81
404.198	381.81
404.422	407.81
404.645	392.81
404.869	387.81
405.093	421.81
405.317	461.81
405.541	464.81
405.765	440.81
405.988	405.81
406.212	426.81
406.436	437.81
406.66	442.81
406.883	428.81
407.107	455.81
407.331	459.81
407.555	543.81
407.778	502.81
408.002	468.81
408.226	436.81
408.449	447.81
408.673	436.81
408.896	471.81
409.12	452.81
409.344	472.81
409.567	429.81
409.791	400.81
410.014	408.81
410.238	383.81
410.461	399.81
410.685	401.81
410.908	430.81
411.132	430.81
411.355	466.81
411.578	454.81
411.802	409.81
412.025	405.81
412.249	405.81
412.472	414.81
412.695	450.81
412.919	462.81
413.142	413.81
413.365	397.81
413.589	395.81
413.812	412.81
414.035	377.81
414.258	375.81
414.482	370.81
414.705	388.81
414.928	376.81
415.151	361.81
415.374	370.81
415.597	375.81
415.821	364.81
416.044	378.81
416.267	376.81
416.49	370.81
416.713	377.81
416.936	369.81
417.159	378.81
417.382	369.81
417.605	367.81
417.828	397.81
418.051	383.81
418.274	380.81
418.497	388.81
418.72	378.81
418.943	356.81
419.166	385.81
419.389	403.81
419.611	394.81
419.834	389.81
420.057	399.81
420.28	396.81
420.503	410.81
420.726	383.81
420.948	415.81
421.171	453.81
421.394	461.81
421.617	405.81
421.839	398.81
422.062	383.81
422.285	418.81
422.507	444.81
422.73	496.81
422.953	487.81
423.175	413.81
423.398	394.81
423.621	407.81
423.843	409.81
424.066	416.81
424.288	417.81
424.511	441.81
424.733	473.81
424.956	552.81
425.178	535.81
425.401	492.81
425.623	525.81
425.846	453.81
426.068	447.81
426.291	401.81
426.513	421.81
426.735	426.81
426.958	465.81
427.18	539.81
427.402	645.81
427.625	697.81
427.847	607.81
428.069	545.81
428.292	450.81
428.514	431.81
428.736	420.81
428.958	389.81
429.181	389.81
429.403	421.81
429.625	402.81
429.847	438.81
430.069	486.81
430.292	480.81
430.514	433.81
430.736	413.81
430.958	390.81
431.18	403.81
431.402	389.81
431.624	384.81
431.846	386.81
432.068	370.81
432.29	366.81
432.512	381.81
432.734	382.81
432.956	389.81
433.178	377.81
433.4	379.81
433.622	380.81
433.844	384.81
434.066	368.81
434.287	398.81
434.509	381.81
434.731	379.81
434.953	371.81
435.175	393.81
435.397	426.81
435.618	419.81
435.84	468.81
436.062	543.81
436.284	559.81
436.505	492.81
436.727	451.81
436.949	400.81
437.17	391.81
437.392	392.81
437.614	419.81
437.835	447.81
438.057	509.81
438.278	605.81
438.5	579.81
438.721	627.81
438.943	592.81
439.165	501.81
439.386	472.81
439.608	451.81
439.829	435.81
440.05	460.81
440.272	498.81
440.493	472.81
440.715	435.81
440.936	401.81
441.158	423.81
441.379	392.81
441.6	394.81
441.822	427.81
442.043	472.81
442.264	527.81
442.486	528.81
442.707	466.81
442.928	440.81
443.149	435.81
443.371	462.81
443.592	515.81
443.813	565.81
444.034	579.81
444.255	514.81
444.476	437.81
444.698	424.81
444.919	436.81
445.14	500.81
445.361	467.81
445.582	468.81
445.803	525.81
446.024	581.81
446.245	588.81
446.466	537.81
446.687	469.81
446.908	428.81
447.129	417.81
447.35	405.81
447.571	427.81
447.792	405.81
448.013	390.81
448.234	435.81
448.455	460.81
448.675	561.81
448.896	637.81
449.117	547.81
449.338	529.81
449.559	587.81
449.779	648.81
450	533.81
450.221	456.81
450.442	404.81
450.662	403.81
450.883	425.81
451.104	425.81
451.324	435.81
451.545	395.81
451.766	376.81
451.986	367.81
452.207	371.81
452.428	376.81
452.648	354.81
452.869	371.81
453.089	375.81
453.31	376.81
453.53	352.81
453.751	358.81
453.971	361.81
454.192	387.81
454.412	399.81
454.633	386.81
454.853	368.81
455.073	355.81
455.294	392.81
455.514	428.81
455.734	416.81
455.955	356.81
456.175	360.81
456.395	337.81
456.616	341.81
456.836	351.81
457.056	354.81
457.276	332.81
457.497	348.81
457.717	346.81
457.937	346.81
458.157	343.81
458.377	345.81
458.598	359.81
458.818	427.81
459.038	487.81
459.258	499.81
459.478	433.81
459.698	399.81
459.918	376.81
460.138	377.81
460.358	364.81
460.578	385.81
460.798	391.81
461.018	374.81
461.238	380.81
461.458	387.81
461.678	367.81
461.898	386.81
462.118	402.81
462.338	383.81
462.558	389.81
462.777	398.81
462.997	404.81
463.217	403.81
463.437	393.81
463.657	396.81
463.876	393.81
464.096	389.81
464.316	376.81
464.536	420.81
464.755	408.81
464.975	421.81
465.195	447.81
465.414	509.81
465.634	461.81
465.854	431.81
466.073	401.81
466.293	369.81
466.512	390.81
466.732	390.81
466.951	386.81
467.171	376.81
467.391	379.81
467.61	398.81
467.829	384.81
468.049	392.81
468.268	389.81
468.488	387.81
468.707	367.81
468.927	379.81
469.146	361.81
469.365	375.81
469.585	372.81
469.804	377.81
470.023	379.81
470.243	391.81
470.462	392.81
470.681	388.81
470.901	396.81
471.12	384.81
471.339	380.81
471.558	379.81
471.777	385.81
471.997	364.81
472.216	387.81
472.435	417.81
472.654	421.81
472.873	383.81
473.092	379.81
473.311	381.81
473.53	403.81
473.749	389.81
473.968	415.81
474.187	477.81
474.406	492.81
474.625	428.81
474.844	403.81
475.063	405.81
475.282	376.81
475.501	374.81
475.72	387.81
475.939	396.81
476.158	381.81
476.377	397.81
476.596	401.81
476.814	401.81
477.033	396.81
477.252	391.81
477.471	385.81
477.69	410.81
477.908	395.81
478.127	400.81
478.346	411.81
478.564	403.81
478.783	415.81
479.002	418.81
479.22	435.81
479.439	426.81
479.658	448.81
479.876	456.81
480.095	453.81
480.313	490.81
480.532	461.81
480.751	452.81
480.969	468.81
481.188	552.81
481.406	572.81
481.624	508.81
481.843	470.81
482.061	476.81
482.28	450.81
482.498	466.81
482.717	456.81
482.935	433.81
483.153	417.81
483.372	437.81
483.59	444.81
483.808	428.81
484.027	460.81
484.245	440.81
484.463	455.81
484.681	468.81
484.9	453.81
485.118	437.81
485.336	458.81
485.554	436.81
485.772	458.81
485.99	457.81
486.209	440.81
486.427	466.81
486.645	465.81
486.863	484.81
487.081	518.81
487.299	478.81
487.517	462.81
487.735	459.81
487.953	466.81
488.171	471.81
488.389	472.81
488.607	473.81
488.825	481.81
489.043	479.81
489.261	491.81
489.479	482.81
489.696	475.81
489.914	479.81
490.132	487.81
490.35	490.81
490.568	507.81
490.786	497.81
491.003	516.81
491.221	517.81
491.439	519.81
491.657	525.81
491.874	533.81
492.092	548.81
492.31	528.81
492.527	546.81
492.745	515.81
492.963	540.81
493.18	537.81
493.398	545.81
493.615	547.81
493.833	561.81
494.05	562.81
494.268	569.81
494.485	563.81
494.703	545.81
494.92	540.81
495.138	547.81
495.355	553.81
495.573	547.81
495.79	556.81
496.008	556.81
496.225	557.81
496.442	581.81
496.66	562.81
496.877	560.81
497.094	577.81
497.312	571.81
497.529	575.81
497.746	561.81
497.963	588.81
498.181	587.81
498.398	601.81
498.615	609.81
498.832	648.81
499.049	623.81
499.267	647.81
499.484	642.81
499.701	691.81
499.918	679.81
500.135	704.81
500.352	724.81
500.569	703.81
500.786	740.81
501.003	739.81
501.22	719.81
501.437	698.81
501.654	691.81
501.871	664.81
502.088	691.81
