Data from 1961.PennyLincolnUp.Lamp.En5.5.200Scan.071719.P1._HRD10591_13-45-46-056.txt Node
Date: Thu Jul 18 13:45:46 EDT 2019
User: cochatt
Spectrometer: HR+D1059
Trigger mode: 1
Integration Time (sec): 1.000000E-1
Scans to average: 1
Electric dark correction enabled: true
Nonlinearity correction enabled: false
Boxcar width: 0
XAxis mode: Wavelengths
Number of Pixels in Spectrum: 2048
>>>>>Begin Spectral Data<<<<<
223.165	-25.38
223.4	-25.38
223.635	-25.38
223.869	-24.38
224.104	-5.38
224.338	-18.38
224.573	-27.38
224.808	-15.38
225.042	-4.38
225.277	-7.38
225.511	3.62
225.746	10.62
225.98	4.62
226.215	11.62
226.449	8.62
226.683	28.62
226.918	26.62
227.152	33.62
227.387	30.62
227.621	37.62
227.856	38.62
228.09	37.62
228.324	63.62
228.559	50.62
228.793	70.62
229.027	76.62
229.262	65.62
229.496	91.62
229.73	84.62
229.964	103.62
230.199	100.62
230.433	92.62
230.667	108.62
230.901	101.62
231.136	100.62
231.37	95.62
231.604	71.62
231.838	90.62
232.072	92.62
232.306	96.62
232.541	104.62
232.775	116.62
233.009	113.62
233.243	106.62
233.477	96.62
233.711	94.62
233.945	112.62
234.179	86.62
234.413	95.62
234.647	99.62
234.881	105.62
235.115	96.62
235.349	116.62
235.583	110.62
235.817	103.62
236.051	112.62
236.285	119.62
236.519	107.62
236.753	111.62
236.987	118.62
237.221	125.62
237.455	147.62
237.689	120.62
237.922	110.62
238.156	121.62
238.39	118.62
238.624	122.62
238.858	100.62
239.091	113.62
239.325	110.62
239.559	117.62
239.793	82.62
240.027	95.62
240.26	83.62
240.494	111.62
240.728	123.62
240.961	98.62
241.195	106.62
241.429	110.62
241.662	116.62
241.896	123.62
242.13	111.62
242.363	104.62
242.597	113.62
242.83	100.62
243.064	103.62
243.298	123.62
243.531	122.62
243.765	124.62
243.998	126.62
244.232	116.62
244.465	123.62
244.699	134.62
244.932	119.62
245.166	128.62
245.399	124.62
245.633	119.62
245.866	111.62
246.099	122.62
246.333	114.62
246.566	115.62
246.8	122.62
247.033	119.62
247.266	130.62
247.5	123.62
247.733	116.62
247.966	146.62
248.2	139.62
248.433	150.62
248.666	132.62
248.899	130.62
249.133	127.62
249.366	167.62
249.599	146.62
249.832	150.62
250.066	139.62
250.299	150.62
250.532	157.62
250.765	137.62
250.998	163.62
251.231	163.62
251.465	154.62
251.698	148.62
251.931	158.62
252.164	152.62
252.397	138.62
252.63	158.62
252.863	156.62
253.096	155.62
253.329	148.62
253.562	146.62
253.795	164.62
254.028	160.62
254.261	148.62
254.494	162.62
254.727	162.62
254.96	178.62
255.193	163.62
255.426	150.62
255.659	153.62
255.892	163.62
256.124	169.62
256.357	158.62
256.59	156.62
256.823	147.62
257.056	168.62
257.289	146.62
257.521	165.62
257.754	157.62
257.987	165.62
258.22	159.62
258.452	154.62
258.685	156.62
258.918	162.62
259.151	161.62
259.383	172.62
259.616	154.62
259.849	165.62
260.081	174.62
260.314	180.62
260.547	174.62
260.779	188.62
261.012	168.62
261.244	176.62
261.477	170.62
261.71	178.62
261.942	171.62
262.175	192.62
262.407	171.62
262.64	168.62
262.872	173.62
263.105	158.62
263.337	146.62
263.57	153.62
263.802	174.62
264.035	164.62
264.267	167.62
264.499	153.62
264.732	169.62
264.964	172.62
265.197	173.62
265.429	171.62
265.661	158.62
265.894	176.62
266.126	190.62
266.358	167.62
266.591	179.62
266.823	171.62
267.055	164.62
267.287	171.62
267.52	172.62
267.752	191.62
267.984	190.62
268.216	177.62
268.448	183.62
268.681	174.62
268.913	158.62
269.145	185.62
269.377	209.62
269.609	193.62
269.841	201.62
270.073	197.62
270.306	209.62
270.538	205.62
270.77	187.62
271.002	208.62
271.234	191.62
271.466	220.62
271.698	214.62
271.93	204.62
272.162	212.62
272.394	215.62
272.626	207.62
272.858	194.62
273.09	198.62
273.322	192.62
273.553	201.62
273.785	199.62
274.017	194.62
274.249	201.62
274.481	186.62
274.713	206.62
274.945	196.62
275.176	194.62
275.408	196.62
275.64	207.62
275.872	197.62
276.104	205.62
276.335	186.62
276.567	208.62
276.799	211.62
277.031	223.62
277.262	216.62
277.494	210.62
277.726	209.62
277.957	204.62
278.189	218.62
278.421	223.62
278.652	208.62
278.884	207.62
279.115	217.62
279.347	213.62
279.579	216.62
279.81	212.62
280.042	214.62
280.273	222.62
280.505	211.62
280.736	227.62
280.968	223.62
281.199	212.62
281.431	230.62
281.662	209.62
281.894	212.62
282.125	212.62
282.356	231.62
282.588	228.62
282.819	234.62
283.051	222.62
283.282	214.62
283.513	235.62
283.745	216.62
283.976	225.62
284.207	226.62
284.439	219.62
284.67	248.62
284.901	209.62
285.132	208.62
285.364	226.62
285.595	212.62
285.826	220.62
286.057	223.62
286.288	219.62
286.52	215.62
286.751	213.62
286.982	208.62
287.213	230.62
287.444	226.62
287.675	217.62
287.906	246.62
288.138	249.62
288.369	239.62
288.6	231.62
288.831	235.62
289.062	230.62
289.293	222.62
289.524	222.62
289.755	212.62
289.986	224.62
290.217	243.62
290.448	217.62
290.679	226.62
290.91	212.62
291.141	227.62
291.371	230.62
291.602	233.62
291.833	226.62
292.064	242.62
292.295	229.62
292.526	227.62
292.757	244.62
292.987	234.62
293.218	219.62
293.449	220.62
293.68	226.62
293.91	201.62
294.141	229.62
294.372	218.62
294.603	232.62
294.833	226.62
295.064	235.62
295.295	235.62
295.525	232.62
295.756	264.62
295.987	239.62
296.217	243.62
296.448	263.62
296.679	249.62
296.909	236.62
297.14	225.62
297.37	241.62
297.601	231.62
297.831	234.62
298.062	238.62
298.292	247.62
298.523	240.62
298.753	244.62
298.984	235.62
299.214	249.62
299.445	242.62
299.675	263.62
299.905	262.62
300.136	231.62
300.366	247.62
300.597	254.62
300.827	242.62
301.057	257.62
301.288	284.62
301.518	252.62
301.748	267.62
301.979	261.62
302.209	259.62
302.439	271.62
302.669	264.62
302.9	238.62
303.13	258.62
303.36	248.62
303.59	270.62
303.82	271.62
304.051	280.62
304.281	255.62
304.511	271.62
304.741	254.62
304.971	262.62
305.201	274.62
305.431	268.62
305.661	260.62
305.891	275.62
306.121	264.62
306.352	265.62
306.582	259.62
306.812	265.62
307.042	254.62
307.272	278.62
307.502	262.62
307.731	252.62
307.961	251.62
308.191	280.62
308.421	265.62
308.651	260.62
308.881	265.62
309.111	280.62
309.341	267.62
309.571	272.62
309.8	260.62
310.03	277.62
310.26	278.62
310.49	287.62
310.72	287.62
310.949	300.62
311.179	283.62
311.409	274.62
311.639	286.62
311.868	284.62
312.098	265.62
312.328	282.62
312.557	294.62
312.787	309.62
313.017	293.62
313.246	276.62
313.476	285.62
313.706	274.62
313.935	298.62
314.165	285.62
314.394	303.62
314.624	281.62
314.853	280.62
315.083	288.62
315.312	288.62
315.542	278.62
315.771	290.62
316.001	285.62
316.23	283.62
316.46	283.62
316.689	282.62
316.919	287.62
317.148	285.62
317.377	288.62
317.607	295.62
317.836	306.62
318.065	300.62
318.295	286.62
318.524	288.62
318.753	276.62
318.983	305.62
319.212	294.62
319.441	285.62
319.67	275.62
319.9	280.62
320.129	279.62
320.358	288.62
320.587	292.62
320.816	284.62
321.046	306.62
321.275	299.62
321.504	280.62
321.733	302.62
321.962	304.62
322.191	319.62
322.42	296.62
322.649	292.62
322.878	327.62
323.108	344.62
323.337	348.62
323.566	343.62
323.795	349.62
324.024	382.62
324.253	449.62
324.482	607.62
324.71	895.62
324.939	1216.62
325.168	1002.62
325.397	514.62
325.626	391.62
325.855	355.62
326.084	329.62
326.313	340.62
326.542	342.62
326.77	382.62
326.999	412.62
327.228	584.62
327.457	816.62
327.686	895.62
327.914	597.62
328.143	456.62
328.372	395.62
328.6	374.62
328.829	375.62
329.058	366.62
329.287	366.62
329.515	360.62
329.744	344.62
329.972	346.62
330.201	354.62
330.43	376.62
330.658	385.62
330.887	393.62
331.115	346.62
331.344	352.62
331.572	345.62
331.801	337.62
332.03	350.62
332.258	336.62
332.486	319.62
332.715	321.62
332.943	343.62
333.172	346.62
333.4	342.62
333.629	341.62
333.857	366.62
334.085	363.62
334.314	376.62
334.542	386.62
334.771	390.62
334.999	363.62
335.227	334.62
335.455	330.62
335.684	331.62
335.912	342.62
336.14	327.62
336.369	339.62
336.597	338.62
336.825	362.62
337.053	329.62
337.281	336.62
337.51	327.62
337.738	331.62
337.966	342.62
338.194	324.62
338.422	359.62
338.65	334.62
338.878	338.62
339.106	327.62
339.334	327.62
339.562	323.62
339.79	331.62
340.018	333.62
340.246	307.62
340.474	314.62
340.702	322.62
340.93	320.62
341.158	309.62
341.386	314.62
341.614	331.62
341.842	306.62
342.07	318.62
342.298	332.62
342.526	318.62
342.754	318.62
342.981	318.62
343.209	312.62
343.437	341.62
343.665	339.62
343.893	323.62
344.12	343.62
344.348	323.62
344.576	318.62
344.804	329.62
345.031	312.62
345.259	310.62
345.487	327.62
345.714	316.62
345.942	329.62
346.17	315.62
346.397	315.62
346.625	314.62
346.853	314.62
347.08	292.62
347.308	318.62
347.535	308.62
347.763	309.62
347.99	307.62
348.218	322.62
348.445	280.62
348.673	315.62
348.9	287.62
349.128	310.62
349.355	308.62
349.583	296.62
349.81	290.62
350.037	302.62
350.265	299.62
350.492	296.62
350.72	294.62
350.947	291.62
351.174	300.62
351.402	314.62
351.629	289.62
351.856	292.62
352.083	311.62
352.311	296.62
352.538	287.62
352.765	290.62
352.992	293.62
353.22	302.62
353.447	300.62
353.674	292.62
353.901	294.62
354.128	294.62
354.355	282.62
354.583	314.62
354.81	292.62
355.037	296.62
355.264	287.62
355.491	295.62
355.718	287.62
355.945	283.62
356.172	293.62
356.399	291.62
356.626	283.62
356.853	282.62
357.08	292.62
357.307	291.62
357.534	277.62
357.761	279.62
357.988	291.62
358.215	296.62
358.441	297.62
358.668	289.62
358.895	275.62
359.122	279.62
359.349	290.62
359.576	299.62
359.802	303.62
360.029	300.62
360.256	330.62
360.483	314.62
360.709	316.62
360.936	299.62
361.163	286.62
361.39	290.62
361.616	314.62
361.843	286.62
362.07	290.62
362.296	296.62
362.523	297.62
362.749	288.62
362.976	294.62
363.203	278.62
363.429	276.62
363.656	302.62
363.882	284.62
364.109	279.62
364.335	278.62
364.562	288.62
364.788	293.62
365.015	309.62
365.241	286.62
365.468	289.62
365.694	288.62
365.92	283.62
366.147	287.62
366.373	283.62
366.599	269.62
366.826	277.62
367.052	290.62
367.278	303.62
367.505	295.62
367.731	293.62
367.957	286.62
368.184	284.62
368.41	293.62
368.636	296.62
368.862	290.62
369.089	283.62
369.315	278.62
369.541	288.62
369.767	272.62
369.993	294.62
370.219	282.62
370.445	280.62
370.672	287.62
370.898	303.62
371.124	279.62
371.35	303.62
371.576	291.62
371.802	291.62
372.028	277.62
372.254	287.62
372.48	295.62
372.706	284.62
372.932	288.62
373.158	287.62
373.384	285.62
373.61	302.62
373.835	287.62
374.061	276.62
374.287	290.62
374.513	295.62
374.739	320.62
374.965	282.62
375.191	290.62
375.416	304.62
375.642	300.62
375.868	283.62
376.094	306.62
376.319	290.62
376.545	290.62
376.771	271.62
376.997	305.62
377.222	277.62
377.448	292.62
377.674	290.62
377.899	276.62
378.125	282.62
378.35	295.62
378.576	293.62
378.802	283.62
379.027	284.62
379.253	294.62
379.478	287.62
379.704	302.62
379.929	288.62
380.155	280.62
380.38	291.62
380.606	290.62
380.831	324.62
381.057	300.62
381.282	295.62
381.507	297.62
381.733	298.62
381.958	299.62
382.184	274.62
382.409	294.62
382.634	291.62
382.86	312.62
383.085	308.62
383.31	319.62
383.535	299.62
383.761	294.62
383.986	310.62
384.211	297.62
384.436	311.62
384.662	314.62
384.887	306.62
385.112	321.62
385.337	327.62
385.562	327.62
385.787	332.62
386.013	309.62
386.238	319.62
386.463	333.62
386.688	324.62
386.913	332.62
387.138	320.62
387.363	295.62
387.588	311.62
387.813	306.62
388.038	323.62
388.263	315.62
388.488	314.62
388.713	309.62
388.938	307.62
389.163	314.62
389.387	308.62
389.612	308.62
389.837	309.62
390.062	300.62
390.287	327.62
390.512	306.62
390.736	294.62
390.961	299.62
391.186	324.62
391.411	299.62
391.636	297.62
391.86	318.62
392.085	305.62
392.31	308.62
392.534	319.62
392.759	323.62
392.984	297.62
393.208	332.62
393.433	353.62
393.658	361.62
393.882	314.62
394.107	312.62
394.331	318.62
394.556	317.62
394.78	305.62
395.005	309.62
395.229	323.62
395.454	321.62
395.678	318.62
395.903	320.62
396.127	350.62
396.352	335.62
396.576	315.62
396.801	339.62
397.025	318.62
397.249	336.62
397.474	345.62
397.698	331.62
397.922	343.62
398.147	325.62
398.371	351.62
398.595	350.62
398.82	362.62
399.044	347.62
399.268	341.62
399.492	383.62
399.717	393.62
399.941	408.62
400.165	415.62
400.389	417.62
400.613	402.62
400.837	368.62
401.062	368.62
401.286	354.62
401.51	364.62
401.734	336.62
401.958	353.62
402.182	354.62
402.406	340.62
402.63	347.62
402.854	343.62
403.078	336.62
403.302	363.62
403.526	359.62
403.75	354.62
403.974	350.62
404.198	350.62
404.422	353.62
404.645	368.62
404.869	356.62
405.093	378.62
405.317	384.62
405.541	412.62
405.765	388.62
405.988	357.62
406.212	365.62
406.436	368.62
406.66	377.62
406.883	372.62
407.107	409.62
407.331	413.62
407.555	426.62
407.778	464.62
408.002	402.62
408.226	386.62
408.449	378.62
408.673	394.62
408.896	384.62
409.12	409.62
409.344	397.62
409.567	353.62
409.791	380.62
410.014	360.62
410.238	351.62
410.461	344.62
410.685	353.62
410.908	375.62
411.132	374.62
411.355	378.62
411.578	390.62
411.802	370.62
412.025	325.62
412.249	353.62
412.472	367.62
412.695	379.62
412.919	380.62
413.142	349.62
413.365	341.62
413.589	323.62
413.812	335.62
414.035	327.62
414.258	344.62
414.482	332.62
414.705	328.62
414.928	335.62
415.151	331.62
415.374	351.62
415.597	342.62
415.821	345.62
416.044	330.62
416.267	329.62
416.49	304.62
416.713	333.62
416.936	327.62
417.159	318.62
417.382	336.62
417.605	330.62
417.828	345.62
418.051	331.62
418.274	317.62
418.497	321.62
418.72	328.62
418.943	323.62
419.166	340.62
419.389	363.62
419.611	357.62
419.834	350.62
420.057	330.62
420.28	337.62
420.503	332.62
420.726	330.62
420.948	314.62
421.171	358.62
421.394	369.62
421.617	332.62
421.839	322.62
422.062	347.62
422.285	341.62
422.507	344.62
422.73	394.62
422.953	385.62
423.175	341.62
423.398	342.62
423.621	337.62
423.843	378.62
424.066	359.62
424.288	366.62
424.511	359.62
424.733	386.62
424.956	396.62
425.178	420.62
425.401	407.62
425.623	395.62
425.846	376.62
426.068	323.62
426.291	336.62
426.513	342.62
426.735	344.62
426.958	359.62
427.18	412.62
427.402	461.62
427.625	518.62
427.847	421.62
428.069	401.62
428.292	359.62
428.514	349.62
428.736	349.62
428.958	338.62
429.181	306.62
429.403	341.62
429.625	324.62
429.847	324.62
430.069	371.62
430.292	368.62
430.514	326.62
430.736	322.62
430.958	320.62
431.18	316.62
431.402	298.62
431.624	318.62
431.846	309.62
432.068	331.62
432.29	316.62
432.512	313.62
432.734	325.62
432.956	299.62
433.178	322.62
433.4	312.62
433.622	322.62
433.844	324.62
434.066	332.62
434.287	323.62
434.509	318.62
434.731	333.62
434.953	324.62
435.175	337.62
435.397	344.62
435.618	335.62
435.84	380.62
436.062	393.62
436.284	442.62
436.505	367.62
436.727	335.62
436.949	335.62
437.17	314.62
437.392	345.62
437.614	307.62
437.835	350.62
438.057	368.62
438.278	434.62
438.5	425.62
438.721	469.62
438.943	450.62
439.165	372.62
439.386	346.62
439.608	328.62
439.829	347.62
440.05	348.62
440.272	373.62
440.493	354.62
440.715	332.62
440.936	358.62
441.158	335.62
441.379	314.62
441.6	328.62
441.822	352.62
442.043	351.62
442.264	391.62
442.486	419.62
442.707	369.62
442.928	348.62
443.149	342.62
443.371	350.62
443.592	363.62
443.813	398.62
444.034	428.62
444.255	371.62
444.476	354.62
444.698	355.62
444.919	350.62
445.14	487.62
445.361	414.62
445.582	366.62
445.803	390.62
446.024	435.62
446.245	443.62
446.466	412.62
446.687	366.62
446.908	329.62
447.129	322.62
447.35	321.62
447.571	327.62
447.792	328.62
448.013	312.62
448.234	322.62
448.455	343.62
448.675	406.62
448.896	446.62
449.117	384.62
449.338	375.62
449.559	446.62
449.779	486.62
450	393.62
450.221	330.62
450.442	314.62
450.662	304.62
450.883	303.62
451.104	298.62
451.324	312.62
451.545	306.62
451.766	301.62
451.986	285.62
452.207	285.62
452.428	275.62
452.648	289.62
452.869	291.62
453.089	298.62
453.31	299.62
453.53	302.62
453.751	312.62
453.971	304.62
454.192	277.62
454.412	278.62
454.633	297.62
454.853	302.62
455.073	293.62
455.294	294.62
455.514	345.62
455.734	327.62
455.955	298.62
456.175	270.62
456.395	268.62
456.616	288.62
456.836	291.62
457.056	278.62
457.276	283.62
457.497	263.62
457.717	276.62
457.937	277.62
458.157	278.62
458.377	266.62
458.598	292.62
458.818	320.62
459.038	344.62
459.258	356.62
459.478	326.62
459.698	297.62
459.918	300.62
460.138	326.62
460.358	328.62
460.578	317.62
460.798	322.62
461.018	308.62
461.238	305.62
461.458	330.62
461.678	325.62
461.898	317.62
462.118	338.62
462.338	327.62
462.558	326.62
462.777	339.62
462.997	348.62
463.217	356.62
463.437	359.62
463.657	363.62
463.876	354.62
464.096	349.62
464.316	348.62
464.536	342.62
464.755	320.62
464.975	354.62
465.195	372.62
465.414	391.62
465.634	336.62
465.854	320.62
466.073	326.62
466.293	306.62
466.512	310.62
466.732	321.62
466.951	296.62
467.171	313.62
467.391	310.62
467.61	309.62
467.829	307.62
468.049	306.62
468.268	308.62
468.488	314.62
468.707	293.62
468.927	295.62
469.146	296.62
469.365	303.62
469.585	294.62
469.804	307.62
470.023	291.62
470.243	305.62
470.462	312.62
470.681	315.62
470.901	309.62
471.12	297.62
471.339	311.62
471.558	304.62
471.777	321.62
471.997	318.62
472.216	319.62
472.435	334.62
472.654	327.62
472.873	305.62
473.092	291.62
473.311	307.62
473.53	306.62
473.749	314.62
473.968	331.62
474.187	357.62
474.406	362.62
474.625	313.62
474.844	314.62
475.063	322.62
475.282	300.62
475.501	311.62
475.72	313.62
475.939	318.62
476.158	318.62
476.377	317.62
476.596	310.62
476.814	310.62
477.033	324.62
477.252	334.62
477.471	313.62
477.69	331.62
477.908	344.62
478.127	329.62
478.346	320.62
478.564	351.62
478.783	343.62
479.002	353.62
479.22	351.62
479.439	346.62
479.658	354.62
479.876	347.62
480.095	370.62
480.313	386.62
480.532	383.62
480.751	378.62
480.969	378.62
481.188	411.62
481.406	416.62
481.624	376.62
481.843	354.62
482.061	340.62
482.28	328.62
482.498	352.62
482.717	352.62
482.935	353.62
483.153	353.62
483.372	343.62
483.59	340.62
483.808	362.62
484.027	351.62
484.245	351.62
484.463	367.62
484.681	383.62
484.9	358.62
485.118	356.62
485.336	352.62
485.554	352.62
485.772	358.62
485.99	370.62
486.209	392.62
486.427	374.62
486.645	396.62
486.863	375.62
487.081	370.62
487.299	383.62
487.517	366.62
487.735	378.62
487.953	388.62
488.171	379.62
488.389	364.62
488.607	376.62
488.825	355.62
489.043	372.62
489.261	378.62
489.479	388.62
489.696	377.62
489.914	369.62
490.132	387.62
490.35	382.62
490.568	371.62
490.786	402.62
491.003	400.62
491.221	408.62
491.439	377.62
491.657	402.62
491.874	410.62
492.092	384.62
492.31	397.62
492.527	401.62
492.745	393.62
492.963	393.62
493.18	386.62
493.398	390.62
493.615	399.62
493.833	412.62
494.05	420.62
494.268	390.62
494.485	413.62
494.703	400.62
494.92	411.62
495.138	404.62
495.355	415.62
495.573	417.62
495.79	433.62
496.008	420.62
496.225	418.62
496.442	419.62
496.66	419.62
496.877	399.62
497.094	428.62
497.312	427.62
497.529	438.62
497.746	442.62
497.963	454.62
498.181	450.62
498.398	468.62
498.615	479.62
498.832	474.62
499.049	501.62
499.267	520.62
499.484	519.62
499.701	544.62
499.918	570.62
500.135	584.62
500.352	625.62
500.569	638.62
500.786	639.62
501.003	588.62
501.22	584.62
501.437	562.62
501.654	562.62
501.871	533.62
502.088	534.62
502.305	513.62
