Data from 1961.PennyLincolnUp.Lamp.En5.5.200Scan.071719.P1._HRD10591_13-46-47-058.txt Node
Date: Thu Jul 18 13:46:47 EDT 2019
User: cochatt
Spectrometer: HR+D1059
Trigger mode: 1
Integration Time (sec): 1.000000E-1
Scans to average: 1
Electric dark correction enabled: true
Nonlinearity correction enabled: false
Boxcar width: 0
XAxis mode: Wavelengths
Number of Pixels in Spectrum: 2048
>>>>>Begin Spectral Data<<<<<
223.165	-8.56
223.4	-8.56
223.635	-8.56
223.869	-19.56
224.104	-12.56
224.338	-15.56
224.573	-21.56
224.808	-11.56
225.042	-13.56
225.277	-15.56
225.511	0.44
225.746	14.44
225.98	7.44
226.215	14.44
226.449	10.44
226.683	17.44
226.918	25.44
227.152	28.44
227.387	26.44
227.621	44.44
227.856	40.44
228.09	50.44
228.324	61.44
228.559	51.44
228.793	63.44
229.027	84.44
229.262	83.44
229.496	100.44
229.73	115.44
229.964	131.44
230.199	117.44
230.433	107.44
230.667	106.44
230.901	98.44
231.136	82.44
231.37	96.44
231.604	99.44
231.838	106.44
232.072	101.44
232.306	93.44
232.541	118.44
232.775	109.44
233.009	104.44
233.243	109.44
233.477	109.44
233.711	109.44
233.945	105.44
234.179	102.44
234.413	106.44
234.647	109.44
234.881	107.44
235.115	113.44
235.349	107.44
235.583	119.44
235.817	111.44
236.051	107.44
236.285	104.44
236.519	112.44
236.753	120.44
236.987	138.44
237.221	157.44
237.455	183.44
237.689	157.44
237.922	121.44
238.156	124.44
238.39	112.44
238.624	112.44
238.858	96.44
239.091	107.44
239.325	110.44
239.559	108.44
239.793	117.44
240.027	114.44
240.26	121.44
240.494	126.44
240.728	121.44
240.961	125.44
241.195	119.44
241.429	123.44
241.662	116.44
241.896	104.44
242.13	114.44
242.363	119.44
242.597	119.44
242.83	105.44
243.064	139.44
243.298	129.44
243.531	121.44
243.765	123.44
243.998	123.44
244.232	109.44
244.465	124.44
244.699	131.44
244.932	129.44
245.166	133.44
245.399	119.44
245.633	123.44
245.866	105.44
246.099	127.44
246.333	121.44
246.566	131.44
246.8	127.44
247.033	145.44
247.266	129.44
247.5	125.44
247.733	127.44
247.966	138.44
248.2	128.44
248.433	136.44
248.666	148.44
248.899	146.44
249.133	164.44
249.366	175.44
249.599	156.44
249.832	147.44
250.066	136.44
250.299	165.44
250.532	155.44
250.765	164.44
250.998	172.44
251.231	185.44
251.465	177.44
251.698	180.44
251.931	152.44
252.164	158.44
252.397	168.44
252.63	155.44
252.863	156.44
253.096	167.44
253.329	188.44
253.562	169.44
253.795	171.44
254.028	176.44
254.261	180.44
254.494	183.44
254.727	209.44
254.96	205.44
255.193	198.44
255.426	198.44
255.659	182.44
255.892	193.44
256.124	202.44
256.357	179.44
256.59	180.44
256.823	150.44
257.056	154.44
257.289	161.44
257.521	173.44
257.754	176.44
257.987	172.44
258.22	164.44
258.452	167.44
258.685	165.44
258.918	167.44
259.151	165.44
259.383	164.44
259.616	169.44
259.849	180.44
260.081	171.44
260.314	204.44
260.547	193.44
260.779	188.44
261.012	175.44
261.244	181.44
261.477	186.44
261.71	189.44
261.942	163.44
262.175	184.44
262.407	187.44
262.64	151.44
262.872	161.44
263.105	181.44
263.337	171.44
263.57	166.44
263.802	177.44
264.035	162.44
264.267	159.44
264.499	168.44
264.732	155.44
264.964	162.44
265.197	169.44
265.429	175.44
265.661	168.44
265.894	170.44
266.126	167.44
266.358	173.44
266.591	157.44
266.823	185.44
267.055	175.44
267.287	186.44
267.52	178.44
267.752	182.44
267.984	163.44
268.216	165.44
268.448	173.44
268.681	186.44
268.913	180.44
269.145	185.44
269.377	213.44
269.609	217.44
269.841	216.44
270.073	217.44
270.306	219.44
270.538	233.44
270.77	215.44
271.002	229.44
271.234	227.44
271.466	226.44
271.698	232.44
271.93	231.44
272.162	227.44
272.394	245.44
272.626	231.44
272.858	201.44
273.09	193.44
273.322	204.44
273.553	211.44
273.785	197.44
274.017	199.44
274.249	187.44
274.481	194.44
274.713	215.44
274.945	208.44
275.176	193.44
275.408	215.44
275.64	212.44
275.872	209.44
276.104	197.44
276.335	202.44
276.567	215.44
276.799	214.44
277.031	235.44
277.262	246.44
277.494	240.44
277.726	216.44
277.957	223.44
278.189	207.44
278.421	190.44
278.652	210.44
278.884	214.44
279.115	186.44
279.347	198.44
279.579	185.44
279.81	198.44
280.042	210.44
280.273	202.44
280.505	214.44
280.736	204.44
280.968	199.44
281.199	219.44
281.431	212.44
281.662	228.44
281.894	212.44
282.125	216.44
282.356	229.44
282.588	226.44
282.819	232.44
283.051	209.44
283.282	198.44
283.513	206.44
283.745	193.44
283.976	224.44
284.207	212.44
284.439	219.44
284.67	218.44
284.901	199.44
285.132	223.44
285.364	213.44
285.595	209.44
285.826	215.44
286.057	209.44
286.288	193.44
286.52	184.44
286.751	223.44
286.982	201.44
287.213	195.44
287.444	218.44
287.675	213.44
287.906	227.44
288.138	215.44
288.369	219.44
288.6	234.44
288.831	208.44
289.062	230.44
289.293	223.44
289.524	218.44
289.755	212.44
289.986	215.44
290.217	219.44
290.448	219.44
290.679	208.44
290.91	206.44
291.141	214.44
291.371	231.44
291.602	212.44
291.833	231.44
292.064	205.44
292.295	219.44
292.526	216.44
292.757	212.44
292.987	210.44
293.218	211.44
293.449	226.44
293.68	210.44
293.91	216.44
294.141	223.44
294.372	214.44
294.603	210.44
294.833	229.44
295.064	220.44
295.295	211.44
295.525	223.44
295.756	220.44
295.987	219.44
296.217	244.44
296.448	262.44
296.679	224.44
296.909	207.44
297.14	226.44
297.37	223.44
297.601	220.44
297.831	223.44
298.062	219.44
298.292	230.44
298.523	227.44
298.753	242.44
298.984	239.44
299.214	230.44
299.445	221.44
299.675	234.44
299.905	227.44
300.136	220.44
300.366	226.44
300.597	237.44
300.827	225.44
301.057	243.44
301.288	247.44
301.518	226.44
301.748	236.44
301.979	269.44
302.209	242.44
302.439	249.44
302.669	263.44
302.9	219.44
303.13	246.44
303.36	242.44
303.59	223.44
303.82	268.44
304.051	268.44
304.281	248.44
304.511	237.44
304.741	233.44
304.971	248.44
305.201	230.44
305.431	236.44
305.661	259.44
305.891	265.44
306.121	228.44
306.352	245.44
306.582	257.44
306.812	262.44
307.042	255.44
307.272	238.44
307.502	260.44
307.731	267.44
307.961	257.44
308.191	264.44
308.421	267.44
308.651	259.44
308.881	253.44
309.111	264.44
309.341	254.44
309.571	264.44
309.8	256.44
310.03	287.44
310.26	294.44
310.49	296.44
310.72	300.44
310.949	284.44
311.179	295.44
311.409	299.44
311.639	300.44
311.868	274.44
312.098	295.44
312.328	295.44
312.557	327.44
312.787	313.44
313.017	287.44
313.246	293.44
313.476	291.44
313.706	281.44
313.935	277.44
314.165	290.44
314.394	308.44
314.624	297.44
314.853	286.44
315.083	281.44
315.312	303.44
315.542	269.44
315.771	279.44
316.001	268.44
316.23	276.44
316.46	272.44
316.689	288.44
316.919	298.44
317.148	301.44
317.377	310.44
317.607	298.44
317.836	296.44
318.065	292.44
318.295	279.44
318.524	288.44
318.753	289.44
318.983	293.44
319.212	302.44
319.441	316.44
319.67	313.44
319.9	299.44
320.129	285.44
320.358	275.44
320.587	270.44
320.816	315.44
321.046	298.44
321.275	315.44
321.504	281.44
321.733	287.44
321.962	305.44
322.191	315.44
322.42	328.44
322.649	347.44
322.878	356.44
323.108	351.44
323.337	378.44
323.566	391.44
323.795	413.44
324.024	445.44
324.253	544.44
324.482	823.44
324.71	1245.44
324.939	1733.44
325.168	1430.44
325.397	773.44
325.626	521.44
325.855	426.44
326.084	400.44
326.313	384.44
326.542	407.44
326.77	459.44
326.999	503.44
327.228	721.44
327.457	1082.44
327.686	1285.44
327.914	844.44
328.143	572.44
328.372	508.44
328.6	466.44
328.829	477.44
329.058	434.44
329.287	462.44
329.515	400.44
329.744	409.44
329.972	415.44
330.201	416.44
330.43	427.44
330.658	458.44
330.887	455.44
331.115	454.44
331.344	398.44
331.572	375.44
331.801	365.44
332.03	379.44
332.258	361.44
332.486	334.44
332.715	351.44
332.943	340.44
333.172	342.44
333.4	343.44
333.629	340.44
333.857	345.44
334.085	349.44
334.314	391.44
334.542	415.44
334.771	422.44
334.999	380.44
335.227	333.44
335.455	340.44
335.684	346.44
335.912	338.44
336.14	319.44
336.369	322.44
336.597	352.44
336.825	339.44
337.053	343.44
337.281	333.44
337.51	305.44
337.738	336.44
337.966	340.44
338.194	327.44
338.422	338.44
338.65	324.44
338.878	320.44
339.106	326.44
339.334	309.44
339.562	308.44
339.79	308.44
340.018	307.44
340.246	318.44
340.474	323.44
340.702	329.44
340.93	321.44
341.158	312.44
341.386	318.44
341.614	344.44
341.842	309.44
342.07	313.44
342.298	316.44
342.526	287.44
342.754	311.44
342.981	307.44
343.209	312.44
343.437	309.44
343.665	309.44
343.893	316.44
344.12	319.44
344.348	311.44
344.576	318.44
344.804	320.44
345.031	361.44
345.259	348.44
345.487	339.44
345.714	312.44
345.942	310.44
346.17	314.44
346.397	321.44
346.625	324.44
346.853	324.44
347.08	339.44
347.308	313.44
347.535	308.44
347.763	332.44
347.99	335.44
348.218	306.44
348.445	337.44
348.673	328.44
348.9	339.44
349.128	304.44
349.355	301.44
349.583	294.44
349.81	309.44
350.037	311.44
350.265	303.44
350.492	293.44
350.72	315.44
350.947	316.44
351.174	316.44
351.402	314.44
351.629	323.44
351.856	326.44
352.083	317.44
352.311	315.44
352.538	336.44
352.765	332.44
352.992	316.44
353.22	318.44
353.447	310.44
353.674	327.44
353.901	282.44
354.128	297.44
354.355	292.44
354.583	285.44
354.81	297.44
355.037	296.44
355.264	286.44
355.491	284.44
355.718	288.44
355.945	280.44
356.172	301.44
356.399	304.44
356.626	321.44
356.853	313.44
357.08	290.44
357.307	303.44
357.534	290.44
357.761	308.44
357.988	286.44
358.215	279.44
358.441	285.44
358.668	270.44
358.895	289.44
359.122	306.44
359.349	318.44
359.576	308.44
359.802	331.44
360.029	364.44
360.256	366.44
360.483	353.44
360.709	307.44
360.936	311.44
361.163	316.44
361.39	336.44
361.616	316.44
361.843	310.44
362.07	303.44
362.296	331.44
362.523	321.44
362.749	299.44
362.976	307.44
363.203	304.44
363.429	304.44
363.656	320.44
363.882	307.44
364.109	298.44
364.335	308.44
364.562	313.44
364.788	299.44
365.015	294.44
365.241	316.44
365.468	325.44
365.694	318.44
365.92	307.44
366.147	309.44
366.373	285.44
366.599	289.44
366.826	297.44
367.052	293.44
367.278	294.44
367.505	290.44
367.731	291.44
367.957	299.44
368.184	293.44
368.41	295.44
368.636	310.44
368.862	301.44
369.089	315.44
369.315	303.44
369.541	298.44
369.767	310.44
369.993	304.44
370.219	295.44
370.445	287.44
370.672	296.44
370.898	298.44
371.124	288.44
371.35	311.44
371.576	298.44
371.802	295.44
372.028	292.44
372.254	296.44
372.48	298.44
372.706	273.44
372.932	299.44
373.158	295.44
373.384	315.44
373.61	298.44
373.835	316.44
374.061	320.44
374.287	298.44
374.513	327.44
374.739	312.44
374.965	332.44
375.191	305.44
375.416	287.44
375.642	287.44
375.868	308.44
376.094	305.44
376.319	292.44
376.545	299.44
376.771	315.44
376.997	312.44
377.222	288.44
377.448	294.44
377.674	284.44
377.899	300.44
378.125	300.44
378.35	288.44
378.576	272.44
378.802	295.44
379.027	308.44
379.253	298.44
379.478	287.44
379.704	300.44
379.929	297.44
380.155	319.44
380.38	307.44
380.606	292.44
380.831	305.44
381.057	303.44
381.282	289.44
381.507	305.44
381.733	283.44
381.958	280.44
382.184	301.44
382.409	304.44
382.634	301.44
382.86	317.44
383.085	291.44
383.31	306.44
383.535	318.44
383.761	307.44
383.986	315.44
384.211	316.44
384.436	315.44
384.662	304.44
384.887	305.44
385.112	308.44
385.337	308.44
385.562	326.44
385.787	330.44
386.013	335.44
386.238	331.44
386.463	332.44
386.688	355.44
386.913	331.44
387.138	323.44
387.363	295.44
387.588	305.44
387.813	319.44
388.038	326.44
388.263	313.44
388.488	322.44
388.713	319.44
388.938	334.44
389.163	308.44
389.387	327.44
389.612	298.44
389.837	331.44
390.062	304.44
390.287	300.44
390.512	310.44
390.736	319.44
390.961	337.44
391.186	316.44
391.411	318.44
391.636	338.44
391.86	325.44
392.085	340.44
392.31	318.44
392.534	332.44
392.759	333.44
392.984	324.44
393.208	328.44
393.433	343.44
393.658	336.44
393.882	333.44
394.107	342.44
394.331	328.44
394.556	330.44
394.78	325.44
395.005	335.44
395.229	304.44
395.454	314.44
395.678	326.44
395.903	358.44
396.127	368.44
396.352	350.44
396.576	347.44
396.801	337.44
397.025	329.44
397.249	345.44
397.474	337.44
397.698	334.44
397.922	375.44
398.147	381.44
398.371	377.44
398.595	368.44
398.82	348.44
399.044	383.44
399.268	368.44
399.492	373.44
399.717	397.44
399.941	413.44
400.165	427.44
400.389	457.44
400.613	392.44
400.837	373.44
401.062	371.44
401.286	349.44
401.51	369.44
401.734	367.44
401.958	376.44
402.182	368.44
402.406	374.44
402.63	387.44
402.854	374.44
403.078	377.44
403.302	388.44
403.526	385.44
403.75	379.44
403.974	365.44
404.198	379.44
404.422	393.44
404.645	391.44
404.869	393.44
405.093	419.44
405.317	415.44
405.541	440.44
405.765	419.44
405.988	410.44
406.212	381.44
406.436	423.44
406.66	412.44
406.883	393.44
407.107	433.44
407.331	458.44
407.555	472.44
407.778	490.44
408.002	451.44
408.226	439.44
408.449	436.44
408.673	426.44
408.896	440.44
409.12	450.44
409.344	464.44
409.567	397.44
409.791	391.44
410.014	379.44
410.238	384.44
410.461	383.44
410.685	397.44
410.908	391.44
411.132	425.44
411.355	451.44
411.578	434.44
411.802	387.44
412.025	369.44
412.249	379.44
412.472	404.44
412.695	409.44
412.919	443.44
413.142	404.44
413.365	375.44
413.589	376.44
413.812	380.44
414.035	352.44
414.258	356.44
414.482	345.44
414.705	355.44
414.928	356.44
415.151	372.44
415.374	357.44
415.597	347.44
415.821	344.44
416.044	357.44
416.267	361.44
416.49	350.44
416.713	364.44
416.936	372.44
417.159	371.44
417.382	367.44
417.605	362.44
417.828	375.44
418.051	364.44
418.274	365.44
418.497	372.44
418.72	342.44
418.943	371.44
419.166	388.44
419.389	401.44
419.611	384.44
419.834	390.44
420.057	386.44
420.28	379.44
420.503	368.44
420.726	377.44
420.948	386.44
421.171	414.44
421.394	435.44
421.617	393.44
421.839	374.44
422.062	392.44
422.285	384.44
422.507	447.44
422.73	476.44
422.953	465.44
423.175	407.44
423.398	395.44
423.621	389.44
423.843	399.44
424.066	410.44
424.288	415.44
424.511	423.44
424.733	449.44
424.956	518.44
425.178	492.44
425.401	500.44
425.623	514.44
425.846	435.44
426.068	413.44
426.291	417.44
426.513	411.44
426.735	433.44
426.958	449.44
427.18	509.44
427.402	600.44
427.625	639.44
427.847	595.44
428.069	511.44
428.292	456.44
428.514	408.44
428.736	396.44
428.958	407.44
429.181	387.44
429.403	393.44
429.625	393.44
429.847	426.44
430.069	434.44
430.292	472.44
430.514	408.44
430.736	372.44
430.958	372.44
431.18	362.44
431.402	375.44
431.624	370.44
431.846	357.44
432.068	343.44
432.29	373.44
432.512	359.44
432.734	385.44
432.956	388.44
433.178	398.44
433.4	384.44
433.622	370.44
433.844	360.44
434.066	359.44
434.287	350.44
434.509	353.44
434.731	367.44
434.953	383.44
435.175	406.44
435.397	409.44
435.618	435.44
435.84	447.44
436.062	515.44
436.284	561.44
436.505	460.44
436.727	424.44
436.949	388.44
437.17	376.44
437.392	379.44
437.614	395.44
437.835	437.44
438.057	492.44
438.278	583.44
438.5	557.44
438.721	630.44
438.943	569.44
439.165	476.44
439.386	455.44
439.608	432.44
439.829	415.44
440.05	438.44
440.272	491.44
440.493	459.44
440.715	419.44
440.936	402.44
441.158	408.44
441.379	404.44
441.6	408.44
441.822	446.44
442.043	451.44
442.264	521.44
442.486	537.44
442.707	455.44
442.928	413.44
443.149	435.44
443.371	469.44
443.592	489.44
443.813	532.44
444.034	580.44
444.255	491.44
444.476	426.44
444.698	427.44
444.919	400.44
445.14	548.44
445.361	475.44
445.582	453.44
445.803	497.44
446.024	595.44
446.245	589.44
446.466	540.44
446.687	455.44
446.908	423.44
447.129	412.44
447.35	391.44
447.571	401.44
447.792	397.44
448.013	372.44
448.234	409.44
448.455	444.44
448.675	543.44
448.896	598.44
449.117	528.44
449.338	507.44
449.559	579.44
449.779	628.44
450	519.44
450.221	432.44
450.442	405.44
450.662	395.44
450.883	394.44
451.104	410.44
451.324	387.44
451.545	364.44
451.766	356.44
451.986	359.44
452.207	358.44
452.428	357.44
452.648	347.44
452.869	360.44
453.089	359.44
453.31	355.44
453.53	355.44
453.751	341.44
453.971	357.44
454.192	383.44
454.412	371.44
454.633	364.44
454.853	358.44
455.073	355.44
455.294	381.44
455.514	411.44
455.734	393.44
455.955	356.44
456.175	335.44
456.395	338.44
456.616	315.44
456.836	330.44
457.056	339.44
457.276	337.44
457.497	337.44
457.717	349.44
457.937	348.44
458.157	339.44
458.377	351.44
458.598	375.44
458.818	401.44
459.038	477.44
459.258	482.44
459.478	393.44
459.698	373.44
459.918	371.44
460.138	345.44
460.358	383.44
460.578	377.44
460.798	377.44
461.018	377.44
461.238	361.44
461.458	361.44
461.678	369.44
461.898	361.44
462.118	367.44
462.338	356.44
462.558	370.44
462.777	377.44
462.997	398.44
463.217	371.44
463.437	400.44
463.657	376.44
463.876	375.44
464.096	393.44
464.316	395.44
464.536	384.44
464.755	404.44
464.975	416.44
465.195	440.44
465.414	485.44
465.634	447.44
465.854	407.44
466.073	395.44
466.293	373.44
466.512	364.44
466.732	358.44
466.951	344.44
467.171	374.44
467.391	362.44
467.61	365.44
467.829	357.44
468.049	372.44
468.268	359.44
468.488	364.44
468.707	348.44
468.927	363.44
469.146	351.44
469.365	354.44
469.585	373.44
469.804	351.44
470.023	370.44
470.243	354.44
470.462	367.44
470.681	393.44
470.901	377.44
471.12	387.44
471.339	369.44
471.558	379.44
471.777	363.44
471.997	359.44
472.216	379.44
472.435	396.44
472.654	412.44
472.873	369.44
473.092	372.44
473.311	369.44
473.53	376.44
473.749	357.44
473.968	399.44
474.187	466.44
474.406	499.44
474.625	409.44
474.844	380.44
475.063	384.44
475.282	362.44
475.501	374.44
475.72	372.44
475.939	370.44
476.158	376.44
476.377	373.44
476.596	377.44
476.814	388.44
477.033	403.44
477.252	379.44
477.471	379.44
477.69	379.44
477.908	390.44
478.127	415.44
478.346	416.44
478.564	419.44
478.783	411.44
479.002	394.44
479.22	408.44
479.439	412.44
479.658	417.44
479.876	427.44
480.095	431.44
480.313	461.44
480.532	433.44
480.751	437.44
480.969	437.44
481.188	524.44
481.406	540.44
481.624	491.44
481.843	444.44
482.061	450.44
482.28	439.44
482.498	440.44
482.717	416.44
482.935	440.44
483.153	417.44
483.372	427.44
483.59	433.44
483.808	408.44
484.027	435.44
484.245	432.44
484.463	456.44
484.681	439.44
484.9	451.44
485.118	446.44
485.336	434.44
485.554	438.44
485.772	431.44
485.99	451.44
486.209	446.44
486.427	450.44
486.645	451.44
486.863	467.44
487.081	468.44
487.299	470.44
487.517	453.44
487.735	456.44
487.953	455.44
488.171	480.44
488.389	453.44
488.607	457.44
488.825	472.44
489.043	467.44
489.261	463.44
489.479	491.44
489.696	482.44
489.914	458.44
490.132	476.44
490.35	463.44
490.568	459.44
490.786	500.44
491.003	482.44
491.221	511.44
491.439	503.44
491.657	526.44
491.874	521.44
492.092	507.44
492.31	516.44
492.527	525.44
492.745	517.44
492.963	526.44
493.18	511.44
493.398	527.44
493.615	553.44
493.833	513.44
494.05	527.44
494.268	519.44
494.485	556.44
494.703	524.44
494.92	533.44
495.138	536.44
495.355	524.44
495.573	544.44
495.79	547.44
496.008	546.44
496.225	540.44
496.442	547.44
496.66	542.44
496.877	544.44
497.094	548.44
497.312	538.44
497.529	548.44
497.746	565.44
497.963	578.44
498.181	576.44
498.398	594.44
498.615	581.44
498.832	604.44
499.049	602.44
499.267	607.44
499.484	623.44
499.701	641.44
499.918	653.44
500.135	645.44
500.352	682.44
500.569	713.44
500.786	687.44
501.003	679.44
501.22	656.44
501.437	673.44
501.654	669.44
501.871	692.44
502.088	654.44
