Data from 1961.PennyLincolnUp.Lamp.En5.5.200Scan.071719.P1._HRD10591_13-46-07-057.txt Node
Date: Thu Jul 18 13:46:07 EDT 2019
User: cochatt
Spectrometer: HR+D1059
Trigger mode: 1
Integration Time (sec): 1.000000E-1
Scans to average: 1
Electric dark correction enabled: true
Nonlinearity correction enabled: false
Boxcar width: 0
XAxis mode: Wavelengths
Number of Pixels in Spectrum: 2048
>>>>>Begin Spectral Data<<<<<
223.165	-16.06
223.4	-16.06
223.635	-16.06
223.869	-14.06
224.104	-15.06
224.338	-15.06
224.573	-19.06
224.808	-25.06
225.042	-10.06
225.277	-5.06
225.511	-6.06
225.746	-0.06
225.98	4.94
226.215	17.94
226.449	21.94
226.683	26.94
226.918	23.94
227.152	29.94
227.387	35.94
227.621	36.94
227.856	44.94
228.09	37.94
228.324	49.94
228.559	53.94
228.793	72.94
229.027	77.94
229.262	75.94
229.496	86.94
229.73	96.94
229.964	113.94
230.199	105.94
230.433	83.94
230.667	96.94
230.901	98.94
231.136	96.94
231.37	104.94
231.604	96.94
231.838	100.94
232.072	89.94
232.306	93.94
232.541	112.94
232.775	100.94
233.009	78.94
233.243	103.94
233.477	100.94
233.711	99.94
233.945	91.94
234.179	97.94
234.413	104.94
234.647	107.94
234.881	106.94
235.115	108.94
235.349	85.94
235.583	121.94
235.817	89.94
236.051	106.94
236.285	93.94
236.519	107.94
236.753	112.94
236.987	116.94
237.221	114.94
237.455	147.94
237.689	137.94
237.922	116.94
238.156	114.94
238.39	96.94
238.624	102.94
238.858	112.94
239.091	113.94
239.325	112.94
239.559	92.94
239.793	107.94
240.027	117.94
240.26	119.94
240.494	115.94
240.728	121.94
240.961	115.94
241.195	107.94
241.429	112.94
241.662	111.94
241.896	111.94
242.13	91.94
242.363	103.94
242.597	100.94
242.83	113.94
243.064	121.94
243.298	113.94
243.531	119.94
243.765	121.94
243.998	104.94
244.232	113.94
244.465	120.94
244.699	108.94
244.932	114.94
245.166	98.94
245.399	116.94
245.633	113.94
245.866	122.94
246.099	113.94
246.333	117.94
246.566	108.94
246.8	131.94
247.033	132.94
247.266	119.94
247.5	99.94
247.733	127.94
247.966	144.94
248.2	125.94
248.433	129.94
248.666	129.94
248.899	130.94
249.133	144.94
249.366	147.94
249.599	127.94
249.832	121.94
250.066	135.94
250.299	115.94
250.532	125.94
250.765	129.94
250.998	143.94
251.231	151.94
251.465	144.94
251.698	138.94
251.931	141.94
252.164	141.94
252.397	148.94
252.63	146.94
252.863	154.94
253.096	159.94
253.329	154.94
253.562	156.94
253.795	151.94
254.028	153.94
254.261	152.94
254.494	149.94
254.727	171.94
254.96	168.94
255.193	179.94
255.426	175.94
255.659	154.94
255.892	167.94
256.124	157.94
256.357	161.94
256.59	160.94
256.823	145.94
257.056	166.94
257.289	142.94
257.521	167.94
257.754	148.94
257.987	149.94
258.22	141.94
258.452	153.94
258.685	148.94
258.918	138.94
259.151	163.94
259.383	141.94
259.616	153.94
259.849	159.94
260.081	159.94
260.314	182.94
260.547	170.94
260.779	162.94
261.012	153.94
261.244	138.94
261.477	141.94
261.71	166.94
261.942	170.94
262.175	167.94
262.407	167.94
262.64	143.94
262.872	151.94
263.105	157.94
263.337	153.94
263.57	159.94
263.802	151.94
264.035	149.94
264.267	159.94
264.499	152.94
264.732	149.94
264.964	165.94
265.197	143.94
265.429	163.94
265.661	152.94
265.894	138.94
266.126	140.94
266.358	158.94
266.591	150.94
266.823	154.94
267.055	158.94
267.287	158.94
267.52	164.94
267.752	158.94
267.984	154.94
268.216	143.94
268.448	165.94
268.681	165.94
268.913	168.94
269.145	157.94
269.377	172.94
269.609	197.94
269.841	178.94
270.073	177.94
270.306	165.94
270.538	195.94
270.77	184.94
271.002	183.94
271.234	187.94
271.466	198.94
271.698	185.94
271.93	193.94
272.162	191.94
272.394	188.94
272.626	187.94
272.858	191.94
273.09	181.94
273.322	186.94
273.553	169.94
273.785	172.94
274.017	164.94
274.249	178.94
274.481	195.94
274.713	184.94
274.945	159.94
275.176	169.94
275.408	187.94
275.64	181.94
275.872	183.94
276.104	179.94
276.335	183.94
276.567	175.94
276.799	184.94
277.031	188.94
277.262	173.94
277.494	186.94
277.726	183.94
277.957	200.94
278.189	170.94
278.421	178.94
278.652	189.94
278.884	185.94
279.115	200.94
279.347	193.94
279.579	202.94
279.81	223.94
280.042	188.94
280.273	203.94
280.505	195.94
280.736	185.94
280.968	191.94
281.199	179.94
281.431	168.94
281.662	187.94
281.894	180.94
282.125	192.94
282.356	196.94
282.588	198.94
282.819	203.94
283.051	182.94
283.282	182.94
283.513	193.94
283.745	190.94
283.976	188.94
284.207	186.94
284.439	175.94
284.67	188.94
284.901	192.94
285.132	180.94
285.364	184.94
285.595	181.94
285.826	188.94
286.057	196.94
286.288	196.94
286.52	192.94
286.751	189.94
286.982	196.94
287.213	190.94
287.444	197.94
287.675	192.94
287.906	181.94
288.138	211.94
288.369	211.94
288.6	202.94
288.831	189.94
289.062	194.94
289.293	208.94
289.524	189.94
289.755	194.94
289.986	219.94
290.217	181.94
290.448	188.94
290.679	200.94
290.91	203.94
291.141	197.94
291.371	182.94
291.602	196.94
291.833	194.94
292.064	193.94
292.295	193.94
292.526	199.94
292.757	188.94
292.987	192.94
293.218	182.94
293.449	186.94
293.68	203.94
293.91	203.94
294.141	205.94
294.372	192.94
294.603	175.94
294.833	196.94
295.064	202.94
295.295	205.94
295.525	181.94
295.756	218.94
295.987	203.94
296.217	213.94
296.448	212.94
296.679	204.94
296.909	192.94
297.14	193.94
297.37	200.94
297.601	189.94
297.831	195.94
298.062	216.94
298.292	194.94
298.523	198.94
298.753	216.94
298.984	197.94
299.214	219.94
299.445	199.94
299.675	203.94
299.905	215.94
300.136	202.94
300.366	206.94
300.597	209.94
300.827	216.94
301.057	220.94
301.288	210.94
301.518	203.94
301.748	212.94
301.979	216.94
302.209	220.94
302.439	225.94
302.669	208.94
302.9	201.94
303.13	217.94
303.36	212.94
303.59	213.94
303.82	218.94
304.051	223.94
304.281	213.94
304.511	216.94
304.741	221.94
304.971	212.94
305.201	211.94
305.431	220.94
305.661	213.94
305.891	216.94
306.121	216.94
306.352	215.94
306.582	212.94
306.812	217.94
307.042	224.94
307.272	214.94
307.502	224.94
307.731	227.94
307.961	224.94
308.191	220.94
308.421	232.94
308.651	206.94
308.881	222.94
309.111	203.94
309.341	225.94
309.571	227.94
309.8	225.94
310.03	240.94
310.26	235.94
310.49	239.94
310.72	244.94
310.949	255.94
311.179	233.94
311.409	246.94
311.639	233.94
311.868	252.94
312.098	244.94
312.328	241.94
312.557	247.94
312.787	266.94
313.017	257.94
313.246	254.94
313.476	247.94
313.706	243.94
313.935	260.94
314.165	255.94
314.394	259.94
314.624	260.94
314.853	243.94
315.083	247.94
315.312	240.94
315.542	229.94
315.771	243.94
316.001	257.94
316.23	247.94
316.46	242.94
316.689	247.94
316.919	239.94
317.148	250.94
317.377	259.94
317.607	241.94
317.836	231.94
318.065	229.94
318.295	236.94
318.524	234.94
318.753	251.94
318.983	259.94
319.212	259.94
319.441	254.94
319.67	250.94
319.9	266.94
320.129	260.94
320.358	246.94
320.587	258.94
320.816	260.94
321.046	268.94
321.275	257.94
321.504	265.94
321.733	273.94
321.962	275.94
322.191	264.94
322.42	272.94
322.649	287.94
322.878	272.94
323.108	289.94
323.337	303.94
323.566	313.94
323.795	327.94
324.024	385.94
324.253	438.94
324.482	637.94
324.71	969.94
324.939	1345.94
325.168	1108.94
325.397	578.94
325.626	399.94
325.855	355.94
326.084	337.94
326.313	339.94
326.542	332.94
326.77	357.94
326.999	402.94
327.228	585.94
327.457	856.94
327.686	962.94
327.914	655.94
328.143	441.94
328.372	383.94
328.6	356.94
328.829	361.94
329.058	336.94
329.287	375.94
329.515	348.94
329.744	346.94
329.972	315.94
330.201	340.94
330.43	345.94
330.658	359.94
330.887	362.94
331.115	364.94
331.344	316.94
331.572	319.94
331.801	297.94
332.03	319.94
332.258	287.94
332.486	283.94
332.715	291.94
332.943	290.94
333.172	315.94
333.4	281.94
333.629	315.94
333.857	308.94
334.085	313.94
334.314	315.94
334.542	336.94
334.771	349.94
334.999	308.94
335.227	295.94
335.455	293.94
335.684	290.94
335.912	281.94
336.14	281.94
336.369	309.94
336.597	291.94
336.825	295.94
337.053	281.94
337.281	283.94
337.51	287.94
337.738	292.94
337.966	278.94
338.194	290.94
338.422	305.94
338.65	287.94
338.878	306.94
339.106	269.94
339.334	274.94
339.562	275.94
339.79	282.94
340.018	291.94
340.246	289.94
340.474	277.94
340.702	277.94
340.93	285.94
341.158	275.94
341.386	267.94
341.614	292.94
341.842	283.94
342.07	272.94
342.298	281.94
342.526	264.94
342.754	253.94
342.981	275.94
343.209	253.94
343.437	287.94
343.665	299.94
343.893	287.94
344.12	275.94
344.348	278.94
344.576	272.94
344.804	293.94
345.031	290.94
345.259	284.94
345.487	297.94
345.714	291.94
345.942	283.94
346.17	278.94
346.397	282.94
346.625	267.94
346.853	281.94
347.08	264.94
347.308	257.94
347.535	263.94
347.763	289.94
347.99	291.94
348.218	281.94
348.445	281.94
348.673	296.94
348.9	279.94
349.128	259.94
349.355	271.94
349.583	270.94
349.81	285.94
350.037	269.94
350.265	266.94
350.492	261.94
350.72	273.94
350.947	269.94
351.174	263.94
351.402	290.94
351.629	275.94
351.856	267.94
352.083	273.94
352.311	291.94
352.538	272.94
352.765	275.94
352.992	275.94
353.22	279.94
353.447	265.94
353.674	281.94
353.901	264.94
354.128	272.94
354.355	269.94
354.583	274.94
354.81	248.94
355.037	272.94
355.264	276.94
355.491	257.94
355.718	241.94
355.945	257.94
356.172	235.94
356.399	260.94
356.626	257.94
356.853	260.94
357.08	263.94
357.307	263.94
357.534	275.94
357.761	247.94
357.988	281.94
358.215	278.94
358.441	253.94
358.668	273.94
358.895	266.94
359.122	251.94
359.349	285.94
359.576	276.94
359.802	288.94
360.029	301.94
360.256	301.94
360.483	309.94
360.709	297.94
360.936	296.94
361.163	275.94
361.39	285.94
361.616	286.94
361.843	285.94
362.07	281.94
362.296	278.94
362.523	278.94
362.749	273.94
362.976	272.94
363.203	270.94
363.429	265.94
363.656	257.94
363.882	265.94
364.109	276.94
364.335	286.94
364.562	253.94
364.788	281.94
365.015	287.94
365.241	272.94
365.468	285.94
365.694	278.94
365.92	280.94
366.147	269.94
366.373	263.94
366.599	269.94
366.826	258.94
367.052	256.94
367.278	263.94
367.505	274.94
367.731	272.94
367.957	276.94
368.184	264.94
368.41	285.94
368.636	259.94
368.862	273.94
369.089	280.94
369.315	267.94
369.541	273.94
369.767	283.94
369.993	271.94
370.219	276.94
370.445	270.94
370.672	268.94
370.898	273.94
371.124	277.94
371.35	272.94
371.576	289.94
371.802	273.94
372.028	257.94
372.254	258.94
372.48	270.94
372.706	268.94
372.932	269.94
373.158	275.94
373.384	265.94
373.61	271.94
373.835	295.94
374.061	282.94
374.287	281.94
374.513	263.94
374.739	289.94
374.965	297.94
375.191	265.94
375.416	292.94
375.642	289.94
375.868	283.94
376.094	275.94
376.319	260.94
376.545	274.94
376.771	269.94
376.997	268.94
377.222	270.94
377.448	285.94
377.674	276.94
377.899	275.94
378.125	273.94
378.35	280.94
378.576	268.94
378.802	273.94
379.027	270.94
379.253	275.94
379.478	275.94
379.704	275.94
379.929	280.94
380.155	263.94
380.38	267.94
380.606	267.94
380.831	296.94
381.057	268.94
381.282	276.94
381.507	284.94
381.733	300.94
381.958	280.94
382.184	269.94
382.409	278.94
382.634	295.94
382.86	287.94
383.085	294.94
383.31	292.94
383.535	300.94
383.761	301.94
383.986	294.94
384.211	303.94
384.436	280.94
384.662	303.94
384.887	309.94
385.112	301.94
385.337	306.94
385.562	308.94
385.787	312.94
386.013	326.94
386.238	316.94
386.463	316.94
386.688	314.94
386.913	296.94
387.138	306.94
387.363	302.94
387.588	305.94
387.813	297.94
388.038	322.94
388.263	321.94
388.488	318.94
388.713	303.94
388.938	307.94
389.163	308.94
389.387	303.94
389.612	284.94
389.837	287.94
390.062	307.94
390.287	301.94
390.512	306.94
390.736	294.94
390.961	313.94
391.186	292.94
391.411	297.94
391.636	298.94
391.86	329.94
392.085	298.94
392.31	289.94
392.534	308.94
392.759	294.94
392.984	324.94
393.208	361.94
393.433	371.94
393.658	367.94
393.882	321.94
394.107	307.94
394.331	319.94
394.556	313.94
394.78	311.94
395.005	317.94
395.229	324.94
395.454	310.94
395.678	309.94
395.903	320.94
396.127	323.94
396.352	357.94
396.576	325.94
396.801	346.94
397.025	342.94
397.249	349.94
397.474	332.94
397.698	314.94
397.922	327.94
398.147	331.94
398.371	337.94
398.595	330.94
398.82	324.94
399.044	336.94
399.268	347.94
399.492	369.94
399.717	363.94
399.941	393.94
400.165	411.94
400.389	404.94
400.613	364.94
400.837	360.94
401.062	332.94
401.286	351.94
401.51	329.94
401.734	339.94
401.958	332.94
402.182	335.94
402.406	337.94
402.63	330.94
402.854	367.94
403.078	329.94
403.302	340.94
403.526	343.94
403.75	352.94
403.974	357.94
404.198	348.94
404.422	367.94
404.645	339.94
404.869	376.94
405.093	367.94
405.317	392.94
405.541	396.94
405.765	374.94
405.988	357.94
406.212	371.94
406.436	392.94
406.66	402.94
406.883	389.94
407.107	368.94
407.331	419.94
407.555	451.94
407.778	431.94
408.002	415.94
408.226	379.94
408.449	383.94
408.673	377.94
408.896	393.94
409.12	397.94
409.344	409.94
409.567	380.94
409.791	354.94
410.014	367.94
410.238	369.94
410.461	340.94
410.685	353.94
410.908	365.94
411.132	377.94
411.355	393.94
411.578	380.94
411.802	355.94
412.025	342.94
412.249	367.94
412.472	362.94
412.695	377.94
412.919	375.94
413.142	345.94
413.365	357.94
413.589	362.94
413.812	354.94
414.035	341.94
414.258	344.94
414.482	333.94
414.705	345.94
414.928	338.94
415.151	336.94
415.374	351.94
415.597	336.94
415.821	341.94
416.044	335.94
416.267	332.94
416.49	336.94
416.713	341.94
416.936	332.94
417.159	322.94
417.382	343.94
417.605	339.94
417.828	349.94
418.051	345.94
418.274	343.94
418.497	338.94
418.72	348.94
418.943	317.94
419.166	329.94
419.389	355.94
419.611	338.94
419.834	373.94
420.057	359.94
420.28	346.94
420.503	341.94
420.726	346.94
420.948	363.94
421.171	368.94
421.394	387.94
421.617	365.94
421.839	343.94
422.062	370.94
422.285	343.94
422.507	392.94
422.73	445.94
422.953	411.94
423.175	371.94
423.398	365.94
423.621	361.94
423.843	373.94
424.066	358.94
424.288	355.94
424.511	388.94
424.733	418.94
424.956	436.94
425.178	436.94
425.401	428.94
425.623	460.94
425.846	387.94
426.068	367.94
426.291	374.94
426.513	368.94
426.735	362.94
426.958	391.94
427.18	459.94
427.402	509.94
427.625	571.94
427.847	482.94
428.069	433.94
428.292	404.94
428.514	381.94
428.736	367.94
428.958	359.94
429.181	351.94
429.403	331.94
429.625	368.94
429.847	381.94
430.069	413.94
430.292	429.94
430.514	367.94
430.736	341.94
430.958	329.94
431.18	345.94
431.402	312.94
431.624	342.94
431.846	322.94
432.068	322.94
432.29	355.94
432.512	330.94
432.734	323.94
432.956	328.94
433.178	355.94
433.4	343.94
433.622	349.94
433.844	333.94
434.066	331.94
434.287	337.94
434.509	347.94
434.731	328.94
434.953	352.94
435.175	343.94
435.397	355.94
435.618	353.94
435.84	378.94
436.062	445.94
436.284	464.94
436.505	409.94
436.727	382.94
436.949	365.94
437.17	361.94
437.392	332.94
437.614	347.94
437.835	375.94
438.057	434.94
438.278	499.94
438.5	513.94
438.721	523.94
438.943	533.94
439.165	436.94
439.386	392.94
439.608	363.94
439.829	373.94
440.05	389.94
440.272	396.94
440.493	408.94
440.715	365.94
440.936	353.94
441.158	362.94
441.379	361.94
441.6	374.94
441.822	369.94
442.043	392.94
442.264	452.94
442.486	472.94
442.707	405.94
442.928	378.94
443.149	396.94
443.371	396.94
443.592	403.94
443.813	470.94
444.034	503.94
444.255	428.94
444.476	370.94
444.698	371.94
444.919	385.94
445.14	493.94
445.361	449.94
445.582	389.94
445.803	447.94
446.024	490.94
446.245	502.94
446.466	452.94
446.687	397.94
446.908	372.94
447.129	355.94
447.35	355.94
447.571	339.94
447.792	345.94
448.013	352.94
448.234	366.94
448.455	405.94
448.675	449.94
448.896	542.94
449.117	451.94
449.338	434.94
449.559	499.94
449.779	551.94
450	439.94
450.221	371.94
450.442	358.94
450.662	335.94
450.883	341.94
451.104	350.94
451.324	359.94
451.545	327.94
451.766	319.94
451.986	323.94
452.207	333.94
452.428	312.94
452.648	320.94
452.869	305.94
453.089	292.94
453.31	326.94
453.53	309.94
453.751	327.94
453.971	323.94
454.192	313.94
454.412	316.94
454.633	323.94
454.853	331.94
455.073	310.94
455.294	333.94
455.514	378.94
455.734	361.94
455.955	309.94
456.175	336.94
456.395	307.94
456.616	302.94
456.836	318.94
457.056	323.94
457.276	316.94
457.497	307.94
457.717	298.94
457.937	313.94
458.157	309.94
458.377	322.94
458.598	336.94
458.818	341.94
459.038	391.94
459.258	405.94
459.478	360.94
459.698	335.94
459.918	343.94
460.138	347.94
460.358	343.94
460.578	329.94
460.798	323.94
461.018	350.94
461.238	345.94
461.458	349.94
461.678	338.94
461.898	313.94
462.118	342.94
462.338	355.94
462.558	352.94
462.777	385.94
462.997	349.94
463.217	355.94
463.437	354.94
463.657	370.94
463.876	349.94
464.096	349.94
464.316	358.94
464.536	373.94
464.755	374.94
464.975	362.94
465.195	371.94
465.414	421.94
465.634	386.94
465.854	377.94
466.073	350.94
466.293	327.94
466.512	313.94
466.732	321.94
466.951	337.94
467.171	323.94
467.391	323.94
467.61	321.94
467.829	338.94
468.049	351.94
468.268	329.94
468.488	332.94
468.707	328.94
468.927	311.94
469.146	313.94
469.365	309.94
469.585	344.94
469.804	327.94
470.023	333.94
470.243	354.94
470.462	338.94
470.681	338.94
470.901	351.94
471.12	337.94
471.339	348.94
471.558	331.94
471.777	335.94
471.997	330.94
472.216	345.94
472.435	370.94
472.654	343.94
472.873	339.94
473.092	346.94
473.311	333.94
473.53	331.94
473.749	351.94
473.968	376.94
474.187	423.94
474.406	427.94
474.625	380.94
474.844	329.94
475.063	336.94
475.282	349.94
475.501	325.94
475.72	348.94
475.939	339.94
476.158	343.94
476.377	364.94
476.596	354.94
476.814	363.94
477.033	348.94
477.252	344.94
477.471	374.94
477.69	350.94
477.908	358.94
478.127	348.94
478.346	362.94
478.564	367.94
478.783	370.94
479.002	383.94
479.22	383.94
479.439	385.94
479.658	390.94
479.876	403.94
480.095	386.94
480.313	409.94
480.532	409.94
480.751	415.94
480.969	401.94
481.188	423.94
481.406	446.94
481.624	409.94
481.843	417.94
482.061	401.94
482.28	402.94
482.498	410.94
482.717	392.94
482.935	403.94
483.153	401.94
483.372	401.94
483.59	388.94
483.808	396.94
484.027	387.94
484.245	397.94
484.463	403.94
484.681	415.94
484.9	418.94
485.118	402.94
485.336	401.94
485.554	398.94
485.772	413.94
485.99	416.94
486.209	425.94
486.427	428.94
486.645	431.94
486.863	414.94
487.081	433.94
487.299	452.94
487.517	433.94
487.735	411.94
487.953	412.94
488.171	417.94
488.389	417.94
488.607	431.94
488.825	423.94
489.043	418.94
489.261	430.94
489.479	437.94
489.696	423.94
489.914	415.94
490.132	436.94
490.35	445.94
490.568	440.94
490.786	427.94
491.003	428.94
491.221	470.94
491.439	465.94
491.657	460.94
491.874	460.94
492.092	454.94
492.31	451.94
492.527	468.94
492.745	456.94
492.963	449.94
493.18	467.94
493.398	474.94
493.615	467.94
493.833	465.94
494.05	501.94
494.268	482.94
494.485	480.94
494.703	479.94
494.92	465.94
495.138	491.94
495.355	474.94
495.573	459.94
495.79	492.94
496.008	492.94
496.225	499.94
496.442	477.94
496.66	479.94
496.877	479.94
497.094	492.94
497.312	491.94
497.529	489.94
497.746	525.94
497.963	523.94
498.181	532.94
498.398	523.94
498.615	547.94
498.832	550.94
499.049	529.94
499.267	561.94
499.484	561.94
499.701	589.94
499.918	622.94
500.135	620.94
500.352	649.94
500.569	653.94
500.786	658.94
501.003	642.94
501.22	640.94
501.437	635.94
501.654	628.94
501.871	618.94
502.088	577.94
502.305	583.94
