Data from 1961.PennyLincolnUp.Lamp.En5.5.200Scan.071719.P1._HRD10591_13-48-42-058.txt Node
Date: Thu Jul 18 13:48:42 EDT 2019
User: cochatt
Spectrometer: HR+D1059
Trigger mode: 1
Integration Time (sec): 1.000000E-1
Scans to average: 1
Electric dark correction enabled: true
Nonlinearity correction enabled: false
Boxcar width: 0
XAxis mode: Wavelengths
Number of Pixels in Spectrum: 2048
>>>>>Begin Spectral Data<<<<<
223.165	-17.19
223.4	-17.19
223.635	-17.19
223.869	-17.19
224.104	-19.19
224.338	-19.19
224.573	-5.19
224.808	-8.19
225.042	-11.19
225.277	4.81
225.511	-5.19
225.746	4.81
225.98	5.81
226.215	11.81
226.449	9.81
226.683	24.81
226.918	18.81
227.152	21.81
227.387	37.81
227.621	48.81
227.856	46.81
228.09	43.81
228.324	54.81
228.559	48.81
228.793	61.81
229.027	81.81
229.262	98.81
229.496	110.81
229.73	129.81
229.964	150.81
230.199	112.81
230.433	122.81
230.667	93.81
230.901	110.81
231.136	106.81
231.37	116.81
231.604	108.81
231.838	113.81
232.072	106.81
232.306	96.81
232.541	108.81
232.775	95.81
233.009	108.81
233.243	103.81
233.477	103.81
233.711	100.81
233.945	103.81
234.179	107.81
234.413	108.81
234.647	102.81
234.881	119.81
235.115	99.81
235.349	113.81
235.583	101.81
235.817	115.81
236.051	113.81
236.285	128.81
236.519	116.81
236.753	126.81
236.987	139.81
237.221	174.81
237.455	212.81
237.689	173.81
237.922	138.81
238.156	133.81
238.39	115.81
238.624	120.81
238.858	101.81
239.091	118.81
239.325	99.81
239.559	116.81
239.793	126.81
240.027	131.81
240.26	128.81
240.494	153.81
240.728	128.81
240.961	117.81
241.195	130.81
241.429	132.81
241.662	115.81
241.896	114.81
242.13	122.81
242.363	109.81
242.597	114.81
242.83	118.81
243.064	117.81
243.298	124.81
243.531	130.81
243.765	128.81
243.998	129.81
244.232	126.81
244.465	126.81
244.699	123.81
244.932	131.81
245.166	132.81
245.399	123.81
245.633	114.81
245.866	147.81
246.099	121.81
246.333	128.81
246.566	137.81
246.8	147.81
247.033	142.81
247.266	138.81
247.5	148.81
247.733	151.81
247.966	146.81
248.2	144.81
248.433	154.81
248.666	147.81
248.899	168.81
249.133	187.81
249.366	195.81
249.599	186.81
249.832	174.81
250.066	164.81
250.299	168.81
250.532	161.81
250.765	171.81
250.998	211.81
251.231	192.81
251.465	198.81
251.698	190.81
251.931	164.81
252.164	169.81
252.397	187.81
252.63	197.81
252.863	176.81
253.096	176.81
253.329	212.81
253.562	193.81
253.795	194.81
254.028	192.81
254.261	198.81
254.494	207.81
254.727	209.81
254.96	226.81
255.193	233.81
255.426	207.81
255.659	182.81
255.892	205.81
256.124	200.81
256.357	212.81
256.59	191.81
256.823	182.81
257.056	193.81
257.289	193.81
257.521	188.81
257.754	172.81
257.987	180.81
258.22	191.81
258.452	187.81
258.685	175.81
258.918	179.81
259.151	184.81
259.383	199.81
259.616	186.81
259.849	199.81
260.081	207.81
260.314	204.81
260.547	210.81
260.779	228.81
261.012	212.81
261.244	201.81
261.477	200.81
261.71	179.81
261.942	199.81
262.175	207.81
262.407	192.81
262.64	188.81
262.872	199.81
263.105	192.81
263.337	185.81
263.57	166.81
263.802	178.81
264.035	190.81
264.267	178.81
264.499	177.81
264.732	188.81
264.964	189.81
265.197	180.81
265.429	196.81
265.661	191.81
265.894	185.81
266.126	192.81
266.358	184.81
266.591	177.81
266.823	183.81
267.055	190.81
267.287	182.81
267.52	190.81
267.752	198.81
267.984	194.81
268.216	185.81
268.448	194.81
268.681	193.81
268.913	211.81
269.145	227.81
269.377	231.81
269.609	235.81
269.841	232.81
270.073	232.81
270.306	247.81
270.538	276.81
270.77	271.81
271.002	265.81
271.234	255.81
271.466	259.81
271.698	266.81
271.93	263.81
272.162	268.81
272.394	255.81
272.626	240.81
272.858	241.81
273.09	235.81
273.322	227.81
273.553	215.81
273.785	214.81
274.017	229.81
274.249	235.81
274.481	214.81
274.713	223.81
274.945	219.81
275.176	238.81
275.408	236.81
275.64	219.81
275.872	219.81
276.104	230.81
276.335	225.81
276.567	228.81
276.799	248.81
277.031	262.81
277.262	254.81
277.494	265.81
277.726	269.81
277.957	256.81
278.189	226.81
278.421	225.81
278.652	227.81
278.884	220.81
279.115	226.81
279.347	227.81
279.579	232.81
279.81	200.81
280.042	216.81
280.273	219.81
280.505	214.81
280.736	214.81
280.968	215.81
281.199	223.81
281.431	211.81
281.662	207.81
281.894	223.81
282.125	238.81
282.356	224.81
282.588	262.81
282.819	251.81
283.051	214.81
283.282	220.81
283.513	227.81
283.745	225.81
283.976	230.81
284.207	221.81
284.439	238.81
284.67	234.81
284.901	238.81
285.132	226.81
285.364	219.81
285.595	222.81
285.826	235.81
286.057	224.81
286.288	230.81
286.52	244.81
286.751	238.81
286.982	224.81
287.213	209.81
287.444	217.81
287.675	235.81
287.906	220.81
288.138	246.81
288.369	251.81
288.6	240.81
288.831	252.81
289.062	240.81
289.293	239.81
289.524	229.81
289.755	229.81
289.986	227.81
290.217	232.81
290.448	238.81
290.679	229.81
290.91	227.81
291.141	225.81
291.371	239.81
291.602	231.81
291.833	215.81
292.064	223.81
292.295	238.81
292.526	231.81
292.757	251.81
292.987	229.81
293.218	238.81
293.449	242.81
293.68	227.81
293.91	242.81
294.141	238.81
294.372	231.81
294.603	230.81
294.833	227.81
295.064	219.81
295.295	238.81
295.525	260.81
295.756	246.81
295.987	244.81
296.217	265.81
296.448	289.81
296.679	255.81
296.909	245.81
297.14	233.81
297.37	253.81
297.601	233.81
297.831	237.81
298.062	238.81
298.292	262.81
298.523	251.81
298.753	242.81
298.984	246.81
299.214	246.81
299.445	255.81
299.675	263.81
299.905	255.81
300.136	258.81
300.366	255.81
300.597	264.81
300.827	244.81
301.057	264.81
301.288	270.81
301.518	278.81
301.748	252.81
301.979	260.81
302.209	267.81
302.439	276.81
302.669	267.81
302.9	270.81
303.13	262.81
303.36	265.81
303.59	284.81
303.82	270.81
304.051	285.81
304.281	261.81
304.511	267.81
304.741	266.81
304.971	260.81
305.201	255.81
305.431	245.81
305.661	268.81
305.891	277.81
306.121	263.81
306.352	279.81
306.582	286.81
306.812	281.81
307.042	270.81
307.272	271.81
307.502	286.81
307.731	295.81
307.961	286.81
308.191	271.81
308.421	263.81
308.651	278.81
308.881	268.81
309.111	293.81
309.341	286.81
309.571	298.81
309.8	294.81
310.03	310.81
310.26	318.81
310.49	325.81
310.72	325.81
310.949	352.81
311.179	336.81
311.409	320.81
311.639	318.81
311.868	312.81
312.098	326.81
312.328	349.81
312.557	342.81
312.787	352.81
313.017	354.81
313.246	347.81
313.476	314.81
313.706	322.81
313.935	324.81
314.165	322.81
314.394	343.81
314.624	342.81
314.853	313.81
315.083	331.81
315.312	322.81
315.542	312.81
315.771	308.81
316.001	311.81
316.23	322.81
316.46	323.81
316.689	299.81
316.919	316.81
317.148	331.81
317.377	320.81
317.607	322.81
317.836	334.81
318.065	305.81
318.295	315.81
318.524	313.81
318.753	311.81
318.983	315.81
319.212	323.81
319.441	319.81
319.67	332.81
319.9	325.81
320.129	316.81
320.358	327.81
320.587	336.81
320.816	341.81
321.046	352.81
321.275	331.81
321.504	361.81
321.733	335.81
321.962	368.81
322.191	354.81
322.42	368.81
322.649	404.81
322.878	431.81
323.108	419.81
323.337	439.81
323.566	464.81
323.795	498.81
324.024	560.81
324.253	703.81
324.482	1016.81
324.71	1646.81
324.939	2238.81
325.168	1848.81
325.397	986.81
325.626	658.81
325.855	514.81
326.084	485.81
326.313	497.81
326.542	473.81
326.77	536.81
326.999	650.81
327.228	944.81
327.457	1406.81
327.686	1675.81
327.914	1074.81
328.143	716.81
328.372	595.81
328.6	568.81
328.829	530.81
329.058	533.81
329.287	549.81
329.515	514.81
329.744	483.81
329.972	448.81
330.201	487.81
330.43	528.81
330.658	555.81
330.887	584.81
331.115	564.81
331.344	464.81
331.572	434.81
331.801	416.81
332.03	412.81
332.258	413.81
332.486	384.81
332.715	389.81
332.943	356.81
333.172	386.81
333.4	402.81
333.629	401.81
333.857	380.81
334.085	415.81
334.314	436.81
334.542	479.81
334.771	481.81
334.999	444.81
335.227	395.81
335.455	394.81
335.684	391.81
335.912	374.81
336.14	376.81
336.369	366.81
336.597	367.81
336.825	378.81
337.053	376.81
337.281	361.81
337.51	366.81
337.738	356.81
337.966	374.81
338.194	365.81
338.422	356.81
338.65	366.81
338.878	343.81
339.106	361.81
339.334	361.81
339.562	340.81
339.79	353.81
340.018	365.81
340.246	371.81
340.474	355.81
340.702	369.81
340.93	338.81
341.158	348.81
341.386	350.81
341.614	339.81
341.842	370.81
342.07	354.81
342.298	356.81
342.526	332.81
342.754	362.81
342.981	346.81
343.209	348.81
343.437	348.81
343.665	341.81
343.893	338.81
344.12	366.81
344.348	371.81
344.576	339.81
344.804	360.81
345.031	378.81
345.259	393.81
345.487	355.81
345.714	364.81
345.942	350.81
346.17	344.81
346.397	353.81
346.625	359.81
346.853	348.81
347.08	351.81
347.308	342.81
347.535	351.81
347.763	355.81
347.99	368.81
348.218	356.81
348.445	357.81
348.673	358.81
348.9	338.81
349.128	355.81
349.355	324.81
349.583	335.81
349.81	338.81
350.037	328.81
350.265	314.81
350.492	342.81
350.72	334.81
350.947	355.81
351.174	370.81
351.402	370.81
351.629	363.81
351.856	351.81
352.083	366.81
352.311	383.81
352.538	357.81
352.765	359.81
352.992	356.81
353.22	362.81
353.447	354.81
353.674	336.81
353.901	348.81
354.128	322.81
354.355	325.81
354.583	337.81
354.81	325.81
355.037	312.81
355.264	322.81
355.491	314.81
355.718	296.81
355.945	326.81
356.172	329.81
356.399	312.81
356.626	322.81
356.853	323.81
357.08	327.81
357.307	318.81
357.534	305.81
357.761	316.81
357.988	306.81
358.215	323.81
358.441	326.81
358.668	324.81
358.895	326.81
359.122	328.81
359.349	345.81
359.576	360.81
359.802	366.81
360.029	421.81
360.256	434.81
360.483	384.81
360.709	366.81
360.936	359.81
361.163	354.81
361.39	347.81
361.616	367.81
361.843	340.81
362.07	343.81
362.296	359.81
362.523	349.81
362.749	352.81
362.976	339.81
363.203	336.81
363.429	317.81
363.656	341.81
363.882	325.81
364.109	334.81
364.335	323.81
364.562	339.81
364.788	315.81
365.015	340.81
365.241	329.81
365.468	339.81
365.694	351.81
365.92	338.81
366.147	323.81
366.373	322.81
366.599	315.81
366.826	341.81
367.052	325.81
367.278	311.81
367.505	328.81
367.731	351.81
367.957	334.81
368.184	330.81
368.41	318.81
368.636	352.81
368.862	345.81
369.089	337.81
369.315	343.81
369.541	314.81
369.767	330.81
369.993	313.81
370.219	328.81
370.445	327.81
370.672	333.81
370.898	316.81
371.124	332.81
371.35	333.81
371.576	311.81
371.802	331.81
372.028	324.81
372.254	310.81
372.48	317.81
372.706	309.81
372.932	324.81
373.158	312.81
373.384	315.81
373.61	320.81
373.835	333.81
374.061	310.81
374.287	330.81
374.513	333.81
374.739	331.81
374.965	298.81
375.191	325.81
375.416	324.81
375.642	309.81
375.868	325.81
376.094	315.81
376.319	323.81
376.545	323.81
376.771	314.81
376.997	299.81
377.222	322.81
377.448	322.81
377.674	323.81
377.899	319.81
378.125	291.81
378.35	298.81
378.576	330.81
378.802	315.81
379.027	325.81
379.253	316.81
379.478	309.81
379.704	299.81
379.929	310.81
380.155	330.81
380.38	310.81
380.606	326.81
380.831	310.81
381.057	325.81
381.282	320.81
381.507	318.81
381.733	305.81
381.958	325.81
382.184	327.81
382.409	331.81
382.634	341.81
382.86	314.81
383.085	343.81
383.31	315.81
383.535	330.81
383.761	326.81
383.986	325.81
384.211	342.81
384.436	325.81
384.662	332.81
384.887	325.81
385.112	324.81
385.337	322.81
385.562	325.81
385.787	349.81
386.013	349.81
386.238	366.81
386.463	358.81
386.688	341.81
386.913	350.81
387.138	338.81
387.363	348.81
387.588	351.81
387.813	347.81
388.038	331.81
388.263	332.81
388.488	330.81
388.713	326.81
388.938	326.81
389.163	354.81
389.387	359.81
389.612	350.81
389.837	345.81
390.062	344.81
390.287	329.81
390.512	328.81
390.736	339.81
390.961	336.81
391.186	345.81
391.411	363.81
391.636	358.81
391.86	355.81
392.085	336.81
392.31	353.81
392.534	345.81
392.759	349.81
392.984	348.81
393.208	336.81
393.433	352.81
393.658	327.81
393.882	335.81
394.107	339.81
394.331	343.81
394.556	339.81
394.78	347.81
395.005	344.81
395.229	370.81
395.454	366.81
395.678	353.81
395.903	361.81
396.127	371.81
396.352	389.81
396.576	369.81
396.801	348.81
397.025	365.81
397.249	371.81
397.474	362.81
397.698	365.81
397.922	387.81
398.147	393.81
398.371	390.81
398.595	408.81
398.82	379.81
399.044	379.81
399.268	408.81
399.492	393.81
399.717	415.81
399.941	444.81
400.165	459.81
400.389	486.81
400.613	449.81
400.837	406.81
401.062	392.81
401.286	397.81
401.51	390.81
401.734	387.81
401.958	386.81
402.182	400.81
402.406	418.81
402.63	418.81
402.854	392.81
403.078	394.81
403.302	413.81
403.526	419.81
403.75	403.81
403.974	396.81
404.198	388.81
404.422	397.81
404.645	420.81
404.869	436.81
405.093	458.81
405.317	474.81
405.541	495.81
405.765	461.81
405.988	428.81
406.212	451.81
406.436	465.81
406.66	483.81
406.883	443.81
407.107	471.81
407.331	496.81
407.555	527.81
407.778	563.81
408.002	501.81
408.226	446.81
408.449	471.81
408.673	462.81
408.896	467.81
409.12	503.81
409.344	489.81
409.567	432.81
409.791	416.81
410.014	406.81
410.238	412.81
410.461	415.81
410.685	426.81
410.908	423.81
411.132	450.81
411.355	481.81
411.578	447.81
411.802	427.81
412.025	426.81
412.249	431.81
412.472	438.81
412.695	478.81
412.919	464.81
413.142	431.81
413.365	419.81
413.589	415.81
413.812	403.81
414.035	386.81
414.258	368.81
414.482	368.81
414.705	389.81
414.928	376.81
415.151	378.81
415.374	388.81
415.597	385.81
415.821	385.81
416.044	386.81
416.267	391.81
416.49	396.81
416.713	388.81
416.936	383.81
417.159	402.81
417.382	397.81
417.605	387.81
417.828	398.81
418.051	408.81
418.274	382.81
418.497	398.81
418.72	379.81
418.943	385.81
419.166	388.81
419.389	419.81
419.611	423.81
419.834	423.81
420.057	404.81
420.28	423.81
420.503	403.81
420.726	411.81
420.948	409.81
421.171	455.81
421.394	474.81
421.617	432.81
421.839	419.81
422.062	414.81
422.285	448.81
422.507	470.81
422.73	532.81
422.953	496.81
423.175	456.81
423.398	431.81
423.621	412.81
423.843	452.81
424.066	444.81
424.288	452.81
424.511	467.81
424.733	506.81
424.956	578.81
425.178	560.81
425.401	550.81
425.623	567.81
425.846	497.81
426.068	473.81
426.291	455.81
426.513	454.81
426.735	479.81
426.958	505.81
427.18	585.81
427.402	694.81
427.625	737.81
427.847	691.81
428.069	593.81
428.292	515.81
428.514	483.81
428.736	429.81
428.958	443.81
429.181	416.81
429.403	421.81
429.625	419.81
429.847	444.81
430.069	486.81
430.292	515.81
430.514	449.81
430.736	432.81
430.958	417.81
431.18	387.81
431.402	395.81
431.624	376.81
431.846	386.81
432.068	387.81
432.29	400.81
432.512	402.81
432.734	401.81
432.956	400.81
433.178	410.81
433.4	414.81
433.622	418.81
433.844	399.81
434.066	406.81
434.287	397.81
434.509	397.81
434.731	401.81
434.953	407.81
435.175	416.81
435.397	434.81
435.618	439.81
435.84	478.81
436.062	594.81
436.284	643.81
436.505	521.81
436.727	479.81
436.949	421.81
437.17	450.81
437.392	416.81
437.614	450.81
437.835	470.81
438.057	560.81
438.278	642.81
438.5	652.81
438.721	694.81
438.943	662.81
439.165	537.81
439.386	492.81
439.608	469.81
439.829	464.81
440.05	512.81
440.272	563.81
440.493	493.81
440.715	463.81
440.936	435.81
441.158	432.81
441.379	428.81
441.6	433.81
441.822	448.81
442.043	484.81
442.264	561.81
442.486	588.81
442.707	492.81
442.928	482.81
443.149	468.81
443.371	516.81
443.592	544.81
443.813	592.81
444.034	640.81
444.255	555.81
444.476	466.81
444.698	443.81
444.919	442.81
445.14	553.81
445.361	505.81
445.582	501.81
445.803	589.81
446.024	670.81
446.245	648.81
446.466	601.81
446.687	514.81
446.908	454.81
447.129	445.81
447.35	436.81
447.571	425.81
447.792	432.81
448.013	445.81
448.234	450.81
448.455	505.81
448.675	594.81
448.896	683.81
449.117	592.81
449.338	552.81
449.559	634.81
449.779	697.81
450	577.81
450.221	477.81
450.442	447.81
450.662	446.81
450.883	430.81
451.104	469.81
451.324	461.81
451.545	395.81
451.766	408.81
451.986	395.81
452.207	371.81
452.428	381.81
452.648	393.81
452.869	388.81
453.089	387.81
453.31	386.81
453.53	392.81
453.751	398.81
453.971	391.81
454.192	434.81
454.412	402.81
454.633	376.81
454.853	380.81
455.073	388.81
455.294	423.81
455.514	485.81
455.734	460.81
455.955	395.81
456.175	384.81
456.395	363.81
456.616	362.81
456.836	366.81
457.056	364.81
457.276	362.81
457.497	374.81
457.717	356.81
457.937	368.81
458.157	374.81
458.377	378.81
458.598	391.81
458.818	465.81
459.038	543.81
459.258	545.81
459.478	469.81
459.698	399.81
459.918	398.81
460.138	385.81
460.358	366.81
460.578	388.81
460.798	388.81
461.018	398.81
461.238	379.81
461.458	410.81
461.678	395.81
461.898	396.81
462.118	397.81
462.338	390.81
462.558	406.81
462.777	404.81
462.997	401.81
463.217	415.81
463.437	415.81
463.657	424.81
463.876	414.81
464.096	422.81
464.316	426.81
464.536	407.81
464.755	428.81
464.975	433.81
465.195	498.81
465.414	575.81
465.634	501.81
465.854	436.81
466.073	411.81
466.293	419.81
466.512	409.81
466.732	392.81
466.951	403.81
467.171	406.81
467.391	404.81
467.61	415.81
467.829	424.81
468.049	412.81
468.268	410.81
468.488	400.81
468.707	393.81
468.927	376.81
469.146	370.81
469.365	382.81
469.585	375.81
469.804	391.81
470.023	406.81
470.243	392.81
470.462	424.81
470.681	442.81
470.901	429.81
471.12	386.81
471.339	408.81
471.558	408.81
471.777	405.81
471.997	397.81
472.216	400.81
472.435	456.81
472.654	435.81
472.873	395.81
473.092	389.81
473.311	395.81
473.53	410.81
473.749	405.81
473.968	440.81
474.187	541.81
474.406	553.81
474.625	451.81
474.844	420.81
475.063	425.81
475.282	420.81
475.501	405.81
475.72	389.81
475.939	400.81
476.158	401.81
476.377	389.81
476.596	394.81
476.814	418.81
477.033	411.81
477.252	418.81
477.471	412.81
477.69	399.81
477.908	404.81
478.127	410.81
478.346	411.81
478.564	435.81
478.783	423.81
479.002	439.81
479.22	438.81
479.439	458.81
479.658	466.81
479.876	493.81
480.095	463.81
480.313	519.81
480.532	488.81
480.751	490.81
480.969	489.81
481.188	580.81
481.406	607.81
481.624	536.81
481.843	514.81
482.061	484.81
482.28	442.81
482.498	436.81
482.717	462.81
482.935	474.81
483.153	463.81
483.372	468.81
483.59	468.81
483.808	467.81
484.027	473.81
484.245	470.81
484.463	474.81
484.681	459.81
484.9	470.81
485.118	467.81
485.336	465.81
485.554	468.81
485.772	481.81
485.99	493.81
486.209	470.81
486.427	499.81
486.645	486.81
486.863	496.81
487.081	515.81
487.299	518.81
487.517	510.81
487.735	513.81
487.953	499.81
488.171	528.81
488.389	487.81
488.607	485.81
488.825	516.81
489.043	496.81
489.261	509.81
489.479	497.81
489.696	511.81
489.914	505.81
490.132	512.81
490.35	496.81
490.568	516.81
490.786	535.81
491.003	544.81
491.221	540.81
491.439	580.81
491.657	558.81
491.874	570.81
492.092	576.81
492.31	572.81
492.527	554.81
492.745	583.81
492.963	574.81
493.18	593.81
493.398	573.81
493.615	598.81
493.833	600.81
494.05	563.81
494.268	601.81
494.485	577.81
494.703	579.81
494.92	592.81
495.138	592.81
495.355	588.81
495.573	609.81
495.79	584.81
496.008	583.81
496.225	603.81
496.442	604.81
496.66	581.81
496.877	589.81
497.094	599.81
497.312	600.81
497.529	611.81
497.746	615.81
497.963	623.81
498.181	619.81
498.398	635.81
498.615	635.81
498.832	642.81
499.049	658.81
499.267	660.81
499.484	666.81
499.701	671.81
499.918	696.81
500.135	704.81
500.352	726.81
500.569	744.81
500.786	747.81
501.003	718.81
501.22	724.81
501.437	699.81
501.654	700.81
501.871	706.81
502.088	706.81
