Data from 1961.PennyLincolnUp.Lamp.En5.5.200Scan.071719.P1._HRD10591_13-46-39-056.txt Node
Date: Thu Jul 18 13:46:39 EDT 2019
User: cochatt
Spectrometer: HR+D1059
Trigger mode: 1
Integration Time (sec): 1.000000E-1
Scans to average: 1
Electric dark correction enabled: true
Nonlinearity correction enabled: false
Boxcar width: 0
XAxis mode: Wavelengths
Number of Pixels in Spectrum: 2048
>>>>>Begin Spectral Data<<<<<
223.165	-15.31
223.4	-15.31
223.635	-15.31
223.869	-10.31
224.104	-2.31
224.338	-24.31
224.573	-20.31
224.808	-14.31
225.042	-7.31
225.277	-15.31
225.511	-8.31
225.746	3.69
225.98	6.69
226.215	6.69
226.449	22.69
226.683	20.69
226.918	19.69
227.152	37.69
227.387	32.69
227.621	24.69
227.856	53.69
228.09	53.69
228.324	54.69
228.559	63.69
228.793	50.69
229.027	71.69
229.262	96.69
229.496	92.69
229.73	101.69
229.964	138.69
230.199	114.69
230.433	112.69
230.667	87.69
230.901	97.69
231.136	106.69
231.37	99.69
231.604	99.69
231.838	104.69
232.072	91.69
232.306	104.69
232.541	104.69
232.775	101.69
233.009	81.69
233.243	87.69
233.477	109.69
233.711	104.69
233.945	89.69
234.179	104.69
234.413	94.69
234.647	109.69
234.881	93.69
235.115	104.69
235.349	110.69
235.583	102.69
235.817	107.69
236.051	104.69
236.285	120.69
236.519	96.69
236.753	95.69
236.987	119.69
237.221	128.69
237.455	176.69
237.689	155.69
237.922	122.69
238.156	109.69
238.39	100.69
238.624	89.69
238.858	110.69
239.091	96.69
239.325	108.69
239.559	112.69
239.793	93.69
240.027	117.69
240.26	114.69
240.494	134.69
240.728	135.69
240.961	112.69
241.195	117.69
241.429	116.69
241.662	129.69
241.896	116.69
242.13	112.69
242.363	105.69
242.597	99.69
242.83	112.69
243.064	126.69
243.298	113.69
243.531	105.69
243.765	109.69
243.998	109.69
244.232	120.69
244.465	122.69
244.699	129.69
244.932	120.69
245.166	114.69
245.399	121.69
245.633	110.69
245.866	119.69
246.099	123.69
246.333	124.69
246.566	128.69
246.8	121.69
247.033	125.69
247.266	127.69
247.5	128.69
247.733	132.69
247.966	135.69
248.2	124.69
248.433	149.69
248.666	132.69
248.899	139.69
249.133	157.69
249.366	160.69
249.599	144.69
249.832	149.69
250.066	132.69
250.299	120.69
250.532	161.69
250.765	152.69
250.998	171.69
251.231	182.69
251.465	170.69
251.698	151.69
251.931	158.69
252.164	149.69
252.397	148.69
252.63	156.69
252.863	155.69
253.096	180.69
253.329	163.69
253.562	176.69
253.795	163.69
254.028	173.69
254.261	157.69
254.494	181.69
254.727	172.69
254.96	206.69
255.193	206.69
255.426	196.69
255.659	173.69
255.892	178.69
256.124	174.69
256.357	179.69
256.59	186.69
256.823	169.69
257.056	160.69
257.289	165.69
257.521	152.69
257.754	172.69
257.987	168.69
258.22	171.69
258.452	149.69
258.685	158.69
258.918	160.69
259.151	152.69
259.383	161.69
259.616	164.69
259.849	168.69
260.081	181.69
260.314	174.69
260.547	189.69
260.779	206.69
261.012	170.69
261.244	166.69
261.477	187.69
261.71	177.69
261.942	172.69
262.175	175.69
262.407	179.69
262.64	163.69
262.872	156.69
263.105	166.69
263.337	173.69
263.57	160.69
263.802	171.69
264.035	156.69
264.267	164.69
264.499	173.69
264.732	177.69
264.964	143.69
265.197	154.69
265.429	157.69
265.661	154.69
265.894	157.69
266.126	153.69
266.358	148.69
266.591	156.69
266.823	171.69
267.055	180.69
267.287	187.69
267.52	178.69
267.752	165.69
267.984	155.69
268.216	173.69
268.448	183.69
268.681	177.69
268.913	180.69
269.145	188.69
269.377	191.69
269.609	188.69
269.841	195.69
270.073	201.69
270.306	205.69
270.538	228.69
270.77	210.69
271.002	215.69
271.234	205.69
271.466	218.69
271.698	208.69
271.93	220.69
272.162	201.69
272.394	221.69
272.626	212.69
272.858	207.69
273.09	205.69
273.322	207.69
273.553	180.69
273.785	206.69
274.017	195.69
274.249	188.69
274.481	199.69
274.713	188.69
274.945	211.69
275.176	188.69
275.408	199.69
275.64	182.69
275.872	197.69
276.104	203.69
276.335	200.69
276.567	199.69
276.799	202.69
277.031	212.69
277.262	204.69
277.494	224.69
277.726	205.69
277.957	210.69
278.189	193.69
278.421	196.69
278.652	188.69
278.884	198.69
279.115	194.69
279.347	182.69
279.579	213.69
279.81	197.69
280.042	184.69
280.273	182.69
280.505	200.69
280.736	189.69
280.968	204.69
281.199	198.69
281.431	183.69
281.662	194.69
281.894	196.69
282.125	189.69
282.356	210.69
282.588	207.69
282.819	223.69
283.051	200.69
283.282	191.69
283.513	193.69
283.745	180.69
283.976	205.69
284.207	208.69
284.439	194.69
284.67	192.69
284.901	200.69
285.132	195.69
285.364	180.69
285.595	183.69
285.826	199.69
286.057	200.69
286.288	189.69
286.52	197.69
286.751	193.69
286.982	198.69
287.213	206.69
287.444	200.69
287.675	209.69
287.906	202.69
288.138	202.69
288.369	211.69
288.6	217.69
288.831	217.69
289.062	208.69
289.293	212.69
289.524	192.69
289.755	210.69
289.986	200.69
290.217	201.69
290.448	198.69
290.679	215.69
290.91	209.69
291.141	206.69
291.371	204.69
291.602	206.69
291.833	200.69
292.064	208.69
292.295	198.69
292.526	209.69
292.757	213.69
292.987	212.69
293.218	203.69
293.449	196.69
293.68	210.69
293.91	204.69
294.141	216.69
294.372	198.69
294.603	212.69
294.833	221.69
295.064	225.69
295.295	224.69
295.525	210.69
295.756	210.69
295.987	216.69
296.217	234.69
296.448	237.69
296.679	239.69
296.909	213.69
297.14	197.69
297.37	215.69
297.601	216.69
297.831	207.69
298.062	211.69
298.292	224.69
298.523	227.69
298.753	219.69
298.984	210.69
299.214	228.69
299.445	231.69
299.675	227.69
299.905	200.69
300.136	226.69
300.366	221.69
300.597	226.69
300.827	229.69
301.057	224.69
301.288	244.69
301.518	222.69
301.748	213.69
301.979	226.69
302.209	230.69
302.439	233.69
302.669	211.69
302.9	221.69
303.13	246.69
303.36	225.69
303.59	231.69
303.82	229.69
304.051	244.69
304.281	247.69
304.511	245.69
304.741	232.69
304.971	229.69
305.201	231.69
305.431	233.69
305.661	223.69
305.891	224.69
306.121	228.69
306.352	237.69
306.582	233.69
306.812	249.69
307.042	232.69
307.272	240.69
307.502	240.69
307.731	227.69
307.961	244.69
308.191	218.69
308.421	240.69
308.651	244.69
308.881	227.69
309.111	248.69
309.341	247.69
309.571	261.69
309.8	258.69
310.03	275.69
310.26	282.69
310.49	264.69
310.72	291.69
310.949	292.69
311.179	265.69
311.409	262.69
311.639	270.69
311.868	256.69
312.098	272.69
312.328	272.69
312.557	276.69
312.787	289.69
313.017	277.69
313.246	265.69
313.476	269.69
313.706	271.69
313.935	276.69
314.165	286.69
314.394	283.69
314.624	270.69
314.853	261.69
315.083	267.69
315.312	264.69
315.542	260.69
315.771	257.69
316.001	275.69
316.23	278.69
316.46	274.69
316.689	249.69
316.919	274.69
317.148	289.69
317.377	271.69
317.607	268.69
317.836	276.69
318.065	260.69
318.295	287.69
318.524	253.69
318.753	248.69
318.983	266.69
319.212	270.69
319.441	257.69
319.67	270.69
319.9	275.69
320.129	291.69
320.358	266.69
320.587	268.69
320.816	277.69
321.046	277.69
321.275	284.69
321.504	283.69
321.733	323.69
321.962	284.69
322.191	290.69
322.42	337.69
322.649	318.69
322.878	318.69
323.108	354.69
323.337	345.69
323.566	383.69
323.795	380.69
324.024	426.69
324.253	514.69
324.482	749.69
324.71	1180.69
324.939	1609.69
325.168	1342.69
325.397	717.69
325.626	476.69
325.855	405.69
326.084	387.69
326.313	374.69
326.542	378.69
326.77	413.69
326.999	507.69
327.228	665.69
327.457	1028.69
327.686	1188.69
327.914	800.69
328.143	560.69
328.372	462.69
328.6	444.69
328.829	410.69
329.058	429.69
329.287	418.69
329.515	407.69
329.744	388.69
329.972	378.69
330.201	405.69
330.43	425.69
330.658	462.69
330.887	450.69
331.115	422.69
331.344	380.69
331.572	361.69
331.801	364.69
332.03	350.69
332.258	326.69
332.486	320.69
332.715	312.69
332.943	331.69
333.172	306.69
333.4	306.69
333.629	318.69
333.857	347.69
334.085	347.69
334.314	357.69
334.542	372.69
334.771	411.69
334.999	355.69
335.227	334.69
335.455	314.69
335.684	324.69
335.912	310.69
336.14	314.69
336.369	292.69
336.597	318.69
336.825	329.69
337.053	318.69
337.281	310.69
337.51	304.69
337.738	290.69
337.966	315.69
338.194	310.69
338.422	310.69
338.65	301.69
338.878	304.69
339.106	294.69
339.334	287.69
339.562	308.69
339.79	293.69
340.018	291.69
340.246	299.69
340.474	296.69
340.702	308.69
340.93	288.69
341.158	296.69
341.386	302.69
341.614	306.69
341.842	305.69
342.07	293.69
342.298	292.69
342.526	293.69
342.754	290.69
342.981	301.69
343.209	289.69
343.437	304.69
343.665	301.69
343.893	310.69
344.12	305.69
344.348	306.69
344.576	305.69
344.804	296.69
345.031	316.69
345.259	314.69
345.487	322.69
345.714	294.69
345.942	301.69
346.17	299.69
346.397	312.69
346.625	300.69
346.853	295.69
347.08	286.69
347.308	289.69
347.535	302.69
347.763	299.69
347.99	301.69
348.218	300.69
348.445	306.69
348.673	308.69
348.9	298.69
349.128	292.69
349.355	278.69
349.583	289.69
349.81	273.69
350.037	275.69
350.265	296.69
350.492	300.69
350.72	304.69
350.947	300.69
351.174	319.69
351.402	316.69
351.629	306.69
351.856	316.69
352.083	299.69
352.311	297.69
352.538	330.69
352.765	313.69
352.992	306.69
353.22	289.69
353.447	298.69
353.674	294.69
353.901	289.69
354.128	280.69
354.355	265.69
354.583	296.69
354.81	261.69
355.037	281.69
355.264	283.69
355.491	273.69
355.718	269.69
355.945	295.69
356.172	270.69
356.399	288.69
356.626	284.69
356.853	269.69
357.08	285.69
357.307	273.69
357.534	276.69
357.761	286.69
357.988	288.69
358.215	261.69
358.441	285.69
358.668	254.69
358.895	279.69
359.122	280.69
359.349	297.69
359.576	292.69
359.802	323.69
360.029	349.69
360.256	322.69
360.483	306.69
360.709	320.69
360.936	314.69
361.163	307.69
361.39	289.69
361.616	294.69
361.843	334.69
362.07	311.69
362.296	300.69
362.523	301.69
362.749	281.69
362.976	301.69
363.203	282.69
363.429	276.69
363.656	286.69
363.882	284.69
364.109	290.69
364.335	290.69
364.562	286.69
364.788	301.69
365.015	299.69
365.241	281.69
365.468	289.69
365.694	294.69
365.92	274.69
366.147	285.69
366.373	285.69
366.599	293.69
366.826	281.69
367.052	295.69
367.278	290.69
367.505	268.69
367.731	291.69
367.957	276.69
368.184	291.69
368.41	286.69
368.636	294.69
368.862	284.69
369.089	273.69
369.315	264.69
369.541	296.69
369.767	297.69
369.993	267.69
370.219	292.69
370.445	292.69
370.672	287.69
370.898	288.69
371.124	298.69
371.35	274.69
371.576	276.69
371.802	280.69
372.028	270.69
372.254	288.69
372.48	272.69
372.706	291.69
372.932	276.69
373.158	289.69
373.384	284.69
373.61	297.69
373.835	285.69
374.061	305.69
374.287	300.69
374.513	292.69
374.739	266.69
374.965	295.69
375.191	282.69
375.416	310.69
375.642	289.69
375.868	275.69
376.094	304.69
376.319	280.69
376.545	307.69
376.771	289.69
376.997	273.69
377.222	285.69
377.448	259.69
377.674	301.69
377.899	282.69
378.125	287.69
378.35	282.69
378.576	277.69
378.802	282.69
379.027	284.69
379.253	288.69
379.478	280.69
379.704	283.69
379.929	285.69
380.155	289.69
380.38	286.69
380.606	298.69
380.831	273.69
381.057	286.69
381.282	288.69
381.507	287.69
381.733	287.69
381.958	299.69
382.184	286.69
382.409	298.69
382.634	284.69
382.86	298.69
383.085	294.69
383.31	298.69
383.535	299.69
383.761	294.69
383.986	284.69
384.211	301.69
384.436	297.69
384.662	285.69
384.887	301.69
385.112	288.69
385.337	292.69
385.562	315.69
385.787	298.69
386.013	307.69
386.238	313.69
386.463	307.69
386.688	289.69
386.913	314.69
387.138	319.69
387.363	300.69
387.588	288.69
387.813	304.69
388.038	324.69
388.263	320.69
388.488	306.69
388.713	304.69
388.938	332.69
389.163	323.69
389.387	306.69
389.612	282.69
389.837	307.69
390.062	314.69
390.287	297.69
390.512	297.69
390.736	288.69
390.961	292.69
391.186	308.69
391.411	313.69
391.636	304.69
391.86	312.69
392.085	328.69
392.31	312.69
392.534	303.69
392.759	333.69
392.984	310.69
393.208	314.69
393.433	327.69
393.658	325.69
393.882	291.69
394.107	306.69
394.331	309.69
394.556	294.69
394.78	296.69
395.005	295.69
395.229	293.69
395.454	317.69
395.678	308.69
395.903	342.69
396.127	332.69
396.352	341.69
396.576	325.69
396.801	327.69
397.025	332.69
397.249	315.69
397.474	331.69
397.698	325.69
397.922	325.69
398.147	342.69
398.371	336.69
398.595	358.69
398.82	328.69
399.044	324.69
399.268	358.69
399.492	351.69
399.717	362.69
399.941	394.69
400.165	418.69
400.389	429.69
400.613	390.69
400.837	353.69
401.062	372.69
401.286	356.69
401.51	366.69
401.734	341.69
401.958	333.69
402.182	370.69
402.406	372.69
402.63	344.69
402.854	352.69
403.078	352.69
403.302	359.69
403.526	369.69
403.75	362.69
403.974	365.69
404.198	364.69
404.422	349.69
404.645	353.69
404.869	370.69
405.093	389.69
405.317	412.69
405.541	435.69
405.765	386.69
405.988	374.69
406.212	379.69
406.436	389.69
406.66	414.69
406.883	413.69
407.107	390.69
407.331	408.69
407.555	473.69
407.778	468.69
408.002	404.69
408.226	384.69
408.449	401.69
408.673	381.69
408.896	406.69
409.12	446.69
409.344	425.69
409.567	358.69
409.791	378.69
410.014	374.69
410.238	357.69
410.461	345.69
410.685	360.69
410.908	394.69
411.132	395.69
411.355	416.69
411.578	403.69
411.802	357.69
412.025	361.69
412.249	379.69
412.472	396.69
412.695	416.69
412.919	391.69
413.142	358.69
413.365	389.69
413.589	358.69
413.812	369.69
414.035	349.69
414.258	339.69
414.482	337.69
414.705	345.69
414.928	357.69
415.151	315.69
415.374	338.69
415.597	352.69
415.821	347.69
416.044	338.69
416.267	334.69
416.49	331.69
416.713	316.69
416.936	341.69
417.159	332.69
417.382	351.69
417.605	357.69
417.828	353.69
418.051	363.69
418.274	371.69
418.497	338.69
418.72	346.69
418.943	339.69
419.166	359.69
419.389	362.69
419.611	364.69
419.834	352.69
420.057	357.69
420.28	349.69
420.503	364.69
420.726	347.69
420.948	360.69
421.171	386.69
421.394	420.69
421.617	374.69
421.839	344.69
422.062	357.69
422.285	371.69
422.507	413.69
422.73	447.69
422.953	436.69
423.175	389.69
423.398	360.69
423.621	388.69
423.843	376.69
424.066	399.69
424.288	384.69
424.511	393.69
424.733	435.69
424.956	481.69
425.178	463.69
425.401	475.69
425.623	474.69
425.846	419.69
426.068	397.69
426.291	381.69
426.513	384.69
426.735	383.69
426.958	416.69
427.18	495.69
427.402	581.69
427.625	606.69
427.847	541.69
428.069	497.69
428.292	428.69
428.514	396.69
428.736	381.69
428.958	363.69
429.181	372.69
429.403	377.69
429.625	352.69
429.847	376.69
430.069	441.69
430.292	445.69
430.514	395.69
430.736	353.69
430.958	353.69
431.18	343.69
431.402	355.69
431.624	347.69
431.846	347.69
432.068	342.69
432.29	338.69
432.512	364.69
432.734	343.69
432.956	357.69
433.178	346.69
433.4	364.69
433.622	369.69
433.844	349.69
434.066	342.69
434.287	337.69
434.509	354.69
434.731	338.69
434.953	344.69
435.175	372.69
435.397	368.69
435.618	387.69
435.84	440.69
436.062	480.69
436.284	518.69
436.505	460.69
436.727	401.69
436.949	386.69
437.17	376.69
437.392	378.69
437.614	372.69
437.835	419.69
438.057	481.69
438.278	518.69
438.5	523.69
438.721	580.69
438.943	561.69
439.165	436.69
439.386	407.69
439.608	412.69
439.829	391.69
440.05	422.69
440.272	482.69
440.493	434.69
440.715	381.69
440.936	371.69
441.158	379.69
441.379	362.69
441.6	392.69
441.822	401.69
442.043	419.69
442.264	476.69
442.486	502.69
442.707	444.69
442.928	387.69
443.149	404.69
443.371	447.69
443.592	460.69
443.813	527.69
444.034	554.69
444.255	462.69
444.476	414.69
444.698	392.69
444.919	384.69
445.14	492.69
445.361	450.69
445.582	432.69
445.803	458.69
446.024	533.69
446.245	538.69
446.466	485.69
446.687	442.69
446.908	397.69
447.129	380.69
447.35	363.69
447.571	376.69
447.792	366.69
448.013	376.69
448.234	402.69
448.455	409.69
448.675	513.69
448.896	588.69
449.117	476.69
449.338	473.69
449.559	557.69
449.779	591.69
450	474.69
450.221	393.69
450.442	382.69
450.662	365.69
450.883	360.69
451.104	396.69
451.324	370.69
451.545	363.69
451.766	352.69
451.986	344.69
452.207	340.69
452.428	325.69
452.648	328.69
452.869	341.69
453.089	337.69
453.31	353.69
453.53	340.69
453.751	333.69
453.971	338.69
454.192	341.69
454.412	345.69
454.633	342.69
454.853	335.69
455.073	352.69
455.294	361.69
455.514	408.69
455.734	388.69
455.955	333.69
456.175	333.69
456.395	308.69
456.616	341.69
456.836	312.69
457.056	328.69
457.276	310.69
457.497	327.69
457.717	313.69
457.937	312.69
458.157	323.69
458.377	331.69
458.598	350.69
458.818	402.69
459.038	439.69
459.258	450.69
459.478	388.69
459.698	361.69
459.918	343.69
460.138	348.69
460.358	360.69
460.578	329.69
460.798	354.69
461.018	368.69
461.238	367.69
461.458	359.69
461.678	347.69
461.898	359.69
462.118	334.69
462.338	356.69
462.558	356.69
462.777	361.69
462.997	368.69
463.217	364.69
463.437	367.69
463.657	352.69
463.876	380.69
464.096	363.69
464.316	390.69
464.536	378.69
464.755	376.69
464.975	381.69
465.195	416.69
465.414	470.69
465.634	408.69
465.854	372.69
466.073	372.69
466.293	373.69
466.512	360.69
466.732	352.69
466.951	339.69
467.171	339.69
467.391	341.69
467.61	356.69
467.829	349.69
468.049	346.69
468.268	355.69
468.488	341.69
468.707	331.69
468.927	346.69
469.146	329.69
469.365	352.69
469.585	333.69
469.804	351.69
470.023	368.69
470.243	360.69
470.462	331.69
470.681	336.69
470.901	355.69
471.12	363.69
471.339	365.69
471.558	335.69
471.777	343.69
471.997	354.69
472.216	339.69
472.435	378.69
472.654	359.69
472.873	354.69
473.092	354.69
473.311	352.69
473.53	347.69
473.749	338.69
473.968	377.69
474.187	448.69
474.406	476.69
474.625	382.69
474.844	380.69
475.063	364.69
475.282	362.69
475.501	329.69
475.72	358.69
475.939	363.69
476.158	370.69
476.377	371.69
476.596	364.69
476.814	360.69
477.033	360.69
477.252	362.69
477.471	374.69
477.69	380.69
477.908	362.69
478.127	374.69
478.346	380.69
478.564	393.69
478.783	374.69
479.002	390.69
479.22	369.69
479.439	410.69
479.658	408.69
479.876	425.69
480.095	415.69
480.313	408.69
480.532	424.69
480.751	411.69
480.969	417.69
481.188	482.69
481.406	505.69
481.624	444.69
481.843	434.69
482.061	393.69
482.28	394.69
482.498	421.69
482.717	398.69
482.935	403.69
483.153	397.69
483.372	416.69
483.59	388.69
483.808	398.69
484.027	413.69
484.245	412.69
484.463	420.69
484.681	424.69
484.9	420.69
485.118	394.69
485.336	423.69
485.554	433.69
485.772	408.69
485.99	407.69
486.209	441.69
486.427	412.69
486.645	436.69
486.863	434.69
487.081	453.69
487.299	449.69
487.517	438.69
487.735	446.69
487.953	454.69
488.171	425.69
488.389	436.69
488.607	445.69
488.825	419.69
489.043	440.69
489.261	445.69
489.479	437.69
489.696	453.69
489.914	429.69
490.132	429.69
490.35	440.69
490.568	438.69
490.786	449.69
491.003	464.69
491.221	459.69
491.439	477.69
491.657	490.69
491.874	488.69
492.092	496.69
492.31	502.69
492.527	496.69
492.745	497.69
492.963	466.69
493.18	492.69
493.398	519.69
493.615	489.69
493.833	484.69
494.05	494.69
494.268	499.69
494.485	489.69
494.703	503.69
494.92	526.69
495.138	503.69
495.355	500.69
495.573	501.69
495.79	500.69
496.008	506.69
496.225	497.69
496.442	517.69
496.66	488.69
496.877	516.69
497.094	507.69
497.312	528.69
497.529	541.69
497.746	534.69
497.963	511.69
498.181	560.69
498.398	545.69
498.615	532.69
498.832	568.69
499.049	567.69
499.267	584.69
499.484	580.69
499.701	616.69
499.918	616.69
500.135	639.69
500.352	641.69
500.569	671.69
500.786	633.69
501.003	661.69
501.22	634.69
501.437	644.69
501.654	624.69
501.871	617.69
502.088	618.69
