Data from 1961.PennyLincolnUp.Lamp.En5.5.200Scan.071719.P1._HRD10591_13-48-03-058.txt Node
Date: Thu Jul 18 13:48:03 EDT 2019
User: cochatt
Spectrometer: HR+D1059
Trigger mode: 1
Integration Time (sec): 1.000000E-1
Scans to average: 1
Electric dark correction enabled: true
Nonlinearity correction enabled: false
Boxcar width: 0
XAxis mode: Wavelengths
Number of Pixels in Spectrum: 2048
>>>>>Begin Spectral Data<<<<<
223.165	-25.44
223.4	-25.44
223.635	-25.44
223.869	-11.44
224.104	-18.44
224.338	-20.44
224.573	-15.44
224.808	-12.44
225.042	-6.44
225.277	-14.44
225.511	11.56
225.746	-2.44
225.98	9.56
226.215	18.56
226.449	14.56
226.683	30.56
226.918	17.56
227.152	24.56
227.387	44.56
227.621	39.56
227.856	47.56
228.09	49.56
228.324	68.56
228.559	63.56
228.793	79.56
229.027	85.56
229.262	123.56
229.496	102.56
229.73	137.56
229.964	149.56
230.199	127.56
230.433	112.56
230.667	100.56
230.901	99.56
231.136	121.56
231.37	115.56
231.604	108.56
231.838	106.56
232.072	115.56
232.306	113.56
232.541	115.56
232.775	113.56
233.009	108.56
233.243	110.56
233.477	110.56
233.711	114.56
233.945	115.56
234.179	116.56
234.413	120.56
234.647	108.56
234.881	102.56
235.115	118.56
235.349	112.56
235.583	119.56
235.817	129.56
236.051	132.56
236.285	117.56
236.519	119.56
236.753	125.56
236.987	135.56
237.221	174.56
237.455	223.56
237.689	149.56
237.922	126.56
238.156	121.56
238.39	132.56
238.624	115.56
238.858	109.56
239.091	117.56
239.325	107.56
239.559	128.56
239.793	99.56
240.027	130.56
240.26	132.56
240.494	147.56
240.728	137.56
240.961	139.56
241.195	129.56
241.429	140.56
241.662	130.56
241.896	111.56
242.13	125.56
242.363	124.56
242.597	126.56
242.83	132.56
243.064	128.56
243.298	128.56
243.531	139.56
243.765	127.56
243.998	129.56
244.232	131.56
244.465	126.56
244.699	135.56
244.932	132.56
245.166	145.56
245.399	125.56
245.633	127.56
245.866	146.56
246.099	134.56
246.333	147.56
246.566	132.56
246.8	139.56
247.033	127.56
247.266	128.56
247.5	137.56
247.733	146.56
247.966	136.56
248.2	150.56
248.433	157.56
248.666	140.56
248.899	163.56
249.133	179.56
249.366	163.56
249.599	157.56
249.832	170.56
250.066	174.56
250.299	160.56
250.532	156.56
250.765	175.56
250.998	195.56
251.231	184.56
251.465	170.56
251.698	171.56
251.931	173.56
252.164	157.56
252.397	172.56
252.63	176.56
252.863	171.56
253.096	191.56
253.329	184.56
253.562	181.56
253.795	197.56
254.028	186.56
254.261	204.56
254.494	193.56
254.727	203.56
254.96	239.56
255.193	218.56
255.426	208.56
255.659	206.56
255.892	210.56
256.124	181.56
256.357	191.56
256.59	191.56
256.823	194.56
257.056	187.56
257.289	166.56
257.521	177.56
257.754	188.56
257.987	166.56
258.22	185.56
258.452	183.56
258.685	174.56
258.918	187.56
259.151	193.56
259.383	188.56
259.616	198.56
259.849	192.56
260.081	209.56
260.314	219.56
260.547	216.56
260.779	193.56
261.012	205.56
261.244	193.56
261.477	200.56
261.71	208.56
261.942	203.56
262.175	193.56
262.407	196.56
262.64	170.56
262.872	200.56
263.105	187.56
263.337	204.56
263.57	188.56
263.802	183.56
264.035	183.56
264.267	182.56
264.499	179.56
264.732	189.56
264.964	193.56
265.197	184.56
265.429	169.56
265.661	181.56
265.894	208.56
266.126	189.56
266.358	179.56
266.591	192.56
266.823	201.56
267.055	200.56
267.287	198.56
267.52	200.56
267.752	195.56
267.984	194.56
268.216	193.56
268.448	181.56
268.681	205.56
268.913	207.56
269.145	209.56
269.377	215.56
269.609	230.56
269.841	208.56
270.073	217.56
270.306	238.56
270.538	251.56
270.77	259.56
271.002	260.56
271.234	243.56
271.466	257.56
271.698	264.56
271.93	255.56
272.162	270.56
272.394	276.56
272.626	263.56
272.858	234.56
273.09	240.56
273.322	240.56
273.553	244.56
273.785	220.56
274.017	216.56
274.249	218.56
274.481	256.56
274.713	238.56
274.945	259.56
275.176	213.56
275.408	225.56
275.64	226.56
275.872	212.56
276.104	212.56
276.335	216.56
276.567	236.56
276.799	262.56
277.031	248.56
277.262	266.56
277.494	259.56
277.726	246.56
277.957	259.56
278.189	241.56
278.421	233.56
278.652	226.56
278.884	210.56
279.115	231.56
279.347	233.56
279.579	227.56
279.81	220.56
280.042	233.56
280.273	234.56
280.505	219.56
280.736	222.56
280.968	220.56
281.199	227.56
281.431	225.56
281.662	211.56
281.894	233.56
282.125	215.56
282.356	263.56
282.588	264.56
282.819	256.56
283.051	235.56
283.282	226.56
283.513	228.56
283.745	241.56
283.976	236.56
284.207	231.56
284.439	237.56
284.67	248.56
284.901	237.56
285.132	230.56
285.364	215.56
285.595	230.56
285.826	243.56
286.057	233.56
286.288	225.56
286.52	235.56
286.751	225.56
286.982	226.56
287.213	220.56
287.444	232.56
287.675	239.56
287.906	242.56
288.138	257.56
288.369	241.56
288.6	256.56
288.831	233.56
289.062	249.56
289.293	235.56
289.524	232.56
289.755	234.56
289.986	236.56
290.217	221.56
290.448	230.56
290.679	235.56
290.91	235.56
291.141	237.56
291.371	252.56
291.602	249.56
291.833	234.56
292.064	227.56
292.295	236.56
292.526	218.56
292.757	235.56
292.987	233.56
293.218	237.56
293.449	237.56
293.68	241.56
293.91	245.56
294.141	247.56
294.372	224.56
294.603	246.56
294.833	244.56
295.064	237.56
295.295	220.56
295.525	228.56
295.756	255.56
295.987	247.56
296.217	267.56
296.448	273.56
296.679	261.56
296.909	244.56
297.14	246.56
297.37	236.56
297.601	249.56
297.831	244.56
298.062	257.56
298.292	245.56
298.523	261.56
298.753	247.56
298.984	246.56
299.214	248.56
299.445	255.56
299.675	261.56
299.905	270.56
300.136	247.56
300.366	268.56
300.597	265.56
300.827	253.56
301.057	263.56
301.288	261.56
301.518	271.56
301.748	259.56
301.979	263.56
302.209	254.56
302.439	262.56
302.669	263.56
302.9	271.56
303.13	272.56
303.36	271.56
303.59	273.56
303.82	287.56
304.051	280.56
304.281	268.56
304.511	271.56
304.741	268.56
304.971	255.56
305.201	260.56
305.431	265.56
305.661	284.56
305.891	265.56
306.121	265.56
306.352	273.56
306.582	279.56
306.812	269.56
307.042	268.56
307.272	280.56
307.502	286.56
307.731	284.56
307.961	269.56
308.191	276.56
308.421	277.56
308.651	279.56
308.881	279.56
309.111	287.56
309.341	284.56
309.571	309.56
309.8	302.56
310.03	309.56
310.26	295.56
310.49	300.56
310.72	334.56
310.949	331.56
311.179	343.56
311.409	332.56
311.639	329.56
311.868	329.56
312.098	328.56
312.328	339.56
312.557	352.56
312.787	328.56
313.017	355.56
313.246	329.56
313.476	313.56
313.706	318.56
313.935	350.56
314.165	337.56
314.394	336.56
314.624	332.56
314.853	324.56
315.083	329.56
315.312	334.56
315.542	313.56
315.771	300.56
316.001	305.56
316.23	305.56
316.46	313.56
316.689	298.56
316.919	315.56
317.148	322.56
317.377	336.56
317.607	318.56
317.836	339.56
318.065	334.56
318.295	331.56
318.524	291.56
318.753	324.56
318.983	312.56
319.212	335.56
319.441	325.56
319.67	319.56
319.9	304.56
320.129	309.56
320.358	317.56
320.587	308.56
320.816	345.56
321.046	332.56
321.275	324.56
321.504	328.56
321.733	317.56
321.962	358.56
322.191	359.56
322.42	375.56
322.649	399.56
322.878	405.56
323.108	415.56
323.337	430.56
323.566	453.56
323.795	484.56
324.024	549.56
324.253	668.56
324.482	1016.56
324.71	1545.56
324.939	2157.56
325.168	1782.56
325.397	951.56
325.626	616.56
325.855	525.56
326.084	482.56
326.313	451.56
326.542	460.56
326.77	535.56
326.999	631.56
327.228	881.56
327.457	1323.56
327.686	1591.56
327.914	1053.56
328.143	669.56
328.372	602.56
328.6	569.56
328.829	518.56
329.058	529.56
329.287	527.56
329.515	507.56
329.744	487.56
329.972	473.56
330.201	503.56
330.43	538.56
330.658	544.56
330.887	573.56
331.115	544.56
331.344	470.56
331.572	428.56
331.801	422.56
332.03	419.56
332.258	433.56
332.486	387.56
332.715	366.56
332.943	382.56
333.172	385.56
333.4	389.56
333.629	390.56
333.857	422.56
334.085	410.56
334.314	435.56
334.542	441.56
334.771	482.56
334.999	430.56
335.227	399.56
335.455	404.56
335.684	367.56
335.912	381.56
336.14	384.56
336.369	378.56
336.597	371.56
336.825	390.56
337.053	376.56
337.281	372.56
337.51	365.56
337.738	362.56
337.966	363.56
338.194	367.56
338.422	382.56
338.65	367.56
338.878	368.56
339.106	357.56
339.334	353.56
339.562	366.56
339.79	373.56
340.018	347.56
340.246	368.56
340.474	358.56
340.702	355.56
340.93	345.56
341.158	351.56
341.386	359.56
341.614	360.56
341.842	357.56
342.07	365.56
342.298	361.56
342.526	350.56
342.754	331.56
342.981	341.56
343.209	354.56
343.437	327.56
343.665	333.56
343.893	366.56
344.12	354.56
344.348	344.56
344.576	355.56
344.804	357.56
345.031	379.56
345.259	380.56
345.487	378.56
345.714	355.56
345.942	354.56
346.17	345.56
346.397	336.56
346.625	351.56
346.853	344.56
347.08	344.56
347.308	347.56
347.535	340.56
347.763	376.56
347.99	368.56
348.218	335.56
348.445	368.56
348.673	371.56
348.9	368.56
349.128	348.56
349.355	334.56
349.583	343.56
349.81	320.56
350.037	325.56
350.265	330.56
350.492	332.56
350.72	343.56
350.947	363.56
351.174	357.56
351.402	366.56
351.629	350.56
351.856	346.56
352.083	363.56
352.311	367.56
352.538	363.56
352.765	366.56
352.992	365.56
353.22	361.56
353.447	349.56
353.674	336.56
353.901	330.56
354.128	329.56
354.355	317.56
354.583	312.56
354.81	330.56
355.037	309.56
355.264	301.56
355.491	338.56
355.718	311.56
355.945	296.56
356.172	330.56
356.399	307.56
356.626	330.56
356.853	316.56
357.08	307.56
357.307	308.56
357.534	312.56
357.761	310.56
357.988	324.56
358.215	321.56
358.441	311.56
358.668	313.56
358.895	324.56
359.122	356.56
359.349	339.56
359.576	387.56
359.802	395.56
360.029	386.56
360.256	401.56
360.483	391.56
360.709	356.56
360.936	373.56
361.163	355.56
361.39	360.56
361.616	351.56
361.843	361.56
362.07	350.56
362.296	375.56
362.523	345.56
362.749	348.56
362.976	337.56
363.203	347.56
363.429	329.56
363.656	349.56
363.882	346.56
364.109	319.56
364.335	324.56
364.562	345.56
364.788	328.56
365.015	345.56
365.241	340.56
365.468	345.56
365.694	333.56
365.92	347.56
366.147	326.56
366.373	334.56
366.599	320.56
366.826	324.56
367.052	335.56
367.278	331.56
367.505	327.56
367.731	359.56
367.957	341.56
368.184	325.56
368.41	327.56
368.636	340.56
368.862	333.56
369.089	342.56
369.315	321.56
369.541	330.56
369.767	320.56
369.993	321.56
370.219	327.56
370.445	325.56
370.672	305.56
370.898	327.56
371.124	318.56
371.35	339.56
371.576	327.56
371.802	311.56
372.028	320.56
372.254	323.56
372.48	320.56
372.706	309.56
372.932	336.56
373.158	325.56
373.384	331.56
373.61	318.56
373.835	333.56
374.061	333.56
374.287	329.56
374.513	325.56
374.739	321.56
374.965	324.56
375.191	326.56
375.416	340.56
375.642	342.56
375.868	319.56
376.094	303.56
376.319	334.56
376.545	317.56
376.771	291.56
376.997	314.56
377.222	311.56
377.448	320.56
377.674	315.56
377.899	322.56
378.125	331.56
378.35	333.56
378.576	333.56
378.802	332.56
379.027	307.56
379.253	328.56
379.478	331.56
379.704	329.56
379.929	300.56
380.155	318.56
380.38	308.56
380.606	343.56
380.831	343.56
381.057	328.56
381.282	333.56
381.507	333.56
381.733	340.56
381.958	330.56
382.184	322.56
382.409	340.56
382.634	322.56
382.86	328.56
383.085	330.56
383.31	336.56
383.535	344.56
383.761	313.56
383.986	339.56
384.211	341.56
384.436	348.56
384.662	329.56
384.887	338.56
385.112	302.56
385.337	335.56
385.562	332.56
385.787	337.56
386.013	364.56
386.238	347.56
386.463	364.56
386.688	334.56
386.913	359.56
387.138	352.56
387.363	351.56
387.588	327.56
387.813	344.56
388.038	341.56
388.263	351.56
388.488	342.56
388.713	348.56
388.938	360.56
389.163	343.56
389.387	337.56
389.612	346.56
389.837	340.56
390.062	345.56
390.287	344.56
390.512	348.56
390.736	337.56
390.961	336.56
391.186	331.56
391.411	352.56
391.636	358.56
391.86	349.56
392.085	374.56
392.31	368.56
392.534	353.56
392.759	360.56
392.984	343.56
393.208	359.56
393.433	357.56
393.658	358.56
393.882	365.56
394.107	357.56
394.331	344.56
394.556	352.56
394.78	352.56
395.005	357.56
395.229	349.56
395.454	351.56
395.678	368.56
395.903	358.56
396.127	400.56
396.352	377.56
396.576	379.56
396.801	350.56
397.025	367.56
397.249	352.56
397.474	379.56
397.698	379.56
397.922	403.56
398.147	405.56
398.371	402.56
398.595	388.56
398.82	381.56
399.044	396.56
399.268	409.56
399.492	431.56
399.717	416.56
399.941	425.56
400.165	465.56
400.389	470.56
400.613	419.56
400.837	409.56
401.062	406.56
401.286	400.56
401.51	400.56
401.734	385.56
401.958	390.56
402.182	402.56
402.406	404.56
402.63	395.56
402.854	396.56
403.078	392.56
403.302	391.56
403.526	416.56
403.75	407.56
403.974	414.56
404.198	396.56
404.422	417.56
404.645	427.56
404.869	441.56
405.093	443.56
405.317	485.56
405.541	501.56
405.765	467.56
405.988	443.56
406.212	446.56
406.436	479.56
406.66	475.56
406.883	444.56
407.107	436.56
407.331	488.56
407.555	556.56
407.778	526.56
408.002	488.56
408.226	445.56
408.449	455.56
408.673	434.56
408.896	474.56
409.12	511.56
409.344	463.56
409.567	417.56
409.791	439.56
410.014	423.56
410.238	412.56
410.461	412.56
410.685	395.56
410.908	425.56
411.132	456.56
411.355	474.56
411.578	456.56
411.802	431.56
412.025	406.56
412.249	416.56
412.472	440.56
412.695	480.56
412.919	465.56
413.142	431.56
413.365	404.56
413.589	399.56
413.812	397.56
414.035	390.56
414.258	397.56
414.482	375.56
414.705	376.56
414.928	384.56
415.151	400.56
415.374	381.56
415.597	379.56
415.821	378.56
416.044	384.56
416.267	400.56
416.49	393.56
416.713	386.56
416.936	375.56
417.159	388.56
417.382	389.56
417.605	412.56
417.828	384.56
418.051	415.56
418.274	401.56
418.497	388.56
418.72	383.56
418.943	410.56
419.166	388.56
419.389	416.56
419.611	409.56
419.834	413.56
420.057	422.56
420.28	426.56
420.503	399.56
420.726	443.56
420.948	448.56
421.171	446.56
421.394	473.56
421.617	421.56
421.839	406.56
422.062	407.56
422.285	422.56
422.507	472.56
422.73	515.56
422.953	515.56
423.175	476.56
423.398	430.56
423.621	439.56
423.843	432.56
424.066	443.56
424.288	446.56
424.511	459.56
424.733	495.56
424.956	574.56
425.178	561.56
425.401	556.56
425.623	574.56
425.846	486.56
426.068	453.56
426.291	463.56
426.513	459.56
426.735	461.56
426.958	471.56
427.18	540.56
427.402	651.56
427.625	718.56
427.847	668.56
428.069	576.56
428.292	530.56
428.514	489.56
428.736	447.56
428.958	425.56
429.181	415.56
429.403	430.56
429.625	437.56
429.847	473.56
430.069	514.56
430.292	503.56
430.514	443.56
430.736	436.56
430.958	405.56
431.18	392.56
431.402	411.56
431.624	391.56
431.846	385.56
432.068	382.56
432.29	377.56
432.512	399.56
432.734	407.56
432.956	399.56
433.178	400.56
433.4	408.56
433.622	390.56
433.844	399.56
434.066	382.56
434.287	410.56
434.509	408.56
434.731	395.56
434.953	415.56
435.175	419.56
435.397	453.56
435.618	456.56
435.84	504.56
436.062	565.56
436.284	635.56
436.505	512.56
436.727	490.56
436.949	442.56
437.17	427.56
437.392	446.56
437.614	449.56
437.835	496.56
438.057	565.56
438.278	632.56
438.5	631.56
438.721	688.56
438.943	655.56
439.165	535.56
439.386	459.56
439.608	465.56
439.829	455.56
440.05	507.56
440.272	540.56
440.493	500.56
440.715	470.56
440.936	431.56
441.158	423.56
441.379	401.56
441.6	448.56
441.822	453.56
442.043	499.56
442.264	554.56
442.486	597.56
442.707	504.56
442.928	475.56
443.149	467.56
443.371	519.56
443.592	529.56
443.813	599.56
444.034	637.56
444.255	543.56
444.476	488.56
444.698	464.56
444.919	444.56
445.14	547.56
445.361	511.56
445.582	508.56
445.803	567.56
446.024	644.56
446.245	651.56
446.466	588.56
446.687	504.56
446.908	470.56
447.129	443.56
447.35	442.56
447.571	420.56
447.792	412.56
448.013	460.56
448.234	441.56
448.455	514.56
448.675	587.56
448.896	683.56
449.117	586.56
449.338	569.56
449.559	676.56
449.779	696.56
450	568.56
450.221	473.56
450.442	443.56
450.662	422.56
450.883	430.56
451.104	456.56
451.324	427.56
451.545	418.56
451.766	411.56
451.986	392.56
452.207	399.56
452.428	381.56
452.648	389.56
452.869	396.56
453.089	393.56
453.31	388.56
453.53	407.56
453.751	401.56
453.971	404.56
454.192	428.56
454.412	393.56
454.633	392.56
454.853	381.56
455.073	399.56
455.294	411.56
455.514	478.56
455.734	468.56
455.955	396.56
456.175	379.56
456.395	339.56
456.616	345.56
456.836	357.56
457.056	362.56
457.276	347.56
457.497	357.56
457.717	376.56
457.937	368.56
458.157	377.56
458.377	388.56
458.598	407.56
458.818	444.56
459.038	551.56
459.258	540.56
459.478	454.56
459.698	406.56
459.918	406.56
460.138	382.56
460.358	386.56
460.578	403.56
460.798	405.56
461.018	427.56
461.238	408.56
461.458	403.56
461.678	393.56
461.898	405.56
462.118	395.56
462.338	410.56
462.558	409.56
462.777	410.56
462.997	415.56
463.217	416.56
463.437	420.56
463.657	398.56
463.876	405.56
464.096	413.56
464.316	385.56
464.536	432.56
464.755	421.56
464.975	416.56
465.195	500.56
465.414	565.56
465.634	509.56
465.854	462.56
466.073	431.56
466.293	427.56
466.512	413.56
466.732	401.56
466.951	389.56
467.171	406.56
467.391	383.56
467.61	388.56
467.829	424.56
468.049	410.56
468.268	420.56
468.488	405.56
468.707	389.56
468.927	405.56
469.146	391.56
469.365	364.56
469.585	389.56
469.804	393.56
470.023	388.56
470.243	403.56
470.462	411.56
470.681	415.56
470.901	428.56
471.12	409.56
471.339	408.56
471.558	404.56
471.777	415.56
471.997	389.56
472.216	410.56
472.435	449.56
472.654	434.56
472.873	388.56
473.092	394.56
473.311	397.56
473.53	399.56
473.749	418.56
473.968	452.56
474.187	546.56
474.406	573.56
474.625	466.56
474.844	408.56
475.063	393.56
475.282	392.56
475.501	409.56
475.72	418.56
475.939	407.56
476.158	395.56
476.377	415.56
476.596	398.56
476.814	429.56
477.033	419.56
477.252	439.56
477.471	400.56
477.69	445.56
477.908	431.56
478.127	420.56
478.346	407.56
478.564	424.56
478.783	443.56
479.002	445.56
479.22	436.56
479.439	473.56
479.658	489.56
479.876	488.56
480.095	496.56
480.313	516.56
480.532	489.56
480.751	501.56
480.969	492.56
481.188	564.56
481.406	632.56
481.624	548.56
481.843	494.56
482.061	478.56
482.28	474.56
482.498	481.56
482.717	482.56
482.935	476.56
483.153	455.56
483.372	474.56
483.59	457.56
483.808	460.56
484.027	445.56
484.245	482.56
484.463	475.56
484.681	474.56
484.9	456.56
485.118	478.56
485.336	463.56
485.554	473.56
485.772	479.56
485.99	446.56
486.209	506.56
486.427	480.56
486.645	485.56
486.863	513.56
487.081	515.56
487.299	515.56
487.517	518.56
487.735	478.56
487.953	495.56
488.171	507.56
488.389	489.56
488.607	519.56
488.825	508.56
489.043	480.56
489.261	495.56
489.479	507.56
489.696	511.56
489.914	522.56
490.132	507.56
490.35	514.56
490.568	523.56
490.786	534.56
491.003	518.56
491.221	546.56
491.439	546.56
491.657	556.56
491.874	559.56
492.092	550.56
492.31	552.56
492.527	566.56
492.745	584.56
492.963	568.56
493.18	585.56
493.398	563.56
493.615	579.56
493.833	597.56
494.05	584.56
494.268	606.56
494.485	575.56
494.703	597.56
494.92	588.56
495.138	581.56
495.355	595.56
495.573	581.56
495.79	604.56
496.008	615.56
496.225	603.56
496.442	604.56
496.66	615.56
496.877	579.56
497.094	572.56
497.312	581.56
497.529	597.56
497.746	613.56
497.963	616.56
498.181	631.56
498.398	606.56
498.615	631.56
498.832	655.56
499.049	623.56
499.267	682.56
499.484	672.56
499.701	659.56
499.918	705.56
500.135	728.56
500.352	718.56
500.569	718.56
500.786	724.56
501.003	743.56
501.22	726.56
501.437	712.56
501.654	704.56
501.871	719.56
