Data from 1961.PennyLincolnUp.Lamp.En5.5.200Scan.071719.P1._HRD10591_13-47-48-058.txt Node
Date: Thu Jul 18 13:47:48 EDT 2019
User: cochatt
Spectrometer: HR+D1059
Trigger mode: 1
Integration Time (sec): 1.000000E-1
Scans to average: 1
Electric dark correction enabled: true
Nonlinearity correction enabled: false
Boxcar width: 0
XAxis mode: Wavelengths
Number of Pixels in Spectrum: 2048
>>>>>Begin Spectral Data<<<<<
223.165	-22.69
223.4	-22.69
223.635	-22.69
223.869	-12.69
224.104	-11.69
224.338	-16.69
224.573	-15.69
224.808	-15.69
225.042	1.31
225.277	-7.69
225.511	1.31
225.746	4.31
225.98	-2.69
226.215	23.31
226.449	17.31
226.683	13.31
226.918	15.31
227.152	29.31
227.387	39.31
227.621	34.31
227.856	56.31
228.09	53.31
228.324	61.31
228.559	50.31
228.793	55.31
229.027	105.31
229.262	113.31
229.496	101.31
229.73	131.31
229.964	127.31
230.199	118.31
230.433	104.31
230.667	103.31
230.901	106.31
231.136	117.31
231.37	119.31
231.604	107.31
231.838	115.31
232.072	99.31
232.306	107.31
232.541	116.31
232.775	109.31
233.009	106.31
233.243	108.31
233.477	123.31
233.711	114.31
233.945	122.31
234.179	110.31
234.413	122.31
234.647	122.31
234.881	107.31
235.115	109.31
235.349	104.31
235.583	123.31
235.817	120.31
236.051	125.31
236.285	118.31
236.519	120.31
236.753	120.31
236.987	138.31
237.221	171.31
237.455	214.31
237.689	159.31
237.922	134.31
238.156	111.31
238.39	121.31
238.624	103.31
238.858	123.31
239.091	119.31
239.325	111.31
239.559	116.31
239.793	115.31
240.027	123.31
240.26	142.31
240.494	144.31
240.728	154.31
240.961	131.31
241.195	136.31
241.429	120.31
241.662	138.31
241.896	128.31
242.13	138.31
242.363	126.31
242.597	106.31
242.83	125.31
243.064	121.31
243.298	126.31
243.531	118.31
243.765	121.31
243.998	132.31
244.232	125.31
244.465	131.31
244.699	127.31
244.932	125.31
245.166	131.31
245.399	135.31
245.633	134.31
245.866	141.31
246.099	120.31
246.333	149.31
246.566	139.31
246.8	133.31
247.033	155.31
247.266	146.31
247.5	146.31
247.733	149.31
247.966	157.31
248.2	152.31
248.433	152.31
248.666	144.31
248.899	155.31
249.133	163.31
249.366	181.31
249.599	177.31
249.832	169.31
250.066	172.31
250.299	164.31
250.532	184.31
250.765	173.31
250.998	179.31
251.231	207.31
251.465	187.31
251.698	169.31
251.931	164.31
252.164	193.31
252.397	171.31
252.63	180.31
252.863	175.31
253.096	179.31
253.329	195.31
253.562	204.31
253.795	182.31
254.028	188.31
254.261	200.31
254.494	212.31
254.727	233.31
254.96	239.31
255.193	245.31
255.426	208.31
255.659	201.31
255.892	192.31
256.124	201.31
256.357	207.31
256.59	183.31
256.823	183.31
257.056	187.31
257.289	179.31
257.521	184.31
257.754	166.31
257.987	196.31
258.22	167.31
258.452	186.31
258.685	173.31
258.918	187.31
259.151	170.31
259.383	186.31
259.616	174.31
259.849	187.31
260.081	193.31
260.314	207.31
260.547	220.31
260.779	209.31
261.012	204.31
261.244	198.31
261.477	214.31
261.71	199.31
261.942	187.31
262.175	187.31
262.407	188.31
262.64	188.31
262.872	187.31
263.105	191.31
263.337	194.31
263.57	174.31
263.802	197.31
264.035	174.31
264.267	181.31
264.499	176.31
264.732	194.31
264.964	185.31
265.197	197.31
265.429	191.31
265.661	175.31
265.894	174.31
266.126	168.31
266.358	172.31
266.591	198.31
266.823	195.31
267.055	179.31
267.287	206.31
267.52	193.31
267.752	202.31
267.984	199.31
268.216	194.31
268.448	180.31
268.681	187.31
268.913	206.31
269.145	205.31
269.377	232.31
269.609	228.31
269.841	226.31
270.073	225.31
270.306	255.31
270.538	276.31
270.77	278.31
271.002	263.31
271.234	253.31
271.466	262.31
271.698	245.31
271.93	257.31
272.162	252.31
272.394	285.31
272.626	260.31
272.858	259.31
273.09	237.31
273.322	221.31
273.553	221.31
273.785	227.31
274.017	224.31
274.249	226.31
274.481	223.31
274.713	243.31
274.945	232.31
275.176	249.31
275.408	208.31
275.64	225.31
275.872	221.31
276.104	219.31
276.335	220.31
276.567	204.31
276.799	238.31
277.031	248.31
277.262	266.31
277.494	269.31
277.726	245.31
277.957	248.31
278.189	211.31
278.421	210.31
278.652	219.31
278.884	227.31
279.115	223.31
279.347	229.31
279.579	212.31
279.81	205.31
280.042	220.31
280.273	239.31
280.505	212.31
280.736	217.31
280.968	199.31
281.199	225.31
281.431	224.31
281.662	214.31
281.894	240.31
282.125	226.31
282.356	219.31
282.588	251.31
282.819	250.31
283.051	245.31
283.282	218.31
283.513	235.31
283.745	222.31
283.976	241.31
284.207	223.31
284.439	245.31
284.67	223.31
284.901	205.31
285.132	233.31
285.364	217.31
285.595	218.31
285.826	219.31
286.057	221.31
286.288	212.31
286.52	240.31
286.751	222.31
286.982	227.31
287.213	227.31
287.444	245.31
287.675	235.31
287.906	229.31
288.138	256.31
288.369	249.31
288.6	262.31
288.831	245.31
289.062	245.31
289.293	243.31
289.524	235.31
289.755	243.31
289.986	228.31
290.217	246.31
290.448	238.31
290.679	221.31
290.91	218.31
291.141	241.31
291.371	229.31
291.602	221.31
291.833	231.31
292.064	238.31
292.295	248.31
292.526	233.31
292.757	233.31
292.987	245.31
293.218	219.31
293.449	239.31
293.68	238.31
293.91	240.31
294.141	224.31
294.372	228.31
294.603	259.31
294.833	259.31
295.064	239.31
295.295	231.31
295.525	247.31
295.756	234.31
295.987	247.31
296.217	275.31
296.448	284.31
296.679	244.31
296.909	241.31
297.14	256.31
297.37	231.31
297.601	262.31
297.831	245.31
298.062	265.31
298.292	238.31
298.523	248.31
298.753	256.31
298.984	243.31
299.214	253.31
299.445	255.31
299.675	252.31
299.905	253.31
300.136	260.31
300.366	256.31
300.597	264.31
300.827	259.31
301.057	260.31
301.288	274.31
301.518	249.31
301.748	257.31
301.979	267.31
302.209	257.31
302.439	278.31
302.669	267.31
302.9	259.31
303.13	269.31
303.36	267.31
303.59	271.31
303.82	285.31
304.051	261.31
304.281	271.31
304.511	262.31
304.741	277.31
304.971	261.31
305.201	263.31
305.431	248.31
305.661	262.31
305.891	257.31
306.121	252.31
306.352	273.31
306.582	274.31
306.812	266.31
307.042	275.31
307.272	256.31
307.502	263.31
307.731	283.31
307.961	265.31
308.191	278.31
308.421	280.31
308.651	279.31
308.881	274.31
309.111	253.31
309.341	292.31
309.571	290.31
309.8	315.31
310.03	325.31
310.26	305.31
310.49	313.31
310.72	333.31
310.949	343.31
311.179	347.31
311.409	321.31
311.639	321.31
311.868	313.31
312.098	318.31
312.328	342.31
312.557	343.31
312.787	353.31
313.017	338.31
313.246	328.31
313.476	332.31
313.706	318.31
313.935	340.31
314.165	324.31
314.394	348.31
314.624	323.31
314.853	321.31
315.083	327.31
315.312	312.31
315.542	324.31
315.771	303.31
316.001	301.31
316.23	311.31
316.46	298.31
316.689	295.31
316.919	316.31
317.148	327.31
317.377	317.31
317.607	335.31
317.836	315.31
318.065	308.31
318.295	307.31
318.524	308.31
318.753	321.31
318.983	313.31
319.212	302.31
319.441	305.31
319.67	323.31
319.9	324.31
320.129	294.31
320.358	313.31
320.587	325.31
320.816	325.31
321.046	349.31
321.275	341.31
321.504	335.31
321.733	339.31
321.962	348.31
322.191	366.31
322.42	360.31
322.649	390.31
322.878	420.31
323.108	407.31
323.337	454.31
323.566	446.31
323.795	473.31
324.024	542.31
324.253	669.31
324.482	1006.31
324.71	1583.31
324.939	2145.31
325.168	1774.31
325.397	933.31
325.626	616.31
325.855	524.31
326.084	485.31
326.313	452.31
326.542	467.31
326.77	547.31
326.999	609.31
327.228	889.31
327.457	1353.31
327.686	1619.31
327.914	1049.31
328.143	705.31
328.372	612.31
328.6	560.31
328.829	544.31
329.058	546.31
329.287	537.31
329.515	496.31
329.744	453.31
329.972	445.31
330.201	485.31
330.43	523.31
330.658	543.31
330.887	578.31
331.115	544.31
331.344	466.31
331.572	406.31
331.801	444.31
332.03	426.31
332.258	403.31
332.486	392.31
332.715	381.31
332.943	383.31
333.172	402.31
333.4	390.31
333.629	396.31
333.857	420.31
334.085	414.31
334.314	435.31
334.542	461.31
334.771	472.31
334.999	427.31
335.227	401.31
335.455	382.31
335.684	375.31
335.912	359.31
336.14	360.31
336.369	348.31
336.597	375.31
336.825	379.31
337.053	367.31
337.281	358.31
337.51	373.31
337.738	357.31
337.966	347.31
338.194	377.31
338.422	377.31
338.65	363.31
338.878	349.31
339.106	329.31
339.334	363.31
339.562	357.31
339.79	340.31
340.018	362.31
340.246	355.31
340.474	394.31
340.702	372.31
340.93	362.31
341.158	359.31
341.386	351.31
341.614	358.31
341.842	369.31
342.07	335.31
342.298	348.31
342.526	354.31
342.754	339.31
342.981	355.31
343.209	326.31
343.437	334.31
343.665	339.31
343.893	344.31
344.12	344.31
344.348	350.31
344.576	372.31
344.804	365.31
345.031	368.31
345.259	377.31
345.487	383.31
345.714	375.31
345.942	352.31
346.17	332.31
346.397	328.31
346.625	365.31
346.853	337.31
347.08	335.31
347.308	358.31
347.535	360.31
347.763	354.31
347.99	351.31
348.218	363.31
348.445	373.31
348.673	354.31
348.9	348.31
349.128	349.31
349.355	328.31
349.583	335.31
349.81	333.31
350.037	368.31
350.265	347.31
350.492	334.31
350.72	357.31
350.947	334.31
351.174	327.31
351.402	344.31
351.629	356.31
351.856	368.31
352.083	361.31
352.311	354.31
352.538	366.31
352.765	371.31
352.992	352.31
353.22	361.31
353.447	343.31
353.674	332.31
353.901	341.31
354.128	316.31
354.355	324.31
354.583	330.31
354.81	293.31
355.037	324.31
355.264	311.31
355.491	328.31
355.718	317.31
355.945	293.31
356.172	330.31
356.399	337.31
356.626	312.31
356.853	310.31
357.08	317.31
357.307	314.31
357.534	305.31
357.761	319.31
357.988	319.31
358.215	313.31
358.441	325.31
358.668	323.31
358.895	322.31
359.122	335.31
359.349	340.31
359.576	364.31
359.802	378.31
360.029	371.31
360.256	416.31
360.483	379.31
360.709	366.31
360.936	359.31
361.163	359.31
361.39	339.31
361.616	364.31
361.843	351.31
362.07	361.31
362.296	356.31
362.523	351.31
362.749	355.31
362.976	334.31
363.203	327.31
363.429	348.31
363.656	323.31
363.882	349.31
364.109	344.31
364.335	334.31
364.562	336.31
364.788	323.31
365.015	340.31
365.241	327.31
365.468	348.31
365.694	335.31
365.92	344.31
366.147	335.31
366.373	313.31
366.599	326.31
366.826	335.31
367.052	343.31
367.278	342.31
367.505	330.31
367.731	326.31
367.957	343.31
368.184	335.31
368.41	351.31
368.636	348.31
368.862	351.31
369.089	332.31
369.315	323.31
369.541	326.31
369.767	346.31
369.993	320.31
370.219	322.31
370.445	326.31
370.672	325.31
370.898	337.31
371.124	311.31
371.35	307.31
371.576	320.31
371.802	321.31
372.028	320.31
372.254	318.31
372.48	325.31
372.706	313.31
372.932	317.31
373.158	329.31
373.384	329.31
373.61	316.31
373.835	335.31
374.061	314.31
374.287	335.31
374.513	317.31
374.739	328.31
374.965	337.31
375.191	305.31
375.416	333.31
375.642	332.31
375.868	337.31
376.094	344.31
376.319	327.31
376.545	312.31
376.771	301.31
376.997	323.31
377.222	325.31
377.448	317.31
377.674	314.31
377.899	324.31
378.125	317.31
378.35	307.31
378.576	303.31
378.802	329.31
379.027	325.31
379.253	315.31
379.478	304.31
379.704	309.31
379.929	326.31
380.155	323.31
380.38	324.31
380.606	310.31
380.831	314.31
381.057	321.31
381.282	315.31
381.507	307.31
381.733	316.31
381.958	304.31
382.184	329.31
382.409	317.31
382.634	329.31
382.86	347.31
383.085	328.31
383.31	319.31
383.535	341.31
383.761	329.31
383.986	348.31
384.211	336.31
384.436	328.31
384.662	326.31
384.887	327.31
385.112	330.31
385.337	344.31
385.562	353.31
385.787	347.31
386.013	351.31
386.238	342.31
386.463	366.31
386.688	346.31
386.913	357.31
387.138	338.31
387.363	341.31
387.588	347.31
387.813	345.31
388.038	332.31
388.263	348.31
388.488	350.31
388.713	332.31
388.938	348.31
389.163	363.31
389.387	372.31
389.612	337.31
389.837	320.31
390.062	341.31
390.287	343.31
390.512	347.31
390.736	350.31
390.961	345.31
391.186	357.31
391.411	360.31
391.636	364.31
391.86	342.31
392.085	340.31
392.31	350.31
392.534	340.31
392.759	351.31
392.984	369.31
393.208	375.31
393.433	355.31
393.658	367.31
393.882	344.31
394.107	341.31
394.331	371.31
394.556	365.31
394.78	363.31
395.005	357.31
395.229	355.31
395.454	349.31
395.678	349.31
395.903	377.31
396.127	382.31
396.352	385.31
396.576	366.31
396.801	344.31
397.025	354.31
397.249	349.31
397.474	351.31
397.698	365.31
397.922	391.31
398.147	398.31
398.371	387.31
398.595	393.31
398.82	396.31
399.044	394.31
399.268	413.31
399.492	425.31
399.717	423.31
399.941	457.31
400.165	489.31
400.389	473.31
400.613	462.31
400.837	406.31
401.062	393.31
401.286	389.31
401.51	388.31
401.734	378.31
401.958	410.31
402.182	412.31
402.406	428.31
402.63	423.31
402.854	411.31
403.078	407.31
403.302	393.31
403.526	412.31
403.75	397.31
403.974	419.31
404.198	400.31
404.422	402.31
404.645	421.31
404.869	408.31
405.093	437.31
405.317	481.31
405.541	492.31
405.765	462.31
405.988	442.31
406.212	435.31
406.436	459.31
406.66	465.31
406.883	444.31
407.107	493.31
407.331	504.31
407.555	571.31
407.778	540.31
408.002	496.31
408.226	465.31
408.449	483.31
408.673	461.31
408.896	485.31
409.12	515.31
409.344	457.31
409.567	434.31
409.791	406.31
410.014	406.31
410.238	415.31
410.461	414.31
410.685	407.31
410.908	426.31
411.132	475.31
411.355	488.31
411.578	481.31
411.802	439.31
412.025	420.31
412.249	433.31
412.472	421.31
412.695	479.31
412.919	477.31
413.142	419.31
413.365	415.31
413.589	405.31
413.812	411.31
414.035	394.31
414.258	397.31
414.482	399.31
414.705	380.31
414.928	387.31
415.151	375.31
415.374	388.31
415.597	374.31
415.821	404.31
416.044	385.31
416.267	368.31
416.49	383.31
416.713	385.31
416.936	377.31
417.159	392.31
417.382	392.31
417.605	368.31
417.828	394.31
418.051	396.31
418.274	411.31
418.497	399.31
418.72	394.31
418.943	390.31
419.166	410.31
419.389	402.31
419.611	404.31
419.834	393.31
420.057	423.31
420.28	404.31
420.503	402.31
420.726	414.31
420.948	431.31
421.171	441.31
421.394	499.31
421.617	436.31
421.839	392.31
422.062	408.31
422.285	405.31
422.507	440.31
422.73	535.31
422.953	496.31
423.175	443.31
423.398	430.31
423.621	428.31
423.843	463.31
424.066	449.31
424.288	436.31
424.511	459.31
424.733	503.31
424.956	571.31
425.178	546.31
425.401	575.31
425.623	570.31
425.846	480.31
426.068	468.31
426.291	477.31
426.513	460.31
426.735	437.31
426.958	480.31
427.18	576.31
427.402	673.31
427.625	728.31
427.847	671.31
428.069	589.31
428.292	520.31
428.514	459.31
428.736	456.31
428.958	439.31
429.181	411.31
429.403	415.31
429.625	419.31
429.847	473.31
430.069	511.31
430.292	496.31
430.514	433.31
430.736	396.31
430.958	417.31
431.18	412.31
431.402	399.31
431.624	385.31
431.846	381.31
432.068	381.31
432.29	385.31
432.512	390.31
432.734	379.31
432.956	391.31
433.178	414.31
433.4	389.31
433.622	391.31
433.844	392.31
434.066	393.31
434.287	394.31
434.509	391.31
434.731	419.31
434.953	420.31
435.175	428.31
435.397	461.31
435.618	455.31
435.84	494.31
436.062	580.31
436.284	628.31
436.505	540.31
436.727	441.31
436.949	456.31
437.17	429.31
437.392	438.31
437.614	439.31
437.835	472.31
438.057	569.31
438.278	648.31
438.5	648.31
438.721	703.31
438.943	649.31
439.165	524.31
439.386	499.31
439.608	489.31
439.829	476.31
440.05	515.31
440.272	547.31
440.493	495.31
440.715	478.31
440.936	429.31
441.158	430.31
441.379	432.31
441.6	451.31
441.822	460.31
442.043	505.31
442.264	563.31
442.486	592.31
442.707	517.31
442.928	475.31
443.149	461.31
443.371	515.31
443.592	553.31
443.813	605.31
444.034	652.31
444.255	547.31
444.476	464.31
444.698	461.31
444.919	454.31
445.14	558.31
445.361	520.31
445.582	521.31
445.803	558.31
446.024	649.31
446.245	659.31
446.466	610.31
446.687	493.31
446.908	483.31
447.129	454.31
447.35	413.31
447.571	429.31
447.792	433.31
448.013	437.31
448.234	441.31
448.455	506.31
448.675	585.31
448.896	671.31
449.117	561.31
449.338	533.31
449.559	628.31
449.779	697.31
450	583.31
450.221	488.31
450.442	433.31
450.662	424.31
450.883	439.31
451.104	459.31
451.324	431.31
451.545	428.31
451.766	407.31
451.986	410.31
452.207	393.31
452.428	385.31
452.648	391.31
452.869	374.31
453.089	398.31
453.31	409.31
453.53	384.31
453.751	387.31
453.971	405.31
454.192	445.31
454.412	405.31
454.633	378.31
454.853	380.31
455.073	366.31
455.294	431.31
455.514	488.31
455.734	444.31
455.955	401.31
456.175	376.31
456.395	347.31
456.616	337.31
456.836	375.31
457.056	369.31
457.276	348.31
457.497	371.31
457.717	361.31
457.937	379.31
458.157	360.31
458.377	368.31
458.598	395.31
458.818	451.31
459.038	522.31
459.258	537.31
459.478	437.31
459.698	422.31
459.918	397.31
460.138	391.31
460.358	386.31
460.578	382.31
460.798	390.31
461.018	395.31
461.238	400.31
461.458	388.31
461.678	392.31
461.898	385.31
462.118	418.31
462.338	411.31
462.558	389.31
462.777	391.31
462.997	414.31
463.217	408.31
463.437	411.31
463.657	400.31
463.876	423.31
464.096	398.31
464.316	414.31
464.536	408.31
464.755	434.31
464.975	439.31
465.195	494.31
465.414	571.31
465.634	495.31
465.854	437.31
466.073	444.31
466.293	415.31
466.512	398.31
466.732	391.31
466.951	411.31
467.171	378.31
467.391	398.31
467.61	403.31
467.829	393.31
468.049	419.31
468.268	418.31
468.488	399.31
468.707	386.31
468.927	374.31
469.146	374.31
469.365	377.31
469.585	394.31
469.804	394.31
470.023	406.31
470.243	411.31
470.462	390.31
470.681	427.31
470.901	399.31
471.12	412.31
471.339	420.31
471.558	379.31
471.777	387.31
471.997	385.31
472.216	412.31
472.435	442.31
472.654	448.31
472.873	422.31
473.092	409.31
473.311	402.31
473.53	404.31
473.749	421.31
473.968	427.31
474.187	540.31
474.406	560.31
474.625	475.31
474.844	428.31
475.063	411.31
475.282	407.31
475.501	412.31
475.72	399.31
475.939	394.31
476.158	419.31
476.377	415.31
476.596	409.31
476.814	411.31
477.033	423.31
477.252	425.31
477.471	386.31
477.69	390.31
477.908	418.31
478.127	424.31
478.346	435.31
478.564	433.31
478.783	431.31
479.002	455.31
479.22	441.31
479.439	465.31
479.658	473.31
479.876	499.31
480.095	483.31
480.313	488.31
480.532	491.31
480.751	469.31
480.969	484.31
481.188	573.31
481.406	603.31
481.624	525.31
481.843	501.31
482.061	489.31
482.28	460.31
482.498	486.31
482.717	449.31
482.935	450.31
483.153	455.31
483.372	463.31
483.59	478.31
483.808	444.31
484.027	445.31
484.245	471.31
484.463	464.31
484.681	483.31
484.9	460.31
485.118	485.31
485.336	467.31
485.554	479.31
485.772	482.31
485.99	480.31
486.209	485.31
486.427	462.31
486.645	490.31
486.863	502.31
487.081	507.31
487.299	503.31
487.517	476.31
487.735	488.31
487.953	488.31
488.171	508.31
488.389	495.31
488.607	501.31
488.825	504.31
489.043	511.31
489.261	523.31
489.479	490.31
489.696	507.31
489.914	523.31
490.132	527.31
490.35	516.31
490.568	539.31
490.786	523.31
491.003	522.31
491.221	556.31
491.439	550.31
491.657	565.31
491.874	556.31
492.092	570.31
492.31	570.31
492.527	569.31
492.745	579.31
492.963	569.31
493.18	564.31
493.398	560.31
493.615	584.31
493.833	592.31
494.05	589.31
494.268	584.31
494.485	587.31
494.703	582.31
494.92	560.31
495.138	588.31
495.355	590.31
495.573	584.31
495.79	582.31
496.008	585.31
496.225	586.31
496.442	602.31
496.66	616.31
496.877	592.31
497.094	621.31
497.312	607.31
497.529	603.31
497.746	620.31
497.963	630.31
498.181	627.31
498.398	652.31
498.615	640.31
498.832	634.31
499.049	635.31
499.267	649.31
499.484	652.31
499.701	681.31
499.918	710.31
500.135	698.31
500.352	729.31
500.569	734.31
500.786	741.31
501.003	722.31
501.22	708.31
501.437	706.31
501.654	724.31
501.871	732.31
