Data from 1961.PennyLincolnUp.Lamp.En5.5.200Scan.071719.P1._HRD10591_13-47-21-057.txt Node
Date: Thu Jul 18 13:47:21 EDT 2019
User: cochatt
Spectrometer: HR+D1059
Trigger mode: 1
Integration Time (sec): 1.000000E-1
Scans to average: 1
Electric dark correction enabled: true
Nonlinearity correction enabled: false
Boxcar width: 0
XAxis mode: Wavelengths
Number of Pixels in Spectrum: 2048
>>>>>Begin Spectral Data<<<<<
223.165	-12.62
223.4	-12.62
223.635	-12.62
223.869	-25.62
224.104	-6.62
224.338	-13.62
224.573	-8.62
224.808	-0.62
225.042	6.38
225.277	-1.62
225.511	-0.62
225.746	-2.62
225.98	4.38
226.215	20.38
226.449	-0.62
226.683	3.38
226.918	22.38
227.152	16.38
227.387	31.38
227.621	38.38
227.856	37.38
228.09	49.38
228.324	40.38
228.559	67.38
228.793	64.38
229.027	105.38
229.262	100.38
229.496	112.38
229.73	122.38
229.964	138.38
230.199	121.38
230.433	102.38
230.667	104.38
230.901	103.38
231.136	107.38
231.37	115.38
231.604	103.38
231.838	103.38
232.072	105.38
232.306	113.38
232.541	110.38
232.775	123.38
233.009	99.38
233.243	101.38
233.477	120.38
233.711	99.38
233.945	103.38
234.179	96.38
234.413	115.38
234.647	117.38
234.881	110.38
235.115	111.38
235.349	106.38
235.583	110.38
235.817	114.38
236.051	107.38
236.285	117.38
236.519	117.38
236.753	127.38
236.987	129.38
237.221	146.38
237.455	187.38
237.689	175.38
237.922	138.38
238.156	117.38
238.39	112.38
238.624	119.38
238.858	104.38
239.091	122.38
239.325	126.38
239.559	118.38
239.793	124.38
240.027	122.38
240.26	127.38
240.494	140.38
240.728	138.38
240.961	135.38
241.195	126.38
241.429	123.38
241.662	105.38
241.896	115.38
242.13	115.38
242.363	122.38
242.597	110.38
242.83	102.38
243.064	118.38
243.298	129.38
243.531	125.38
243.765	119.38
243.998	116.38
244.232	145.38
244.465	134.38
244.699	134.38
244.932	117.38
245.166	136.38
245.399	127.38
245.633	132.38
245.866	124.38
246.099	130.38
246.333	130.38
246.566	118.38
246.8	114.38
247.033	127.38
247.266	120.38
247.5	149.38
247.733	141.38
247.966	160.38
248.2	148.38
248.433	148.38
248.666	157.38
248.899	172.38
249.133	167.38
249.366	168.38
249.599	170.38
249.832	153.38
250.066	154.38
250.299	140.38
250.532	160.38
250.765	155.38
250.998	185.38
251.231	202.38
251.465	179.38
251.698	181.38
251.931	182.38
252.164	155.38
252.397	167.38
252.63	174.38
252.863	187.38
253.096	178.38
253.329	187.38
253.562	179.38
253.795	179.38
254.028	181.38
254.261	167.38
254.494	196.38
254.727	197.38
254.96	230.38
255.193	213.38
255.426	208.38
255.659	198.38
255.892	181.38
256.124	191.38
256.357	201.38
256.59	177.38
256.823	168.38
257.056	174.38
257.289	190.38
257.521	176.38
257.754	167.38
257.987	176.38
258.22	170.38
258.452	166.38
258.685	163.38
258.918	167.38
259.151	172.38
259.383	193.38
259.616	180.38
259.849	203.38
260.081	187.38
260.314	204.38
260.547	231.38
260.779	196.38
261.012	214.38
261.244	176.38
261.477	183.38
261.71	189.38
261.942	194.38
262.175	194.38
262.407	204.38
262.64	186.38
262.872	183.38
263.105	186.38
263.337	171.38
263.57	166.38
263.802	181.38
264.035	183.38
264.267	161.38
264.499	182.38
264.732	177.38
264.964	180.38
265.197	165.38
265.429	161.38
265.661	176.38
265.894	171.38
266.126	192.38
266.358	169.38
266.591	171.38
266.823	185.38
267.055	189.38
267.287	186.38
267.52	181.38
267.752	193.38
267.984	200.38
268.216	191.38
268.448	196.38
268.681	198.38
268.913	210.38
269.145	220.38
269.377	203.38
269.609	237.38
269.841	231.38
270.073	242.38
270.306	220.38
270.538	260.38
270.77	259.38
271.002	256.38
271.234	232.38
271.466	228.38
271.698	251.38
271.93	240.38
272.162	249.38
272.394	253.38
272.626	240.38
272.858	231.38
273.09	214.38
273.322	226.38
273.553	205.38
273.785	233.38
274.017	206.38
274.249	214.38
274.481	218.38
274.713	202.38
274.945	214.38
275.176	211.38
275.408	202.38
275.64	214.38
275.872	206.38
276.104	215.38
276.335	216.38
276.567	222.38
276.799	232.38
277.031	248.38
277.262	251.38
277.494	250.38
277.726	239.38
277.957	232.38
278.189	242.38
278.421	211.38
278.652	225.38
278.884	224.38
279.115	215.38
279.347	218.38
279.579	227.38
279.81	231.38
280.042	225.38
280.273	208.38
280.505	213.38
280.736	221.38
280.968	203.38
281.199	224.38
281.431	211.38
281.662	210.38
281.894	194.38
282.125	214.38
282.356	233.38
282.588	239.38
282.819	256.38
283.051	221.38
283.282	211.38
283.513	226.38
283.745	214.38
283.976	224.38
284.207	202.38
284.439	214.38
284.67	211.38
284.901	221.38
285.132	218.38
285.364	199.38
285.595	226.38
285.826	219.38
286.057	233.38
286.288	221.38
286.52	223.38
286.751	239.38
286.982	211.38
287.213	214.38
287.444	240.38
287.675	225.38
287.906	235.38
288.138	243.38
288.369	246.38
288.6	246.38
288.831	232.38
289.062	228.38
289.293	237.38
289.524	230.38
289.755	225.38
289.986	231.38
290.217	226.38
290.448	231.38
290.679	209.38
290.91	239.38
291.141	219.38
291.371	218.38
291.602	232.38
291.833	216.38
292.064	225.38
292.295	228.38
292.526	229.38
292.757	240.38
292.987	226.38
293.218	229.38
293.449	236.38
293.68	224.38
293.91	241.38
294.141	249.38
294.372	225.38
294.603	239.38
294.833	215.38
295.064	232.38
295.295	234.38
295.525	239.38
295.756	254.38
295.987	250.38
296.217	247.38
296.448	268.38
296.679	244.38
296.909	236.38
297.14	238.38
297.37	241.38
297.601	240.38
297.831	242.38
298.062	231.38
298.292	231.38
298.523	232.38
298.753	232.38
298.984	226.38
299.214	227.38
299.445	247.38
299.675	237.38
299.905	261.38
300.136	264.38
300.366	227.38
300.597	255.38
300.827	241.38
301.057	252.38
301.288	265.38
301.518	248.38
301.748	247.38
301.979	239.38
302.209	277.38
302.439	272.38
302.669	257.38
302.9	259.38
303.13	274.38
303.36	267.38
303.59	256.38
303.82	268.38
304.051	265.38
304.281	255.38
304.511	252.38
304.741	248.38
304.971	254.38
305.201	248.38
305.431	229.38
305.661	254.38
305.891	265.38
306.121	240.38
306.352	265.38
306.582	275.38
306.812	264.38
307.042	268.38
307.272	281.38
307.502	278.38
307.731	272.38
307.961	257.38
308.191	235.38
308.421	263.38
308.651	267.38
308.881	279.38
309.111	285.38
309.341	271.38
309.571	282.38
309.8	297.38
310.03	303.38
310.26	311.38
310.49	288.38
310.72	312.38
310.949	322.38
311.179	341.38
311.409	290.38
311.639	307.38
311.868	325.38
312.098	310.38
312.328	310.38
312.557	324.38
312.787	328.38
313.017	343.38
313.246	297.38
313.476	311.38
313.706	291.38
313.935	303.38
314.165	328.38
314.394	342.38
314.624	321.38
314.853	324.38
315.083	315.38
315.312	314.38
315.542	294.38
315.771	298.38
316.001	290.38
316.23	306.38
316.46	296.38
316.689	319.38
316.919	321.38
317.148	307.38
317.377	335.38
317.607	316.38
317.836	302.38
318.065	305.38
318.295	315.38
318.524	306.38
318.753	303.38
318.983	300.38
319.212	302.38
319.441	318.38
319.67	327.38
319.9	308.38
320.129	285.38
320.358	310.38
320.587	313.38
320.816	314.38
321.046	342.38
321.275	320.38
321.504	338.38
321.733	322.38
321.962	327.38
322.191	339.38
322.42	342.38
322.649	376.38
322.878	368.38
323.108	376.38
323.337	406.38
323.566	418.38
323.795	456.38
324.024	519.38
324.253	640.38
324.482	938.38
324.71	1438.38
324.939	1975.38
325.168	1688.38
325.397	858.38
325.626	585.38
325.855	486.38
326.084	452.38
326.313	440.38
326.542	454.38
326.77	489.38
326.999	606.38
327.228	842.38
327.457	1236.38
327.686	1479.38
327.914	967.38
328.143	653.38
328.372	572.38
328.6	512.38
328.829	476.38
329.058	512.38
329.287	491.38
329.515	463.38
329.744	433.38
329.972	439.38
330.201	462.38
330.43	501.38
330.658	510.38
330.887	519.38
331.115	495.38
331.344	420.38
331.572	412.38
331.801	403.38
332.03	410.38
332.258	393.38
332.486	378.38
332.715	360.38
332.943	360.38
333.172	350.38
333.4	368.38
333.629	368.38
333.857	370.38
334.085	393.38
334.314	399.38
334.542	426.38
334.771	443.38
334.999	403.38
335.227	371.38
335.455	364.38
335.684	366.38
335.912	354.38
336.14	346.38
336.369	352.38
336.597	370.38
336.825	374.38
337.053	351.38
337.281	339.38
337.51	365.38
337.738	354.38
337.966	363.38
338.194	366.38
338.422	348.38
338.65	347.38
338.878	338.38
339.106	355.38
339.334	339.38
339.562	323.38
339.79	344.38
340.018	328.38
340.246	346.38
340.474	339.38
340.702	360.38
340.93	336.38
341.158	319.38
341.386	334.38
341.614	349.38
341.842	351.38
342.07	337.38
342.298	331.38
342.526	336.38
342.754	325.38
342.981	319.38
343.209	335.38
343.437	325.38
343.665	319.38
343.893	339.38
344.12	328.38
344.348	348.38
344.576	347.38
344.804	352.38
345.031	356.38
345.259	362.38
345.487	363.38
345.714	323.38
345.942	336.38
346.17	335.38
346.397	342.38
346.625	344.38
346.853	344.38
347.08	331.38
347.308	329.38
347.535	354.38
347.763	339.38
347.99	340.38
348.218	352.38
348.445	366.38
348.673	349.38
348.9	340.38
349.128	336.38
349.355	309.38
349.583	331.38
349.81	308.38
350.037	327.38
350.265	306.38
350.492	316.38
350.72	339.38
350.947	333.38
351.174	341.38
351.402	315.38
351.629	342.38
351.856	338.38
352.083	336.38
352.311	356.38
352.538	357.38
352.765	343.38
352.992	349.38
353.22	344.38
353.447	309.38
353.674	308.38
353.901	314.38
354.128	311.38
354.355	315.38
354.583	303.38
354.81	320.38
355.037	319.38
355.264	307.38
355.491	306.38
355.718	299.38
355.945	311.38
356.172	328.38
356.399	321.38
356.626	322.38
356.853	319.38
357.08	305.38
357.307	309.38
357.534	291.38
357.761	299.38
357.988	329.38
358.215	306.38
358.441	309.38
358.668	304.38
358.895	317.38
359.122	297.38
359.349	331.38
359.576	341.38
359.802	348.38
360.029	383.38
360.256	376.38
360.483	373.38
360.709	351.38
360.936	345.38
361.163	333.38
361.39	355.38
361.616	342.38
361.843	310.38
362.07	344.38
362.296	343.38
362.523	330.38
362.749	346.38
362.976	336.38
363.203	316.38
363.429	330.38
363.656	333.38
363.882	346.38
364.109	327.38
364.335	337.38
364.562	326.38
364.788	317.38
365.015	310.38
365.241	324.38
365.468	313.38
365.694	328.38
365.92	322.38
366.147	322.38
366.373	337.38
366.599	307.38
366.826	299.38
367.052	314.38
367.278	310.38
367.505	318.38
367.731	309.38
367.957	319.38
368.184	308.38
368.41	330.38
368.636	336.38
368.862	322.38
369.089	332.38
369.315	320.38
369.541	310.38
369.767	307.38
369.993	304.38
370.219	311.38
370.445	327.38
370.672	315.38
370.898	289.38
371.124	324.38
371.35	310.38
371.576	318.38
371.802	315.38
372.028	308.38
372.254	319.38
372.48	310.38
372.706	311.38
372.932	322.38
373.158	318.38
373.384	315.38
373.61	316.38
373.835	306.38
374.061	307.38
374.287	294.38
374.513	324.38
374.739	315.38
374.965	332.38
375.191	319.38
375.416	323.38
375.642	318.38
375.868	321.38
376.094	305.38
376.319	312.38
376.545	298.38
376.771	306.38
376.997	318.38
377.222	344.38
377.448	300.38
377.674	313.38
377.899	319.38
378.125	294.38
378.35	302.38
378.576	310.38
378.802	320.38
379.027	310.38
379.253	310.38
379.478	306.38
379.704	315.38
379.929	328.38
380.155	318.38
380.38	325.38
380.606	307.38
380.831	298.38
381.057	328.38
381.282	335.38
381.507	309.38
381.733	318.38
381.958	320.38
382.184	296.38
382.409	328.38
382.634	297.38
382.86	315.38
383.085	330.38
383.31	324.38
383.535	312.38
383.761	323.38
383.986	340.38
384.211	315.38
384.436	316.38
384.662	327.38
384.887	320.38
385.112	311.38
385.337	346.38
385.562	339.38
385.787	329.38
386.013	329.38
386.238	341.38
386.463	342.38
386.688	341.38
386.913	347.38
387.138	340.38
387.363	329.38
387.588	332.38
387.813	329.38
388.038	344.38
388.263	312.38
388.488	329.38
388.713	340.38
388.938	352.38
389.163	346.38
389.387	338.38
389.612	338.38
389.837	324.38
390.062	354.38
390.287	326.38
390.512	339.38
390.736	338.38
390.961	338.38
391.186	334.38
391.411	339.38
391.636	325.38
391.86	341.38
392.085	342.38
392.31	339.38
392.534	341.38
392.759	348.38
392.984	340.38
393.208	342.38
393.433	326.38
393.658	343.38
393.882	351.38
394.107	345.38
394.331	351.38
394.556	351.38
394.78	359.38
395.005	346.38
395.229	359.38
395.454	348.38
395.678	352.38
395.903	370.38
396.127	389.38
396.352	389.38
396.576	372.38
396.801	346.38
397.025	351.38
397.249	366.38
397.474	361.38
397.698	373.38
397.922	378.38
398.147	390.38
398.371	411.38
398.595	366.38
398.82	368.38
399.044	375.38
399.268	393.38
399.492	404.38
399.717	419.38
399.941	436.38
400.165	448.38
400.389	490.38
400.613	433.38
400.837	396.38
401.062	400.38
401.286	392.38
401.51	409.38
401.734	388.38
401.958	386.38
402.182	384.38
402.406	403.38
402.63	414.38
402.854	393.38
403.078	375.38
403.302	386.38
403.526	410.38
403.75	397.38
403.974	423.38
404.198	387.38
404.422	401.38
404.645	403.38
404.869	434.38
405.093	436.38
405.317	460.38
405.541	478.38
405.765	444.38
405.988	441.38
406.212	441.38
406.436	462.38
406.66	448.38
406.883	439.38
407.107	460.38
407.331	483.38
407.555	525.38
407.778	519.38
408.002	486.38
408.226	468.38
408.449	435.38
408.673	449.38
408.896	461.38
409.12	481.38
409.344	456.38
409.567	436.38
409.791	419.38
410.014	408.38
410.238	424.38
410.461	414.38
410.685	420.38
410.908	414.38
411.132	430.38
411.355	474.38
411.578	451.38
411.802	420.38
412.025	391.38
412.249	415.38
412.472	439.38
412.695	454.38
412.919	432.38
413.142	436.38
413.365	384.38
413.589	409.38
413.812	398.38
414.035	388.38
414.258	386.38
414.482	385.38
414.705	375.38
414.928	371.38
415.151	376.38
415.374	377.38
415.597	370.38
415.821	386.38
416.044	392.38
416.267	382.38
416.49	378.38
416.713	361.38
416.936	393.38
417.159	388.38
417.382	407.38
417.605	396.38
417.828	407.38
418.051	392.38
418.274	401.38
418.497	386.38
418.72	403.38
418.943	387.38
419.166	377.38
419.389	394.38
419.611	397.38
419.834	388.38
420.057	391.38
420.28	402.38
420.503	407.38
420.726	404.38
420.948	419.38
421.171	437.38
421.394	448.38
421.617	419.38
421.839	410.38
422.062	400.38
422.285	415.38
422.507	447.38
422.73	510.38
422.953	490.38
423.175	434.38
423.398	429.38
423.621	428.38
423.843	424.38
424.066	431.38
424.288	448.38
424.511	441.38
424.733	487.38
424.956	566.38
425.178	543.38
425.401	546.38
425.623	537.38
425.846	491.38
426.068	471.38
426.291	439.38
426.513	451.38
426.735	458.38
426.958	499.38
427.18	544.38
427.402	638.38
427.625	708.38
427.847	644.38
428.069	568.38
428.292	483.38
428.514	435.38
428.736	439.38
428.958	409.38
429.181	410.38
429.403	412.38
429.625	407.38
429.847	438.38
430.069	519.38
430.292	494.38
430.514	414.38
430.736	400.38
430.958	400.38
431.18	376.38
431.402	397.38
431.624	394.38
431.846	388.38
432.068	382.38
432.29	390.38
432.512	393.38
432.734	383.38
432.956	390.38
433.178	405.38
433.4	416.38
433.622	406.38
433.844	380.38
434.066	398.38
434.287	395.38
434.509	400.38
434.731	403.38
434.953	383.38
435.175	407.38
435.397	416.38
435.618	440.38
435.84	470.38
436.062	555.38
436.284	601.38
436.505	490.38
436.727	444.38
436.949	430.38
437.17	402.38
437.392	408.38
437.614	406.38
437.835	458.38
438.057	552.38
438.278	604.38
438.5	607.38
438.721	667.38
438.943	629.38
439.165	498.38
439.386	453.38
439.608	454.38
439.829	457.38
440.05	484.38
440.272	530.38
440.493	501.38
440.715	460.38
440.936	406.38
441.158	423.38
441.379	409.38
441.6	440.38
441.822	440.38
442.043	467.38
442.264	546.38
442.486	568.38
442.707	490.38
442.928	469.38
443.149	470.38
443.371	485.38
443.592	518.38
443.813	569.38
444.034	638.38
444.255	509.38
444.476	478.38
444.698	444.38
444.919	444.38
445.14	501.38
445.361	488.38
445.582	487.38
445.803	515.38
446.024	617.38
446.245	609.38
446.466	560.38
446.687	470.38
446.908	443.38
447.129	422.38
447.35	412.38
447.571	415.38
447.792	411.38
448.013	425.38
448.234	435.38
448.455	459.38
448.675	559.38
448.896	650.38
449.117	558.38
449.338	525.38
449.559	619.38
449.779	681.38
450	565.38
450.221	454.38
450.442	417.38
450.662	404.38
450.883	424.38
451.104	436.38
451.324	409.38
451.545	404.38
451.766	387.38
451.986	417.38
452.207	355.38
452.428	368.38
452.648	366.38
452.869	375.38
453.089	386.38
453.31	382.38
453.53	377.38
453.751	385.38
453.971	377.38
454.192	412.38
454.412	396.38
454.633	366.38
454.853	384.38
455.073	374.38
455.294	410.38
455.514	457.38
455.734	434.38
455.955	394.38
456.175	370.38
456.395	360.38
456.616	348.38
456.836	348.38
457.056	338.38
457.276	340.38
457.497	346.38
457.717	362.38
457.937	343.38
458.157	368.38
458.377	370.38
458.598	388.38
458.818	425.38
459.038	522.38
459.258	541.38
459.478	432.38
459.698	398.38
459.918	380.38
460.138	407.38
460.358	376.38
460.578	372.38
460.798	404.38
461.018	385.38
461.238	379.38
461.458	375.38
461.678	389.38
461.898	396.38
462.118	379.38
462.338	387.38
462.558	419.38
462.777	406.38
462.997	402.38
463.217	425.38
463.437	419.38
463.657	385.38
463.876	407.38
464.096	416.38
464.316	415.38
464.536	406.38
464.755	434.38
464.975	432.38
465.195	464.38
465.414	552.38
465.634	448.38
465.854	445.38
466.073	419.38
466.293	390.38
466.512	377.38
466.732	392.38
466.951	395.38
467.171	370.38
467.391	374.38
467.61	386.38
467.829	406.38
468.049	403.38
468.268	384.38
468.488	388.38
468.707	388.38
468.927	370.38
469.146	370.38
469.365	367.38
469.585	370.38
469.804	370.38
470.023	394.38
470.243	377.38
470.462	380.38
470.681	410.38
470.901	404.38
471.12	390.38
471.339	403.38
471.558	400.38
471.777	408.38
471.997	362.38
472.216	370.38
472.435	434.38
472.654	422.38
472.873	389.38
473.092	415.38
473.311	394.38
473.53	397.38
473.749	402.38
473.968	445.38
474.187	514.38
474.406	538.38
474.625	430.38
474.844	414.38
475.063	394.38
475.282	385.38
475.501	387.38
475.72	393.38
475.939	405.38
476.158	399.38
476.377	415.38
476.596	399.38
476.814	419.38
477.033	389.38
477.252	415.38
477.471	411.38
477.69	427.38
477.908	406.38
478.127	442.38
478.346	418.38
478.564	399.38
478.783	417.38
479.002	430.38
479.22	432.38
479.439	462.38
479.658	472.38
479.876	469.38
480.095	481.38
480.313	476.38
480.532	482.38
480.751	483.38
480.969	486.38
481.188	529.38
481.406	598.38
481.624	530.38
481.843	480.38
482.061	477.38
482.28	471.38
482.498	469.38
482.717	463.38
482.935	452.38
483.153	450.38
483.372	459.38
483.59	447.38
483.808	459.38
484.027	438.38
484.245	454.38
484.463	463.38
484.681	475.38
484.9	472.38
485.118	472.38
485.336	467.38
485.554	473.38
485.772	459.38
485.99	451.38
486.209	458.38
486.427	489.38
486.645	487.38
486.863	504.38
487.081	492.38
487.299	484.38
487.517	498.38
487.735	486.38
487.953	492.38
488.171	487.38
488.389	503.38
488.607	479.38
488.825	482.38
489.043	481.38
489.261	512.38
489.479	489.38
489.696	498.38
489.914	493.38
490.132	512.38
490.35	505.38
490.568	517.38
490.786	545.38
491.003	535.38
491.221	539.38
491.439	540.38
491.657	544.38
491.874	537.38
492.092	560.38
492.31	564.38
492.527	548.38
492.745	564.38
492.963	570.38
493.18	563.38
493.398	585.38
493.615	554.38
493.833	556.38
494.05	593.38
494.268	551.38
494.485	572.38
494.703	569.38
494.92	561.38
495.138	583.38
495.355	576.38
495.573	587.38
495.79	567.38
496.008	558.38
496.225	578.38
496.442	586.38
496.66	574.38
496.877	597.38
497.094	573.38
497.312	582.38
497.529	602.38
497.746	590.38
497.963	586.38
498.181	630.38
498.398	620.38
498.615	622.38
498.832	611.38
499.049	633.38
499.267	641.38
499.484	645.38
499.701	679.38
499.918	703.38
500.135	700.38
500.352	717.38
500.569	723.38
500.786	747.38
501.003	726.38
501.22	712.38
501.437	703.38
501.654	733.38
501.871	703.38
502.088	689.38
