Data from 1961.PennyLincolnUp.Lamp.En5.5.200Scan.071719.P1._HRD10591_13-46-44-057.txt Node
Date: Thu Jul 18 13:46:44 EDT 2019
User: cochatt
Spectrometer: HR+D1059
Trigger mode: 1
Integration Time (sec): 1.000000E-1
Scans to average: 1
Electric dark correction enabled: true
Nonlinearity correction enabled: false
Boxcar width: 0
XAxis mode: Wavelengths
Number of Pixels in Spectrum: 2048
>>>>>Begin Spectral Data<<<<<
223.165	-17.56
223.4	-17.56
223.635	-17.56
223.869	-19.56
224.104	-6.56
224.338	-10.56
224.573	-12.56
224.808	0.44
225.042	-9.56
225.277	-12.56
225.511	-10.56
225.746	6.44
225.98	8.44
226.215	3.44
226.449	4.44
226.683	30.44
226.918	11.44
227.152	34.44
227.387	41.44
227.621	48.44
227.856	52.44
228.09	42.44
228.324	60.44
228.559	80.44
228.793	64.44
229.027	74.44
229.262	87.44
229.496	116.44
229.73	116.44
229.964	131.44
230.199	122.44
230.433	115.44
230.667	100.44
230.901	108.44
231.136	86.44
231.37	102.44
231.604	103.44
231.838	105.44
232.072	120.44
232.306	105.44
232.541	109.44
232.775	106.44
233.009	108.44
233.243	104.44
233.477	109.44
233.711	104.44
233.945	96.44
234.179	105.44
234.413	112.44
234.647	114.44
234.881	103.44
235.115	101.44
235.349	118.44
235.583	105.44
235.817	106.44
236.051	109.44
236.285	107.44
236.519	116.44
236.753	121.44
236.987	120.44
237.221	150.44
237.455	204.44
237.689	145.44
237.922	119.44
238.156	133.44
238.39	106.44
238.624	104.44
238.858	117.44
239.091	99.44
239.325	111.44
239.559	96.44
239.793	112.44
240.027	107.44
240.26	130.44
240.494	134.44
240.728	116.44
240.961	131.44
241.195	124.44
241.429	118.44
241.662	108.44
241.896	102.44
242.13	117.44
242.363	112.44
242.597	117.44
242.83	120.44
243.064	121.44
243.298	107.44
243.531	118.44
243.765	125.44
243.998	130.44
244.232	98.44
244.465	107.44
244.699	109.44
244.932	122.44
245.166	137.44
245.399	122.44
245.633	114.44
245.866	119.44
246.099	121.44
246.333	126.44
246.566	118.44
246.8	116.44
247.033	129.44
247.266	128.44
247.5	142.44
247.733	140.44
247.966	141.44
248.2	153.44
248.433	131.44
248.666	133.44
248.899	152.44
249.133	152.44
249.366	168.44
249.599	149.44
249.832	140.44
250.066	152.44
250.299	135.44
250.532	152.44
250.765	175.44
250.998	165.44
251.231	170.44
251.465	174.44
251.698	163.44
251.931	155.44
252.164	178.44
252.397	148.44
252.63	165.44
252.863	161.44
253.096	142.44
253.329	174.44
253.562	173.44
253.795	179.44
254.028	160.44
254.261	160.44
254.494	164.44
254.727	200.44
254.96	204.44
255.193	201.44
255.426	184.44
255.659	172.44
255.892	168.44
256.124	179.44
256.357	192.44
256.59	188.44
256.823	179.44
257.056	163.44
257.289	170.44
257.521	162.44
257.754	157.44
257.987	165.44
258.22	156.44
258.452	173.44
258.685	168.44
258.918	166.44
259.151	153.44
259.383	162.44
259.616	168.44
259.849	190.44
260.081	184.44
260.314	188.44
260.547	190.44
260.779	192.44
261.012	167.44
261.244	180.44
261.477	176.44
261.71	164.44
261.942	165.44
262.175	176.44
262.407	180.44
262.64	177.44
262.872	165.44
263.105	162.44
263.337	176.44
263.57	165.44
263.802	167.44
264.035	174.44
264.267	169.44
264.499	164.44
264.732	164.44
264.964	167.44
265.197	176.44
265.429	148.44
265.661	182.44
265.894	164.44
266.126	170.44
266.358	154.44
266.591	170.44
266.823	177.44
267.055	155.44
267.287	188.44
267.52	181.44
267.752	176.44
267.984	172.44
268.216	168.44
268.448	166.44
268.681	182.44
268.913	189.44
269.145	180.44
269.377	202.44
269.609	202.44
269.841	170.44
270.073	210.44
270.306	216.44
270.538	225.44
270.77	225.44
271.002	224.44
271.234	215.44
271.466	218.44
271.698	231.44
271.93	253.44
272.162	217.44
272.394	240.44
272.626	203.44
272.858	214.44
273.09	225.44
273.322	213.44
273.553	215.44
273.785	188.44
274.017	193.44
274.249	202.44
274.481	191.44
274.713	205.44
274.945	196.44
275.176	201.44
275.408	195.44
275.64	196.44
275.872	192.44
276.104	203.44
276.335	204.44
276.567	213.44
276.799	207.44
277.031	213.44
277.262	232.44
277.494	232.44
277.726	203.44
277.957	207.44
278.189	213.44
278.421	200.44
278.652	197.44
278.884	205.44
279.115	203.44
279.347	202.44
279.579	194.44
279.81	197.44
280.042	192.44
280.273	207.44
280.505	203.44
280.736	197.44
280.968	199.44
281.199	212.44
281.431	210.44
281.662	208.44
281.894	201.44
282.125	216.44
282.356	219.44
282.588	224.44
282.819	226.44
283.051	194.44
283.282	197.44
283.513	211.44
283.745	198.44
283.976	211.44
284.207	196.44
284.439	223.44
284.67	204.44
284.901	197.44
285.132	207.44
285.364	203.44
285.595	204.44
285.826	203.44
286.057	211.44
286.288	198.44
286.52	199.44
286.751	219.44
286.982	195.44
287.213	214.44
287.444	211.44
287.675	217.44
287.906	219.44
288.138	221.44
288.369	214.44
288.6	216.44
288.831	217.44
289.062	215.44
289.293	214.44
289.524	204.44
289.755	209.44
289.986	198.44
290.217	205.44
290.448	200.44
290.679	232.44
290.91	210.44
291.141	203.44
291.371	220.44
291.602	228.44
291.833	213.44
292.064	193.44
292.295	210.44
292.526	216.44
292.757	216.44
292.987	198.44
293.218	208.44
293.449	219.44
293.68	220.44
293.91	201.44
294.141	215.44
294.372	205.44
294.603	218.44
294.833	222.44
295.064	216.44
295.295	202.44
295.525	205.44
295.756	222.44
295.987	229.44
296.217	226.44
296.448	228.44
296.679	217.44
296.909	198.44
297.14	233.44
297.37	229.44
297.601	214.44
297.831	215.44
298.062	222.44
298.292	206.44
298.523	208.44
298.753	212.44
298.984	231.44
299.214	214.44
299.445	201.44
299.675	221.44
299.905	217.44
300.136	244.44
300.366	220.44
300.597	225.44
300.827	234.44
301.057	206.44
301.288	241.44
301.518	235.44
301.748	224.44
301.979	218.44
302.209	240.44
302.439	231.44
302.669	245.44
302.9	226.44
303.13	242.44
303.36	243.44
303.59	250.44
303.82	250.44
304.051	240.44
304.281	241.44
304.511	227.44
304.741	236.44
304.971	234.44
305.201	214.44
305.431	232.44
305.661	232.44
305.891	230.44
306.121	236.44
306.352	233.44
306.582	262.44
306.812	237.44
307.042	239.44
307.272	259.44
307.502	230.44
307.731	237.44
307.961	241.44
308.191	249.44
308.421	250.44
308.651	242.44
308.881	258.44
309.111	245.44
309.341	249.44
309.571	264.44
309.8	256.44
310.03	281.44
310.26	269.44
310.49	281.44
310.72	285.44
310.949	269.44
311.179	281.44
311.409	271.44
311.639	268.44
311.868	278.44
312.098	268.44
312.328	284.44
312.557	290.44
312.787	314.44
313.017	304.44
313.246	285.44
313.476	277.44
313.706	273.44
313.935	276.44
314.165	301.44
314.394	289.44
314.624	285.44
314.853	286.44
315.083	268.44
315.312	284.44
315.542	256.44
315.771	275.44
316.001	278.44
316.23	277.44
316.46	273.44
316.689	270.44
316.919	294.44
317.148	280.44
317.377	294.44
317.607	288.44
317.836	276.44
318.065	264.44
318.295	280.44
318.524	298.44
318.753	283.44
318.983	264.44
319.212	266.44
319.441	281.44
319.67	301.44
319.9	292.44
320.129	282.44
320.358	269.44
320.587	284.44
320.816	284.44
321.046	287.44
321.275	317.44
321.504	298.44
321.733	312.44
321.962	311.44
322.191	304.44
322.42	316.44
322.649	330.44
322.878	349.44
323.108	337.44
323.337	362.44
323.566	379.44
323.795	382.44
324.024	425.44
324.253	520.44
324.482	759.44
324.71	1167.44
324.939	1633.44
325.168	1382.44
325.397	724.44
325.626	488.44
325.855	400.44
326.084	378.44
326.313	380.44
326.542	387.44
326.77	417.44
326.999	504.44
327.228	707.44
327.457	1003.44
327.686	1190.44
327.914	819.44
328.143	537.44
328.372	487.44
328.6	448.44
328.829	429.44
329.058	427.44
329.287	449.44
329.515	410.44
329.744	393.44
329.972	396.44
330.201	409.44
330.43	451.44
330.658	459.44
330.887	448.44
331.115	446.44
331.344	389.44
331.572	359.44
331.801	348.44
332.03	342.44
332.258	346.44
332.486	337.44
332.715	314.44
332.943	331.44
333.172	333.44
333.4	322.44
333.629	326.44
333.857	349.44
334.085	362.44
334.314	358.44
334.542	382.44
334.771	410.44
334.999	374.44
335.227	349.44
335.455	338.44
335.684	325.44
335.912	319.44
336.14	308.44
336.369	312.44
336.597	317.44
336.825	338.44
337.053	317.44
337.281	299.44
337.51	324.44
337.738	326.44
337.966	334.44
338.194	318.44
338.422	324.44
338.65	316.44
338.878	316.44
339.106	305.44
339.334	295.44
339.562	309.44
339.79	318.44
340.018	311.44
340.246	327.44
340.474	310.44
340.702	308.44
340.93	299.44
341.158	321.44
341.386	313.44
341.614	315.44
341.842	322.44
342.07	296.44
342.298	299.44
342.526	284.44
342.754	321.44
342.981	304.44
343.209	298.44
343.437	294.44
343.665	310.44
343.893	315.44
344.12	310.44
344.348	320.44
344.576	320.44
344.804	313.44
345.031	330.44
345.259	320.44
345.487	328.44
345.714	312.44
345.942	296.44
346.17	317.44
346.397	295.44
346.625	310.44
346.853	308.44
347.08	296.44
347.308	288.44
347.535	318.44
347.763	312.44
347.99	325.44
348.218	312.44
348.445	318.44
348.673	298.44
348.9	319.44
349.128	299.44
349.355	293.44
349.583	291.44
349.81	297.44
350.037	323.44
350.265	303.44
350.492	307.44
350.72	304.44
350.947	319.44
351.174	317.44
351.402	314.44
351.629	322.44
351.856	322.44
352.083	315.44
352.311	312.44
352.538	334.44
352.765	334.44
352.992	318.44
353.22	314.44
353.447	286.44
353.674	313.44
353.901	290.44
354.128	277.44
354.355	279.44
354.583	282.44
354.81	283.44
355.037	275.44
355.264	292.44
355.491	276.44
355.718	291.44
355.945	289.44
356.172	289.44
356.399	278.44
356.626	276.44
356.853	271.44
357.08	259.44
357.307	275.44
357.534	280.44
357.761	273.44
357.988	281.44
358.215	298.44
358.441	290.44
358.668	297.44
358.895	279.44
359.122	300.44
359.349	299.44
359.576	302.44
359.802	316.44
360.029	339.44
360.256	366.44
360.483	328.44
360.709	304.44
360.936	312.44
361.163	324.44
361.39	304.44
361.616	303.44
361.843	307.44
362.07	294.44
362.296	300.44
362.523	322.44
362.749	317.44
362.976	294.44
363.203	327.44
363.429	302.44
363.656	317.44
363.882	294.44
364.109	290.44
364.335	284.44
364.562	307.44
364.788	306.44
365.015	307.44
365.241	289.44
365.468	307.44
365.694	317.44
365.92	291.44
366.147	290.44
366.373	299.44
366.599	295.44
366.826	305.44
367.052	266.44
367.278	291.44
367.505	312.44
367.731	282.44
367.957	290.44
368.184	310.44
368.41	307.44
368.636	282.44
368.862	301.44
369.089	313.44
369.315	284.44
369.541	277.44
369.767	285.44
369.993	294.44
370.219	283.44
370.445	298.44
370.672	301.44
370.898	293.44
371.124	292.44
371.35	276.44
371.576	304.44
371.802	290.44
372.028	295.44
372.254	288.44
372.48	301.44
372.706	292.44
372.932	315.44
373.158	301.44
373.384	296.44
373.61	293.44
373.835	305.44
374.061	317.44
374.287	301.44
374.513	312.44
374.739	298.44
374.965	306.44
375.191	283.44
375.416	288.44
375.642	297.44
375.868	299.44
376.094	306.44
376.319	294.44
376.545	280.44
376.771	294.44
376.997	294.44
377.222	296.44
377.448	300.44
377.674	308.44
377.899	288.44
378.125	285.44
378.35	277.44
378.576	270.44
378.802	300.44
379.027	275.44
379.253	284.44
379.478	295.44
379.704	296.44
379.929	298.44
380.155	295.44
380.38	288.44
380.606	289.44
380.831	286.44
381.057	310.44
381.282	276.44
381.507	292.44
381.733	274.44
381.958	294.44
382.184	299.44
382.409	310.44
382.634	293.44
382.86	300.44
383.085	287.44
383.31	305.44
383.535	312.44
383.761	291.44
383.986	313.44
384.211	312.44
384.436	305.44
384.662	322.44
384.887	315.44
385.112	310.44
385.337	321.44
385.562	300.44
385.787	290.44
386.013	308.44
386.238	318.44
386.463	307.44
386.688	319.44
386.913	305.44
387.138	301.44
387.363	293.44
387.588	313.44
387.813	311.44
388.038	321.44
388.263	324.44
388.488	327.44
388.713	296.44
388.938	304.44
389.163	312.44
389.387	326.44
389.612	301.44
389.837	308.44
390.062	309.44
390.287	312.44
390.512	320.44
390.736	289.44
390.961	309.44
391.186	313.44
391.411	311.44
391.636	318.44
391.86	301.44
392.085	324.44
392.31	317.44
392.534	331.44
392.759	293.44
392.984	316.44
393.208	337.44
393.433	316.44
393.658	322.44
393.882	306.44
394.107	314.44
394.331	338.44
394.556	325.44
394.78	311.44
395.005	323.44
395.229	329.44
395.454	318.44
395.678	357.44
395.903	334.44
396.127	345.44
396.352	349.44
396.576	332.44
396.801	329.44
397.025	340.44
397.249	344.44
397.474	345.44
397.698	337.44
397.922	346.44
398.147	362.44
398.371	344.44
398.595	325.44
398.82	341.44
399.044	365.44
399.268	370.44
399.492	370.44
399.717	378.44
399.941	394.44
400.165	419.44
400.389	425.44
400.613	390.44
400.837	386.44
401.062	390.44
401.286	353.44
401.51	340.44
401.734	355.44
401.958	368.44
402.182	368.44
402.406	369.44
402.63	353.44
402.854	372.44
403.078	358.44
403.302	357.44
403.526	375.44
403.75	368.44
403.974	372.44
404.198	387.44
404.422	380.44
404.645	381.44
404.869	381.44
405.093	386.44
405.317	423.44
405.541	444.44
405.765	410.44
405.988	399.44
406.212	364.44
406.436	395.44
406.66	406.44
406.883	398.44
407.107	428.44
407.331	439.44
407.555	489.44
407.778	490.44
408.002	443.44
408.226	412.44
408.449	412.44
408.673	417.44
408.896	440.44
409.12	456.44
409.344	457.44
409.567	384.44
409.791	380.44
410.014	372.44
410.238	369.44
410.461	381.44
410.685	396.44
410.908	389.44
411.132	427.44
411.355	417.44
411.578	422.44
411.802	368.44
412.025	387.44
412.249	388.44
412.472	404.44
412.695	410.44
412.919	410.44
413.142	373.44
413.365	369.44
413.589	379.44
413.812	352.44
414.035	355.44
414.258	360.44
414.482	348.44
414.705	348.44
414.928	360.44
415.151	364.44
415.374	351.44
415.597	349.44
415.821	346.44
416.044	344.44
416.267	372.44
416.49	346.44
416.713	351.44
416.936	355.44
417.159	359.44
417.382	348.44
417.605	368.44
417.828	348.44
418.051	361.44
418.274	354.44
418.497	371.44
418.72	353.44
418.943	358.44
419.166	372.44
419.389	385.44
419.611	379.44
419.834	371.44
420.057	359.44
420.28	375.44
420.503	358.44
420.726	365.44
420.948	379.44
421.171	416.44
421.394	413.44
421.617	349.44
421.839	360.44
422.062	374.44
422.285	398.44
422.507	425.44
422.73	490.44
422.953	447.44
423.175	397.44
423.398	396.44
423.621	360.44
423.843	380.44
424.066	390.44
424.288	373.44
424.511	420.44
424.733	449.44
424.956	493.44
425.178	476.44
425.401	468.44
425.623	486.44
425.846	420.44
426.068	406.44
426.291	415.44
426.513	404.44
426.735	403.44
426.958	404.44
427.18	489.44
427.402	572.44
427.625	621.44
427.847	562.44
428.069	480.44
428.292	455.44
428.514	409.44
428.736	402.44
428.958	389.44
429.181	375.44
429.403	362.44
429.625	377.44
429.847	405.44
430.069	452.44
430.292	443.44
430.514	399.44
430.736	377.44
430.958	384.44
431.18	357.44
431.402	353.44
431.624	357.44
431.846	345.44
432.068	364.44
432.29	337.44
432.512	354.44
432.734	339.44
432.956	363.44
433.178	346.44
433.4	348.44
433.622	365.44
433.844	349.44
434.066	335.44
434.287	356.44
434.509	363.44
434.731	359.44
434.953	370.44
435.175	370.44
435.397	386.44
435.618	392.44
435.84	432.44
436.062	534.44
436.284	541.44
436.505	456.44
436.727	415.44
436.949	387.44
437.17	398.44
437.392	373.44
437.614	410.44
437.835	412.44
438.057	502.44
438.278	544.44
438.5	539.44
438.721	564.44
438.943	542.44
439.165	453.44
439.386	432.44
439.608	403.44
439.829	412.44
440.05	432.44
440.272	462.44
440.493	435.44
440.715	397.44
440.936	390.44
441.158	381.44
441.379	388.44
441.6	390.44
441.822	413.44
442.043	455.44
442.264	502.44
442.486	518.44
442.707	440.44
442.928	415.44
443.149	423.44
443.371	440.44
443.592	445.44
443.813	511.44
444.034	544.44
444.255	467.44
444.476	427.44
444.698	399.44
444.919	393.44
445.14	524.44
445.361	481.44
445.582	434.44
445.803	480.44
446.024	541.44
446.245	576.44
446.466	492.44
446.687	433.44
446.908	427.44
447.129	394.44
447.35	360.44
447.571	376.44
447.792	376.44
448.013	391.44
448.234	409.44
448.455	434.44
448.675	520.44
448.896	601.44
449.117	510.44
449.338	488.44
449.559	556.44
449.779	590.44
450	499.44
450.221	421.44
450.442	396.44
450.662	378.44
450.883	382.44
451.104	378.44
451.324	388.44
451.545	357.44
451.766	354.44
451.986	324.44
452.207	335.44
452.428	345.44
452.648	330.44
452.869	336.44
453.089	347.44
453.31	362.44
453.53	352.44
453.751	341.44
453.971	361.44
454.192	358.44
454.412	344.44
454.633	352.44
454.853	341.44
455.073	330.44
455.294	358.44
455.514	419.44
455.734	410.44
455.955	361.44
456.175	313.44
456.395	339.44
456.616	331.44
456.836	315.44
457.056	323.44
457.276	328.44
457.497	325.44
457.717	312.44
457.937	333.44
458.157	344.44
458.377	348.44
458.598	339.44
458.818	382.44
459.038	472.44
459.258	444.44
459.478	393.44
459.698	376.44
459.918	371.44
460.138	359.44
460.358	350.44
460.578	361.44
460.798	353.44
461.018	355.44
461.238	369.44
461.458	366.44
461.678	354.44
461.898	357.44
462.118	353.44
462.338	369.44
462.558	378.44
462.777	373.44
462.997	358.44
463.217	390.44
463.437	374.44
463.657	355.44
463.876	379.44
464.096	389.44
464.316	358.44
464.536	375.44
464.755	380.44
464.975	373.44
465.195	425.44
465.414	451.44
465.634	408.44
465.854	378.44
466.073	384.44
466.293	366.44
466.512	357.44
466.732	347.44
466.951	356.44
467.171	347.44
467.391	326.44
467.61	364.44
467.829	361.44
468.049	370.44
468.268	374.44
468.488	338.44
468.707	348.44
468.927	352.44
469.146	360.44
469.365	351.44
469.585	336.44
469.804	362.44
470.023	356.44
470.243	357.44
470.462	365.44
470.681	378.44
470.901	381.44
471.12	345.44
471.339	341.44
471.558	369.44
471.777	368.44
471.997	353.44
472.216	350.44
472.435	385.44
472.654	378.44
472.873	377.44
473.092	369.44
473.311	364.44
473.53	364.44
473.749	361.44
473.968	392.44
474.187	458.44
474.406	461.44
474.625	408.44
474.844	381.44
475.063	366.44
475.282	384.44
475.501	363.44
475.72	366.44
475.939	364.44
476.158	381.44
476.377	365.44
476.596	386.44
476.814	372.44
477.033	379.44
477.252	385.44
477.471	376.44
477.69	376.44
477.908	397.44
478.127	394.44
478.346	386.44
478.564	400.44
478.783	384.44
479.002	392.44
479.22	401.44
479.439	404.44
479.658	434.44
479.876	417.44
480.095	423.44
480.313	427.44
480.532	427.44
480.751	427.44
480.969	437.44
481.188	491.44
481.406	539.44
481.624	442.44
481.843	419.44
482.061	435.44
482.28	434.44
482.498	409.44
482.717	422.44
482.935	425.44
483.153	408.44
483.372	415.44
483.59	431.44
483.808	427.44
484.027	422.44
484.245	419.44
484.463	438.44
484.681	439.44
484.9	420.44
485.118	410.44
485.336	412.44
485.554	429.44
485.772	430.44
485.99	435.44
486.209	444.44
486.427	420.44
486.645	427.44
486.863	429.44
487.081	447.44
487.299	429.44
487.517	463.44
487.735	451.44
487.953	439.44
488.171	437.44
488.389	436.44
488.607	441.44
488.825	433.44
489.043	445.44
489.261	440.44
489.479	453.44
489.696	464.44
489.914	463.44
490.132	459.44
490.35	455.44
490.568	490.44
490.786	465.44
491.003	474.44
491.221	478.44
491.439	494.44
491.657	493.44
491.874	508.44
492.092	511.44
492.31	507.44
492.527	502.44
492.745	504.44
492.963	488.44
493.18	507.44
493.398	499.44
493.615	515.44
493.833	523.44
494.05	532.44
494.268	527.44
494.485	513.44
494.703	520.44
494.92	521.44
495.138	518.44
495.355	535.44
495.573	525.44
495.79	521.44
496.008	510.44
496.225	518.44
496.442	491.44
496.66	514.44
496.877	555.44
497.094	534.44
497.312	535.44
497.529	539.44
497.746	548.44
497.963	555.44
498.181	561.44
498.398	586.44
498.615	566.44
498.832	576.44
499.049	589.44
499.267	579.44
499.484	604.44
499.701	625.44
499.918	636.44
500.135	638.44
500.352	643.44
500.569	664.44
500.786	658.44
501.003	666.44
501.22	687.44
501.437	633.44
501.654	651.44
501.871	642.44
502.088	627.44
