Data from 1961.PennyLincolnUp.Lamp.En5.5.200Scan.071719.P1._HRD10591_13-48-02-057.txt Node
Date: Thu Jul 18 13:48:02 EDT 2019
User: cochatt
Spectrometer: HR+D1059
Trigger mode: 1
Integration Time (sec): 1.000000E-1
Scans to average: 1
Electric dark correction enabled: true
Nonlinearity correction enabled: false
Boxcar width: 0
XAxis mode: Wavelengths
Number of Pixels in Spectrum: 2048
>>>>>Begin Spectral Data<<<<<
223.165	-8.81
223.4	-8.81
223.635	-8.81
223.869	-15.81
224.104	-13.81
224.338	-16.81
224.573	-20.81
224.808	-10.81
225.042	-15.81
225.277	2.19
225.511	12.19
225.746	3.19
225.98	15.19
226.215	9.19
226.449	9.19
226.683	11.19
226.918	17.19
227.152	23.19
227.387	40.19
227.621	45.19
227.856	37.19
228.09	28.19
228.324	46.19
228.559	55.19
228.793	67.19
229.027	77.19
229.262	91.19
229.496	107.19
229.73	130.19
229.964	149.19
230.199	127.19
230.433	107.19
230.667	102.19
230.901	109.19
231.136	108.19
231.37	111.19
231.604	106.19
231.838	117.19
232.072	103.19
232.306	106.19
232.541	95.19
232.775	107.19
233.009	117.19
233.243	96.19
233.477	101.19
233.711	115.19
233.945	107.19
234.179	123.19
234.413	113.19
234.647	105.19
234.881	100.19
235.115	106.19
235.349	96.19
235.583	107.19
235.817	115.19
236.051	117.19
236.285	120.19
236.519	115.19
236.753	109.19
236.987	136.19
237.221	170.19
237.455	210.19
237.689	185.19
237.922	122.19
238.156	125.19
238.39	128.19
238.624	106.19
238.858	123.19
239.091	106.19
239.325	112.19
239.559	116.19
239.793	127.19
240.027	114.19
240.26	127.19
240.494	133.19
240.728	155.19
240.961	136.19
241.195	147.19
241.429	128.19
241.662	116.19
241.896	115.19
242.13	116.19
242.363	119.19
242.597	117.19
242.83	115.19
243.064	115.19
243.298	136.19
243.531	131.19
243.765	125.19
243.998	127.19
244.232	131.19
244.465	131.19
244.699	134.19
244.932	132.19
245.166	121.19
245.399	119.19
245.633	144.19
245.866	147.19
246.099	128.19
246.333	140.19
246.566	127.19
246.8	115.19
247.033	124.19
247.266	135.19
247.5	143.19
247.733	132.19
247.966	145.19
248.2	150.19
248.433	147.19
248.666	156.19
248.899	164.19
249.133	169.19
249.366	184.19
249.599	164.19
249.832	158.19
250.066	172.19
250.299	158.19
250.532	167.19
250.765	169.19
250.998	195.19
251.231	201.19
251.465	189.19
251.698	181.19
251.931	177.19
252.164	172.19
252.397	170.19
252.63	182.19
252.863	189.19
253.096	179.19
253.329	193.19
253.562	193.19
253.795	194.19
254.028	199.19
254.261	191.19
254.494	211.19
254.727	217.19
254.96	217.19
255.193	227.19
255.426	203.19
255.659	198.19
255.892	206.19
256.124	219.19
256.357	196.19
256.59	192.19
256.823	184.19
257.056	182.19
257.289	176.19
257.521	191.19
257.754	168.19
257.987	194.19
258.22	179.19
258.452	188.19
258.685	172.19
258.918	177.19
259.151	169.19
259.383	191.19
259.616	199.19
259.849	196.19
260.081	205.19
260.314	226.19
260.547	223.19
260.779	203.19
261.012	193.19
261.244	182.19
261.477	186.19
261.71	186.19
261.942	204.19
262.175	200.19
262.407	198.19
262.64	186.19
262.872	186.19
263.105	188.19
263.337	180.19
263.57	185.19
263.802	170.19
264.035	186.19
264.267	173.19
264.499	186.19
264.732	192.19
264.964	183.19
265.197	194.19
265.429	183.19
265.661	175.19
265.894	178.19
266.126	166.19
266.358	173.19
266.591	194.19
266.823	191.19
267.055	175.19
267.287	184.19
267.52	180.19
267.752	204.19
267.984	192.19
268.216	189.19
268.448	202.19
268.681	199.19
268.913	231.19
269.145	216.19
269.377	223.19
269.609	210.19
269.841	225.19
270.073	223.19
270.306	245.19
270.538	273.19
270.77	262.19
271.002	252.19
271.234	256.19
271.466	260.19
271.698	253.19
271.93	275.19
272.162	266.19
272.394	285.19
272.626	255.19
272.858	238.19
273.09	228.19
273.322	222.19
273.553	231.19
273.785	224.19
274.017	233.19
274.249	240.19
274.481	226.19
274.713	212.19
274.945	236.19
275.176	222.19
275.408	231.19
275.64	231.19
275.872	214.19
276.104	235.19
276.335	223.19
276.567	228.19
276.799	252.19
277.031	252.19
277.262	265.19
277.494	250.19
277.726	246.19
277.957	231.19
278.189	222.19
278.421	219.19
278.652	215.19
278.884	216.19
279.115	215.19
279.347	223.19
279.579	226.19
279.81	231.19
280.042	225.19
280.273	244.19
280.505	224.19
280.736	215.19
280.968	225.19
281.199	244.19
281.431	210.19
281.662	225.19
281.894	230.19
282.125	225.19
282.356	248.19
282.588	261.19
282.819	271.19
283.051	236.19
283.282	233.19
283.513	233.19
283.745	224.19
283.976	227.19
284.207	234.19
284.439	244.19
284.67	241.19
284.901	227.19
285.132	233.19
285.364	221.19
285.595	233.19
285.826	236.19
286.057	227.19
286.288	233.19
286.52	231.19
286.751	215.19
286.982	233.19
287.213	231.19
287.444	248.19
287.675	248.19
287.906	239.19
288.138	216.19
288.369	257.19
288.6	261.19
288.831	257.19
289.062	229.19
289.293	250.19
289.524	230.19
289.755	240.19
289.986	225.19
290.217	243.19
290.448	250.19
290.679	224.19
290.91	249.19
291.141	234.19
291.371	222.19
291.602	213.19
291.833	220.19
292.064	246.19
292.295	240.19
292.526	226.19
292.757	222.19
292.987	244.19
293.218	243.19
293.449	246.19
293.68	226.19
293.91	221.19
294.141	219.19
294.372	243.19
294.603	234.19
294.833	239.19
295.064	231.19
295.295	247.19
295.525	236.19
295.756	246.19
295.987	255.19
296.217	274.19
296.448	281.19
296.679	245.19
296.909	223.19
297.14	251.19
297.37	232.19
297.601	244.19
297.831	254.19
298.062	239.19
298.292	251.19
298.523	243.19
298.753	253.19
298.984	250.19
299.214	256.19
299.445	263.19
299.675	258.19
299.905	257.19
300.136	255.19
300.366	244.19
300.597	242.19
300.827	260.19
301.057	266.19
301.288	267.19
301.518	269.19
301.748	273.19
301.979	243.19
302.209	268.19
302.439	260.19
302.669	267.19
302.9	259.19
303.13	271.19
303.36	275.19
303.59	271.19
303.82	281.19
304.051	283.19
304.281	270.19
304.511	261.19
304.741	242.19
304.971	270.19
305.201	273.19
305.431	267.19
305.661	253.19
305.891	264.19
306.121	273.19
306.352	272.19
306.582	277.19
306.812	275.19
307.042	268.19
307.272	285.19
307.502	269.19
307.731	280.19
307.961	273.19
308.191	265.19
308.421	276.19
308.651	281.19
308.881	295.19
309.111	289.19
309.341	280.19
309.571	288.19
309.8	312.19
310.03	315.19
310.26	320.19
310.49	300.19
310.72	328.19
310.949	331.19
311.179	333.19
311.409	339.19
311.639	320.19
311.868	315.19
312.098	344.19
312.328	333.19
312.557	345.19
312.787	340.19
313.017	357.19
313.246	330.19
313.476	319.19
313.706	310.19
313.935	316.19
314.165	323.19
314.394	333.19
314.624	330.19
314.853	315.19
315.083	320.19
315.312	319.19
315.542	329.19
315.771	307.19
316.001	305.19
316.23	307.19
316.46	317.19
316.689	314.19
316.919	322.19
317.148	313.19
317.377	311.19
317.607	327.19
317.836	337.19
318.065	340.19
318.295	320.19
318.524	300.19
318.753	313.19
318.983	313.19
319.212	323.19
319.441	337.19
319.67	343.19
319.9	315.19
320.129	320.19
320.358	319.19
320.587	323.19
320.816	337.19
321.046	330.19
321.275	347.19
321.504	337.19
321.733	316.19
321.962	339.19
322.191	364.19
322.42	367.19
322.649	389.19
322.878	418.19
323.108	393.19
323.337	433.19
323.566	446.19
323.795	467.19
324.024	520.19
324.253	676.19
324.482	1016.19
324.71	1585.19
324.939	2173.19
325.168	1794.19
325.397	949.19
325.626	651.19
325.855	522.19
326.084	495.19
326.313	463.19
326.542	473.19
326.77	524.19
326.999	620.19
327.228	923.19
327.457	1377.19
327.686	1542.19
327.914	1065.19
328.143	700.19
328.372	604.19
328.6	564.19
328.829	526.19
329.058	544.19
329.287	525.19
329.515	505.19
329.744	460.19
329.972	466.19
330.201	500.19
330.43	527.19
330.658	563.19
330.887	584.19
331.115	546.19
331.344	460.19
331.572	415.19
331.801	405.19
332.03	451.19
332.258	414.19
332.486	403.19
332.715	384.19
332.943	379.19
333.172	390.19
333.4	375.19
333.629	388.19
333.857	403.19
334.085	417.19
334.314	427.19
334.542	453.19
334.771	497.19
334.999	443.19
335.227	411.19
335.455	381.19
335.684	385.19
335.912	380.19
336.14	385.19
336.369	373.19
336.597	376.19
336.825	371.19
337.053	363.19
337.281	365.19
337.51	364.19
337.738	351.19
337.966	359.19
338.194	366.19
338.422	357.19
338.65	360.19
338.878	347.19
339.106	351.19
339.334	350.19
339.562	358.19
339.79	351.19
340.018	359.19
340.246	344.19
340.474	351.19
340.702	367.19
340.93	337.19
341.158	363.19
341.386	352.19
341.614	354.19
341.842	364.19
342.07	352.19
342.298	351.19
342.526	325.19
342.754	352.19
342.981	341.19
343.209	361.19
343.437	325.19
343.665	355.19
343.893	349.19
344.12	354.19
344.348	361.19
344.576	359.19
344.804	355.19
345.031	373.19
345.259	373.19
345.487	368.19
345.714	373.19
345.942	338.19
346.17	349.19
346.397	354.19
346.625	337.19
346.853	342.19
347.08	354.19
347.308	358.19
347.535	363.19
347.763	372.19
347.99	351.19
348.218	354.19
348.445	362.19
348.673	363.19
348.9	359.19
349.128	333.19
349.355	325.19
349.583	336.19
349.81	345.19
350.037	331.19
350.265	338.19
350.492	335.19
350.72	346.19
350.947	348.19
351.174	358.19
351.402	367.19
351.629	360.19
351.856	342.19
352.083	367.19
352.311	373.19
352.538	367.19
352.765	367.19
352.992	357.19
353.22	353.19
353.447	333.19
353.674	360.19
353.901	337.19
354.128	335.19
354.355	324.19
354.583	338.19
354.81	342.19
355.037	321.19
355.264	314.19
355.491	319.19
355.718	325.19
355.945	310.19
356.172	329.19
356.399	314.19
356.626	305.19
356.853	312.19
357.08	305.19
357.307	322.19
357.534	305.19
357.761	312.19
357.988	328.19
358.215	325.19
358.441	315.19
358.668	322.19
358.895	312.19
359.122	322.19
359.349	339.19
359.576	354.19
359.802	374.19
360.029	403.19
360.256	396.19
360.483	392.19
360.709	369.19
360.936	358.19
361.163	332.19
361.39	330.19
361.616	374.19
361.843	359.19
362.07	360.19
362.296	353.19
362.523	355.19
362.749	339.19
362.976	346.19
363.203	340.19
363.429	325.19
363.656	339.19
363.882	344.19
364.109	339.19
364.335	334.19
364.562	351.19
364.788	336.19
365.015	351.19
365.241	326.19
365.468	330.19
365.694	329.19
365.92	341.19
366.147	322.19
366.373	338.19
366.599	313.19
366.826	340.19
367.052	331.19
367.278	348.19
367.505	307.19
367.731	342.19
367.957	347.19
368.184	314.19
368.41	322.19
368.636	346.19
368.862	341.19
369.089	343.19
369.315	347.19
369.541	344.19
369.767	331.19
369.993	345.19
370.219	311.19
370.445	329.19
370.672	347.19
370.898	338.19
371.124	328.19
371.35	299.19
371.576	338.19
371.802	329.19
372.028	339.19
372.254	333.19
372.48	324.19
372.706	315.19
372.932	325.19
373.158	324.19
373.384	323.19
373.61	298.19
373.835	337.19
374.061	322.19
374.287	328.19
374.513	337.19
374.739	321.19
374.965	332.19
375.191	348.19
375.416	326.19
375.642	332.19
375.868	335.19
376.094	318.19
376.319	325.19
376.545	325.19
376.771	338.19
376.997	316.19
377.222	317.19
377.448	310.19
377.674	332.19
377.899	324.19
378.125	329.19
378.35	308.19
378.576	320.19
378.802	315.19
379.027	315.19
379.253	343.19
379.478	337.19
379.704	334.19
379.929	333.19
380.155	328.19
380.38	310.19
380.606	341.19
380.831	343.19
381.057	344.19
381.282	313.19
381.507	307.19
381.733	323.19
381.958	331.19
382.184	326.19
382.409	314.19
382.634	307.19
382.86	320.19
383.085	322.19
383.31	314.19
383.535	346.19
383.761	330.19
383.986	337.19
384.211	325.19
384.436	319.19
384.662	339.19
384.887	343.19
385.112	345.19
385.337	344.19
385.562	338.19
385.787	345.19
386.013	364.19
386.238	356.19
386.463	347.19
386.688	364.19
386.913	359.19
387.138	336.19
387.363	339.19
387.588	352.19
387.813	347.19
388.038	348.19
388.263	340.19
388.488	339.19
388.713	356.19
388.938	348.19
389.163	343.19
389.387	348.19
389.612	348.19
389.837	343.19
390.062	365.19
390.287	350.19
390.512	341.19
390.736	364.19
390.961	338.19
391.186	333.19
391.411	341.19
391.636	342.19
391.86	362.19
392.085	368.19
392.31	362.19
392.534	348.19
392.759	351.19
392.984	362.19
393.208	371.19
393.433	369.19
393.658	350.19
393.882	334.19
394.107	354.19
394.331	349.19
394.556	339.19
394.78	362.19
395.005	349.19
395.229	343.19
395.454	352.19
395.678	354.19
395.903	358.19
396.127	373.19
396.352	399.19
396.576	374.19
396.801	354.19
397.025	361.19
397.249	373.19
397.474	377.19
397.698	384.19
397.922	363.19
398.147	367.19
398.371	403.19
398.595	395.19
398.82	379.19
399.044	420.19
399.268	405.19
399.492	425.19
399.717	438.19
399.941	483.19
400.165	474.19
400.389	477.19
400.613	437.19
400.837	428.19
401.062	413.19
401.286	404.19
401.51	392.19
401.734	375.19
401.958	405.19
402.182	404.19
402.406	408.19
402.63	410.19
402.854	408.19
403.078	403.19
403.302	426.19
403.526	424.19
403.75	430.19
403.974	411.19
404.198	407.19
404.422	408.19
404.645	418.19
404.869	428.19
405.093	444.19
405.317	461.19
405.541	517.19
405.765	486.19
405.988	416.19
406.212	461.19
406.436	484.19
406.66	473.19
406.883	457.19
407.107	487.19
407.331	507.19
407.555	549.19
407.778	554.19
408.002	508.19
408.226	454.19
408.449	471.19
408.673	467.19
408.896	485.19
409.12	517.19
409.344	486.19
409.567	434.19
409.791	404.19
410.014	405.19
410.238	407.19
410.461	397.19
410.685	428.19
410.908	415.19
411.132	447.19
411.355	511.19
411.578	473.19
411.802	437.19
412.025	419.19
412.249	436.19
412.472	446.19
412.695	457.19
412.919	468.19
413.142	445.19
413.365	428.19
413.589	401.19
413.812	407.19
414.035	408.19
414.258	390.19
414.482	403.19
414.705	374.19
414.928	389.19
415.151	385.19
415.374	379.19
415.597	377.19
415.821	387.19
416.044	391.19
416.267	376.19
416.49	378.19
416.713	386.19
416.936	375.19
417.159	392.19
417.382	405.19
417.605	395.19
417.828	415.19
418.051	417.19
418.274	421.19
418.497	395.19
418.72	406.19
418.943	400.19
419.166	396.19
419.389	419.19
419.611	409.19
419.834	427.19
420.057	413.19
420.28	391.19
420.503	402.19
420.726	414.19
420.948	434.19
421.171	473.19
421.394	475.19
421.617	448.19
421.839	419.19
422.062	424.19
422.285	441.19
422.507	486.19
422.73	526.19
422.953	520.19
423.175	444.19
423.398	442.19
423.621	443.19
423.843	466.19
424.066	452.19
424.288	453.19
424.511	482.19
424.733	520.19
424.956	575.19
425.178	574.19
425.401	553.19
425.623	585.19
425.846	513.19
426.068	458.19
426.291	455.19
426.513	469.19
426.735	471.19
426.958	501.19
427.18	564.19
427.402	660.19
427.625	734.19
427.847	669.19
428.069	581.19
428.292	501.19
428.514	450.19
428.736	433.19
428.958	447.19
429.181	437.19
429.403	429.19
429.625	442.19
429.847	460.19
430.069	526.19
430.292	515.19
430.514	438.19
430.736	429.19
430.958	427.19
431.18	392.19
431.402	394.19
431.624	398.19
431.846	397.19
432.068	394.19
432.29	369.19
432.512	398.19
432.734	414.19
432.956	402.19
433.178	418.19
433.4	420.19
433.622	399.19
433.844	397.19
434.066	391.19
434.287	380.19
434.509	396.19
434.731	415.19
434.953	409.19
435.175	452.19
435.397	425.19
435.618	441.19
435.84	512.19
436.062	573.19
436.284	629.19
436.505	509.19
436.727	469.19
436.949	432.19
437.17	419.19
437.392	450.19
437.614	459.19
437.835	481.19
438.057	581.19
438.278	649.19
438.5	641.19
438.721	672.19
438.943	661.19
439.165	519.19
439.386	479.19
439.608	467.19
439.829	474.19
440.05	534.19
440.272	552.19
440.493	509.19
440.715	455.19
440.936	454.19
441.158	428.19
441.379	444.19
441.6	433.19
441.822	475.19
442.043	516.19
442.264	588.19
442.486	593.19
442.707	499.19
442.928	485.19
443.149	486.19
443.371	498.19
443.592	512.19
443.813	629.19
444.034	654.19
444.255	534.19
444.476	485.19
444.698	455.19
444.919	456.19
445.14	568.19
445.361	528.19
445.582	497.19
445.803	588.19
446.024	642.19
446.245	657.19
446.466	616.19
446.687	515.19
446.908	473.19
447.129	435.19
447.35	457.19
447.571	420.19
447.792	428.19
448.013	446.19
448.234	454.19
448.455	502.19
448.675	597.19
448.896	697.19
449.117	587.19
449.338	544.19
449.559	629.19
449.779	718.19
450	588.19
450.221	458.19
450.442	439.19
450.662	435.19
450.883	428.19
451.104	452.19
451.324	440.19
451.545	423.19
451.766	407.19
451.986	397.19
452.207	398.19
452.428	382.19
452.648	374.19
452.869	383.19
453.089	397.19
453.31	418.19
453.53	398.19
453.751	392.19
453.971	393.19
454.192	409.19
454.412	386.19
454.633	393.19
454.853	380.19
455.073	371.19
455.294	402.19
455.514	470.19
455.734	440.19
455.955	393.19
456.175	358.19
456.395	351.19
456.616	348.19
456.836	387.19
457.056	340.19
457.276	355.19
457.497	361.19
457.717	362.19
457.937	375.19
458.157	349.19
458.377	390.19
458.598	394.19
458.818	470.19
459.038	532.19
459.258	534.19
459.478	466.19
459.698	420.19
459.918	412.19
460.138	417.19
460.358	406.19
460.578	387.19
460.798	392.19
461.018	395.19
461.238	413.19
461.458	395.19
461.678	403.19
461.898	391.19
462.118	394.19
462.338	398.19
462.558	416.19
462.777	436.19
462.997	423.19
463.217	424.19
463.437	422.19
463.657	426.19
463.876	419.19
464.096	440.19
464.316	416.19
464.536	415.19
464.755	437.19
464.975	423.19
465.195	487.19
465.414	577.19
465.634	487.19
465.854	445.19
466.073	421.19
466.293	407.19
466.512	408.19
466.732	387.19
466.951	390.19
467.171	380.19
467.391	393.19
467.61	411.19
467.829	405.19
468.049	410.19
468.268	394.19
468.488	386.19
468.707	385.19
468.927	378.19
469.146	379.19
469.365	380.19
469.585	391.19
469.804	389.19
470.023	404.19
470.243	412.19
470.462	410.19
470.681	431.19
470.901	409.19
471.12	401.19
471.339	384.19
471.558	401.19
471.777	410.19
471.997	401.19
472.216	423.19
472.435	449.19
472.654	421.19
472.873	379.19
473.092	410.19
473.311	400.19
473.53	422.19
473.749	403.19
473.968	469.19
474.187	533.19
474.406	555.19
474.625	476.19
474.844	441.19
475.063	422.19
475.282	409.19
475.501	406.19
475.72	405.19
475.939	413.19
476.158	397.19
476.377	415.19
476.596	406.19
476.814	417.19
477.033	426.19
477.252	424.19
477.471	411.19
477.69	418.19
477.908	412.19
478.127	440.19
478.346	416.19
478.564	450.19
478.783	436.19
479.002	435.19
479.22	429.19
479.439	459.19
479.658	483.19
479.876	488.19
480.095	516.19
480.313	517.19
480.532	491.19
480.751	503.19
480.969	490.19
481.188	547.19
481.406	617.19
481.624	555.19
481.843	518.19
482.061	498.19
482.28	491.19
482.498	443.19
482.717	449.19
482.935	459.19
483.153	461.19
483.372	478.19
483.59	475.19
483.808	476.19
484.027	472.19
484.245	485.19
484.463	497.19
484.681	472.19
484.9	476.19
485.118	489.19
485.336	481.19
485.554	479.19
485.772	474.19
485.99	491.19
486.209	508.19
486.427	503.19
486.645	490.19
486.863	535.19
487.081	535.19
487.299	522.19
487.517	523.19
487.735	484.19
487.953	475.19
488.171	494.19
488.389	490.19
488.607	497.19
488.825	507.19
489.043	487.19
489.261	513.19
489.479	506.19
489.696	487.19
489.914	507.19
490.132	524.19
490.35	526.19
490.568	529.19
490.786	536.19
491.003	573.19
491.221	554.19
491.439	577.19
491.657	543.19
491.874	578.19
492.092	559.19
492.31	573.19
492.527	563.19
492.745	580.19
492.963	575.19
493.18	582.19
493.398	574.19
493.615	588.19
493.833	615.19
494.05	594.19
494.268	594.19
494.485	583.19
494.703	574.19
494.92	569.19
495.138	583.19
495.355	616.19
495.573	587.19
495.79	590.19
496.008	598.19
496.225	613.19
496.442	600.19
496.66	591.19
496.877	592.19
497.094	604.19
497.312	616.19
497.529	635.19
497.746	626.19
497.963	653.19
498.181	654.19
498.398	645.19
498.615	654.19
498.832	679.19
499.049	646.19
499.267	653.19
499.484	680.19
499.701	704.19
499.918	714.19
500.135	740.19
500.352	724.19
500.569	756.19
500.786	761.19
501.003	734.19
501.22	752.19
501.437	743.19
501.654	718.19
501.871	725.19
502.088	714.19
