Data from 1961.PennyLincolnUp.Lamp.En5.5.200Scan.071719.P1._HRD10591_13-48-22-058.txt Node
Date: Thu Jul 18 13:48:22 EDT 2019
User: cochatt
Spectrometer: HR+D1059
Trigger mode: 1
Integration Time (sec): 1.000000E-1
Scans to average: 1
Electric dark correction enabled: true
Nonlinearity correction enabled: false
Boxcar width: 0
XAxis mode: Wavelengths
Number of Pixels in Spectrum: 2048
>>>>>Begin Spectral Data<<<<<
223.165	7.94
223.4	7.94
223.635	7.94
223.869	-13.06
224.104	-9.06
224.338	-20.06
224.573	-24.06
224.808	-17.06
225.042	-14.06
225.277	-1.06
225.511	-0.06
225.746	-9.06
225.98	-4.06
226.215	29.94
226.449	13.94
226.683	11.94
226.918	26.94
227.152	20.94
227.387	29.94
227.621	32.94
227.856	42.94
228.09	29.94
228.324	52.94
228.559	46.94
228.793	67.94
229.027	98.94
229.262	103.94
229.496	108.94
229.73	121.94
229.964	152.94
230.199	121.94
230.433	101.94
230.667	94.94
230.901	110.94
231.136	109.94
231.37	111.94
231.604	102.94
231.838	96.94
232.072	95.94
232.306	110.94
232.541	105.94
232.775	104.94
233.009	106.94
233.243	111.94
233.477	105.94
233.711	110.94
233.945	102.94
234.179	96.94
234.413	104.94
234.647	97.94
234.881	94.94
235.115	118.94
235.349	111.94
235.583	112.94
235.817	112.94
236.051	119.94
236.285	119.94
236.519	104.94
236.753	100.94
236.987	134.94
237.221	165.94
237.455	208.94
237.689	169.94
237.922	114.94
238.156	126.94
238.39	118.94
238.624	119.94
238.858	103.94
239.091	96.94
239.325	96.94
239.559	111.94
239.793	125.94
240.027	120.94
240.26	128.94
240.494	131.94
240.728	137.94
240.961	121.94
241.195	126.94
241.429	114.94
241.662	111.94
241.896	100.94
242.13	120.94
242.363	130.94
242.597	127.94
242.83	120.94
243.064	118.94
243.298	128.94
243.531	132.94
243.765	130.94
243.998	122.94
244.232	111.94
244.465	125.94
244.699	125.94
244.932	123.94
245.166	122.94
245.399	116.94
245.633	127.94
245.866	123.94
246.099	129.94
246.333	134.94
246.566	137.94
246.8	125.94
247.033	138.94
247.266	145.94
247.5	137.94
247.733	129.94
247.966	133.94
248.2	137.94
248.433	153.94
248.666	131.94
248.899	152.94
249.133	166.94
249.366	175.94
249.599	158.94
249.832	164.94
250.066	155.94
250.299	148.94
250.532	187.94
250.765	174.94
250.998	199.94
251.231	188.94
251.465	180.94
251.698	168.94
251.931	167.94
252.164	189.94
252.397	170.94
252.63	154.94
252.863	181.94
253.096	175.94
253.329	188.94
253.562	187.94
253.795	191.94
254.028	182.94
254.261	181.94
254.494	198.94
254.727	229.94
254.96	246.94
255.193	218.94
255.426	202.94
255.659	216.94
255.892	205.94
256.124	190.94
256.357	209.94
256.59	197.94
256.823	172.94
257.056	191.94
257.289	182.94
257.521	176.94
257.754	184.94
257.987	161.94
258.22	175.94
258.452	172.94
258.685	158.94
258.918	200.94
259.151	174.94
259.383	195.94
259.616	185.94
259.849	184.94
260.081	209.94
260.314	215.94
260.547	227.94
260.779	209.94
261.012	187.94
261.244	196.94
261.477	193.94
261.71	190.94
261.942	197.94
262.175	219.94
262.407	194.94
262.64	179.94
262.872	166.94
263.105	169.94
263.337	187.94
263.57	180.94
263.802	173.94
264.035	189.94
264.267	182.94
264.499	167.94
264.732	177.94
264.964	176.94
265.197	173.94
265.429	185.94
265.661	177.94
265.894	179.94
266.126	190.94
266.358	179.94
266.591	187.94
266.823	178.94
267.055	182.94
267.287	190.94
267.52	190.94
267.752	205.94
267.984	186.94
268.216	206.94
268.448	183.94
268.681	182.94
268.913	207.94
269.145	211.94
269.377	218.94
269.609	226.94
269.841	221.94
270.073	220.94
270.306	264.94
270.538	248.94
270.77	278.94
271.002	228.94
271.234	232.94
271.466	260.94
271.698	272.94
271.93	274.94
272.162	279.94
272.394	267.94
272.626	264.94
272.858	249.94
273.09	232.94
273.322	225.94
273.553	225.94
273.785	220.94
274.017	222.94
274.249	226.94
274.481	211.94
274.713	225.94
274.945	224.94
275.176	216.94
275.408	215.94
275.64	215.94
275.872	220.94
276.104	222.94
276.335	216.94
276.567	229.94
276.799	237.94
277.031	260.94
277.262	254.94
277.494	271.94
277.726	247.94
277.957	245.94
278.189	232.94
278.421	236.94
278.652	219.94
278.884	216.94
279.115	225.94
279.347	222.94
279.579	221.94
279.81	216.94
280.042	222.94
280.273	213.94
280.505	221.94
280.736	236.94
280.968	213.94
281.199	228.94
281.431	215.94
281.662	214.94
281.894	208.94
282.125	218.94
282.356	254.94
282.588	258.94
282.819	271.94
283.051	238.94
283.282	206.94
283.513	225.94
283.745	213.94
283.976	224.94
284.207	238.94
284.439	239.94
284.67	225.94
284.901	245.94
285.132	207.94
285.364	225.94
285.595	208.94
285.826	213.94
286.057	233.94
286.288	224.94
286.52	242.94
286.751	224.94
286.982	229.94
287.213	240.94
287.444	230.94
287.675	214.94
287.906	226.94
288.138	256.94
288.369	251.94
288.6	260.94
288.831	245.94
289.062	231.94
289.293	239.94
289.524	233.94
289.755	234.94
289.986	229.94
290.217	232.94
290.448	216.94
290.679	224.94
290.91	251.94
291.141	231.94
291.371	225.94
291.602	229.94
291.833	231.94
292.064	237.94
292.295	242.94
292.526	232.94
292.757	226.94
292.987	216.94
293.218	230.94
293.449	252.94
293.68	228.94
293.91	232.94
294.141	223.94
294.372	239.94
294.603	230.94
294.833	219.94
295.064	229.94
295.295	251.94
295.525	236.94
295.756	236.94
295.987	247.94
296.217	296.94
296.448	276.94
296.679	244.94
296.909	240.94
297.14	247.94
297.37	238.94
297.601	261.94
297.831	241.94
298.062	245.94
298.292	247.94
298.523	255.94
298.753	237.94
298.984	232.94
299.214	240.94
299.445	252.94
299.675	246.94
299.905	237.94
300.136	244.94
300.366	278.94
300.597	267.94
300.827	256.94
301.057	277.94
301.288	270.94
301.518	265.94
301.748	272.94
301.979	276.94
302.209	274.94
302.439	255.94
302.669	276.94
302.9	261.94
303.13	269.94
303.36	273.94
303.59	274.94
303.82	269.94
304.051	284.94
304.281	272.94
304.511	266.94
304.741	251.94
304.971	249.94
305.201	262.94
305.431	271.94
305.661	267.94
305.891	262.94
306.121	286.94
306.352	272.94
306.582	264.94
306.812	272.94
307.042	263.94
307.272	264.94
307.502	283.94
307.731	261.94
307.961	273.94
308.191	279.94
308.421	269.94
308.651	265.94
308.881	270.94
309.111	286.94
309.341	300.94
309.571	308.94
309.8	300.94
310.03	317.94
310.26	328.94
310.49	324.94
310.72	329.94
310.949	349.94
311.179	337.94
311.409	319.94
311.639	317.94
311.868	316.94
312.098	321.94
312.328	324.94
312.557	343.94
312.787	363.94
313.017	346.94
313.246	343.94
313.476	314.94
313.706	318.94
313.935	314.94
314.165	326.94
314.394	337.94
314.624	340.94
314.853	297.94
315.083	304.94
315.312	306.94
315.542	312.94
315.771	340.94
316.001	314.94
316.23	297.94
316.46	296.94
316.689	311.94
316.919	315.94
317.148	329.94
317.377	342.94
317.607	342.94
317.836	325.94
318.065	328.94
318.295	319.94
318.524	301.94
318.753	307.94
318.983	329.94
319.212	336.94
319.441	336.94
319.67	345.94
319.9	332.94
320.129	319.94
320.358	324.94
320.587	309.94
320.816	334.94
321.046	337.94
321.275	335.94
321.504	346.94
321.733	339.94
321.962	354.94
322.191	360.94
322.42	376.94
322.649	409.94
322.878	397.94
323.108	433.94
323.337	434.94
323.566	463.94
323.795	501.94
324.024	550.94
324.253	693.94
324.482	1032.94
324.71	1655.94
324.939	2268.94
325.168	1899.94
325.397	1006.94
325.626	660.94
325.855	526.94
326.084	472.94
326.313	484.94
326.542	453.94
326.77	521.94
326.999	654.94
327.228	907.94
327.457	1383.94
327.686	1670.94
327.914	1100.94
328.143	686.94
328.372	622.94
328.6	563.94
328.829	531.94
329.058	544.94
329.287	554.94
329.515	517.94
329.744	460.94
329.972	479.94
330.201	472.94
330.43	515.94
330.658	566.94
330.887	591.94
331.115	535.94
331.344	462.94
331.572	438.94
331.801	434.94
332.03	416.94
332.258	405.94
332.486	373.94
332.715	382.94
332.943	372.94
333.172	381.94
333.4	378.94
333.629	398.94
333.857	424.94
334.085	422.94
334.314	433.94
334.542	466.94
334.771	486.94
334.999	415.94
335.227	412.94
335.455	372.94
335.684	374.94
335.912	371.94
336.14	371.94
336.369	379.94
336.597	388.94
336.825	384.94
337.053	348.94
337.281	355.94
337.51	345.94
337.738	372.94
337.966	376.94
338.194	369.94
338.422	368.94
338.65	370.94
338.878	344.94
339.106	354.94
339.334	353.94
339.562	337.94
339.79	348.94
340.018	361.94
340.246	362.94
340.474	361.94
340.702	347.94
340.93	349.94
341.158	346.94
341.386	345.94
341.614	377.94
341.842	369.94
342.07	340.94
342.298	351.94
342.526	350.94
342.754	334.94
342.981	320.94
343.209	343.94
343.437	343.94
343.665	336.94
343.893	352.94
344.12	346.94
344.348	349.94
344.576	343.94
344.804	375.94
345.031	376.94
345.259	362.94
345.487	372.94
345.714	351.94
345.942	360.94
346.17	346.94
346.397	334.94
346.625	344.94
346.853	340.94
347.08	344.94
347.308	339.94
347.535	370.94
347.763	367.94
347.99	345.94
348.218	362.94
348.445	367.94
348.673	345.94
348.9	356.94
349.128	351.94
349.355	333.94
349.583	360.94
349.81	336.94
350.037	332.94
350.265	332.94
350.492	331.94
350.72	330.94
350.947	339.94
351.174	335.94
351.402	356.94
351.629	343.94
351.856	353.94
352.083	367.94
352.311	378.94
352.538	388.94
352.765	387.94
352.992	365.94
353.22	345.94
353.447	361.94
353.674	346.94
353.901	334.94
354.128	327.94
354.355	328.94
354.583	320.94
354.81	350.94
355.037	322.94
355.264	305.94
355.491	311.94
355.718	303.94
355.945	306.94
356.172	301.94
356.399	312.94
356.626	305.94
356.853	322.94
357.08	298.94
357.307	304.94
357.534	305.94
357.761	327.94
357.988	328.94
358.215	330.94
358.441	312.94
358.668	323.94
358.895	327.94
359.122	324.94
359.349	332.94
359.576	353.94
359.802	371.94
360.029	409.94
360.256	438.94
360.483	387.94
360.709	361.94
360.936	349.94
361.163	344.94
361.39	352.94
361.616	378.94
361.843	350.94
362.07	344.94
362.296	354.94
362.523	347.94
362.749	347.94
362.976	337.94
363.203	331.94
363.429	347.94
363.656	326.94
363.882	352.94
364.109	340.94
364.335	325.94
364.562	327.94
364.788	337.94
365.015	344.94
365.241	319.94
365.468	350.94
365.694	350.94
365.92	325.94
366.147	330.94
366.373	340.94
366.599	308.94
366.826	326.94
367.052	321.94
367.278	319.94
367.505	333.94
367.731	340.94
367.957	355.94
368.184	348.94
368.41	337.94
368.636	328.94
368.862	329.94
369.089	337.94
369.315	318.94
369.541	346.94
369.767	334.94
369.993	323.94
370.219	320.94
370.445	335.94
370.672	325.94
370.898	347.94
371.124	322.94
371.35	330.94
371.576	318.94
371.802	337.94
372.028	325.94
372.254	325.94
372.48	317.94
372.706	328.94
372.932	319.94
373.158	324.94
373.384	325.94
373.61	337.94
373.835	338.94
374.061	314.94
374.287	313.94
374.513	326.94
374.739	333.94
374.965	329.94
375.191	335.94
375.416	327.94
375.642	328.94
375.868	334.94
376.094	318.94
376.319	313.94
376.545	328.94
376.771	306.94
376.997	338.94
377.222	326.94
377.448	308.94
377.674	321.94
377.899	310.94
378.125	308.94
378.35	308.94
378.576	334.94
378.802	316.94
379.027	340.94
379.253	312.94
379.478	300.94
379.704	302.94
379.929	337.94
380.155	320.94
380.38	313.94
380.606	298.94
380.831	308.94
381.057	321.94
381.282	320.94
381.507	320.94
381.733	325.94
381.958	324.94
382.184	326.94
382.409	312.94
382.634	329.94
382.86	344.94
383.085	319.94
383.31	338.94
383.535	331.94
383.761	333.94
383.986	325.94
384.211	327.94
384.436	332.94
384.662	338.94
384.887	340.94
385.112	339.94
385.337	330.94
385.562	322.94
385.787	330.94
386.013	340.94
386.238	345.94
386.463	351.94
386.688	356.94
386.913	324.94
387.138	318.94
387.363	339.94
387.588	340.94
387.813	352.94
388.038	365.94
388.263	342.94
388.488	341.94
388.713	340.94
388.938	341.94
389.163	349.94
389.387	354.94
389.612	358.94
389.837	342.94
390.062	338.94
390.287	346.94
390.512	347.94
390.736	345.94
390.961	358.94
391.186	342.94
391.411	342.94
391.636	348.94
391.86	345.94
392.085	322.94
392.31	351.94
392.534	353.94
392.759	341.94
392.984	330.94
393.208	349.94
393.433	353.94
393.658	339.94
393.882	327.94
394.107	343.94
394.331	358.94
394.556	348.94
394.78	346.94
395.005	340.94
395.229	354.94
395.454	346.94
395.678	366.94
395.903	380.94
396.127	384.94
396.352	387.94
396.576	376.94
396.801	358.94
397.025	360.94
397.249	376.94
397.474	371.94
397.698	366.94
397.922	384.94
398.147	384.94
398.371	397.94
398.595	379.94
398.82	390.94
399.044	364.94
399.268	392.94
399.492	385.94
399.717	413.94
399.941	445.94
400.165	470.94
400.389	474.94
400.613	445.94
400.837	421.94
401.062	410.94
401.286	405.94
401.51	401.94
401.734	400.94
401.958	406.94
402.182	405.94
402.406	403.94
402.63	407.94
402.854	398.94
403.078	397.94
403.302	402.94
403.526	397.94
403.75	409.94
403.974	394.94
404.198	406.94
404.422	422.94
404.645	420.94
404.869	412.94
405.093	448.94
405.317	480.94
405.541	503.94
405.765	449.94
405.988	439.94
406.212	461.94
406.436	457.94
406.66	487.94
406.883	451.94
407.107	453.94
407.331	521.94
407.555	536.94
407.778	538.94
408.002	507.94
408.226	484.94
408.449	444.94
408.673	445.94
408.896	471.94
409.12	501.94
409.344	493.94
409.567	433.94
409.791	423.94
410.014	434.94
410.238	405.94
410.461	409.94
410.685	422.94
410.908	426.94
411.132	476.94
411.355	462.94
411.578	455.94
411.802	444.94
412.025	429.94
412.249	412.94
412.472	436.94
412.695	473.94
412.919	466.94
413.142	431.94
413.365	403.94
413.589	422.94
413.812	405.94
414.035	410.94
414.258	379.94
414.482	396.94
414.705	375.94
414.928	374.94
415.151	374.94
415.374	376.94
415.597	398.94
415.821	382.94
416.044	399.94
416.267	415.94
416.49	393.94
416.713	381.94
416.936	377.94
417.159	390.94
417.382	389.94
417.605	403.94
417.828	425.94
418.051	419.94
418.274	398.94
418.497	398.94
418.72	405.94
418.943	381.94
419.166	400.94
419.389	414.94
419.611	413.94
419.834	417.94
420.057	428.94
420.28	404.94
420.503	423.94
420.726	428.94
420.948	423.94
421.171	446.94
421.394	486.94
421.617	429.94
421.839	394.94
422.062	410.94
422.285	432.94
422.507	483.94
422.73	531.94
422.953	533.94
423.175	441.94
423.398	426.94
423.621	447.94
423.843	456.94
424.066	453.94
424.288	440.94
424.511	460.94
424.733	512.94
424.956	576.94
425.178	561.94
425.401	555.94
425.623	564.94
425.846	496.94
426.068	468.94
426.291	440.94
426.513	477.94
426.735	485.94
426.958	509.94
427.18	572.94
427.402	677.94
427.625	757.94
427.847	678.94
428.069	580.94
428.292	518.94
428.514	487.94
428.736	438.94
428.958	424.94
429.181	415.94
429.403	419.94
429.625	433.94
429.847	441.94
430.069	511.94
430.292	509.94
430.514	431.94
430.736	411.94
430.958	418.94
431.18	412.94
431.402	398.94
431.624	399.94
431.846	391.94
432.068	392.94
432.29	406.94
432.512	402.94
432.734	397.94
432.956	386.94
433.178	397.94
433.4	415.94
433.622	417.94
433.844	397.94
434.066	372.94
434.287	386.94
434.509	385.94
434.731	404.94
434.953	422.94
435.175	418.94
435.397	452.94
435.618	467.94
435.84	498.94
436.062	580.94
436.284	626.94
436.505	521.94
436.727	485.94
436.949	450.94
437.17	438.94
437.392	426.94
437.614	450.94
437.835	471.94
438.057	574.94
438.278	642.94
438.5	654.94
438.721	678.94
438.943	659.94
439.165	547.94
439.386	500.94
439.608	465.94
439.829	480.94
440.05	512.94
440.272	541.94
440.493	512.94
440.715	492.94
440.936	465.94
441.158	398.94
441.379	418.94
441.6	455.94
441.822	453.94
442.043	484.94
442.264	574.94
442.486	607.94
442.707	523.94
442.928	495.94
443.149	481.94
443.371	519.94
443.592	530.94
443.813	604.94
444.034	653.94
444.255	528.94
444.476	496.94
444.698	450.94
444.919	458.94
445.14	554.94
445.361	504.94
445.582	506.94
445.803	578.94
446.024	639.94
446.245	657.94
446.466	612.94
446.687	518.94
446.908	452.94
447.129	438.94
447.35	423.94
447.571	429.94
447.792	414.94
448.013	424.94
448.234	457.94
448.455	479.94
448.675	599.94
448.896	692.94
449.117	603.94
449.338	564.94
449.559	614.94
449.779	717.94
450	581.94
450.221	469.94
450.442	451.94
450.662	436.94
450.883	428.94
451.104	454.94
451.324	444.94
451.545	433.94
451.766	418.94
451.986	390.94
452.207	395.94
452.428	373.94
452.648	380.94
452.869	377.94
453.089	401.94
453.31	411.94
453.53	370.94
453.751	394.94
453.971	408.94
454.192	413.94
454.412	385.94
454.633	391.94
454.853	381.94
455.073	367.94
455.294	397.94
455.514	469.94
455.734	437.94
455.955	386.94
456.175	367.94
456.395	351.94
456.616	354.94
456.836	369.94
457.056	348.94
457.276	344.94
457.497	387.94
457.717	370.94
457.937	368.94
458.157	367.94
458.377	384.94
458.598	395.94
458.818	462.94
459.038	563.94
459.258	541.94
459.478	453.94
459.698	425.94
459.918	392.94
460.138	409.94
460.358	386.94
460.578	402.94
460.798	412.94
461.018	404.94
461.238	390.94
461.458	393.94
461.678	380.94
461.898	382.94
462.118	412.94
462.338	405.94
462.558	407.94
462.777	418.94
462.997	413.94
463.217	422.94
463.437	432.94
463.657	407.94
463.876	410.94
464.096	422.94
464.316	445.94
464.536	440.94
464.755	423.94
464.975	411.94
465.195	470.94
465.414	548.94
465.634	510.94
465.854	464.94
466.073	416.94
466.293	394.94
466.512	414.94
466.732	405.94
466.951	381.94
467.171	390.94
467.391	385.94
467.61	387.94
467.829	401.94
468.049	417.94
468.268	410.94
468.488	385.94
468.707	382.94
468.927	389.94
469.146	374.94
469.365	394.94
469.585	377.94
469.804	392.94
470.023	402.94
470.243	394.94
470.462	392.94
470.681	421.94
470.901	419.94
471.12	393.94
471.339	388.94
471.558	400.94
471.777	409.94
471.997	400.94
472.216	412.94
472.435	453.94
472.654	446.94
472.873	415.94
473.092	411.94
473.311	404.94
473.53	381.94
473.749	407.94
473.968	445.94
474.187	542.94
474.406	547.94
474.625	470.94
474.844	421.94
475.063	400.94
475.282	416.94
475.501	420.94
475.72	408.94
475.939	393.94
476.158	414.94
476.377	390.94
476.596	393.94
476.814	417.94
477.033	418.94
477.252	417.94
477.471	419.94
477.69	432.94
477.908	415.94
478.127	429.94
478.346	421.94
478.564	449.94
478.783	438.94
479.002	439.94
479.22	446.94
479.439	454.94
479.658	479.94
479.876	469.94
480.095	485.94
480.313	501.94
480.532	481.94
480.751	483.94
480.969	502.94
481.188	593.94
481.406	624.94
481.624	524.94
481.843	498.94
482.061	480.94
482.28	460.94
482.498	465.94
482.717	476.94
482.935	453.94
483.153	478.94
483.372	465.94
483.59	485.94
483.808	457.94
484.027	461.94
484.245	458.94
484.463	481.94
484.681	480.94
484.9	478.94
485.118	487.94
485.336	494.94
485.554	481.94
485.772	484.94
485.99	486.94
486.209	498.94
486.427	498.94
486.645	522.94
486.863	511.94
487.081	528.94
487.299	533.94
487.517	516.94
487.735	494.94
487.953	523.94
488.171	496.94
488.389	499.94
488.607	519.94
488.825	505.94
489.043	523.94
489.261	491.94
489.479	524.94
489.696	502.94
489.914	508.94
490.132	535.94
490.35	510.94
490.568	528.94
490.786	521.94
491.003	534.94
491.221	554.94
491.439	572.94
491.657	550.94
491.874	554.94
492.092	586.94
492.31	611.94
492.527	582.94
492.745	572.94
492.963	581.94
493.18	567.94
493.398	595.94
493.615	575.94
493.833	577.94
494.05	589.94
494.268	590.94
494.485	564.94
494.703	575.94
494.92	577.94
495.138	578.94
495.355	588.94
495.573	591.94
495.79	624.94
496.008	604.94
496.225	584.94
496.442	587.94
496.66	614.94
496.877	590.94
497.094	607.94
497.312	615.94
497.529	592.94
497.746	618.94
497.963	625.94
498.181	653.94
498.398	628.94
498.615	639.94
498.832	646.94
499.049	647.94
499.267	662.94
499.484	640.94
499.701	702.94
499.918	676.94
500.135	733.94
500.352	721.94
500.569	749.94
500.786	744.94
501.003	748.94
501.22	725.94
501.437	719.94
501.654	732.94
501.871	738.94
502.088	721.94
