Data from 1961.PennyLincolnUp.Lamp.En5.5.200Scan.071719.P1._HRD10591_13-46-16-057.txt Node
Date: Thu Jul 18 13:46:16 EDT 2019
User: cochatt
Spectrometer: HR+D1059
Trigger mode: 1
Integration Time (sec): 1.000000E-1
Scans to average: 1
Electric dark correction enabled: true
Nonlinearity correction enabled: false
Boxcar width: 0
XAxis mode: Wavelengths
Number of Pixels in Spectrum: 2048
>>>>>Begin Spectral Data<<<<<
223.165	-20.12
223.4	-20.12
223.635	-20.12
223.869	0.88
224.104	-9.12
224.338	-13.12
224.573	-13.12
224.808	-9.12
225.042	-22.12
225.277	-1.12
225.511	0.88
225.746	5.88
225.98	7.88
226.215	3.88
226.449	10.88
226.683	6.88
226.918	21.88
227.152	28.88
227.387	23.88
227.621	42.88
227.856	57.88
228.09	47.88
228.324	43.88
228.559	60.88
228.793	62.88
229.027	78.88
229.262	81.88
229.496	86.88
229.73	109.88
229.964	97.88
230.199	109.88
230.433	107.88
230.667	109.88
230.901	95.88
231.136	90.88
231.37	76.88
231.604	85.88
231.838	98.88
232.072	94.88
232.306	98.88
232.541	102.88
232.775	102.88
233.009	96.88
233.243	96.88
233.477	93.88
233.711	94.88
233.945	94.88
234.179	93.88
234.413	109.88
234.647	90.88
234.881	94.88
235.115	114.88
235.349	93.88
235.583	106.88
235.817	93.88
236.051	103.88
236.285	95.88
236.519	99.88
236.753	98.88
236.987	115.88
237.221	121.88
237.455	158.88
237.689	118.88
237.922	98.88
238.156	113.88
238.39	111.88
238.624	99.88
238.858	103.88
239.091	100.88
239.325	88.88
239.559	86.88
239.793	96.88
240.027	107.88
240.26	106.88
240.494	114.88
240.728	110.88
240.961	95.88
241.195	114.88
241.429	111.88
241.662	87.88
241.896	110.88
242.13	107.88
242.363	97.88
242.597	107.88
242.83	104.88
243.064	106.88
243.298	111.88
243.531	101.88
243.765	93.88
243.998	106.88
244.232	100.88
244.465	101.88
244.699	103.88
244.932	110.88
245.166	116.88
245.399	117.88
245.633	118.88
245.866	119.88
246.099	112.88
246.333	108.88
246.566	129.88
246.8	107.88
247.033	112.88
247.266	119.88
247.5	108.88
247.733	117.88
247.966	117.88
248.2	124.88
248.433	125.88
248.666	117.88
248.899	133.88
249.133	139.88
249.366	139.88
249.599	134.88
249.832	123.88
250.066	142.88
250.299	130.88
250.532	133.88
250.765	147.88
250.998	156.88
251.231	162.88
251.465	152.88
251.698	131.88
251.931	143.88
252.164	150.88
252.397	139.88
252.63	135.88
252.863	145.88
253.096	149.88
253.329	162.88
253.562	156.88
253.795	149.88
254.028	148.88
254.261	158.88
254.494	154.88
254.727	172.88
254.96	195.88
255.193	177.88
255.426	145.88
255.659	149.88
255.892	167.88
256.124	159.88
256.357	163.88
256.59	160.88
256.823	149.88
257.056	158.88
257.289	152.88
257.521	153.88
257.754	153.88
257.987	140.88
258.22	135.88
258.452	148.88
258.685	154.88
258.918	142.88
259.151	152.88
259.383	153.88
259.616	133.88
259.849	142.88
260.081	157.88
260.314	160.88
260.547	163.88
260.779	170.88
261.012	153.88
261.244	162.88
261.477	142.88
261.71	146.88
261.942	155.88
262.175	153.88
262.407	166.88
262.64	154.88
262.872	148.88
263.105	146.88
263.337	153.88
263.57	146.88
263.802	151.88
264.035	160.88
264.267	140.88
264.499	138.88
264.732	152.88
264.964	147.88
265.197	151.88
265.429	142.88
265.661	157.88
265.894	149.88
266.126	158.88
266.358	150.88
266.591	162.88
266.823	155.88
267.055	154.88
267.287	177.88
267.52	171.88
267.752	150.88
267.984	161.88
268.216	167.88
268.448	156.88
268.681	171.88
268.913	154.88
269.145	167.88
269.377	181.88
269.609	173.88
269.841	181.88
270.073	174.88
270.306	180.88
270.538	197.88
270.77	195.88
271.002	182.88
271.234	205.88
271.466	192.88
271.698	203.88
271.93	202.88
272.162	199.88
272.394	200.88
272.626	182.88
272.858	201.88
273.09	177.88
273.322	176.88
273.553	175.88
273.785	175.88
274.017	175.88
274.249	176.88
274.481	163.88
274.713	189.88
274.945	166.88
275.176	175.88
275.408	161.88
275.64	168.88
275.872	164.88
276.104	178.88
276.335	184.88
276.567	174.88
276.799	181.88
277.031	185.88
277.262	193.88
277.494	193.88
277.726	202.88
277.957	192.88
278.189	174.88
278.421	190.88
278.652	179.88
278.884	180.88
279.115	161.88
279.347	177.88
279.579	178.88
279.81	179.88
280.042	197.88
280.273	169.88
280.505	177.88
280.736	177.88
280.968	158.88
281.199	185.88
281.431	187.88
281.662	178.88
281.894	187.88
282.125	157.88
282.356	166.88
282.588	197.88
282.819	197.88
283.051	196.88
283.282	187.88
283.513	187.88
283.745	165.88
283.976	189.88
284.207	179.88
284.439	192.88
284.67	187.88
284.901	194.88
285.132	187.88
285.364	183.88
285.595	201.88
285.826	178.88
286.057	172.88
286.288	189.88
286.52	191.88
286.751	179.88
286.982	177.88
287.213	180.88
287.444	189.88
287.675	173.88
287.906	188.88
288.138	189.88
288.369	198.88
288.6	198.88
288.831	194.88
289.062	187.88
289.293	193.88
289.524	184.88
289.755	181.88
289.986	178.88
290.217	168.88
290.448	200.88
290.679	202.88
290.91	200.88
291.141	189.88
291.371	187.88
291.602	189.88
291.833	181.88
292.064	181.88
292.295	178.88
292.526	183.88
292.757	191.88
292.987	185.88
293.218	169.88
293.449	182.88
293.68	185.88
293.91	192.88
294.141	199.88
294.372	196.88
294.603	201.88
294.833	199.88
295.064	188.88
295.295	204.88
295.525	177.88
295.756	191.88
295.987	192.88
296.217	212.88
296.448	233.88
296.679	203.88
296.909	192.88
297.14	212.88
297.37	203.88
297.601	191.88
297.831	192.88
298.062	216.88
298.292	196.88
298.523	199.88
298.753	211.88
298.984	202.88
299.214	197.88
299.445	206.88
299.675	210.88
299.905	197.88
300.136	198.88
300.366	206.88
300.597	188.88
300.827	200.88
301.057	197.88
301.288	199.88
301.518	197.88
301.748	211.88
301.979	204.88
302.209	210.88
302.439	203.88
302.669	209.88
302.9	227.88
303.13	223.88
303.36	213.88
303.59	209.88
303.82	219.88
304.051	223.88
304.281	215.88
304.511	208.88
304.741	207.88
304.971	216.88
305.201	211.88
305.431	209.88
305.661	210.88
305.891	206.88
306.121	189.88
306.352	236.88
306.582	222.88
306.812	209.88
307.042	220.88
307.272	225.88
307.502	216.88
307.731	213.88
307.961	207.88
308.191	212.88
308.421	219.88
308.651	204.88
308.881	214.88
309.111	214.88
309.341	217.88
309.571	224.88
309.8	228.88
310.03	230.88
310.26	221.88
310.49	230.88
310.72	237.88
310.949	243.88
311.179	228.88
311.409	245.88
311.639	247.88
311.868	228.88
312.098	231.88
312.328	242.88
312.557	229.88
312.787	239.88
313.017	254.88
313.246	224.88
313.476	240.88
313.706	218.88
313.935	253.88
314.165	247.88
314.394	260.88
314.624	235.88
314.853	244.88
315.083	227.88
315.312	251.88
315.542	237.88
315.771	240.88
316.001	241.88
316.23	236.88
316.46	220.88
316.689	235.88
316.919	249.88
317.148	238.88
317.377	236.88
317.607	237.88
317.836	238.88
318.065	234.88
318.295	249.88
318.524	259.88
318.753	238.88
318.983	261.88
319.212	236.88
319.441	254.88
319.67	245.88
319.9	255.88
320.129	256.88
320.358	254.88
320.587	248.88
320.816	258.88
321.046	252.88
321.275	255.88
321.504	255.88
321.733	262.88
321.962	262.88
322.191	263.88
322.42	259.88
322.649	282.88
322.878	276.88
323.108	290.88
323.337	290.88
323.566	301.88
323.795	306.88
324.024	322.88
324.253	403.88
324.482	557.88
324.71	845.88
324.939	1167.88
325.168	1010.88
325.397	523.88
325.626	367.88
325.855	311.88
326.084	300.88
326.313	297.88
326.542	316.88
326.77	336.88
326.999	383.88
327.228	517.88
327.457	753.88
327.686	875.88
327.914	594.88
328.143	425.88
328.372	379.88
328.6	343.88
328.829	350.88
329.058	342.88
329.287	357.88
329.515	323.88
329.744	323.88
329.972	329.88
330.201	319.88
330.43	326.88
330.658	333.88
330.887	363.88
331.115	341.88
331.344	334.88
331.572	311.88
331.801	303.88
332.03	300.88
332.258	297.88
332.486	272.88
332.715	280.88
332.943	300.88
333.172	293.88
333.4	287.88
333.629	305.88
333.857	270.88
334.085	298.88
334.314	302.88
334.542	319.88
334.771	342.88
334.999	299.88
335.227	303.88
335.455	300.88
335.684	289.88
335.912	281.88
336.14	277.88
336.369	280.88
336.597	278.88
336.825	288.88
337.053	272.88
337.281	283.88
337.51	282.88
337.738	285.88
337.966	283.88
338.194	277.88
338.422	289.88
338.65	282.88
338.878	276.88
339.106	283.88
339.334	265.88
339.562	263.88
339.79	270.88
340.018	278.88
340.246	273.88
340.474	274.88
340.702	281.88
340.93	282.88
341.158	272.88
341.386	270.88
341.614	274.88
341.842	282.88
342.07	291.88
342.298	284.88
342.526	265.88
342.754	264.88
342.981	275.88
343.209	286.88
343.437	273.88
343.665	271.88
343.893	285.88
344.12	278.88
344.348	257.88
344.576	279.88
344.804	281.88
345.031	286.88
345.259	301.88
345.487	283.88
345.714	313.88
345.942	273.88
346.17	287.88
346.397	252.88
346.625	252.88
346.853	266.88
347.08	257.88
347.308	258.88
347.535	279.88
347.763	269.88
347.99	273.88
348.218	272.88
348.445	295.88
348.673	273.88
348.9	273.88
349.128	278.88
349.355	261.88
349.583	261.88
349.81	266.88
350.037	270.88
350.265	252.88
350.492	280.88
350.72	273.88
350.947	256.88
351.174	264.88
351.402	288.88
351.629	275.88
351.856	290.88
352.083	267.88
352.311	277.88
352.538	269.88
352.765	286.88
352.992	274.88
353.22	254.88
353.447	276.88
353.674	279.88
353.901	257.88
354.128	243.88
354.355	261.88
354.583	259.88
354.81	253.88
355.037	267.88
355.264	272.88
355.491	270.88
355.718	241.88
355.945	243.88
356.172	254.88
356.399	251.88
356.626	261.88
356.853	242.88
357.08	234.88
357.307	260.88
357.534	252.88
357.761	281.88
357.988	245.88
358.215	254.88
358.441	259.88
358.668	257.88
358.895	275.88
359.122	274.88
359.349	260.88
359.576	250.88
359.802	276.88
360.029	295.88
360.256	314.88
360.483	285.88
360.709	269.88
360.936	271.88
361.163	274.88
361.39	263.88
361.616	274.88
361.843	257.88
362.07	269.88
362.296	255.88
362.523	257.88
362.749	276.88
362.976	275.88
363.203	275.88
363.429	253.88
363.656	257.88
363.882	250.88
364.109	260.88
364.335	272.88
364.562	276.88
364.788	269.88
365.015	259.88
365.241	241.88
365.468	275.88
365.694	262.88
365.92	281.88
366.147	255.88
366.373	271.88
366.599	260.88
366.826	250.88
367.052	248.88
367.278	255.88
367.505	277.88
367.731	262.88
367.957	261.88
368.184	257.88
368.41	269.88
368.636	266.88
368.862	280.88
369.089	276.88
369.315	267.88
369.541	269.88
369.767	266.88
369.993	264.88
370.219	268.88
370.445	261.88
370.672	254.88
370.898	253.88
371.124	279.88
371.35	263.88
371.576	276.88
371.802	261.88
372.028	260.88
372.254	260.88
372.48	258.88
372.706	273.88
372.932	257.88
373.158	268.88
373.384	289.88
373.61	271.88
373.835	261.88
374.061	292.88
374.287	271.88
374.513	260.88
374.739	265.88
374.965	284.88
375.191	277.88
375.416	270.88
375.642	277.88
375.868	268.88
376.094	278.88
376.319	278.88
376.545	278.88
376.771	272.88
376.997	282.88
377.222	272.88
377.448	269.88
377.674	266.88
377.899	271.88
378.125	272.88
378.35	281.88
378.576	257.88
378.802	229.88
379.027	271.88
379.253	267.88
379.478	263.88
379.704	274.88
379.929	269.88
380.155	271.88
380.38	296.88
380.606	259.88
380.831	273.88
381.057	277.88
381.282	264.88
381.507	277.88
381.733	262.88
381.958	270.88
382.184	291.88
382.409	269.88
382.634	293.88
382.86	279.88
383.085	281.88
383.31	267.88
383.535	282.88
383.761	299.88
383.986	291.88
384.211	283.88
384.436	291.88
384.662	281.88
384.887	313.88
385.112	276.88
385.337	297.88
385.562	282.88
385.787	307.88
386.013	309.88
386.238	301.88
386.463	315.88
386.688	294.88
386.913	292.88
387.138	284.88
387.363	303.88
387.588	272.88
387.813	293.88
388.038	307.88
388.263	305.88
388.488	294.88
388.713	283.88
388.938	287.88
389.163	269.88
389.387	282.88
389.612	293.88
389.837	293.88
390.062	283.88
390.287	299.88
390.512	295.88
390.736	285.88
390.961	304.88
391.186	292.88
391.411	298.88
391.636	311.88
391.86	303.88
392.085	300.88
392.31	283.88
392.534	289.88
392.759	301.88
392.984	286.88
393.208	305.88
393.433	320.88
393.658	326.88
393.882	300.88
394.107	273.88
394.331	297.88
394.556	304.88
394.78	307.88
395.005	293.88
395.229	289.88
395.454	302.88
395.678	302.88
395.903	323.88
396.127	322.88
396.352	323.88
396.576	318.88
396.801	317.88
397.025	325.88
397.249	308.88
397.474	317.88
397.698	307.88
397.922	309.88
398.147	331.88
398.371	331.88
398.595	316.88
398.82	327.88
399.044	339.88
399.268	349.88
399.492	346.88
399.717	351.88
399.941	381.88
400.165	407.88
400.389	435.88
400.613	378.88
400.837	355.88
401.062	355.88
401.286	342.88
401.51	330.88
401.734	332.88
401.958	349.88
402.182	333.88
402.406	334.88
402.63	326.88
402.854	326.88
403.078	319.88
403.302	345.88
403.526	330.88
403.75	340.88
403.974	347.88
404.198	325.88
404.422	342.88
404.645	340.88
404.869	345.88
405.093	361.88
405.317	368.88
405.541	413.88
405.765	373.88
405.988	363.88
406.212	365.88
406.436	362.88
406.66	374.88
406.883	362.88
407.107	376.88
407.331	392.88
407.555	441.88
407.778	433.88
408.002	410.88
408.226	389.88
408.449	383.88
408.673	376.88
408.896	392.88
409.12	407.88
409.344	392.88
409.567	355.88
409.791	358.88
410.014	362.88
410.238	350.88
410.461	356.88
410.685	341.88
410.908	363.88
411.132	381.88
411.355	396.88
411.578	379.88
411.802	367.88
412.025	350.88
412.249	351.88
412.472	368.88
412.695	385.88
412.919	378.88
413.142	346.88
413.365	353.88
413.589	350.88
413.812	323.88
414.035	328.88
414.258	351.88
414.482	336.88
414.705	337.88
414.928	337.88
415.151	343.88
415.374	337.88
415.597	322.88
415.821	342.88
416.044	330.88
416.267	322.88
416.49	335.88
416.713	342.88
416.936	318.88
417.159	327.88
417.382	328.88
417.605	332.88
417.828	335.88
418.051	334.88
418.274	317.88
418.497	334.88
418.72	335.88
418.943	297.88
419.166	325.88
419.389	339.88
419.611	349.88
419.834	354.88
420.057	337.88
420.28	335.88
420.503	357.88
420.726	345.88
420.948	337.88
421.171	368.88
421.394	390.88
421.617	346.88
421.839	348.88
422.062	335.88
422.285	340.88
422.507	402.88
422.73	417.88
422.953	404.88
423.175	366.88
423.398	346.88
423.621	352.88
423.843	355.88
424.066	362.88
424.288	363.88
424.511	385.88
424.733	411.88
424.956	449.88
425.178	452.88
425.401	438.88
425.623	442.88
425.846	395.88
426.068	338.88
426.291	348.88
426.513	342.88
426.735	361.88
426.958	393.88
427.18	472.88
427.402	529.88
427.625	561.88
427.847	465.88
428.069	421.88
428.292	381.88
428.514	346.88
428.736	356.88
428.958	354.88
429.181	350.88
429.403	355.88
429.625	339.88
429.847	390.88
430.069	405.88
430.292	401.88
430.514	361.88
430.736	341.88
430.958	329.88
431.18	318.88
431.402	324.88
431.624	330.88
431.846	332.88
432.068	328.88
432.29	316.88
432.512	337.88
432.734	345.88
432.956	337.88
433.178	356.88
433.4	358.88
433.622	341.88
433.844	341.88
434.066	330.88
434.287	320.88
434.509	334.88
434.731	295.88
434.953	341.88
435.175	346.88
435.397	334.88
435.618	368.88
435.84	393.88
436.062	433.88
436.284	465.88
436.505	436.88
436.727	375.88
436.949	359.88
437.17	361.88
437.392	336.88
437.614	353.88
437.835	366.88
438.057	429.88
438.278	457.88
438.5	489.88
438.721	524.88
438.943	497.88
439.165	406.88
439.386	395.88
439.608	390.88
439.829	373.88
440.05	393.88
440.272	396.88
440.493	383.88
440.715	355.88
440.936	346.88
441.158	334.88
441.379	347.88
441.6	358.88
441.822	368.88
442.043	386.88
442.264	436.88
442.486	453.88
442.707	387.88
442.928	381.88
443.149	379.88
443.371	387.88
443.592	411.88
443.813	476.88
444.034	508.88
444.255	436.88
444.476	377.88
444.698	346.88
444.919	365.88
445.14	460.88
445.361	429.88
445.582	391.88
445.803	429.88
446.024	484.88
446.245	484.88
446.466	433.88
446.687	388.88
446.908	372.88
447.129	365.88
447.35	338.88
447.571	354.88
447.792	339.88
448.013	356.88
448.234	362.88
448.455	385.88
448.675	457.88
448.896	528.88
449.117	448.88
449.338	418.88
449.559	518.88
449.779	561.88
450	459.88
450.221	376.88
450.442	355.88
450.662	336.88
450.883	341.88
451.104	344.88
451.324	337.88
451.545	340.88
451.766	330.88
451.986	322.88
452.207	322.88
452.428	316.88
452.648	308.88
452.869	313.88
453.089	311.88
453.31	315.88
453.53	317.88
453.751	295.88
453.971	290.88
454.192	314.88
454.412	305.88
454.633	306.88
454.853	314.88
455.073	299.88
455.294	319.88
455.514	362.88
455.734	347.88
455.955	301.88
456.175	317.88
456.395	294.88
456.616	305.88
456.836	313.88
457.056	312.88
457.276	292.88
457.497	317.88
457.717	297.88
457.937	312.88
458.157	305.88
458.377	307.88
458.598	317.88
458.818	347.88
459.038	380.88
459.258	403.88
459.478	349.88
459.698	326.88
459.918	338.88
460.138	320.88
460.358	318.88
460.578	348.88
460.798	320.88
461.018	322.88
461.238	351.88
461.458	338.88
461.678	341.88
461.898	362.88
462.118	327.88
462.338	343.88
462.558	356.88
462.777	365.88
462.997	344.88
463.217	345.88
463.437	366.88
463.657	356.88
463.876	367.88
464.096	363.88
464.316	366.88
464.536	357.88
464.755	361.88
464.975	345.88
465.195	361.88
465.414	388.88
465.634	343.88
465.854	353.88
466.073	339.88
466.293	326.88
466.512	318.88
466.732	307.88
466.951	320.88
467.171	299.88
467.391	329.88
467.61	324.88
467.829	343.88
468.049	337.88
468.268	350.88
468.488	317.88
468.707	308.88
468.927	331.88
469.146	322.88
469.365	330.88
469.585	317.88
469.804	305.88
470.023	319.88
470.243	319.88
470.462	314.88
470.681	331.88
470.901	325.88
471.12	315.88
471.339	327.88
471.558	327.88
471.777	309.88
471.997	332.88
472.216	303.88
472.435	342.88
472.654	342.88
472.873	326.88
473.092	339.88
473.311	319.88
473.53	345.88
473.749	325.88
473.968	345.88
474.187	415.88
474.406	412.88
474.625	342.88
474.844	349.88
475.063	343.88
475.282	321.88
475.501	334.88
475.72	320.88
475.939	347.88
476.158	324.88
476.377	331.88
476.596	342.88
476.814	365.88
477.033	357.88
477.252	348.88
477.471	342.88
477.69	341.88
477.908	367.88
478.127	355.88
478.346	375.88
478.564	349.88
478.783	366.88
479.002	363.88
479.22	375.88
479.439	397.88
479.658	380.88
479.876	369.88
480.095	392.88
480.313	418.88
480.532	399.88
480.751	380.88
480.969	388.88
481.188	445.88
481.406	460.88
481.624	412.88
481.843	394.88
482.061	395.88
482.28	390.88
482.498	398.88
482.717	389.88
482.935	380.88
483.153	374.88
483.372	395.88
483.59	378.88
483.808	385.88
484.027	401.88
484.245	400.88
484.463	384.88
484.681	398.88
484.9	395.88
485.118	384.88
485.336	396.88
485.554	385.88
485.772	391.88
485.99	395.88
486.209	416.88
486.427	409.88
486.645	399.88
486.863	422.88
487.081	405.88
487.299	414.88
487.517	425.88
487.735	406.88
487.953	394.88
488.171	424.88
488.389	403.88
488.607	423.88
488.825	408.88
489.043	416.88
489.261	408.88
489.479	429.88
489.696	380.88
489.914	414.88
490.132	430.88
490.35	405.88
490.568	425.88
490.786	428.88
491.003	431.88
491.221	459.88
491.439	463.88
491.657	458.88
491.874	457.88
492.092	443.88
492.31	453.88
492.527	461.88
492.745	464.88
492.963	458.88
493.18	456.88
493.398	476.88
493.615	467.88
493.833	476.88
494.05	481.88
494.268	484.88
494.485	465.88
494.703	468.88
494.92	474.88
495.138	476.88
495.355	477.88
495.573	481.88
495.79	473.88
496.008	493.88
496.225	499.88
496.442	493.88
496.66	468.88
496.877	490.88
497.094	483.88
497.312	521.88
497.529	483.88
497.746	503.88
497.963	502.88
498.181	543.88
498.398	528.88
498.615	536.88
498.832	543.88
499.049	574.88
499.267	536.88
499.484	578.88
499.701	583.88
499.918	592.88
500.135	624.88
500.352	627.88
500.569	639.88
500.786	644.88
501.003	647.88
501.22	650.88
501.437	629.88
501.654	617.88
501.871	600.88
502.088	571.88
502.305	572.88
502.522	542.88
