Data from 1961.PennyLincolnUp.Lamp.En5.5.200Scan.071719.P1._HRD10591_13-48-08-058.txt Node
Date: Thu Jul 18 13:48:08 EDT 2019
User: cochatt
Spectrometer: HR+D1059
Trigger mode: 1
Integration Time (sec): 1.000000E-1
Scans to average: 1
Electric dark correction enabled: true
Nonlinearity correction enabled: false
Boxcar width: 0
XAxis mode: Wavelengths
Number of Pixels in Spectrum: 2048
>>>>>Begin Spectral Data<<<<<
223.165	-37.75
223.4	-37.75
223.635	-37.75
223.869	-13.75
224.104	-11.75
224.338	-8.75
224.573	3.25
224.808	-13.75
225.042	-4.75
225.277	-8.75
225.511	1.25
225.746	4.25
225.98	-0.75
226.215	6.25
226.449	12.25
226.683	17.25
226.918	30.25
227.152	25.25
227.387	39.25
227.621	32.25
227.856	31.25
228.09	55.25
228.324	52.25
228.559	55.25
228.793	66.25
229.027	99.25
229.262	103.25
229.496	110.25
229.73	111.25
229.964	135.25
230.199	117.25
230.433	114.25
230.667	108.25
230.901	112.25
231.136	96.25
231.37	90.25
231.604	105.25
231.838	112.25
232.072	106.25
232.306	99.25
232.541	113.25
232.775	108.25
233.009	95.25
233.243	101.25
233.477	105.25
233.711	109.25
233.945	112.25
234.179	120.25
234.413	116.25
234.647	112.25
234.881	108.25
235.115	103.25
235.349	114.25
235.583	86.25
235.817	114.25
236.051	124.25
236.285	106.25
236.519	125.25
236.753	122.25
236.987	129.25
237.221	169.25
237.455	226.25
237.689	172.25
237.922	138.25
238.156	127.25
238.39	119.25
238.624	121.25
238.858	109.25
239.091	110.25
239.325	109.25
239.559	101.25
239.793	120.25
240.027	127.25
240.26	140.25
240.494	148.25
240.728	134.25
240.961	128.25
241.195	136.25
241.429	127.25
241.662	121.25
241.896	112.25
242.13	106.25
242.363	115.25
242.597	128.25
242.83	130.25
243.064	120.25
243.298	120.25
243.531	117.25
243.765	111.25
243.998	127.25
244.232	136.25
244.465	122.25
244.699	127.25
244.932	120.25
245.166	121.25
245.399	133.25
245.633	127.25
245.866	121.25
246.099	125.25
246.333	120.25
246.566	129.25
246.8	113.25
247.033	124.25
247.266	138.25
247.5	138.25
247.733	150.25
247.966	157.25
248.2	163.25
248.433	146.25
248.666	137.25
248.899	154.25
249.133	166.25
249.366	181.25
249.599	164.25
249.832	161.25
250.066	157.25
250.299	156.25
250.532	156.25
250.765	192.25
250.998	199.25
251.231	181.25
251.465	188.25
251.698	199.25
251.931	164.25
252.164	193.25
252.397	177.25
252.63	172.25
252.863	160.25
253.096	181.25
253.329	188.25
253.562	190.25
253.795	185.25
254.028	178.25
254.261	199.25
254.494	211.25
254.727	228.25
254.96	245.25
255.193	232.25
255.426	212.25
255.659	213.25
255.892	199.25
256.124	207.25
256.357	201.25
256.59	176.25
256.823	187.25
257.056	185.25
257.289	190.25
257.521	170.25
257.754	197.25
257.987	184.25
258.22	173.25
258.452	177.25
258.685	183.25
258.918	189.25
259.151	166.25
259.383	193.25
259.616	203.25
259.849	186.25
260.081	205.25
260.314	211.25
260.547	215.25
260.779	211.25
261.012	198.25
261.244	197.25
261.477	190.25
261.71	200.25
261.942	193.25
262.175	205.25
262.407	199.25
262.64	192.25
262.872	194.25
263.105	181.25
263.337	183.25
263.57	179.25
263.802	168.25
264.035	183.25
264.267	163.25
264.499	177.25
264.732	183.25
264.964	177.25
265.197	169.25
265.429	194.25
265.661	175.25
265.894	173.25
266.126	176.25
266.358	181.25
266.591	186.25
266.823	181.25
267.055	175.25
267.287	173.25
267.52	181.25
267.752	198.25
267.984	187.25
268.216	198.25
268.448	217.25
268.681	187.25
268.913	194.25
269.145	213.25
269.377	223.25
269.609	213.25
269.841	230.25
270.073	219.25
270.306	259.25
270.538	260.25
270.77	259.25
271.002	248.25
271.234	241.25
271.466	249.25
271.698	274.25
271.93	270.25
272.162	267.25
272.394	263.25
272.626	241.25
272.858	242.25
273.09	241.25
273.322	225.25
273.553	225.25
273.785	227.25
274.017	223.25
274.249	218.25
274.481	216.25
274.713	215.25
274.945	215.25
275.176	212.25
275.408	225.25
275.64	220.25
275.872	211.25
276.104	217.25
276.335	214.25
276.567	223.25
276.799	249.25
277.031	252.25
277.262	270.25
277.494	247.25
277.726	232.25
277.957	220.25
278.189	227.25
278.421	226.25
278.652	211.25
278.884	213.25
279.115	227.25
279.347	216.25
279.579	215.25
279.81	215.25
280.042	227.25
280.273	204.25
280.505	207.25
280.736	227.25
280.968	235.25
281.199	208.25
281.431	216.25
281.662	211.25
281.894	203.25
282.125	221.25
282.356	250.25
282.588	265.25
282.819	255.25
283.051	237.25
283.282	231.25
283.513	209.25
283.745	220.25
283.976	218.25
284.207	219.25
284.439	228.25
284.67	202.25
284.901	237.25
285.132	233.25
285.364	225.25
285.595	218.25
285.826	211.25
286.057	225.25
286.288	231.25
286.52	228.25
286.751	236.25
286.982	216.25
287.213	219.25
287.444	218.25
287.675	220.25
287.906	232.25
288.138	247.25
288.369	247.25
288.6	249.25
288.831	227.25
289.062	236.25
289.293	215.25
289.524	248.25
289.755	234.25
289.986	210.25
290.217	216.25
290.448	239.25
290.679	236.25
290.91	240.25
291.141	222.25
291.371	227.25
291.602	230.25
291.833	247.25
292.064	241.25
292.295	237.25
292.526	235.25
292.757	227.25
292.987	238.25
293.218	220.25
293.449	217.25
293.68	224.25
293.91	246.25
294.141	220.25
294.372	237.25
294.603	234.25
294.833	225.25
295.064	240.25
295.295	242.25
295.525	247.25
295.756	242.25
295.987	243.25
296.217	260.25
296.448	278.25
296.679	250.25
296.909	237.25
297.14	236.25
297.37	237.25
297.601	244.25
297.831	231.25
298.062	230.25
298.292	241.25
298.523	265.25
298.753	249.25
298.984	254.25
299.214	225.25
299.445	242.25
299.675	247.25
299.905	265.25
300.136	276.25
300.366	255.25
300.597	247.25
300.827	250.25
301.057	241.25
301.288	247.25
301.518	255.25
301.748	261.25
301.979	261.25
302.209	251.25
302.439	259.25
302.669	259.25
302.9	253.25
303.13	248.25
303.36	251.25
303.59	279.25
303.82	259.25
304.051	261.25
304.281	278.25
304.511	254.25
304.741	245.25
304.971	258.25
305.201	258.25
305.431	267.25
305.661	261.25
305.891	257.25
306.121	258.25
306.352	257.25
306.582	272.25
306.812	266.25
307.042	275.25
307.272	275.25
307.502	246.25
307.731	274.25
307.961	273.25
308.191	276.25
308.421	248.25
308.651	287.25
308.881	268.25
309.111	276.25
309.341	269.25
309.571	289.25
309.8	293.25
310.03	318.25
310.26	312.25
310.49	310.25
310.72	324.25
310.949	338.25
311.179	325.25
311.409	330.25
311.639	308.25
311.868	303.25
312.098	300.25
312.328	321.25
312.557	353.25
312.787	342.25
313.017	346.25
313.246	327.25
313.476	305.25
313.706	313.25
313.935	315.25
314.165	307.25
314.394	329.25
314.624	338.25
314.853	331.25
315.083	308.25
315.312	305.25
315.542	314.25
315.771	297.25
316.001	308.25
316.23	299.25
316.46	295.25
316.689	307.25
316.919	311.25
317.148	331.25
317.377	308.25
317.607	331.25
317.836	321.25
318.065	316.25
318.295	299.25
318.524	288.25
318.753	305.25
318.983	315.25
319.212	304.25
319.441	332.25
319.67	320.25
319.9	309.25
320.129	307.25
320.358	328.25
320.587	319.25
320.816	319.25
321.046	333.25
321.275	332.25
321.504	319.25
321.733	339.25
321.962	337.25
322.191	356.25
322.42	368.25
322.649	396.25
322.878	409.25
323.108	412.25
323.337	433.25
323.566	458.25
323.795	473.25
324.024	539.25
324.253	675.25
324.482	997.25
324.71	1533.25
324.939	2121.25
325.168	1805.25
325.397	942.25
325.626	608.25
325.855	519.25
326.084	471.25
326.313	444.25
326.542	469.25
326.77	504.25
326.999	621.25
327.228	874.25
327.457	1313.25
327.686	1568.25
327.914	1021.25
328.143	669.25
328.372	595.25
328.6	555.25
328.829	485.25
329.058	528.25
329.287	539.25
329.515	498.25
329.744	475.25
329.972	445.25
330.201	481.25
330.43	533.25
330.658	540.25
330.887	551.25
331.115	539.25
331.344	450.25
331.572	419.25
331.801	417.25
332.03	427.25
332.258	412.25
332.486	401.25
332.715	376.25
332.943	380.25
333.172	372.25
333.4	373.25
333.629	376.25
333.857	401.25
334.085	417.25
334.314	426.25
334.542	448.25
334.771	487.25
334.999	439.25
335.227	387.25
335.455	389.25
335.684	359.25
335.912	361.25
336.14	354.25
336.369	376.25
336.597	357.25
336.825	367.25
337.053	367.25
337.281	376.25
337.51	367.25
337.738	354.25
337.966	363.25
338.194	372.25
338.422	367.25
338.65	367.25
338.878	345.25
339.106	345.25
339.334	355.25
339.562	340.25
339.79	330.25
340.018	345.25
340.246	359.25
340.474	355.25
340.702	325.25
340.93	332.25
341.158	342.25
341.386	339.25
341.614	333.25
341.842	356.25
342.07	340.25
342.298	353.25
342.526	345.25
342.754	341.25
342.981	339.25
343.209	331.25
343.437	319.25
343.665	331.25
343.893	352.25
344.12	357.25
344.348	350.25
344.576	357.25
344.804	351.25
345.031	348.25
345.259	377.25
345.487	370.25
345.714	347.25
345.942	352.25
346.17	335.25
346.397	366.25
346.625	333.25
346.853	345.25
347.08	341.25
347.308	348.25
347.535	366.25
347.763	371.25
347.99	351.25
348.218	347.25
348.445	348.25
348.673	347.25
348.9	349.25
349.128	358.25
349.355	344.25
349.583	333.25
349.81	341.25
350.037	344.25
350.265	333.25
350.492	317.25
350.72	326.25
350.947	345.25
351.174	346.25
351.402	353.25
351.629	363.25
351.856	356.25
352.083	369.25
352.311	378.25
352.538	358.25
352.765	356.25
352.992	351.25
353.22	346.25
353.447	336.25
353.674	342.25
353.901	337.25
354.128	339.25
354.355	305.25
354.583	315.25
354.81	325.25
355.037	291.25
355.264	308.25
355.491	319.25
355.718	303.25
355.945	315.25
356.172	311.25
356.399	311.25
356.626	325.25
356.853	318.25
357.08	314.25
357.307	300.25
357.534	303.25
357.761	287.25
357.988	325.25
358.215	326.25
358.441	336.25
358.668	306.25
358.895	321.25
359.122	319.25
359.349	325.25
359.576	359.25
359.802	369.25
360.029	379.25
360.256	392.25
360.483	386.25
360.709	363.25
360.936	340.25
361.163	355.25
361.39	344.25
361.616	335.25
361.843	351.25
362.07	349.25
362.296	333.25
362.523	334.25
362.749	327.25
362.976	341.25
363.203	331.25
363.429	318.25
363.656	332.25
363.882	328.25
364.109	327.25
364.335	326.25
364.562	348.25
364.788	332.25
365.015	325.25
365.241	313.25
365.468	343.25
365.694	329.25
365.92	340.25
366.147	334.25
366.373	339.25
366.599	314.25
366.826	307.25
367.052	320.25
367.278	328.25
367.505	323.25
367.731	329.25
367.957	333.25
368.184	310.25
368.41	327.25
368.636	341.25
368.862	343.25
369.089	321.25
369.315	323.25
369.541	318.25
369.767	316.25
369.993	331.25
370.219	330.25
370.445	320.25
370.672	316.25
370.898	305.25
371.124	305.25
371.35	320.25
371.576	320.25
371.802	314.25
372.028	312.25
372.254	328.25
372.48	309.25
372.706	318.25
372.932	305.25
373.158	300.25
373.384	311.25
373.61	329.25
373.835	303.25
374.061	306.25
374.287	314.25
374.513	331.25
374.739	329.25
374.965	305.25
375.191	326.25
375.416	322.25
375.642	314.25
375.868	328.25
376.094	301.25
376.319	339.25
376.545	343.25
376.771	313.25
376.997	316.25
377.222	307.25
377.448	318.25
377.674	323.25
377.899	307.25
378.125	304.25
378.35	313.25
378.576	319.25
378.802	318.25
379.027	325.25
379.253	304.25
379.478	315.25
379.704	305.25
379.929	315.25
380.155	309.25
380.38	337.25
380.606	316.25
380.831	327.25
381.057	321.25
381.282	298.25
381.507	319.25
381.733	323.25
381.958	323.25
382.184	309.25
382.409	319.25
382.634	322.25
382.86	325.25
383.085	316.25
383.31	321.25
383.535	326.25
383.761	324.25
383.986	320.25
384.211	333.25
384.436	344.25
384.662	325.25
384.887	353.25
385.112	343.25
385.337	328.25
385.562	328.25
385.787	338.25
386.013	330.25
386.238	337.25
386.463	345.25
386.688	353.25
386.913	318.25
387.138	327.25
387.363	339.25
387.588	346.25
387.813	337.25
388.038	340.25
388.263	357.25
388.488	331.25
388.713	337.25
388.938	345.25
389.163	345.25
389.387	333.25
389.612	341.25
389.837	315.25
390.062	346.25
390.287	351.25
390.512	358.25
390.736	338.25
390.961	336.25
391.186	333.25
391.411	332.25
391.636	341.25
391.86	355.25
392.085	350.25
392.31	339.25
392.534	337.25
392.759	332.25
392.984	349.25
393.208	327.25
393.433	361.25
393.658	346.25
393.882	344.25
394.107	329.25
394.331	339.25
394.556	355.25
394.78	338.25
395.005	338.25
395.229	362.25
395.454	348.25
395.678	350.25
395.903	340.25
396.127	393.25
396.352	369.25
396.576	385.25
396.801	358.25
397.025	379.25
397.249	356.25
397.474	373.25
397.698	338.25
397.922	365.25
398.147	358.25
398.371	391.25
398.595	387.25
398.82	378.25
399.044	364.25
399.268	391.25
399.492	391.25
399.717	418.25
399.941	441.25
400.165	450.25
400.389	469.25
400.613	444.25
400.837	420.25
401.062	425.25
401.286	394.25
401.51	391.25
401.734	377.25
401.958	405.25
402.182	404.25
402.406	392.25
402.63	401.25
402.854	387.25
403.078	403.25
403.302	408.25
403.526	409.25
403.75	405.25
403.974	391.25
404.198	400.25
404.422	387.25
404.645	403.25
404.869	417.25
405.093	439.25
405.317	475.25
405.541	517.25
405.765	455.25
405.988	417.25
406.212	453.25
406.436	465.25
406.66	450.25
406.883	431.25
407.107	468.25
407.331	508.25
407.555	528.25
407.778	531.25
408.002	480.25
408.226	449.25
408.449	447.25
408.673	450.25
408.896	489.25
409.12	492.25
409.344	471.25
409.567	436.25
409.791	429.25
410.014	395.25
410.238	416.25
410.461	409.25
410.685	394.25
410.908	431.25
411.132	449.25
411.355	523.25
411.578	448.25
411.802	426.25
412.025	425.25
412.249	417.25
412.472	449.25
412.695	465.25
412.919	464.25
413.142	429.25
413.365	411.25
413.589	411.25
413.812	385.25
414.035	385.25
414.258	394.25
414.482	392.25
414.705	400.25
414.928	392.25
415.151	377.25
415.374	385.25
415.597	365.25
415.821	397.25
416.044	388.25
416.267	397.25
416.49	387.25
416.713	380.25
416.936	384.25
417.159	395.25
417.382	392.25
417.605	364.25
417.828	405.25
418.051	423.25
418.274	397.25
418.497	386.25
418.72	391.25
418.943	371.25
419.166	392.25
419.389	396.25
419.611	402.25
419.834	395.25
420.057	423.25
420.28	404.25
420.503	409.25
420.726	395.25
420.948	433.25
421.171	488.25
421.394	488.25
421.617	414.25
421.839	415.25
422.062	420.25
422.285	425.25
422.507	473.25
422.73	533.25
422.953	479.25
423.175	464.25
423.398	411.25
423.621	429.25
423.843	425.25
424.066	440.25
424.288	455.25
424.511	441.25
424.733	493.25
424.956	585.25
425.178	536.25
425.401	539.25
425.623	553.25
425.846	492.25
426.068	455.25
426.291	445.25
426.513	452.25
426.735	449.25
426.958	498.25
427.18	533.25
427.402	672.25
427.625	712.25
427.847	640.25
428.069	575.25
428.292	511.25
428.514	457.25
428.736	428.25
428.958	437.25
429.181	428.25
429.403	421.25
429.625	435.25
429.847	451.25
430.069	507.25
430.292	515.25
430.514	445.25
430.736	414.25
430.958	399.25
431.18	383.25
431.402	395.25
431.624	381.25
431.846	405.25
432.068	391.25
432.29	380.25
432.512	386.25
432.734	397.25
432.956	386.25
433.178	404.25
433.4	409.25
433.622	406.25
433.844	378.25
434.066	379.25
434.287	399.25
434.509	407.25
434.731	395.25
434.953	412.25
435.175	408.25
435.397	451.25
435.618	448.25
435.84	503.25
436.062	558.25
436.284	609.25
436.505	507.25
436.727	475.25
436.949	456.25
437.17	425.25
437.392	442.25
437.614	435.25
437.835	474.25
438.057	570.25
438.278	649.25
438.5	641.25
438.721	660.25
438.943	637.25
439.165	523.25
439.386	482.25
439.608	483.25
439.829	482.25
440.05	496.25
440.272	552.25
440.493	512.25
440.715	456.25
440.936	420.25
441.158	425.25
441.379	420.25
441.6	450.25
441.822	430.25
442.043	499.25
442.264	570.25
442.486	581.25
442.707	517.25
442.928	468.25
443.149	459.25
443.371	514.25
443.592	514.25
443.813	580.25
444.034	628.25
444.255	529.25
444.476	465.25
444.698	463.25
444.919	452.25
445.14	545.25
445.361	520.25
445.582	482.25
445.803	548.25
446.024	643.25
446.245	634.25
446.466	597.25
446.687	497.25
446.908	449.25
447.129	432.25
447.35	415.25
447.571	425.25
447.792	420.25
448.013	416.25
448.234	457.25
448.455	508.25
448.675	579.25
448.896	671.25
449.117	568.25
449.338	533.25
449.559	619.25
449.779	687.25
450	543.25
450.221	469.25
450.442	441.25
450.662	432.25
450.883	463.25
451.104	439.25
451.324	436.25
451.545	422.25
451.766	407.25
451.986	401.25
452.207	391.25
452.428	387.25
452.648	370.25
452.869	383.25
453.089	377.25
453.31	405.25
453.53	387.25
453.751	374.25
453.971	377.25
454.192	433.25
454.412	395.25
454.633	375.25
454.853	377.25
455.073	384.25
455.294	415.25
455.514	478.25
455.734	442.25
455.955	380.25
456.175	371.25
456.395	369.25
456.616	383.25
456.836	355.25
457.056	359.25
457.276	345.25
457.497	344.25
457.717	354.25
457.937	386.25
458.157	360.25
458.377	387.25
458.598	386.25
458.818	446.25
459.038	529.25
459.258	524.25
459.478	455.25
459.698	415.25
459.918	376.25
460.138	383.25
460.358	380.25
460.578	391.25
460.798	403.25
461.018	416.25
461.238	388.25
461.458	378.25
461.678	395.25
461.898	386.25
462.118	386.25
462.338	421.25
462.558	405.25
462.777	403.25
462.997	391.25
463.217	401.25
463.437	405.25
463.657	401.25
463.876	410.25
464.096	416.25
464.316	420.25
464.536	411.25
464.755	440.25
464.975	417.25
465.195	482.25
465.414	541.25
465.634	472.25
465.854	428.25
466.073	409.25
466.293	415.25
466.512	391.25
466.732	404.25
466.951	380.25
467.171	390.25
467.391	379.25
467.61	401.25
467.829	423.25
468.049	397.25
468.268	401.25
468.488	399.25
468.707	376.25
468.927	386.25
469.146	380.25
469.365	396.25
469.585	374.25
469.804	367.25
470.023	398.25
470.243	389.25
470.462	387.25
470.681	413.25
470.901	420.25
471.12	391.25
471.339	405.25
471.558	383.25
471.777	404.25
471.997	405.25
472.216	390.25
472.435	457.25
472.654	425.25
472.873	401.25
473.092	390.25
473.311	391.25
473.53	400.25
473.749	406.25
473.968	434.25
474.187	531.25
474.406	529.25
474.625	451.25
474.844	415.25
475.063	393.25
475.282	390.25
475.501	410.25
475.72	408.25
475.939	418.25
476.158	389.25
476.377	422.25
476.596	397.25
476.814	407.25
477.033	433.25
477.252	440.25
477.471	425.25
477.69	424.25
477.908	398.25
478.127	417.25
478.346	402.25
478.564	455.25
478.783	431.25
479.002	435.25
479.22	452.25
479.439	487.25
479.658	485.25
479.876	457.25
480.095	472.25
480.313	493.25
480.532	470.25
480.751	473.25
480.969	495.25
481.188	561.25
481.406	583.25
481.624	526.25
481.843	503.25
482.061	462.25
482.28	480.25
482.498	459.25
482.717	463.25
482.935	476.25
483.153	438.25
483.372	468.25
483.59	480.25
483.808	461.25
484.027	451.25
484.245	457.25
484.463	458.25
484.681	470.25
484.9	463.25
485.118	474.25
485.336	458.25
485.554	479.25
485.772	487.25
485.99	470.25
486.209	468.25
486.427	481.25
486.645	491.25
486.863	505.25
487.081	498.25
487.299	497.25
487.517	492.25
487.735	495.25
487.953	490.25
488.171	502.25
488.389	486.25
488.607	511.25
488.825	504.25
489.043	484.25
489.261	502.25
489.479	482.25
489.696	513.25
489.914	504.25
490.132	510.25
490.35	513.25
490.568	514.25
490.786	519.25
491.003	538.25
491.221	547.25
491.439	545.25
491.657	551.25
491.874	555.25
492.092	561.25
492.31	589.25
492.527	565.25
492.745	570.25
492.963	554.25
493.18	569.25
493.398	583.25
493.615	591.25
493.833	582.25
494.05	580.25
494.268	573.25
494.485	590.25
494.703	559.25
494.92	573.25
495.138	577.25
495.355	581.25
495.573	605.25
495.79	586.25
496.008	591.25
496.225	595.25
496.442	583.25
496.66	580.25
496.877	611.25
497.094	567.25
497.312	600.25
497.529	604.25
497.746	611.25
497.963	609.25
498.181	631.25
498.398	629.25
498.615	627.25
498.832	656.25
499.049	660.25
499.267	666.25
499.484	659.25
499.701	672.25
499.918	699.25
500.135	696.25
500.352	739.25
500.569	735.25
500.786	735.25
501.003	744.25
501.22	731.25
501.437	698.25
501.654	695.25
501.871	704.25
502.088	692.25
