Data from 1961.PennyLincolnUp.Lamp.En5.5.200Scan.071719.P1._HRD10591_13-48-52-058.txt Node
Date: Thu Jul 18 13:48:52 EDT 2019
User: cochatt
Spectrometer: HR+D1059
Trigger mode: 1
Integration Time (sec): 1.000000E-1
Scans to average: 1
Electric dark correction enabled: true
Nonlinearity correction enabled: false
Boxcar width: 0
XAxis mode: Wavelengths
Number of Pixels in Spectrum: 2048
>>>>>Begin Spectral Data<<<<<
223.165	-20.88
223.4	-20.88
223.635	-20.88
223.869	-15.88
224.104	-18.88
224.338	-16.88
224.573	-17.88
224.808	-17.88
225.042	0.12
225.277	2.12
225.511	-16.88
225.746	-1.88
225.98	14.12
226.215	8.12
226.449	18.12
226.683	18.12
226.918	33.12
227.152	33.12
227.387	36.12
227.621	42.12
227.856	40.12
228.09	39.12
228.324	50.12
228.559	52.12
228.793	68.12
229.027	85.12
229.262	102.12
229.496	111.12
229.73	136.12
229.964	148.12
230.199	121.12
230.433	98.12
230.667	108.12
230.901	118.12
231.136	110.12
231.37	105.12
231.604	108.12
231.838	120.12
232.072	106.12
232.306	103.12
232.541	106.12
232.775	97.12
233.009	102.12
233.243	115.12
233.477	118.12
233.711	112.12
233.945	106.12
234.179	123.12
234.413	110.12
234.647	114.12
234.881	108.12
235.115	108.12
235.349	113.12
235.583	99.12
235.817	100.12
236.051	127.12
236.285	118.12
236.519	116.12
236.753	134.12
236.987	138.12
237.221	162.12
237.455	219.12
237.689	182.12
237.922	138.12
238.156	126.12
238.39	120.12
238.624	130.12
238.858	112.12
239.091	121.12
239.325	123.12
239.559	123.12
239.793	123.12
240.027	128.12
240.26	128.12
240.494	144.12
240.728	142.12
240.961	135.12
241.195	134.12
241.429	139.12
241.662	118.12
241.896	117.12
242.13	111.12
242.363	113.12
242.597	113.12
242.83	122.12
243.064	112.12
243.298	117.12
243.531	136.12
243.765	130.12
243.998	125.12
244.232	129.12
244.465	128.12
244.699	138.12
244.932	118.12
245.166	122.12
245.399	141.12
245.633	133.12
245.866	126.12
246.099	132.12
246.333	140.12
246.566	136.12
246.8	139.12
247.033	146.12
247.266	140.12
247.5	128.12
247.733	148.12
247.966	146.12
248.2	158.12
248.433	148.12
248.666	158.12
248.899	159.12
249.133	167.12
249.366	188.12
249.599	188.12
249.832	154.12
250.066	160.12
250.299	164.12
250.532	152.12
250.765	182.12
250.998	198.12
251.231	191.12
251.465	193.12
251.698	187.12
251.931	181.12
252.164	186.12
252.397	169.12
252.63	174.12
252.863	186.12
253.096	188.12
253.329	199.12
253.562	191.12
253.795	191.12
254.028	163.12
254.261	174.12
254.494	190.12
254.727	235.12
254.96	246.12
255.193	234.12
255.426	210.12
255.659	199.12
255.892	203.12
256.124	200.12
256.357	198.12
256.59	196.12
256.823	190.12
257.056	199.12
257.289	186.12
257.521	192.12
257.754	186.12
257.987	182.12
258.22	184.12
258.452	187.12
258.685	190.12
258.918	167.12
259.151	183.12
259.383	186.12
259.616	195.12
259.849	195.12
260.081	205.12
260.314	209.12
260.547	217.12
260.779	212.12
261.012	211.12
261.244	179.12
261.477	200.12
261.71	200.12
261.942	187.12
262.175	203.12
262.407	210.12
262.64	186.12
262.872	192.12
263.105	180.12
263.337	191.12
263.57	182.12
263.802	182.12
264.035	199.12
264.267	186.12
264.499	178.12
264.732	181.12
264.964	178.12
265.197	192.12
265.429	192.12
265.661	185.12
265.894	175.12
266.126	182.12
266.358	182.12
266.591	183.12
266.823	189.12
267.055	197.12
267.287	198.12
267.52	176.12
267.752	203.12
267.984	194.12
268.216	202.12
268.448	190.12
268.681	202.12
268.913	211.12
269.145	232.12
269.377	211.12
269.609	232.12
269.841	240.12
270.073	232.12
270.306	258.12
270.538	266.12
270.77	280.12
271.002	252.12
271.234	246.12
271.466	254.12
271.698	275.12
271.93	259.12
272.162	265.12
272.394	277.12
272.626	274.12
272.858	248.12
273.09	260.12
273.322	256.12
273.553	245.12
273.785	218.12
274.017	212.12
274.249	236.12
274.481	219.12
274.713	224.12
274.945	248.12
275.176	221.12
275.408	229.12
275.64	223.12
275.872	217.12
276.104	229.12
276.335	224.12
276.567	225.12
276.799	255.12
277.031	276.12
277.262	276.12
277.494	278.12
277.726	252.12
277.957	244.12
278.189	238.12
278.421	217.12
278.652	227.12
278.884	235.12
279.115	202.12
279.347	217.12
279.579	227.12
279.81	224.12
280.042	213.12
280.273	235.12
280.505	231.12
280.736	204.12
280.968	226.12
281.199	215.12
281.431	230.12
281.662	222.12
281.894	230.12
282.125	210.12
282.356	239.12
282.588	264.12
282.819	240.12
283.051	231.12
283.282	225.12
283.513	230.12
283.745	223.12
283.976	235.12
284.207	245.12
284.439	232.12
284.67	237.12
284.901	240.12
285.132	222.12
285.364	221.12
285.595	228.12
285.826	252.12
286.057	229.12
286.288	226.12
286.52	240.12
286.751	227.12
286.982	227.12
287.213	236.12
287.444	250.12
287.675	254.12
287.906	251.12
288.138	256.12
288.369	252.12
288.6	245.12
288.831	232.12
289.062	236.12
289.293	255.12
289.524	226.12
289.755	225.12
289.986	231.12
290.217	240.12
290.448	230.12
290.679	243.12
290.91	231.12
291.141	218.12
291.371	239.12
291.602	251.12
291.833	240.12
292.064	235.12
292.295	249.12
292.526	246.12
292.757	246.12
292.987	246.12
293.218	238.12
293.449	244.12
293.68	239.12
293.91	236.12
294.141	226.12
294.372	225.12
294.603	235.12
294.833	245.12
295.064	257.12
295.295	244.12
295.525	254.12
295.756	245.12
295.987	237.12
296.217	277.12
296.448	280.12
296.679	241.12
296.909	244.12
297.14	233.12
297.37	255.12
297.601	260.12
297.831	258.12
298.062	257.12
298.292	256.12
298.523	276.12
298.753	255.12
298.984	264.12
299.214	259.12
299.445	243.12
299.675	258.12
299.905	247.12
300.136	257.12
300.366	233.12
300.597	266.12
300.827	254.12
301.057	266.12
301.288	276.12
301.518	279.12
301.748	261.12
301.979	262.12
302.209	287.12
302.439	274.12
302.669	250.12
302.9	267.12
303.13	261.12
303.36	267.12
303.59	270.12
303.82	273.12
304.051	282.12
304.281	256.12
304.511	261.12
304.741	269.12
304.971	271.12
305.201	261.12
305.431	255.12
305.661	254.12
305.891	258.12
306.121	290.12
306.352	265.12
306.582	282.12
306.812	274.12
307.042	257.12
307.272	284.12
307.502	289.12
307.731	288.12
307.961	272.12
308.191	268.12
308.421	294.12
308.651	282.12
308.881	282.12
309.111	282.12
309.341	297.12
309.571	284.12
309.8	296.12
310.03	311.12
310.26	320.12
310.49	325.12
310.72	330.12
310.949	354.12
311.179	337.12
311.409	337.12
311.639	320.12
311.868	327.12
312.098	314.12
312.328	326.12
312.557	350.12
312.787	346.12
313.017	377.12
313.246	342.12
313.476	318.12
313.706	333.12
313.935	345.12
314.165	332.12
314.394	340.12
314.624	366.12
314.853	326.12
315.083	325.12
315.312	309.12
315.542	322.12
315.771	319.12
316.001	318.12
316.23	320.12
316.46	312.12
316.689	330.12
316.919	319.12
317.148	328.12
317.377	351.12
317.607	331.12
317.836	325.12
318.065	319.12
318.295	327.12
318.524	317.12
318.753	329.12
318.983	325.12
319.212	302.12
319.441	322.12
319.67	330.12
319.9	330.12
320.129	318.12
320.358	314.12
320.587	315.12
320.816	334.12
321.046	347.12
321.275	361.12
321.504	346.12
321.733	341.12
321.962	335.12
322.191	374.12
322.42	385.12
322.649	398.12
322.878	416.12
323.108	433.12
323.337	440.12
323.566	464.12
323.795	506.12
324.024	548.12
324.253	725.12
324.482	1098.12
324.71	1650.12
324.939	2301.12
325.168	1887.12
325.397	985.12
325.626	654.12
325.855	538.12
326.084	501.12
326.313	467.12
326.542	486.12
326.77	544.12
326.999	661.12
327.228	946.12
327.457	1441.12
327.686	1685.12
327.914	1102.12
328.143	731.12
328.372	610.12
328.6	567.12
328.829	555.12
329.058	571.12
329.287	560.12
329.515	512.12
329.744	473.12
329.972	474.12
330.201	502.12
330.43	534.12
330.658	576.12
330.887	595.12
331.115	585.12
331.344	485.12
331.572	459.12
331.801	442.12
332.03	425.12
332.258	434.12
332.486	414.12
332.715	382.12
332.943	374.12
333.172	383.12
333.4	378.12
333.629	395.12
333.857	411.12
334.085	423.12
334.314	446.12
334.542	473.12
334.771	477.12
334.999	440.12
335.227	395.12
335.455	394.12
335.684	387.12
335.912	373.12
336.14	368.12
336.369	386.12
336.597	381.12
336.825	373.12
337.053	362.12
337.281	372.12
337.51	343.12
337.738	372.12
337.966	376.12
338.194	377.12
338.422	379.12
338.65	364.12
338.878	362.12
339.106	357.12
339.334	362.12
339.562	359.12
339.79	358.12
340.018	345.12
340.246	343.12
340.474	353.12
340.702	374.12
340.93	366.12
341.158	356.12
341.386	370.12
341.614	374.12
341.842	373.12
342.07	351.12
342.298	355.12
342.526	333.12
342.754	346.12
342.981	336.12
343.209	349.12
343.437	359.12
343.665	351.12
343.893	357.12
344.12	359.12
344.348	349.12
344.576	363.12
344.804	403.12
345.031	362.12
345.259	390.12
345.487	371.12
345.714	370.12
345.942	363.12
346.17	356.12
346.397	361.12
346.625	353.12
346.853	354.12
347.08	375.12
347.308	356.12
347.535	369.12
347.763	364.12
347.99	360.12
348.218	387.12
348.445	363.12
348.673	370.12
348.9	339.12
349.128	341.12
349.355	339.12
349.583	333.12
349.81	338.12
350.037	342.12
350.265	345.12
350.492	341.12
350.72	345.12
350.947	347.12
351.174	360.12
351.402	366.12
351.629	376.12
351.856	356.12
352.083	374.12
352.311	380.12
352.538	387.12
352.765	377.12
352.992	353.12
353.22	351.12
353.447	360.12
353.674	332.12
353.901	335.12
354.128	328.12
354.355	330.12
354.583	333.12
354.81	312.12
355.037	320.12
355.264	315.12
355.491	314.12
355.718	304.12
355.945	295.12
356.172	306.12
356.399	302.12
356.626	342.12
356.853	305.12
357.08	328.12
357.307	332.12
357.534	314.12
357.761	320.12
357.988	328.12
358.215	335.12
358.441	337.12
358.668	315.12
358.895	342.12
359.122	334.12
359.349	345.12
359.576	359.12
359.802	379.12
360.029	399.12
360.256	398.12
360.483	387.12
360.709	375.12
360.936	358.12
361.163	347.12
361.39	357.12
361.616	362.12
361.843	356.12
362.07	364.12
362.296	355.12
362.523	361.12
362.749	353.12
362.976	340.12
363.203	351.12
363.429	348.12
363.656	338.12
363.882	360.12
364.109	333.12
364.335	327.12
364.562	342.12
364.788	322.12
365.015	333.12
365.241	351.12
365.468	342.12
365.694	330.12
365.92	331.12
366.147	326.12
366.373	335.12
366.599	332.12
366.826	352.12
367.052	343.12
367.278	341.12
367.505	331.12
367.731	350.12
367.957	311.12
368.184	325.12
368.41	332.12
368.636	336.12
368.862	353.12
369.089	323.12
369.315	306.12
369.541	346.12
369.767	339.12
369.993	329.12
370.219	342.12
370.445	328.12
370.672	329.12
370.898	332.12
371.124	325.12
371.35	305.12
371.576	315.12
371.802	329.12
372.028	330.12
372.254	321.12
372.48	308.12
372.706	326.12
372.932	337.12
373.158	331.12
373.384	328.12
373.61	332.12
373.835	319.12
374.061	327.12
374.287	351.12
374.513	334.12
374.739	329.12
374.965	345.12
375.191	315.12
375.416	305.12
375.642	328.12
375.868	320.12
376.094	341.12
376.319	315.12
376.545	336.12
376.771	344.12
376.997	314.12
377.222	328.12
377.448	319.12
377.674	321.12
377.899	315.12
378.125	325.12
378.35	330.12
378.576	304.12
378.802	325.12
379.027	335.12
379.253	296.12
379.478	313.12
379.704	318.12
379.929	320.12
380.155	332.12
380.38	331.12
380.606	318.12
380.831	310.12
381.057	323.12
381.282	338.12
381.507	305.12
381.733	324.12
381.958	321.12
382.184	336.12
382.409	325.12
382.634	330.12
382.86	340.12
383.085	317.12
383.31	336.12
383.535	336.12
383.761	337.12
383.986	335.12
384.211	325.12
384.436	318.12
384.662	332.12
384.887	345.12
385.112	339.12
385.337	355.12
385.562	327.12
385.787	353.12
386.013	358.12
386.238	362.12
386.463	338.12
386.688	330.12
386.913	320.12
387.138	330.12
387.363	329.12
387.588	340.12
387.813	344.12
388.038	359.12
388.263	344.12
388.488	343.12
388.713	350.12
388.938	363.12
389.163	351.12
389.387	339.12
389.612	348.12
389.837	340.12
390.062	360.12
390.287	342.12
390.512	352.12
390.736	344.12
390.961	353.12
391.186	341.12
391.411	348.12
391.636	343.12
391.86	332.12
392.085	342.12
392.31	347.12
392.534	350.12
392.759	351.12
392.984	342.12
393.208	351.12
393.433	342.12
393.658	340.12
393.882	347.12
394.107	335.12
394.331	367.12
394.556	339.12
394.78	339.12
395.005	363.12
395.229	360.12
395.454	350.12
395.678	352.12
395.903	375.12
396.127	388.12
396.352	390.12
396.576	340.12
396.801	359.12
397.025	358.12
397.249	367.12
397.474	384.12
397.698	363.12
397.922	363.12
398.147	384.12
398.371	402.12
398.595	392.12
398.82	366.12
399.044	397.12
399.268	392.12
399.492	443.12
399.717	428.12
399.941	436.12
400.165	494.12
400.389	487.12
400.613	455.12
400.837	423.12
401.062	398.12
401.286	413.12
401.51	423.12
401.734	402.12
401.958	394.12
402.182	391.12
402.406	419.12
402.63	391.12
402.854	399.12
403.078	420.12
403.302	402.12
403.526	428.12
403.75	411.12
403.974	387.12
404.198	426.12
404.422	411.12
404.645	409.12
404.869	427.12
405.093	445.12
405.317	500.12
405.541	522.12
405.765	450.12
405.988	451.12
406.212	447.12
406.436	456.12
406.66	475.12
406.883	461.12
407.107	486.12
407.331	514.12
407.555	548.12
407.778	528.12
408.002	495.12
408.226	462.12
408.449	460.12
408.673	452.12
408.896	479.12
409.12	511.12
409.344	491.12
409.567	431.12
409.791	432.12
410.014	418.12
410.238	419.12
410.461	424.12
410.685	434.12
410.908	442.12
411.132	476.12
411.355	488.12
411.578	457.12
411.802	446.12
412.025	425.12
412.249	417.12
412.472	466.12
412.695	489.12
412.919	479.12
413.142	431.12
413.365	414.12
413.589	410.12
413.812	408.12
414.035	396.12
414.258	363.12
414.482	388.12
414.705	374.12
414.928	394.12
415.151	386.12
415.374	393.12
415.597	387.12
415.821	388.12
416.044	402.12
416.267	387.12
416.49	402.12
416.713	388.12
416.936	377.12
417.159	387.12
417.382	388.12
417.605	385.12
417.828	416.12
418.051	421.12
418.274	423.12
418.497	381.12
418.72	380.12
418.943	394.12
419.166	404.12
419.389	431.12
419.611	416.12
419.834	406.12
420.057	418.12
420.28	435.12
420.503	408.12
420.726	410.12
420.948	438.12
421.171	462.12
421.394	494.12
421.617	441.12
421.839	416.12
422.062	415.12
422.285	417.12
422.507	498.12
422.73	542.12
422.953	506.12
423.175	450.12
423.398	455.12
423.621	443.12
423.843	446.12
424.066	441.12
424.288	449.12
424.511	482.12
424.733	510.12
424.956	586.12
425.178	562.12
425.401	560.12
425.623	582.12
425.846	502.12
426.068	471.12
426.291	467.12
426.513	443.12
426.735	474.12
426.958	525.12
427.18	585.12
427.402	665.12
427.625	769.12
427.847	728.12
428.069	605.12
428.292	514.12
428.514	467.12
428.736	472.12
428.958	463.12
429.181	426.12
429.403	428.12
429.625	419.12
429.847	460.12
430.069	528.12
430.292	518.12
430.514	453.12
430.736	436.12
430.958	416.12
431.18	397.12
431.402	392.12
431.624	391.12
431.846	383.12
432.068	394.12
432.29	396.12
432.512	402.12
432.734	412.12
432.956	398.12
433.178	408.12
433.4	412.12
433.622	382.12
433.844	425.12
434.066	408.12
434.287	404.12
434.509	384.12
434.731	389.12
434.953	432.12
435.175	411.12
435.397	442.12
435.618	462.12
435.84	518.12
436.062	603.12
436.284	642.12
436.505	542.12
436.727	489.12
436.949	471.12
437.17	434.12
437.392	440.12
437.614	433.12
437.835	472.12
438.057	566.12
438.278	655.12
438.5	654.12
438.721	694.12
438.943	680.12
439.165	521.12
439.386	482.12
439.608	492.12
439.829	484.12
440.05	501.12
440.272	535.12
440.493	507.12
440.715	487.12
440.936	452.12
441.158	435.12
441.379	440.12
441.6	442.12
441.822	467.12
442.043	490.12
442.264	582.12
442.486	587.12
442.707	529.12
442.928	488.12
443.149	504.12
443.371	512.12
443.592	538.12
443.813	587.12
444.034	630.12
444.255	540.12
444.476	472.12
444.698	452.12
444.919	443.12
445.14	559.12
445.361	528.12
445.582	513.12
445.803	560.12
446.024	669.12
446.245	634.12
446.466	601.12
446.687	519.12
446.908	483.12
447.129	450.12
447.35	415.12
447.571	454.12
447.792	424.12
448.013	440.12
448.234	457.12
448.455	528.12
448.675	580.12
448.896	709.12
449.117	577.12
449.338	562.12
449.559	668.12
449.779	713.12
450	579.12
450.221	481.12
450.442	423.12
450.662	414.12
450.883	437.12
451.104	443.12
451.324	443.12
451.545	424.12
451.766	404.12
451.986	386.12
452.207	425.12
452.428	379.12
452.648	411.12
452.869	391.12
453.089	412.12
453.31	404.12
453.53	397.12
453.751	397.12
453.971	409.12
454.192	425.12
454.412	402.12
454.633	400.12
454.853	386.12
455.073	396.12
455.294	420.12
455.514	467.12
455.734	456.12
455.955	397.12
456.175	375.12
456.395	365.12
456.616	369.12
456.836	367.12
457.056	361.12
457.276	344.12
457.497	366.12
457.717	362.12
457.937	368.12
458.157	375.12
458.377	380.12
458.598	398.12
458.818	474.12
459.038	562.12
459.258	535.12
459.478	478.12
459.698	412.12
459.918	409.12
460.138	401.12
460.358	395.12
460.578	394.12
460.798	422.12
461.018	412.12
461.238	396.12
461.458	405.12
461.678	379.12
461.898	406.12
462.118	426.12
462.338	397.12
462.558	411.12
462.777	410.12
462.997	423.12
463.217	414.12
463.437	420.12
463.657	408.12
463.876	412.12
464.096	420.12
464.316	424.12
464.536	428.12
464.755	447.12
464.975	449.12
465.195	503.12
465.414	568.12
465.634	497.12
465.854	451.12
466.073	433.12
466.293	428.12
466.512	394.12
466.732	386.12
466.951	398.12
467.171	404.12
467.391	392.12
467.61	421.12
467.829	434.12
468.049	424.12
468.268	411.12
468.488	420.12
468.707	383.12
468.927	388.12
469.146	386.12
469.365	385.12
469.585	373.12
469.804	394.12
470.023	405.12
470.243	395.12
470.462	406.12
470.681	420.12
470.901	422.12
471.12	408.12
471.339	398.12
471.558	389.12
471.777	396.12
471.997	392.12
472.216	415.12
472.435	444.12
472.654	442.12
472.873	411.12
473.092	390.12
473.311	418.12
473.53	411.12
473.749	418.12
473.968	475.12
474.187	532.12
474.406	549.12
474.625	459.12
474.844	418.12
475.063	412.12
475.282	422.12
475.501	402.12
475.72	415.12
475.939	423.12
476.158	418.12
476.377	414.12
476.596	411.12
476.814	412.12
477.033	421.12
477.252	437.12
477.471	419.12
477.69	414.12
477.908	426.12
478.127	434.12
478.346	439.12
478.564	431.12
478.783	431.12
479.002	452.12
479.22	455.12
479.439	459.12
479.658	467.12
479.876	480.12
480.095	480.12
480.313	511.12
480.532	488.12
480.751	490.12
480.969	482.12
481.188	574.12
481.406	627.12
481.624	537.12
481.843	513.12
482.061	501.12
482.28	466.12
482.498	474.12
482.717	476.12
482.935	466.12
483.153	475.12
483.372	474.12
483.59	462.12
483.808	474.12
484.027	451.12
484.245	473.12
484.463	466.12
484.681	467.12
484.9	457.12
485.118	478.12
485.336	471.12
485.554	488.12
485.772	468.12
485.99	472.12
486.209	481.12
486.427	478.12
486.645	533.12
486.863	544.12
487.081	529.12
487.299	505.12
487.517	520.12
487.735	490.12
487.953	494.12
488.171	488.12
488.389	488.12
488.607	511.12
488.825	516.12
489.043	513.12
489.261	519.12
489.479	481.12
489.696	534.12
489.914	502.12
490.132	533.12
490.35	524.12
490.568	542.12
490.786	536.12
491.003	550.12
491.221	566.12
491.439	571.12
491.657	569.12
491.874	564.12
492.092	585.12
492.31	584.12
492.527	583.12
492.745	572.12
492.963	574.12
493.18	600.12
493.398	597.12
493.615	609.12
493.833	613.12
494.05	613.12
494.268	599.12
494.485	596.12
494.703	596.12
494.92	595.12
495.138	595.12
495.355	604.12
495.573	590.12
495.79	605.12
496.008	604.12
496.225	606.12
496.442	615.12
496.66	593.12
496.877	590.12
497.094	619.12
497.312	598.12
497.529	634.12
497.746	627.12
497.963	648.12
498.181	635.12
498.398	648.12
498.615	653.12
498.832	650.12
499.049	664.12
499.267	652.12
499.484	668.12
499.701	703.12
499.918	694.12
500.135	703.12
500.352	735.12
500.569	737.12
500.786	729.12
501.003	764.12
501.22	742.12
501.437	746.12
501.654	728.12
501.871	724.12
