Data from 1961.PennyLincolnUp.Lamp.En5.5.200Scan.071719.P1._HRD10591_13-47-22-058.txt Node
Date: Thu Jul 18 13:47:22 EDT 2019
User: cochatt
Spectrometer: HR+D1059
Trigger mode: 1
Integration Time (sec): 1.000000E-1
Scans to average: 1
Electric dark correction enabled: true
Nonlinearity correction enabled: false
Boxcar width: 0
XAxis mode: Wavelengths
Number of Pixels in Spectrum: 2048
>>>>>Begin Spectral Data<<<<<
223.165	-21.69
223.4	-21.69
223.635	-21.69
223.869	-23.69
224.104	-24.69
224.338	-24.69
224.573	0.31
224.808	-21.69
225.042	2.31
225.277	2.31
225.511	8.31
225.746	9.31
225.98	6.31
226.215	-3.69
226.449	16.31
226.683	22.31
226.918	23.31
227.152	29.31
227.387	38.31
227.621	36.31
227.856	46.31
228.09	50.31
228.324	61.31
228.559	62.31
228.793	58.31
229.027	89.31
229.262	93.31
229.496	114.31
229.73	110.31
229.964	129.31
230.199	122.31
230.433	116.31
230.667	109.31
230.901	101.31
231.136	98.31
231.37	103.31
231.604	83.31
231.838	104.31
232.072	98.31
232.306	116.31
232.541	114.31
232.775	104.31
233.009	101.31
233.243	97.31
233.477	106.31
233.711	118.31
233.945	100.31
234.179	114.31
234.413	114.31
234.647	102.31
234.881	112.31
235.115	104.31
235.349	111.31
235.583	112.31
235.817	103.31
236.051	117.31
236.285	126.31
236.519	120.31
236.753	123.31
236.987	141.31
237.221	175.31
237.455	211.31
237.689	149.31
237.922	125.31
238.156	125.31
238.39	111.31
238.624	108.31
238.858	110.31
239.091	117.31
239.325	118.31
239.559	125.31
239.793	134.31
240.027	121.31
240.26	137.31
240.494	136.31
240.728	134.31
240.961	124.31
241.195	129.31
241.429	123.31
241.662	127.31
241.896	112.31
242.13	119.31
242.363	125.31
242.597	108.31
242.83	127.31
243.064	114.31
243.298	111.31
243.531	125.31
243.765	135.31
243.998	136.31
244.232	130.31
244.465	124.31
244.699	110.31
244.932	122.31
245.166	101.31
245.399	140.31
245.633	133.31
245.866	124.31
246.099	124.31
246.333	142.31
246.566	140.31
246.8	133.31
247.033	135.31
247.266	138.31
247.5	132.31
247.733	126.31
247.966	157.31
248.2	147.31
248.433	148.31
248.666	153.31
248.899	163.31
249.133	156.31
249.366	177.31
249.599	169.31
249.832	139.31
250.066	152.31
250.299	158.31
250.532	159.31
250.765	178.31
250.998	170.31
251.231	185.31
251.465	173.31
251.698	157.31
251.931	162.31
252.164	166.31
252.397	178.31
252.63	172.31
252.863	179.31
253.096	176.31
253.329	181.31
253.562	186.31
253.795	176.31
254.028	171.31
254.261	186.31
254.494	200.31
254.727	195.31
254.96	225.31
255.193	225.31
255.426	189.31
255.659	208.31
255.892	203.31
256.124	208.31
256.357	193.31
256.59	178.31
256.823	171.31
257.056	186.31
257.289	168.31
257.521	173.31
257.754	170.31
257.987	166.31
258.22	180.31
258.452	185.31
258.685	166.31
258.918	166.31
259.151	177.31
259.383	189.31
259.616	191.31
259.849	194.31
260.081	193.31
260.314	223.31
260.547	211.31
260.779	213.31
261.012	205.31
261.244	180.31
261.477	191.31
261.71	190.31
261.942	185.31
262.175	201.31
262.407	195.31
262.64	186.31
262.872	180.31
263.105	185.31
263.337	180.31
263.57	171.31
263.802	161.31
264.035	176.31
264.267	182.31
264.499	190.31
264.732	186.31
264.964	187.31
265.197	174.31
265.429	157.31
265.661	169.31
265.894	174.31
266.126	172.31
266.358	173.31
266.591	173.31
266.823	178.31
267.055	189.31
267.287	183.31
267.52	193.31
267.752	187.31
267.984	184.31
268.216	181.31
268.448	190.31
268.681	186.31
268.913	195.31
269.145	225.31
269.377	224.31
269.609	223.31
269.841	220.31
270.073	192.31
270.306	220.31
270.538	249.31
270.77	239.31
271.002	235.31
271.234	239.31
271.466	231.31
271.698	254.31
271.93	261.31
272.162	262.31
272.394	244.31
272.626	242.31
272.858	225.31
273.09	210.31
273.322	216.31
273.553	217.31
273.785	214.31
274.017	228.31
274.249	195.31
274.481	206.31
274.713	202.31
274.945	214.31
275.176	221.31
275.408	210.31
275.64	215.31
275.872	213.31
276.104	212.31
276.335	218.31
276.567	235.31
276.799	229.31
277.031	244.31
277.262	238.31
277.494	247.31
277.726	241.31
277.957	213.31
278.189	220.31
278.421	201.31
278.652	217.31
278.884	204.31
279.115	227.31
279.347	220.31
279.579	211.31
279.81	209.31
280.042	229.31
280.273	216.31
280.505	211.31
280.736	223.31
280.968	207.31
281.199	214.31
281.431	214.31
281.662	219.31
281.894	212.31
282.125	213.31
282.356	225.31
282.588	244.31
282.819	245.31
283.051	218.31
283.282	205.31
283.513	214.31
283.745	213.31
283.976	218.31
284.207	230.31
284.439	224.31
284.67	225.31
284.901	219.31
285.132	199.31
285.364	218.31
285.595	212.31
285.826	212.31
286.057	201.31
286.288	207.31
286.52	206.31
286.751	208.31
286.982	216.31
287.213	218.31
287.444	223.31
287.675	224.31
287.906	226.31
288.138	245.31
288.369	239.31
288.6	232.31
288.831	252.31
289.062	229.31
289.293	225.31
289.524	221.31
289.755	216.31
289.986	216.31
290.217	217.31
290.448	230.31
290.679	230.31
290.91	223.31
291.141	219.31
291.371	227.31
291.602	224.31
291.833	213.31
292.064	219.31
292.295	221.31
292.526	233.31
292.757	236.31
292.987	238.31
293.218	209.31
293.449	226.31
293.68	229.31
293.91	224.31
294.141	236.31
294.372	218.31
294.603	229.31
294.833	230.31
295.064	228.31
295.295	217.31
295.525	223.31
295.756	223.31
295.987	244.31
296.217	268.31
296.448	268.31
296.679	259.31
296.909	240.31
297.14	233.31
297.37	218.31
297.601	240.31
297.831	238.31
298.062	230.31
298.292	246.31
298.523	234.31
298.753	244.31
298.984	222.31
299.214	227.31
299.445	255.31
299.675	251.31
299.905	237.31
300.136	245.31
300.366	246.31
300.597	249.31
300.827	243.31
301.057	256.31
301.288	243.31
301.518	263.31
301.748	258.31
301.979	258.31
302.209	242.31
302.439	257.31
302.669	246.31
302.9	251.31
303.13	241.31
303.36	274.31
303.59	268.31
303.82	266.31
304.051	253.31
304.281	261.31
304.511	253.31
304.741	256.31
304.971	268.31
305.201	258.31
305.431	250.31
305.661	263.31
305.891	256.31
306.121	256.31
306.352	274.31
306.582	269.31
306.812	261.31
307.042	254.31
307.272	278.31
307.502	266.31
307.731	272.31
307.961	295.31
308.191	245.31
308.421	272.31
308.651	245.31
308.881	265.31
309.111	256.31
309.341	268.31
309.571	290.31
309.8	285.31
310.03	293.31
310.26	308.31
310.49	304.31
310.72	299.31
310.949	327.31
311.179	315.31
311.409	302.31
311.639	320.31
311.868	329.31
312.098	326.31
312.328	323.31
312.557	330.31
312.787	323.31
313.017	334.31
313.246	299.31
313.476	315.31
313.706	313.31
313.935	323.31
314.165	329.31
314.394	294.31
314.624	304.31
314.853	315.31
315.083	308.31
315.312	301.31
315.542	278.31
315.771	296.31
316.001	294.31
316.23	289.31
316.46	293.31
316.689	292.31
316.919	314.31
317.148	325.31
317.377	301.31
317.607	298.31
317.836	313.31
318.065	296.31
318.295	301.31
318.524	313.31
318.753	297.31
318.983	293.31
319.212	294.31
319.441	302.31
319.67	315.31
319.9	294.31
320.129	310.31
320.358	298.31
320.587	297.31
320.816	317.31
321.046	317.31
321.275	318.31
321.504	322.31
321.733	330.31
321.962	310.31
322.191	352.31
322.42	366.31
322.649	356.31
322.878	377.31
323.108	374.31
323.337	413.31
323.566	420.31
323.795	445.31
324.024	473.31
324.253	618.31
324.482	873.31
324.71	1362.31
324.939	1920.31
325.168	1590.31
325.397	871.31
325.626	577.31
325.855	467.31
326.084	437.31
326.313	419.31
326.542	444.31
326.77	474.31
326.999	571.31
327.228	788.31
327.457	1185.31
327.686	1432.31
327.914	941.31
328.143	621.31
328.372	538.31
328.6	492.31
328.829	457.31
329.058	475.31
329.287	496.31
329.515	472.31
329.744	418.31
329.972	416.31
330.201	461.31
330.43	488.31
330.658	483.31
330.887	476.31
331.115	496.31
331.344	433.31
331.572	399.31
331.801	381.31
332.03	390.31
332.258	366.31
332.486	378.31
332.715	349.31
332.943	346.31
333.172	354.31
333.4	364.31
333.629	358.31
333.857	375.31
334.085	389.31
334.314	414.31
334.542	446.31
334.771	452.31
334.999	382.31
335.227	370.31
335.455	379.31
335.684	368.31
335.912	359.31
336.14	358.31
336.369	339.31
336.597	355.31
336.825	372.31
337.053	343.31
337.281	338.31
337.51	331.31
337.738	361.31
337.966	346.31
338.194	353.31
338.422	362.31
338.65	354.31
338.878	339.31
339.106	331.31
339.334	345.31
339.562	331.31
339.79	345.31
340.018	324.31
340.246	337.31
340.474	341.31
340.702	341.31
340.93	354.31
341.158	323.31
341.386	346.31
341.614	344.31
341.842	345.31
342.07	329.31
342.298	340.31
342.526	334.31
342.754	313.31
342.981	348.31
343.209	330.31
343.437	327.31
343.665	332.31
343.893	340.31
344.12	337.31
344.348	343.31
344.576	345.31
344.804	337.31
345.031	371.31
345.259	348.31
345.487	357.31
345.714	344.31
345.942	341.31
346.17	351.31
346.397	327.31
346.625	344.31
346.853	320.31
347.08	331.31
347.308	338.31
347.535	355.31
347.763	362.31
347.99	334.31
348.218	339.31
348.445	352.31
348.673	350.31
348.9	343.31
349.128	326.31
349.355	321.31
349.583	309.31
349.81	317.31
350.037	322.31
350.265	329.31
350.492	334.31
350.72	324.31
350.947	330.31
351.174	324.31
351.402	317.31
351.629	334.31
351.856	344.31
352.083	345.31
352.311	338.31
352.538	360.31
352.765	360.31
352.992	358.31
353.22	330.31
353.447	323.31
353.674	313.31
353.901	338.31
354.128	299.31
354.355	310.31
354.583	308.31
354.81	312.31
355.037	314.31
355.264	298.31
355.491	319.31
355.718	301.31
355.945	304.31
356.172	310.31
356.399	316.31
356.626	301.31
356.853	321.31
357.08	309.31
357.307	301.31
357.534	292.31
357.761	293.31
357.988	308.31
358.215	310.31
358.441	293.31
358.668	306.31
358.895	338.31
359.122	311.31
359.349	315.31
359.576	334.31
359.802	353.31
360.029	368.31
360.256	375.31
360.483	383.31
360.709	350.31
360.936	332.31
361.163	325.31
361.39	342.31
361.616	356.31
361.843	340.31
362.07	326.31
362.296	331.31
362.523	312.31
362.749	332.31
362.976	300.31
363.203	316.31
363.429	317.31
363.656	325.31
363.882	322.31
364.109	316.31
364.335	321.31
364.562	329.31
364.788	324.31
365.015	302.31
365.241	304.31
365.468	317.31
365.694	318.31
365.92	324.31
366.147	312.31
366.373	301.31
366.599	318.31
366.826	324.31
367.052	294.31
367.278	316.31
367.505	312.31
367.731	304.31
367.957	307.31
368.184	321.31
368.41	318.31
368.636	329.31
368.862	340.31
369.089	318.31
369.315	304.31
369.541	323.31
369.767	299.31
369.993	314.31
370.219	310.31
370.445	317.31
370.672	328.31
370.898	313.31
371.124	308.31
371.35	310.31
371.576	313.31
371.802	313.31
372.028	312.31
372.254	311.31
372.48	311.31
372.706	305.31
372.932	292.31
373.158	310.31
373.384	323.31
373.61	322.31
373.835	308.31
374.061	305.31
374.287	333.31
374.513	327.31
374.739	305.31
374.965	304.31
375.191	291.31
375.416	318.31
375.642	306.31
375.868	320.31
376.094	302.31
376.319	306.31
376.545	324.31
376.771	311.31
376.997	304.31
377.222	302.31
377.448	318.31
377.674	309.31
377.899	308.31
378.125	297.31
378.35	303.31
378.576	301.31
378.802	319.31
379.027	312.31
379.253	298.31
379.478	277.31
379.704	306.31
379.929	310.31
380.155	321.31
380.38	310.31
380.606	309.31
380.831	311.31
381.057	302.31
381.282	304.31
381.507	313.31
381.733	290.31
381.958	301.31
382.184	327.31
382.409	306.31
382.634	307.31
382.86	306.31
383.085	305.31
383.31	315.31
383.535	326.31
383.761	304.31
383.986	314.31
384.211	302.31
384.436	308.31
384.662	304.31
384.887	321.31
385.112	318.31
385.337	321.31
385.562	322.31
385.787	339.31
386.013	338.31
386.238	354.31
386.463	358.31
386.688	330.31
386.913	338.31
387.138	323.31
387.363	334.31
387.588	322.31
387.813	323.31
388.038	320.31
388.263	326.31
388.488	345.31
388.713	329.31
388.938	328.31
389.163	323.31
389.387	335.31
389.612	332.31
389.837	326.31
390.062	347.31
390.287	330.31
390.512	343.31
390.736	352.31
390.961	326.31
391.186	330.31
391.411	330.31
391.636	354.31
391.86	345.31
392.085	347.31
392.31	341.31
392.534	346.31
392.759	360.31
392.984	361.31
393.208	340.31
393.433	333.31
393.658	358.31
393.882	347.31
394.107	326.31
394.331	337.31
394.556	329.31
394.78	333.31
395.005	339.31
395.229	338.31
395.454	333.31
395.678	349.31
395.903	352.31
396.127	361.31
396.352	364.31
396.576	350.31
396.801	359.31
397.025	344.31
397.249	355.31
397.474	346.31
397.698	378.31
397.922	365.31
398.147	361.31
398.371	387.31
398.595	384.31
398.82	384.31
399.044	383.31
399.268	379.31
399.492	378.31
399.717	405.31
399.941	442.31
400.165	465.31
400.389	463.31
400.613	427.31
400.837	408.31
401.062	410.31
401.286	398.31
401.51	392.31
401.734	375.31
401.958	395.31
402.182	382.31
402.406	404.31
402.63	397.31
402.854	392.31
403.078	383.31
403.302	375.31
403.526	383.31
403.75	392.31
403.974	407.31
404.198	378.31
404.422	391.31
404.645	412.31
404.869	405.31
405.093	419.31
405.317	440.31
405.541	488.31
405.765	441.31
405.988	420.31
406.212	418.31
406.436	442.31
406.66	458.31
406.883	417.31
407.107	460.31
407.331	488.31
407.555	525.31
407.778	519.31
408.002	484.31
408.226	444.31
408.449	443.31
408.673	432.31
408.896	468.31
409.12	469.31
409.344	466.31
409.567	424.31
409.791	404.31
410.014	416.31
410.238	392.31
410.461	396.31
410.685	386.31
410.908	424.31
411.132	437.31
411.355	444.31
411.578	436.31
411.802	403.31
412.025	408.31
412.249	390.31
412.472	454.31
412.695	443.31
412.919	461.31
413.142	418.31
413.365	391.31
413.589	398.31
413.812	372.31
414.035	384.31
414.258	382.31
414.482	386.31
414.705	394.31
414.928	373.31
415.151	376.31
415.374	375.31
415.597	370.31
415.821	385.31
416.044	369.31
416.267	399.31
416.49	385.31
416.713	382.31
416.936	377.31
417.159	369.31
417.382	377.31
417.605	386.31
417.828	392.31
418.051	393.31
418.274	381.31
418.497	383.31
418.72	382.31
418.943	379.31
419.166	390.31
419.389	403.31
419.611	392.31
419.834	396.31
420.057	409.31
420.28	384.31
420.503	403.31
420.726	395.31
420.948	423.31
421.171	439.31
421.394	478.31
421.617	427.31
421.839	398.31
422.062	396.31
422.285	421.31
422.507	451.31
422.73	517.31
422.953	497.31
423.175	430.31
423.398	420.31
423.621	417.31
423.843	446.31
424.066	416.31
424.288	436.31
424.511	435.31
424.733	497.31
424.956	537.31
425.178	537.31
425.401	541.31
425.623	543.31
425.846	477.31
426.068	444.31
426.291	438.31
426.513	433.31
426.735	436.31
426.958	482.31
427.18	532.31
427.402	637.31
427.625	717.31
427.847	644.31
428.069	568.31
428.292	489.31
428.514	430.31
428.736	420.31
428.958	421.31
429.181	397.31
429.403	423.31
429.625	413.31
429.847	437.31
430.069	515.31
430.292	511.31
430.514	414.31
430.736	396.31
430.958	394.31
431.18	379.31
431.402	368.31
431.624	377.31
431.846	390.31
432.068	378.31
432.29	376.31
432.512	392.31
432.734	386.31
432.956	385.31
433.178	372.31
433.4	398.31
433.622	375.31
433.844	376.31
434.066	397.31
434.287	376.31
434.509	366.31
434.731	370.31
434.953	402.31
435.175	423.31
435.397	433.31
435.618	446.31
435.84	463.31
436.062	538.31
436.284	602.31
436.505	515.31
436.727	463.31
436.949	425.31
437.17	412.31
437.392	394.31
437.614	418.31
437.835	441.31
438.057	525.31
438.278	614.31
438.5	605.31
438.721	672.31
438.943	624.31
439.165	518.31
439.386	458.31
439.608	449.31
439.829	463.31
440.05	474.31
440.272	494.31
440.493	491.31
440.715	430.31
440.936	421.31
441.158	423.31
441.379	408.31
441.6	407.31
441.822	450.31
442.043	471.31
442.264	524.31
442.486	562.31
442.707	482.31
442.928	457.31
443.149	461.31
443.371	465.31
443.592	502.31
443.813	574.31
444.034	615.31
444.255	521.31
444.476	447.31
444.698	446.31
444.919	439.31
445.14	551.31
445.361	481.31
445.582	504.31
445.803	530.31
446.024	630.31
446.245	617.31
446.466	537.31
446.687	464.31
446.908	445.31
447.129	417.31
447.35	413.31
447.571	427.31
447.792	410.31
448.013	410.31
448.234	407.31
448.455	488.31
448.675	572.31
448.896	640.31
449.117	545.31
449.338	522.31
449.559	611.31
449.779	666.31
450	536.31
450.221	446.31
450.442	415.31
450.662	405.31
450.883	420.31
451.104	406.31
451.324	419.31
451.545	372.31
451.766	363.31
451.986	375.31
452.207	395.31
452.428	380.31
452.648	402.31
452.869	369.31
453.089	392.31
453.31	381.31
453.53	378.31
453.751	369.31
453.971	369.31
454.192	390.31
454.412	395.31
454.633	391.31
454.853	381.31
455.073	380.31
455.294	390.31
455.514	454.31
455.734	422.31
455.955	354.31
456.175	347.31
456.395	352.31
456.616	350.31
456.836	361.31
457.056	332.31
457.276	340.31
457.497	355.31
457.717	337.31
457.937	349.31
458.157	357.31
458.377	364.31
458.598	380.31
458.818	434.31
459.038	508.31
459.258	503.31
459.478	419.31
459.698	398.31
459.918	407.31
460.138	394.31
460.358	384.31
460.578	366.31
460.798	394.31
461.018	410.31
461.238	385.31
461.458	372.31
461.678	382.31
461.898	393.31
462.118	389.31
462.338	382.31
462.558	383.31
462.777	394.31
462.997	413.31
463.217	415.31
463.437	435.31
463.657	390.31
463.876	402.31
464.096	399.31
464.316	404.31
464.536	426.31
464.755	405.31
464.975	422.31
465.195	446.31
465.414	523.31
465.634	467.31
465.854	425.31
466.073	409.31
466.293	384.31
466.512	388.31
466.732	381.31
466.951	379.31
467.171	376.31
467.391	371.31
467.61	414.31
467.829	414.31
468.049	393.31
468.268	408.31
468.488	380.31
468.707	376.31
468.927	374.31
469.146	357.31
469.365	364.31
469.585	383.31
469.804	357.31
470.023	376.31
470.243	374.31
470.462	404.31
470.681	401.31
470.901	382.31
471.12	388.31
471.339	398.31
471.558	399.31
471.777	394.31
471.997	370.31
472.216	379.31
472.435	447.31
472.654	419.31
472.873	391.31
473.092	368.31
473.311	383.31
473.53	372.31
473.749	404.31
473.968	428.31
474.187	512.31
474.406	520.31
474.625	424.31
474.844	406.31
475.063	389.31
475.282	384.31
475.501	396.31
475.72	399.31
475.939	395.31
476.158	371.31
476.377	402.31
476.596	390.31
476.814	395.31
477.033	412.31
477.252	439.31
477.471	396.31
477.69	406.31
477.908	410.31
478.127	415.31
478.346	406.31
478.564	430.31
478.783	425.31
479.002	439.31
479.22	418.31
479.439	434.31
479.658	462.31
479.876	448.31
480.095	448.31
480.313	483.31
480.532	462.31
480.751	478.31
480.969	486.31
481.188	537.31
481.406	588.31
481.624	524.31
481.843	489.31
482.061	484.31
482.28	492.31
482.498	466.31
482.717	449.31
482.935	436.31
483.153	466.31
483.372	445.31
483.59	458.31
483.808	448.31
484.027	446.31
484.245	447.31
484.463	448.31
484.681	466.31
484.9	451.31
485.118	475.31
485.336	466.31
485.554	494.31
485.772	481.31
485.99	461.31
486.209	466.31
486.427	455.31
486.645	466.31
486.863	485.31
487.081	502.31
487.299	493.31
487.517	470.31
487.735	455.31
487.953	498.31
488.171	470.31
488.389	483.31
488.607	494.31
488.825	466.31
489.043	488.31
489.261	498.31
489.479	491.31
489.696	484.31
489.914	492.31
490.132	496.31
490.35	506.31
490.568	497.31
490.786	517.31
491.003	533.31
491.221	519.31
491.439	530.31
491.657	543.31
491.874	532.31
492.092	537.31
492.31	562.31
492.527	550.31
492.745	544.31
492.963	555.31
493.18	564.31
493.398	547.31
493.615	569.31
493.833	554.31
494.05	551.31
494.268	586.31
494.485	543.31
494.703	566.31
494.92	577.31
495.138	533.31
495.355	548.31
495.573	581.31
495.79	570.31
496.008	574.31
496.225	551.31
496.442	555.31
496.66	584.31
496.877	590.31
497.094	584.31
497.312	581.31
497.529	584.31
497.746	592.31
497.963	618.31
498.181	593.31
498.398	616.31
498.615	629.31
498.832	626.31
499.049	628.31
499.267	616.31
499.484	639.31
499.701	670.31
499.918	680.31
500.135	688.31
500.352	695.31
500.569	692.31
500.786	708.31
501.003	729.31
501.22	714.31
501.437	704.31
501.654	671.31
501.871	694.31
502.088	692.31
