Data from 1961.PennyLincolnUp.Lamp.En5.5.200Scan.071719.P1._HRD10591_13-48-32-058.txt Node
Date: Thu Jul 18 13:48:32 EDT 2019
User: cochatt
Spectrometer: HR+D1059
Trigger mode: 1
Integration Time (sec): 1.000000E-1
Scans to average: 1
Electric dark correction enabled: true
Nonlinearity correction enabled: false
Boxcar width: 0
XAxis mode: Wavelengths
Number of Pixels in Spectrum: 2048
>>>>>Begin Spectral Data<<<<<
223.165	-7.81
223.4	-7.81
223.635	-7.81
223.869	-19.81
224.104	-11.81
224.338	-0.81
224.573	-2.81
224.808	-3.81
225.042	-11.81
225.277	-13.81
225.511	-6.81
225.746	-4.81
225.98	-1.81
226.215	6.19
226.449	12.19
226.683	23.19
226.918	20.19
227.152	24.19
227.387	28.19
227.621	40.19
227.856	43.19
228.09	53.19
228.324	45.19
228.559	56.19
228.793	67.19
229.027	88.19
229.262	121.19
229.496	106.19
229.73	116.19
229.964	127.19
230.199	120.19
230.433	122.19
230.667	94.19
230.901	118.19
231.136	103.19
231.37	108.19
231.604	98.19
231.838	115.19
232.072	112.19
232.306	120.19
232.541	114.19
232.775	114.19
233.009	98.19
233.243	98.19
233.477	104.19
233.711	119.19
233.945	112.19
234.179	97.19
234.413	99.19
234.647	115.19
234.881	117.19
235.115	105.19
235.349	108.19
235.583	113.19
235.817	118.19
236.051	105.19
236.285	110.19
236.519	116.19
236.753	125.19
236.987	133.19
237.221	183.19
237.455	221.19
237.689	189.19
237.922	141.19
238.156	143.19
238.39	110.19
238.624	108.19
238.858	119.19
239.091	102.19
239.325	111.19
239.559	105.19
239.793	106.19
240.027	133.19
240.26	136.19
240.494	130.19
240.728	129.19
240.961	121.19
241.195	140.19
241.429	130.19
241.662	122.19
241.896	118.19
242.13	116.19
242.363	127.19
242.597	136.19
242.83	119.19
243.064	125.19
243.298	130.19
243.531	109.19
243.765	117.19
243.998	112.19
244.232	124.19
244.465	128.19
244.699	148.19
244.932	128.19
245.166	125.19
245.399	130.19
245.633	124.19
245.866	131.19
246.099	144.19
246.333	123.19
246.566	141.19
246.8	121.19
247.033	145.19
247.266	137.19
247.5	148.19
247.733	137.19
247.966	146.19
248.2	150.19
248.433	151.19
248.666	160.19
248.899	160.19
249.133	189.19
249.366	185.19
249.599	180.19
249.832	151.19
250.066	163.19
250.299	146.19
250.532	178.19
250.765	181.19
250.998	201.19
251.231	205.19
251.465	203.19
251.698	178.19
251.931	178.19
252.164	176.19
252.397	171.19
252.63	163.19
252.863	160.19
253.096	171.19
253.329	189.19
253.562	201.19
253.795	193.19
254.028	208.19
254.261	193.19
254.494	179.19
254.727	221.19
254.96	219.19
255.193	219.19
255.426	215.19
255.659	197.19
255.892	205.19
256.124	203.19
256.357	218.19
256.59	198.19
256.823	195.19
257.056	194.19
257.289	197.19
257.521	184.19
257.754	191.19
257.987	184.19
258.22	178.19
258.452	170.19
258.685	175.19
258.918	173.19
259.151	192.19
259.383	191.19
259.616	180.19
259.849	189.19
260.081	222.19
260.314	217.19
260.547	229.19
260.779	210.19
261.012	210.19
261.244	217.19
261.477	213.19
261.71	200.19
261.942	201.19
262.175	199.19
262.407	214.19
262.64	192.19
262.872	185.19
263.105	190.19
263.337	178.19
263.57	185.19
263.802	175.19
264.035	183.19
264.267	193.19
264.499	176.19
264.732	185.19
264.964	189.19
265.197	173.19
265.429	191.19
265.661	179.19
265.894	180.19
266.126	194.19
266.358	184.19
266.591	206.19
266.823	189.19
267.055	210.19
267.287	186.19
267.52	190.19
267.752	196.19
267.984	194.19
268.216	203.19
268.448	186.19
268.681	204.19
268.913	195.19
269.145	225.19
269.377	217.19
269.609	224.19
269.841	219.19
270.073	248.19
270.306	254.19
270.538	266.19
270.77	249.19
271.002	262.19
271.234	258.19
271.466	248.19
271.698	269.19
271.93	270.19
272.162	274.19
272.394	269.19
272.626	270.19
272.858	235.19
273.09	241.19
273.322	250.19
273.553	217.19
273.785	233.19
274.017	222.19
274.249	233.19
274.481	239.19
274.713	230.19
274.945	215.19
275.176	245.19
275.408	222.19
275.64	211.19
275.872	218.19
276.104	206.19
276.335	229.19
276.567	241.19
276.799	229.19
277.031	268.19
277.262	274.19
277.494	262.19
277.726	246.19
277.957	257.19
278.189	232.19
278.421	206.19
278.652	241.19
278.884	237.19
279.115	215.19
279.347	245.19
279.579	225.19
279.81	205.19
280.042	233.19
280.273	208.19
280.505	230.19
280.736	225.19
280.968	202.19
281.199	237.19
281.431	232.19
281.662	217.19
281.894	234.19
282.125	230.19
282.356	245.19
282.588	268.19
282.819	253.19
283.051	213.19
283.282	243.19
283.513	229.19
283.745	229.19
283.976	230.19
284.207	224.19
284.439	230.19
284.67	219.19
284.901	219.19
285.132	221.19
285.364	236.19
285.595	238.19
285.826	233.19
286.057	236.19
286.288	224.19
286.52	222.19
286.751	232.19
286.982	232.19
287.213	246.19
287.444	237.19
287.675	242.19
287.906	251.19
288.138	236.19
288.369	255.19
288.6	235.19
288.831	237.19
289.062	237.19
289.293	252.19
289.524	234.19
289.755	236.19
289.986	245.19
290.217	243.19
290.448	241.19
290.679	242.19
290.91	234.19
291.141	230.19
291.371	222.19
291.602	238.19
291.833	230.19
292.064	229.19
292.295	224.19
292.526	234.19
292.757	241.19
292.987	236.19
293.218	231.19
293.449	233.19
293.68	232.19
293.91	244.19
294.141	220.19
294.372	239.19
294.603	232.19
294.833	242.19
295.064	244.19
295.295	260.19
295.525	244.19
295.756	247.19
295.987	246.19
296.217	277.19
296.448	280.19
296.679	242.19
296.909	241.19
297.14	246.19
297.37	243.19
297.601	243.19
297.831	244.19
298.062	257.19
298.292	264.19
298.523	268.19
298.753	247.19
298.984	263.19
299.214	257.19
299.445	257.19
299.675	243.19
299.905	243.19
300.136	238.19
300.366	248.19
300.597	247.19
300.827	240.19
301.057	269.19
301.288	265.19
301.518	268.19
301.748	274.19
301.979	264.19
302.209	260.19
302.439	272.19
302.669	272.19
302.9	270.19
303.13	276.19
303.36	278.19
303.59	289.19
303.82	293.19
304.051	282.19
304.281	266.19
304.511	274.19
304.741	288.19
304.971	247.19
305.201	278.19
305.431	258.19
305.661	277.19
305.891	281.19
306.121	262.19
306.352	278.19
306.582	279.19
306.812	289.19
307.042	282.19
307.272	268.19
307.502	283.19
307.731	261.19
307.961	272.19
308.191	288.19
308.421	283.19
308.651	268.19
308.881	283.19
309.111	296.19
309.341	306.19
309.571	274.19
309.8	308.19
310.03	321.19
310.26	331.19
310.49	326.19
310.72	310.19
310.949	358.19
311.179	357.19
311.409	361.19
311.639	325.19
311.868	306.19
312.098	330.19
312.328	339.19
312.557	343.19
312.787	366.19
313.017	349.19
313.246	325.19
313.476	313.19
313.706	321.19
313.935	299.19
314.165	326.19
314.394	345.19
314.624	339.19
314.853	328.19
315.083	333.19
315.312	324.19
315.542	313.19
315.771	305.19
316.001	304.19
316.23	312.19
316.46	308.19
316.689	290.19
316.919	318.19
317.148	339.19
317.377	331.19
317.607	338.19
317.836	335.19
318.065	320.19
318.295	320.19
318.524	329.19
318.753	319.19
318.983	306.19
319.212	336.19
319.441	327.19
319.67	334.19
319.9	328.19
320.129	325.19
320.358	326.19
320.587	351.19
320.816	318.19
321.046	350.19
321.275	334.19
321.504	337.19
321.733	336.19
321.962	371.19
322.191	376.19
322.42	382.19
322.649	384.19
322.878	397.19
323.108	416.19
323.337	428.19
323.566	456.19
323.795	517.19
324.024	568.19
324.253	702.19
324.482	1037.19
324.71	1649.19
324.939	2243.19
325.168	1842.19
325.397	989.19
325.626	675.19
325.855	532.19
326.084	481.19
326.313	469.19
326.542	493.19
326.77	531.19
326.999	647.19
327.228	910.19
327.457	1384.19
327.686	1651.19
327.914	1078.19
328.143	713.19
328.372	621.19
328.6	576.19
328.829	540.19
329.058	563.19
329.287	550.19
329.515	529.19
329.744	468.19
329.972	469.19
330.201	492.19
330.43	561.19
330.658	550.19
330.887	576.19
331.115	555.19
331.344	492.19
331.572	447.19
331.801	435.19
332.03	439.19
332.258	405.19
332.486	386.19
332.715	397.19
332.943	383.19
333.172	382.19
333.4	386.19
333.629	397.19
333.857	397.19
334.085	417.19
334.314	421.19
334.542	445.19
334.771	470.19
334.999	443.19
335.227	414.19
335.455	390.19
335.684	404.19
335.912	391.19
336.14	380.19
336.369	368.19
336.597	381.19
336.825	376.19
337.053	360.19
337.281	346.19
337.51	375.19
337.738	362.19
337.966	358.19
338.194	364.19
338.422	368.19
338.65	371.19
338.878	349.19
339.106	353.19
339.334	348.19
339.562	368.19
339.79	347.19
340.018	346.19
340.246	374.19
340.474	351.19
340.702	353.19
340.93	362.19
341.158	344.19
341.386	348.19
341.614	347.19
341.842	352.19
342.07	355.19
342.298	345.19
342.526	335.19
342.754	338.19
342.981	334.19
343.209	354.19
343.437	346.19
343.665	341.19
343.893	364.19
344.12	350.19
344.348	347.19
344.576	381.19
344.804	360.19
345.031	368.19
345.259	398.19
345.487	363.19
345.714	352.19
345.942	361.19
346.17	336.19
346.397	356.19
346.625	373.19
346.853	356.19
347.08	348.19
347.308	374.19
347.535	353.19
347.763	366.19
347.99	360.19
348.218	357.19
348.445	372.19
348.673	376.19
348.9	368.19
349.128	325.19
349.355	350.19
349.583	341.19
349.81	349.19
350.037	340.19
350.265	338.19
350.492	338.19
350.72	347.19
350.947	352.19
351.174	360.19
351.402	371.19
351.629	372.19
351.856	359.19
352.083	354.19
352.311	375.19
352.538	391.19
352.765	366.19
352.992	370.19
353.22	354.19
353.447	347.19
353.674	364.19
353.901	333.19
354.128	333.19
354.355	314.19
354.583	341.19
354.81	332.19
355.037	323.19
355.264	317.19
355.491	310.19
355.718	320.19
355.945	321.19
356.172	301.19
356.399	317.19
356.626	315.19
356.853	325.19
357.08	319.19
357.307	334.19
357.534	315.19
357.761	322.19
357.988	331.19
358.215	310.19
358.441	330.19
358.668	336.19
358.895	327.19
359.122	334.19
359.349	345.19
359.576	366.19
359.802	366.19
360.029	410.19
360.256	422.19
360.483	404.19
360.709	343.19
360.936	352.19
361.163	361.19
361.39	368.19
361.616	362.19
361.843	342.19
362.07	359.19
362.296	355.19
362.523	344.19
362.749	353.19
362.976	356.19
363.203	372.19
363.429	325.19
363.656	353.19
363.882	342.19
364.109	332.19
364.335	326.19
364.562	331.19
364.788	344.19
365.015	334.19
365.241	338.19
365.468	339.19
365.694	339.19
365.92	349.19
366.147	344.19
366.373	357.19
366.599	314.19
366.826	320.19
367.052	327.19
367.278	333.19
367.505	340.19
367.731	324.19
367.957	332.19
368.184	327.19
368.41	346.19
368.636	364.19
368.862	342.19
369.089	346.19
369.315	351.19
369.541	324.19
369.767	329.19
369.993	340.19
370.219	340.19
370.445	306.19
370.672	325.19
370.898	326.19
371.124	321.19
371.35	327.19
371.576	317.19
371.802	329.19
372.028	331.19
372.254	326.19
372.48	320.19
372.706	339.19
372.932	333.19
373.158	334.19
373.384	312.19
373.61	342.19
373.835	325.19
374.061	328.19
374.287	324.19
374.513	304.19
374.739	326.19
374.965	320.19
375.191	332.19
375.416	316.19
375.642	347.19
375.868	323.19
376.094	307.19
376.319	328.19
376.545	318.19
376.771	333.19
376.997	337.19
377.222	334.19
377.448	323.19
377.674	310.19
377.899	320.19
378.125	340.19
378.35	325.19
378.576	330.19
378.802	329.19
379.027	310.19
379.253	315.19
379.478	322.19
379.704	327.19
379.929	335.19
380.155	337.19
380.38	323.19
380.606	329.19
380.831	317.19
381.057	339.19
381.282	301.19
381.507	335.19
381.733	332.19
381.958	324.19
382.184	340.19
382.409	343.19
382.634	342.19
382.86	320.19
383.085	314.19
383.31	345.19
383.535	331.19
383.761	337.19
383.986	328.19
384.211	340.19
384.436	342.19
384.662	343.19
384.887	326.19
385.112	325.19
385.337	331.19
385.562	325.19
385.787	344.19
386.013	377.19
386.238	356.19
386.463	333.19
386.688	350.19
386.913	329.19
387.138	324.19
387.363	320.19
387.588	337.19
387.813	355.19
388.038	353.19
388.263	348.19
388.488	353.19
388.713	332.19
388.938	364.19
389.163	353.19
389.387	346.19
389.612	356.19
389.837	356.19
390.062	340.19
390.287	362.19
390.512	350.19
390.736	331.19
390.961	337.19
391.186	338.19
391.411	338.19
391.636	365.19
391.86	369.19
392.085	355.19
392.31	358.19
392.534	353.19
392.759	356.19
392.984	365.19
393.208	349.19
393.433	353.19
393.658	347.19
393.882	339.19
394.107	337.19
394.331	340.19
394.556	355.19
394.78	347.19
395.005	357.19
395.229	337.19
395.454	359.19
395.678	362.19
395.903	366.19
396.127	396.19
396.352	375.19
396.576	372.19
396.801	355.19
397.025	382.19
397.249	384.19
397.474	377.19
397.698	363.19
397.922	378.19
398.147	395.19
398.371	412.19
398.595	388.19
398.82	393.19
399.044	380.19
399.268	398.19
399.492	427.19
399.717	440.19
399.941	446.19
400.165	480.19
400.389	472.19
400.613	462.19
400.837	401.19
401.062	427.19
401.286	407.19
401.51	420.19
401.734	392.19
401.958	408.19
402.182	418.19
402.406	437.19
402.63	424.19
402.854	391.19
403.078	409.19
403.302	392.19
403.526	413.19
403.75	377.19
403.974	406.19
404.198	413.19
404.422	433.19
404.645	410.19
404.869	428.19
405.093	482.19
405.317	491.19
405.541	496.19
405.765	438.19
405.988	415.19
406.212	443.19
406.436	464.19
406.66	476.19
406.883	461.19
407.107	466.19
407.331	504.19
407.555	545.19
407.778	564.19
408.002	484.19
408.226	460.19
408.449	445.19
408.673	454.19
408.896	489.19
409.12	532.19
409.344	483.19
409.567	423.19
409.791	436.19
410.014	446.19
410.238	422.19
410.461	401.19
410.685	413.19
410.908	425.19
411.132	477.19
411.355	495.19
411.578	476.19
411.802	424.19
412.025	405.19
412.249	452.19
412.472	445.19
412.695	481.19
412.919	468.19
413.142	419.19
413.365	428.19
413.589	404.19
413.812	393.19
414.035	402.19
414.258	411.19
414.482	404.19
414.705	396.19
414.928	381.19
415.151	399.19
415.374	384.19
415.597	395.19
415.821	378.19
416.044	384.19
416.267	391.19
416.49	382.19
416.713	408.19
416.936	399.19
417.159	390.19
417.382	388.19
417.605	377.19
417.828	416.19
418.051	404.19
418.274	390.19
418.497	398.19
418.72	405.19
418.943	399.19
419.166	406.19
419.389	412.19
419.611	409.19
419.834	406.19
420.057	409.19
420.28	418.19
420.503	416.19
420.726	413.19
420.948	413.19
421.171	469.19
421.394	488.19
421.617	429.19
421.839	418.19
422.062	406.19
422.285	427.19
422.507	462.19
422.73	540.19
422.953	503.19
423.175	465.19
423.398	425.19
423.621	427.19
423.843	440.19
424.066	432.19
424.288	428.19
424.511	473.19
424.733	516.19
424.956	568.19
425.178	546.19
425.401	575.19
425.623	561.19
425.846	500.19
426.068	464.19
426.291	458.19
426.513	459.19
426.735	470.19
426.958	510.19
427.18	569.19
427.402	656.19
427.625	742.19
427.847	659.19
428.069	586.19
428.292	538.19
428.514	468.19
428.736	459.19
428.958	450.19
429.181	426.19
429.403	410.19
429.625	419.19
429.847	470.19
430.069	524.19
430.292	523.19
430.514	460.19
430.736	436.19
430.958	392.19
431.18	414.19
431.402	403.19
431.624	390.19
431.846	402.19
432.068	407.19
432.29	392.19
432.512	392.19
432.734	410.19
432.956	405.19
433.178	399.19
433.4	416.19
433.622	404.19
433.844	409.19
434.066	387.19
434.287	384.19
434.509	403.19
434.731	413.19
434.953	423.19
435.175	412.19
435.397	434.19
435.618	456.19
435.84	507.19
436.062	580.19
436.284	603.19
436.505	534.19
436.727	472.19
436.949	432.19
437.17	444.19
437.392	412.19
437.614	449.19
437.835	477.19
438.057	605.19
438.278	658.19
438.5	641.19
438.721	688.19
438.943	652.19
439.165	531.19
439.386	470.19
439.608	481.19
439.829	485.19
440.05	508.19
440.272	542.19
440.493	515.19
440.715	464.19
440.936	449.19
441.158	425.19
441.379	440.19
441.6	453.19
441.822	448.19
442.043	505.19
442.264	570.19
442.486	593.19
442.707	494.19
442.928	498.19
443.149	458.19
443.371	505.19
443.592	541.19
443.813	616.19
444.034	657.19
444.255	553.19
444.476	492.19
444.698	470.19
444.919	454.19
445.14	563.19
445.361	507.19
445.582	502.19
445.803	569.19
446.024	681.19
446.245	657.19
446.466	607.19
446.687	490.19
446.908	481.19
447.129	457.19
447.35	430.19
447.571	412.19
447.792	420.19
448.013	426.19
448.234	461.19
448.455	495.19
448.675	580.19
448.896	668.19
449.117	573.19
449.338	572.19
449.559	644.19
449.779	711.19
450	560.19
450.221	477.19
450.442	449.19
450.662	435.19
450.883	442.19
451.104	460.19
451.324	456.19
451.545	423.19
451.766	401.19
451.986	377.19
452.207	388.19
452.428	398.19
452.648	383.19
452.869	384.19
453.089	383.19
453.31	403.19
453.53	394.19
453.751	379.19
453.971	379.19
454.192	418.19
454.412	414.19
454.633	389.19
454.853	390.19
455.073	387.19
455.294	397.19
455.514	478.19
455.734	470.19
455.955	384.19
456.175	378.19
456.395	356.19
456.616	353.19
456.836	388.19
457.056	350.19
457.276	366.19
457.497	352.19
457.717	351.19
457.937	365.19
458.157	386.19
458.377	384.19
458.598	389.19
458.818	450.19
459.038	543.19
459.258	522.19
459.478	452.19
459.698	434.19
459.918	407.19
460.138	402.19
460.358	404.19
460.578	404.19
460.798	405.19
461.018	413.19
461.238	405.19
461.458	403.19
461.678	381.19
461.898	390.19
462.118	404.19
462.338	405.19
462.558	408.19
462.777	404.19
462.997	429.19
463.217	414.19
463.437	425.19
463.657	408.19
463.876	395.19
464.096	427.19
464.316	430.19
464.536	441.19
464.755	440.19
464.975	456.19
465.195	489.19
465.414	564.19
465.634	501.19
465.854	460.19
466.073	417.19
466.293	412.19
466.512	406.19
466.732	394.19
466.951	388.19
467.171	357.19
467.391	398.19
467.61	408.19
467.829	412.19
468.049	423.19
468.268	431.19
468.488	377.19
468.707	386.19
468.927	396.19
469.146	363.19
469.365	398.19
469.585	398.19
469.804	402.19
470.023	405.19
470.243	427.19
470.462	416.19
470.681	436.19
470.901	420.19
471.12	404.19
471.339	413.19
471.558	394.19
471.777	409.19
471.997	400.19
472.216	399.19
472.435	470.19
472.654	443.19
472.873	399.19
473.092	389.19
473.311	393.19
473.53	410.19
473.749	419.19
473.968	453.19
474.187	521.19
474.406	574.19
474.625	457.19
474.844	416.19
475.063	390.19
475.282	382.19
475.501	404.19
475.72	403.19
475.939	410.19
476.158	408.19
476.377	415.19
476.596	418.19
476.814	417.19
477.033	435.19
477.252	426.19
477.471	446.19
477.69	414.19
477.908	421.19
478.127	444.19
478.346	442.19
478.564	442.19
478.783	446.19
479.002	451.19
479.22	442.19
479.439	457.19
479.658	488.19
479.876	488.19
480.095	482.19
480.313	499.19
480.532	483.19
480.751	494.19
480.969	498.19
481.188	578.19
481.406	617.19
481.624	550.19
481.843	504.19
482.061	489.19
482.28	479.19
482.498	475.19
482.717	466.19
482.935	468.19
483.153	450.19
483.372	477.19
483.59	464.19
483.808	461.19
484.027	482.19
484.245	467.19
484.463	473.19
484.681	473.19
484.9	474.19
485.118	477.19
485.336	479.19
485.554	484.19
485.772	503.19
485.99	490.19
486.209	470.19
486.427	499.19
486.645	509.19
486.863	498.19
487.081	529.19
487.299	506.19
487.517	490.19
487.735	507.19
487.953	512.19
488.171	499.19
488.389	507.19
488.607	504.19
488.825	516.19
489.043	489.19
489.261	512.19
489.479	512.19
489.696	537.19
489.914	524.19
490.132	524.19
490.35	504.19
490.568	523.19
490.786	519.19
491.003	533.19
491.221	542.19
491.439	554.19
491.657	563.19
491.874	546.19
492.092	587.19
492.31	597.19
492.527	590.19
492.745	586.19
492.963	556.19
493.18	593.19
493.398	571.19
493.615	594.19
493.833	602.19
494.05	586.19
494.268	604.19
494.485	586.19
494.703	576.19
494.92	584.19
495.138	586.19
495.355	601.19
495.573	605.19
495.79	586.19
496.008	579.19
496.225	593.19
496.442	582.19
496.66	599.19
496.877	596.19
497.094	598.19
497.312	608.19
497.529	620.19
497.746	625.19
497.963	624.19
498.181	637.19
498.398	663.19
498.615	663.19
498.832	672.19
499.049	666.19
499.267	669.19
499.484	681.19
499.701	685.19
499.918	698.19
500.135	718.19
500.352	757.19
500.569	732.19
500.786	761.19
501.003	726.19
501.22	729.19
501.437	755.19
501.654	706.19
501.871	736.19
502.088	706.19
