Data from 1961.PennyLincolnUp.Lamp.En5.5.200Scan.071719.P1._HRD10591_13-46-41-057.txt Node
Date: Thu Jul 18 13:46:41 EDT 2019
User: cochatt
Spectrometer: HR+D1059
Trigger mode: 1
Integration Time (sec): 1.000000E-1
Scans to average: 1
Electric dark correction enabled: true
Nonlinearity correction enabled: false
Boxcar width: 0
XAxis mode: Wavelengths
Number of Pixels in Spectrum: 2048
>>>>>Begin Spectral Data<<<<<
223.165	-16.81
223.4	-16.81
223.635	-16.81
223.869	-18.81
224.104	-16.81
224.338	-17.81
224.573	-13.81
224.808	-12.81
225.042	-11.81
225.277	6.19
225.511	-11.81
225.746	16.19
225.98	11.19
226.215	17.19
226.449	11.19
226.683	16.19
226.918	17.19
227.152	25.19
227.387	26.19
227.621	30.19
227.856	42.19
228.09	37.19
228.324	55.19
228.559	57.19
228.793	77.19
229.027	71.19
229.262	98.19
229.496	102.19
229.73	107.19
229.964	123.19
230.199	110.19
230.433	115.19
230.667	106.19
230.901	107.19
231.136	88.19
231.37	106.19
231.604	109.19
231.838	104.19
232.072	96.19
232.306	105.19
232.541	94.19
232.775	111.19
233.009	98.19
233.243	112.19
233.477	127.19
233.711	118.19
233.945	99.19
234.179	105.19
234.413	98.19
234.647	95.19
234.881	99.19
235.115	111.19
235.349	123.19
235.583	113.19
235.817	120.19
236.051	117.19
236.285	100.19
236.519	103.19
236.753	127.19
236.987	124.19
237.221	154.19
237.455	178.19
237.689	152.19
237.922	102.19
238.156	124.19
238.39	121.19
238.624	109.19
238.858	132.19
239.091	98.19
239.325	120.19
239.559	119.19
239.793	115.19
240.027	127.19
240.26	124.19
240.494	124.19
240.728	132.19
240.961	120.19
241.195	106.19
241.429	116.19
241.662	117.19
241.896	120.19
242.13	120.19
242.363	116.19
242.597	111.19
242.83	113.19
243.064	126.19
243.298	118.19
243.531	106.19
243.765	101.19
243.998	125.19
244.232	119.19
244.465	138.19
244.699	127.19
244.932	116.19
245.166	126.19
245.399	110.19
245.633	127.19
245.866	120.19
246.099	125.19
246.333	125.19
246.566	119.19
246.8	134.19
247.033	151.19
247.266	117.19
247.5	130.19
247.733	147.19
247.966	153.19
248.2	133.19
248.433	138.19
248.666	137.19
248.899	145.19
249.133	149.19
249.366	155.19
249.599	165.19
249.832	145.19
250.066	144.19
250.299	142.19
250.532	160.19
250.765	144.19
250.998	180.19
251.231	177.19
251.465	184.19
251.698	168.19
251.931	154.19
252.164	149.19
252.397	160.19
252.63	169.19
252.863	140.19
253.096	171.19
253.329	170.19
253.562	183.19
253.795	173.19
254.028	186.19
254.261	159.19
254.494	159.19
254.727	205.19
254.96	211.19
255.193	204.19
255.426	186.19
255.659	170.19
255.892	181.19
256.124	183.19
256.357	197.19
256.59	186.19
256.823	182.19
257.056	171.19
257.289	163.19
257.521	201.19
257.754	169.19
257.987	158.19
258.22	185.19
258.452	171.19
258.685	160.19
258.918	159.19
259.151	163.19
259.383	180.19
259.616	181.19
259.849	172.19
260.081	173.19
260.314	191.19
260.547	199.19
260.779	190.19
261.012	197.19
261.244	177.19
261.477	182.19
261.71	198.19
261.942	163.19
262.175	187.19
262.407	189.19
262.64	165.19
262.872	170.19
263.105	179.19
263.337	167.19
263.57	162.19
263.802	179.19
264.035	177.19
264.267	160.19
264.499	161.19
264.732	169.19
264.964	166.19
265.197	168.19
265.429	165.19
265.661	167.19
265.894	164.19
266.126	182.19
266.358	178.19
266.591	170.19
266.823	182.19
267.055	174.19
267.287	185.19
267.52	177.19
267.752	192.19
267.984	188.19
268.216	174.19
268.448	174.19
268.681	172.19
268.913	199.19
269.145	199.19
269.377	195.19
269.609	194.19
269.841	194.19
270.073	202.19
270.306	220.19
270.538	221.19
270.77	229.19
271.002	218.19
271.234	232.19
271.466	207.19
271.698	235.19
271.93	234.19
272.162	218.19
272.394	235.19
272.626	227.19
272.858	217.19
273.09	226.19
273.322	204.19
273.553	208.19
273.785	215.19
274.017	202.19
274.249	184.19
274.481	207.19
274.713	204.19
274.945	201.19
275.176	188.19
275.408	200.19
275.64	214.19
275.872	200.19
276.104	186.19
276.335	206.19
276.567	203.19
276.799	228.19
277.031	227.19
277.262	236.19
277.494	258.19
277.726	216.19
277.957	193.19
278.189	207.19
278.421	221.19
278.652	206.19
278.884	204.19
279.115	214.19
279.347	198.19
279.579	188.19
279.81	197.19
280.042	203.19
280.273	208.19
280.505	206.19
280.736	192.19
280.968	191.19
281.199	216.19
281.431	198.19
281.662	193.19
281.894	203.19
282.125	216.19
282.356	207.19
282.588	222.19
282.819	239.19
283.051	222.19
283.282	200.19
283.513	210.19
283.745	191.19
283.976	220.19
284.207	208.19
284.439	211.19
284.67	201.19
284.901	212.19
285.132	217.19
285.364	209.19
285.595	226.19
285.826	203.19
286.057	200.19
286.288	203.19
286.52	203.19
286.751	221.19
286.982	220.19
287.213	215.19
287.444	213.19
287.675	219.19
287.906	216.19
288.138	227.19
288.369	220.19
288.6	222.19
288.831	213.19
289.062	233.19
289.293	198.19
289.524	202.19
289.755	221.19
289.986	211.19
290.217	215.19
290.448	218.19
290.679	212.19
290.91	210.19
291.141	205.19
291.371	200.19
291.602	225.19
291.833	231.19
292.064	211.19
292.295	207.19
292.526	195.19
292.757	209.19
292.987	211.19
293.218	212.19
293.449	217.19
293.68	212.19
293.91	219.19
294.141	211.19
294.372	205.19
294.603	224.19
294.833	230.19
295.064	219.19
295.295	202.19
295.525	225.19
295.756	216.19
295.987	245.19
296.217	243.19
296.448	253.19
296.679	236.19
296.909	221.19
297.14	235.19
297.37	230.19
297.601	230.19
297.831	237.19
298.062	229.19
298.292	230.19
298.523	230.19
298.753	239.19
298.984	218.19
299.214	238.19
299.445	231.19
299.675	232.19
299.905	235.19
300.136	222.19
300.366	242.19
300.597	229.19
300.827	237.19
301.057	232.19
301.288	241.19
301.518	229.19
301.748	245.19
301.979	233.19
302.209	239.19
302.439	241.19
302.669	223.19
302.9	247.19
303.13	245.19
303.36	231.19
303.59	247.19
303.82	252.19
304.051	241.19
304.281	243.19
304.511	241.19
304.741	243.19
304.971	225.19
305.201	250.19
305.431	247.19
305.661	245.19
305.891	244.19
306.121	249.19
306.352	248.19
306.582	252.19
306.812	244.19
307.042	243.19
307.272	246.19
307.502	246.19
307.731	260.19
307.961	247.19
308.191	261.19
308.421	248.19
308.651	238.19
308.881	258.19
309.111	238.19
309.341	264.19
309.571	257.19
309.8	272.19
310.03	276.19
310.26	273.19
310.49	276.19
310.72	289.19
310.949	298.19
311.179	277.19
311.409	257.19
311.639	267.19
311.868	282.19
312.098	279.19
312.328	299.19
312.557	285.19
312.787	306.19
313.017	310.19
313.246	303.19
313.476	290.19
313.706	306.19
313.935	283.19
314.165	288.19
314.394	295.19
314.624	295.19
314.853	292.19
315.083	276.19
315.312	277.19
315.542	282.19
315.771	290.19
316.001	266.19
316.23	269.19
316.46	272.19
316.689	283.19
316.919	285.19
317.148	283.19
317.377	285.19
317.607	283.19
317.836	269.19
318.065	297.19
318.295	286.19
318.524	281.19
318.753	291.19
318.983	297.19
319.212	286.19
319.441	283.19
319.67	308.19
319.9	277.19
320.129	291.19
320.358	286.19
320.587	279.19
320.816	286.19
321.046	296.19
321.275	302.19
321.504	301.19
321.733	298.19
321.962	309.19
322.191	330.19
322.42	333.19
322.649	335.19
322.878	343.19
323.108	337.19
323.337	371.19
323.566	390.19
323.795	407.19
324.024	430.19
324.253	542.19
324.482	782.19
324.71	1182.19
324.939	1648.19
325.168	1428.19
325.397	716.19
325.626	501.19
325.855	419.19
326.084	394.19
326.313	379.19
326.542	389.19
326.77	428.19
326.999	524.19
327.228	695.19
327.457	1041.19
327.686	1231.19
327.914	801.19
328.143	563.19
328.372	481.19
328.6	458.19
328.829	430.19
329.058	438.19
329.287	454.19
329.515	407.19
329.744	395.19
329.972	396.19
330.201	419.19
330.43	433.19
330.658	443.19
330.887	466.19
331.115	433.19
331.344	399.19
331.572	360.19
331.801	372.19
332.03	361.19
332.258	365.19
332.486	343.19
332.715	361.19
332.943	343.19
333.172	321.19
333.4	326.19
333.629	342.19
333.857	335.19
334.085	356.19
334.314	381.19
334.542	415.19
334.771	411.19
334.999	393.19
335.227	373.19
335.455	347.19
335.684	346.19
335.912	348.19
336.14	330.19
336.369	330.19
336.597	320.19
336.825	330.19
337.053	323.19
337.281	325.19
337.51	325.19
337.738	310.19
337.966	313.19
338.194	301.19
338.422	324.19
338.65	304.19
338.878	335.19
339.106	325.19
339.334	325.19
339.562	306.19
339.79	310.19
340.018	315.19
340.246	322.19
340.474	319.19
340.702	309.19
340.93	316.19
341.158	308.19
341.386	323.19
341.614	318.19
341.842	323.19
342.07	313.19
342.298	294.19
342.526	295.19
342.754	294.19
342.981	306.19
343.209	301.19
343.437	308.19
343.665	315.19
343.893	300.19
344.12	323.19
344.348	315.19
344.576	313.19
344.804	304.19
345.031	338.19
345.259	343.19
345.487	355.19
345.714	345.19
345.942	314.19
346.17	319.19
346.397	316.19
346.625	311.19
346.853	312.19
347.08	281.19
347.308	322.19
347.535	338.19
347.763	327.19
347.99	329.19
348.218	315.19
348.445	307.19
348.673	296.19
348.9	301.19
349.128	301.19
349.355	286.19
349.583	319.19
349.81	314.19
350.037	312.19
350.265	299.19
350.492	295.19
350.72	321.19
350.947	307.19
351.174	299.19
351.402	299.19
351.629	302.19
351.856	306.19
352.083	313.19
352.311	321.19
352.538	316.19
352.765	333.19
352.992	313.19
353.22	312.19
353.447	327.19
353.674	307.19
353.901	299.19
354.128	309.19
354.355	294.19
354.583	293.19
354.81	305.19
355.037	287.19
355.264	293.19
355.491	285.19
355.718	290.19
355.945	272.19
356.172	279.19
356.399	291.19
356.626	308.19
356.853	292.19
357.08	300.19
357.307	274.19
357.534	286.19
357.761	277.19
357.988	302.19
358.215	284.19
358.441	282.19
358.668	290.19
358.895	295.19
359.122	291.19
359.349	313.19
359.576	313.19
359.802	339.19
360.029	339.19
360.256	363.19
360.483	323.19
360.709	316.19
360.936	318.19
361.163	326.19
361.39	337.19
361.616	328.19
361.843	314.19
362.07	317.19
362.296	305.19
362.523	330.19
362.749	310.19
362.976	297.19
363.203	328.19
363.429	317.19
363.656	311.19
363.882	304.19
364.109	298.19
364.335	300.19
364.562	280.19
364.788	315.19
365.015	301.19
365.241	300.19
365.468	299.19
365.694	318.19
365.92	295.19
366.147	307.19
366.373	298.19
366.599	294.19
366.826	303.19
367.052	309.19
367.278	294.19
367.505	284.19
367.731	307.19
367.957	296.19
368.184	295.19
368.41	292.19
368.636	305.19
368.862	321.19
369.089	296.19
369.315	305.19
369.541	296.19
369.767	310.19
369.993	295.19
370.219	315.19
370.445	312.19
370.672	313.19
370.898	309.19
371.124	307.19
371.35	299.19
371.576	282.19
371.802	309.19
372.028	286.19
372.254	291.19
372.48	293.19
372.706	302.19
372.932	294.19
373.158	300.19
373.384	301.19
373.61	284.19
373.835	297.19
374.061	299.19
374.287	309.19
374.513	295.19
374.739	319.19
374.965	323.19
375.191	308.19
375.416	310.19
375.642	277.19
375.868	314.19
376.094	281.19
376.319	307.19
376.545	294.19
376.771	298.19
376.997	281.19
377.222	287.19
377.448	297.19
377.674	286.19
377.899	286.19
378.125	291.19
378.35	297.19
378.576	284.19
378.802	295.19
379.027	305.19
379.253	293.19
379.478	281.19
379.704	299.19
379.929	313.19
380.155	308.19
380.38	293.19
380.606	301.19
380.831	279.19
381.057	284.19
381.282	301.19
381.507	282.19
381.733	306.19
381.958	294.19
382.184	296.19
382.409	311.19
382.634	311.19
382.86	311.19
383.085	299.19
383.31	302.19
383.535	309.19
383.761	305.19
383.986	326.19
384.211	309.19
384.436	288.19
384.662	309.19
384.887	324.19
385.112	318.19
385.337	312.19
385.562	315.19
385.787	321.19
386.013	325.19
386.238	312.19
386.463	343.19
386.688	328.19
386.913	291.19
387.138	318.19
387.363	317.19
387.588	317.19
387.813	316.19
388.038	339.19
388.263	329.19
388.488	323.19
388.713	316.19
388.938	337.19
389.163	320.19
389.387	322.19
389.612	320.19
389.837	331.19
390.062	318.19
390.287	322.19
390.512	318.19
390.736	325.19
390.961	333.19
391.186	315.19
391.411	327.19
391.636	330.19
391.86	347.19
392.085	337.19
392.31	335.19
392.534	341.19
392.759	314.19
392.984	343.19
393.208	349.19
393.433	327.19
393.658	328.19
393.882	305.19
394.107	339.19
394.331	327.19
394.556	331.19
394.78	318.19
395.005	334.19
395.229	341.19
395.454	344.19
395.678	343.19
395.903	330.19
396.127	341.19
396.352	364.19
396.576	328.19
396.801	352.19
397.025	349.19
397.249	349.19
397.474	341.19
397.698	356.19
397.922	361.19
398.147	365.19
398.371	382.19
398.595	355.19
398.82	356.19
399.044	352.19
399.268	383.19
399.492	387.19
399.717	420.19
399.941	402.19
400.165	441.19
400.389	460.19
400.613	421.19
400.837	385.19
401.062	382.19
401.286	377.19
401.51	372.19
401.734	362.19
401.958	367.19
402.182	367.19
402.406	380.19
402.63	385.19
402.854	385.19
403.078	380.19
403.302	365.19
403.526	385.19
403.75	381.19
403.974	387.19
404.198	362.19
404.422	383.19
404.645	381.19
404.869	409.19
405.093	410.19
405.317	449.19
405.541	452.19
405.765	435.19
405.988	410.19
406.212	422.19
406.436	418.19
406.66	419.19
406.883	408.19
407.107	409.19
407.331	449.19
407.555	512.19
407.778	514.19
408.002	429.19
408.226	419.19
408.449	425.19
408.673	415.19
408.896	449.19
409.12	451.19
409.344	439.19
409.567	398.19
409.791	395.19
410.014	391.19
410.238	380.19
410.461	381.19
410.685	411.19
410.908	407.19
411.132	430.19
411.355	448.19
411.578	411.19
411.802	392.19
412.025	379.19
412.249	399.19
412.472	421.19
412.695	429.19
412.919	444.19
413.142	408.19
413.365	373.19
413.589	373.19
413.812	371.19
414.035	372.19
414.258	373.19
414.482	376.19
414.705	350.19
414.928	364.19
415.151	349.19
415.374	338.19
415.597	374.19
415.821	346.19
416.044	343.19
416.267	352.19
416.49	358.19
416.713	359.19
416.936	365.19
417.159	360.19
417.382	363.19
417.605	380.19
417.828	363.19
418.051	397.19
418.274	365.19
418.497	359.19
418.72	353.19
418.943	358.19
419.166	363.19
419.389	370.19
419.611	381.19
419.834	399.19
420.057	380.19
420.28	370.19
420.503	397.19
420.726	385.19
420.948	394.19
421.171	429.19
421.394	459.19
421.617	396.19
421.839	379.19
422.062	380.19
422.285	382.19
422.507	439.19
422.73	477.19
422.953	463.19
423.175	401.19
423.398	409.19
423.621	389.19
423.843	395.19
424.066	383.19
424.288	399.19
424.511	423.19
424.733	445.19
424.956	507.19
425.178	490.19
425.401	496.19
425.623	485.19
425.846	447.19
426.068	406.19
426.291	437.19
426.513	410.19
426.735	419.19
426.958	442.19
427.18	498.19
427.402	573.19
427.625	639.19
427.847	587.19
428.069	508.19
428.292	443.19
428.514	396.19
428.736	405.19
428.958	410.19
429.181	392.19
429.403	372.19
429.625	382.19
429.847	390.19
430.069	452.19
430.292	467.19
430.514	385.19
430.736	386.19
430.958	384.19
431.18	372.19
431.402	362.19
431.624	363.19
431.846	372.19
432.068	351.19
432.29	372.19
432.512	367.19
432.734	378.19
432.956	353.19
433.178	369.19
433.4	383.19
433.622	378.19
433.844	394.19
434.066	365.19
434.287	357.19
434.509	364.19
434.731	386.19
434.953	377.19
435.175	402.19
435.397	403.19
435.618	398.19
435.84	442.19
436.062	500.19
436.284	557.19
436.505	460.19
436.727	430.19
436.949	394.19
437.17	389.19
437.392	399.19
437.614	407.19
437.835	419.19
438.057	471.19
438.278	563.19
438.5	547.19
438.721	598.19
438.943	569.19
439.165	454.19
439.386	443.19
439.608	399.19
439.829	410.19
440.05	465.19
440.272	485.19
440.493	467.19
440.715	394.19
440.936	375.19
441.158	396.19
441.379	400.19
441.6	409.19
441.822	422.19
442.043	433.19
442.264	498.19
442.486	531.19
442.707	447.19
442.928	413.19
443.149	425.19
443.371	443.19
443.592	494.19
443.813	534.19
444.034	587.19
444.255	461.19
444.476	425.19
444.698	426.19
444.919	411.19
445.14	537.19
445.361	458.19
445.582	458.19
445.803	507.19
446.024	569.19
446.245	563.19
446.466	517.19
446.687	456.19
446.908	422.19
447.129	395.19
447.35	400.19
447.571	401.19
447.792	396.19
448.013	389.19
448.234	404.19
448.455	461.19
448.675	520.19
448.896	611.19
449.117	510.19
449.338	475.19
449.559	563.19
449.779	631.19
450	507.19
450.221	433.19
450.442	403.19
450.662	390.19
450.883	395.19
451.104	381.19
451.324	388.19
451.545	382.19
451.766	350.19
451.986	361.19
452.207	350.19
452.428	322.19
452.648	343.19
452.869	351.19
453.089	350.19
453.31	376.19
453.53	352.19
453.751	351.19
453.971	353.19
454.192	371.19
454.412	357.19
454.633	369.19
454.853	341.19
455.073	353.19
455.294	360.19
455.514	400.19
455.734	402.19
455.955	383.19
456.175	336.19
456.395	326.19
456.616	334.19
456.836	341.19
457.056	346.19
457.276	332.19
457.497	325.19
457.717	337.19
457.937	325.19
458.157	354.19
458.377	341.19
458.598	360.19
458.818	410.19
459.038	465.19
459.258	479.19
459.478	395.19
459.698	348.19
459.918	372.19
460.138	348.19
460.358	377.19
460.578	372.19
460.798	358.19
461.018	373.19
461.238	371.19
461.458	353.19
461.678	372.19
461.898	383.19
462.118	385.19
462.338	397.19
462.558	387.19
462.777	373.19
462.997	382.19
463.217	396.19
463.437	394.19
463.657	384.19
463.876	389.19
464.096	401.19
464.316	385.19
464.536	404.19
464.755	414.19
464.975	399.19
465.195	454.19
465.414	497.19
465.634	426.19
465.854	405.19
466.073	382.19
466.293	387.19
466.512	357.19
466.732	364.19
466.951	373.19
467.171	354.19
467.391	364.19
467.61	359.19
467.829	375.19
468.049	364.19
468.268	372.19
468.488	367.19
468.707	347.19
468.927	343.19
469.146	348.19
469.365	353.19
469.585	351.19
469.804	360.19
470.023	372.19
470.243	358.19
470.462	373.19
470.681	395.19
470.901	381.19
471.12	376.19
471.339	340.19
471.558	352.19
471.777	366.19
471.997	371.19
472.216	352.19
472.435	407.19
472.654	404.19
472.873	369.19
473.092	342.19
473.311	369.19
473.53	362.19
473.749	371.19
473.968	423.19
474.187	460.19
474.406	467.19
474.625	383.19
474.844	383.19
475.063	374.19
475.282	364.19
475.501	381.19
475.72	389.19
475.939	364.19
476.158	400.19
476.377	378.19
476.596	387.19
476.814	376.19
477.033	383.19
477.252	383.19
477.471	407.19
477.69	395.19
477.908	405.19
478.127	409.19
478.346	405.19
478.564	412.19
478.783	393.19
479.002	415.19
479.22	419.19
479.439	426.19
479.658	447.19
479.876	423.19
480.095	434.19
480.313	453.19
480.532	423.19
480.751	437.19
480.969	429.19
481.188	495.19
481.406	557.19
481.624	479.19
481.843	452.19
482.061	445.19
482.28	433.19
482.498	437.19
482.717	428.19
482.935	430.19
483.153	441.19
483.372	424.19
483.59	434.19
483.808	414.19
484.027	433.19
484.245	417.19
484.463	443.19
484.681	432.19
484.9	423.19
485.118	424.19
485.336	426.19
485.554	447.19
485.772	456.19
485.99	433.19
486.209	438.19
486.427	457.19
486.645	453.19
486.863	483.19
487.081	477.19
487.299	466.19
487.517	472.19
487.735	449.19
487.953	463.19
488.171	453.19
488.389	450.19
488.607	476.19
488.825	465.19
489.043	443.19
489.261	462.19
489.479	444.19
489.696	450.19
489.914	462.19
490.132	489.19
490.35	469.19
490.568	464.19
490.786	489.19
491.003	478.19
491.221	508.19
491.439	491.19
491.657	529.19
491.874	525.19
492.092	519.19
492.31	507.19
492.527	511.19
492.745	514.19
492.963	517.19
493.18	531.19
493.398	543.19
493.615	507.19
493.833	517.19
494.05	536.19
494.268	515.19
494.485	537.19
494.703	526.19
494.92	563.19
495.138	545.19
495.355	550.19
495.573	538.19
495.79	533.19
496.008	523.19
496.225	536.19
496.442	542.19
496.66	545.19
496.877	537.19
497.094	531.19
497.312	554.19
497.529	549.19
497.746	554.19
497.963	573.19
498.181	581.19
498.398	606.19
498.615	602.19
498.832	596.19
499.049	602.19
499.267	626.19
499.484	621.19
499.701	627.19
499.918	635.19
500.135	681.19
500.352	682.19
500.569	689.19
500.786	702.19
501.003	699.19
501.22	651.19
501.437	670.19
501.654	661.19
501.871	653.19
502.088	657.19
