Data from 1961.PennyLincolnUp.Lamp.En5.5.200Scan.071719.P1._HRD10591_13-48-29-057.txt Node
Date: Thu Jul 18 13:48:29 EDT 2019
User: cochatt
Spectrometer: HR+D1059
Trigger mode: 1
Integration Time (sec): 1.000000E-1
Scans to average: 1
Electric dark correction enabled: true
Nonlinearity correction enabled: false
Boxcar width: 0
XAxis mode: Wavelengths
Number of Pixels in Spectrum: 2048
>>>>>Begin Spectral Data<<<<<
223.165	-14.88
223.4	-14.88
223.635	-14.88
223.869	-21.88
224.104	-20.88
224.338	-19.88
224.573	-6.88
224.808	-22.88
225.042	2.12
225.277	-4.88
225.511	-9.88
225.746	2.12
225.98	10.12
226.215	12.12
226.449	27.12
226.683	26.12
226.918	24.12
227.152	18.12
227.387	36.12
227.621	34.12
227.856	48.12
228.09	53.12
228.324	63.12
228.559	63.12
228.793	56.12
229.027	89.12
229.262	95.12
229.496	102.12
229.73	124.12
229.964	137.12
230.199	131.12
230.433	111.12
230.667	108.12
230.901	106.12
231.136	112.12
231.37	109.12
231.604	103.12
231.838	100.12
232.072	97.12
232.306	117.12
232.541	114.12
232.775	117.12
233.009	108.12
233.243	112.12
233.477	114.12
233.711	114.12
233.945	98.12
234.179	111.12
234.413	105.12
234.647	113.12
234.881	114.12
235.115	98.12
235.349	118.12
235.583	104.12
235.817	103.12
236.051	117.12
236.285	124.12
236.519	123.12
236.753	130.12
236.987	122.12
237.221	161.12
237.455	211.12
237.689	166.12
237.922	126.12
238.156	107.12
238.39	121.12
238.624	121.12
238.858	126.12
239.091	105.12
239.325	114.12
239.559	107.12
239.793	120.12
240.027	125.12
240.26	121.12
240.494	134.12
240.728	151.12
240.961	123.12
241.195	133.12
241.429	120.12
241.662	104.12
241.896	114.12
242.13	134.12
242.363	122.12
242.597	129.12
242.83	137.12
243.064	118.12
243.298	113.12
243.531	116.12
243.765	127.12
243.998	120.12
244.232	130.12
244.465	135.12
244.699	126.12
244.932	123.12
245.166	132.12
245.399	138.12
245.633	121.12
245.866	115.12
246.099	108.12
246.333	122.12
246.566	154.12
246.8	134.12
247.033	125.12
247.266	126.12
247.5	144.12
247.733	153.12
247.966	155.12
248.2	144.12
248.433	128.12
248.666	149.12
248.899	169.12
249.133	168.12
249.366	184.12
249.599	181.12
249.832	167.12
250.066	162.12
250.299	155.12
250.532	177.12
250.765	180.12
250.998	166.12
251.231	210.12
251.465	191.12
251.698	161.12
251.931	170.12
252.164	165.12
252.397	177.12
252.63	185.12
252.863	195.12
253.096	185.12
253.329	196.12
253.562	188.12
253.795	170.12
254.028	186.12
254.261	190.12
254.494	204.12
254.727	215.12
254.96	215.12
255.193	246.12
255.426	194.12
255.659	194.12
255.892	206.12
256.124	193.12
256.357	214.12
256.59	198.12
256.823	174.12
257.056	190.12
257.289	182.12
257.521	187.12
257.754	171.12
257.987	178.12
258.22	174.12
258.452	170.12
258.685	187.12
258.918	184.12
259.151	167.12
259.383	180.12
259.616	189.12
259.849	190.12
260.081	207.12
260.314	218.12
260.547	215.12
260.779	208.12
261.012	209.12
261.244	186.12
261.477	202.12
261.71	202.12
261.942	202.12
262.175	207.12
262.407	208.12
262.64	195.12
262.872	202.12
263.105	197.12
263.337	192.12
263.57	173.12
263.802	168.12
264.035	186.12
264.267	179.12
264.499	164.12
264.732	181.12
264.964	176.12
265.197	189.12
265.429	185.12
265.661	174.12
265.894	181.12
266.126	176.12
266.358	171.12
266.591	196.12
266.823	190.12
267.055	179.12
267.287	191.12
267.52	179.12
267.752	191.12
267.984	198.12
268.216	187.12
268.448	196.12
268.681	193.12
268.913	211.12
269.145	215.12
269.377	227.12
269.609	218.12
269.841	229.12
270.073	242.12
270.306	249.12
270.538	258.12
270.77	284.12
271.002	229.12
271.234	241.12
271.466	253.12
271.698	262.12
271.93	278.12
272.162	278.12
272.394	257.12
272.626	246.12
272.858	236.12
273.09	236.12
273.322	239.12
273.553	232.12
273.785	217.12
274.017	217.12
274.249	235.12
274.481	219.12
274.713	217.12
274.945	217.12
275.176	207.12
275.408	230.12
275.64	212.12
275.872	223.12
276.104	225.12
276.335	239.12
276.567	216.12
276.799	235.12
277.031	258.12
277.262	258.12
277.494	260.12
277.726	246.12
277.957	231.12
278.189	225.12
278.421	226.12
278.652	207.12
278.884	228.12
279.115	213.12
279.347	223.12
279.579	224.12
279.81	228.12
280.042	222.12
280.273	217.12
280.505	211.12
280.736	218.12
280.968	227.12
281.199	203.12
281.431	222.12
281.662	236.12
281.894	222.12
282.125	248.12
282.356	239.12
282.588	244.12
282.819	260.12
283.051	239.12
283.282	234.12
283.513	239.12
283.745	227.12
283.976	223.12
284.207	230.12
284.439	235.12
284.67	228.12
284.901	210.12
285.132	231.12
285.364	216.12
285.595	219.12
285.826	242.12
286.057	254.12
286.288	248.12
286.52	249.12
286.751	230.12
286.982	227.12
287.213	256.12
287.444	232.12
287.675	240.12
287.906	238.12
288.138	211.12
288.369	227.12
288.6	233.12
288.831	257.12
289.062	249.12
289.293	235.12
289.524	236.12
289.755	227.12
289.986	231.12
290.217	227.12
290.448	226.12
290.679	228.12
290.91	242.12
291.141	229.12
291.371	216.12
291.602	232.12
291.833	225.12
292.064	231.12
292.295	238.12
292.526	233.12
292.757	219.12
292.987	223.12
293.218	240.12
293.449	233.12
293.68	244.12
293.91	222.12
294.141	233.12
294.372	244.12
294.603	245.12
294.833	247.12
295.064	236.12
295.295	243.12
295.525	222.12
295.756	248.12
295.987	246.12
296.217	259.12
296.448	279.12
296.679	254.12
296.909	230.12
297.14	242.12
297.37	260.12
297.601	231.12
297.831	229.12
298.062	240.12
298.292	250.12
298.523	256.12
298.753	267.12
298.984	247.12
299.214	267.12
299.445	236.12
299.675	263.12
299.905	258.12
300.136	239.12
300.366	244.12
300.597	244.12
300.827	256.12
301.057	262.12
301.288	266.12
301.518	271.12
301.748	262.12
301.979	269.12
302.209	273.12
302.439	275.12
302.669	262.12
302.9	261.12
303.13	243.12
303.36	259.12
303.59	258.12
303.82	284.12
304.051	282.12
304.281	281.12
304.511	269.12
304.741	259.12
304.971	240.12
305.201	249.12
305.431	267.12
305.661	264.12
305.891	261.12
306.121	267.12
306.352	267.12
306.582	287.12
306.812	273.12
307.042	290.12
307.272	278.12
307.502	267.12
307.731	277.12
307.961	284.12
308.191	268.12
308.421	287.12
308.651	268.12
308.881	273.12
309.111	286.12
309.341	292.12
309.571	293.12
309.8	294.12
310.03	319.12
310.26	313.12
310.49	309.12
310.72	332.12
310.949	344.12
311.179	332.12
311.409	309.12
311.639	323.12
311.868	324.12
312.098	326.12
312.328	335.12
312.557	340.12
312.787	350.12
313.017	327.12
313.246	329.12
313.476	312.12
313.706	310.12
313.935	311.12
314.165	323.12
314.394	344.12
314.624	347.12
314.853	308.12
315.083	330.12
315.312	307.12
315.542	316.12
315.771	290.12
316.001	312.12
316.23	290.12
316.46	286.12
316.689	318.12
316.919	325.12
317.148	329.12
317.377	331.12
317.607	346.12
317.836	316.12
318.065	306.12
318.295	315.12
318.524	311.12
318.753	308.12
318.983	327.12
319.212	319.12
319.441	324.12
319.67	329.12
319.9	326.12
320.129	307.12
320.358	319.12
320.587	343.12
320.816	318.12
321.046	328.12
321.275	331.12
321.504	339.12
321.733	318.12
321.962	363.12
322.191	378.12
322.42	374.12
322.649	394.12
322.878	399.12
323.108	403.12
323.337	417.12
323.566	455.12
323.795	482.12
324.024	530.12
324.253	693.12
324.482	1015.12
324.71	1598.12
324.939	2204.12
325.168	1832.12
325.397	924.12
325.626	627.12
325.855	498.12
326.084	470.12
326.313	478.12
326.542	463.12
326.77	528.12
326.999	648.12
327.228	859.12
327.457	1381.12
327.686	1619.12
327.914	1043.12
328.143	698.12
328.372	593.12
328.6	553.12
328.829	516.12
329.058	530.12
329.287	545.12
329.515	498.12
329.744	453.12
329.972	475.12
330.201	483.12
330.43	507.12
330.658	552.12
330.887	563.12
331.115	538.12
331.344	480.12
331.572	436.12
331.801	414.12
332.03	452.12
332.258	411.12
332.486	377.12
332.715	361.12
332.943	379.12
333.172	382.12
333.4	384.12
333.629	389.12
333.857	414.12
334.085	424.12
334.314	443.12
334.542	481.12
334.771	486.12
334.999	417.12
335.227	388.12
335.455	380.12
335.684	384.12
335.912	357.12
336.14	380.12
336.369	374.12
336.597	376.12
336.825	366.12
337.053	370.12
337.281	358.12
337.51	375.12
337.738	345.12
337.966	360.12
338.194	374.12
338.422	372.12
338.65	355.12
338.878	372.12
339.106	359.12
339.334	346.12
339.562	339.12
339.79	345.12
340.018	354.12
340.246	358.12
340.474	346.12
340.702	360.12
340.93	338.12
341.158	331.12
341.386	360.12
341.614	355.12
341.842	356.12
342.07	344.12
342.298	343.12
342.526	341.12
342.754	324.12
342.981	339.12
343.209	336.12
343.437	331.12
343.665	341.12
343.893	344.12
344.12	346.12
344.348	337.12
344.576	362.12
344.804	366.12
345.031	370.12
345.259	368.12
345.487	361.12
345.714	366.12
345.942	345.12
346.17	338.12
346.397	342.12
346.625	351.12
346.853	343.12
347.08	330.12
347.308	344.12
347.535	343.12
347.763	333.12
347.99	355.12
348.218	365.12
348.445	362.12
348.673	350.12
348.9	344.12
349.128	336.12
349.355	338.12
349.583	331.12
349.81	330.12
350.037	336.12
350.265	343.12
350.492	355.12
350.72	325.12
350.947	337.12
351.174	365.12
351.402	362.12
351.629	353.12
351.856	367.12
352.083	355.12
352.311	384.12
352.538	379.12
352.765	377.12
352.992	367.12
353.22	360.12
353.447	355.12
353.674	321.12
353.901	329.12
354.128	333.12
354.355	317.12
354.583	315.12
354.81	327.12
355.037	313.12
355.264	332.12
355.491	311.12
355.718	313.12
355.945	311.12
356.172	326.12
356.399	306.12
356.626	311.12
356.853	315.12
357.08	324.12
357.307	304.12
357.534	306.12
357.761	322.12
357.988	303.12
358.215	307.12
358.441	321.12
358.668	308.12
358.895	323.12
359.122	337.12
359.349	342.12
359.576	350.12
359.802	361.12
360.029	401.12
360.256	422.12
360.483	404.12
360.709	361.12
360.936	357.12
361.163	358.12
361.39	342.12
361.616	351.12
361.843	346.12
362.07	343.12
362.296	351.12
362.523	351.12
362.749	347.12
362.976	334.12
363.203	322.12
363.429	344.12
363.656	321.12
363.882	311.12
364.109	308.12
364.335	318.12
364.562	349.12
364.788	326.12
365.015	333.12
365.241	332.12
365.468	346.12
365.694	338.12
365.92	330.12
366.147	326.12
366.373	318.12
366.599	336.12
366.826	332.12
367.052	316.12
367.278	327.12
367.505	335.12
367.731	359.12
367.957	322.12
368.184	327.12
368.41	346.12
368.636	334.12
368.862	353.12
369.089	321.12
369.315	320.12
369.541	314.12
369.767	312.12
369.993	330.12
370.219	330.12
370.445	340.12
370.672	316.12
370.898	317.12
371.124	317.12
371.35	302.12
371.576	295.12
371.802	312.12
372.028	319.12
372.254	326.12
372.48	328.12
372.706	326.12
372.932	306.12
373.158	324.12
373.384	313.12
373.61	339.12
373.835	337.12
374.061	330.12
374.287	337.12
374.513	311.12
374.739	325.12
374.965	323.12
375.191	327.12
375.416	331.12
375.642	325.12
375.868	332.12
376.094	312.12
376.319	321.12
376.545	319.12
376.771	322.12
376.997	330.12
377.222	317.12
377.448	308.12
377.674	296.12
377.899	316.12
378.125	308.12
378.35	319.12
378.576	297.12
378.802	332.12
379.027	319.12
379.253	325.12
379.478	313.12
379.704	327.12
379.929	326.12
380.155	318.12
380.38	319.12
380.606	354.12
380.831	323.12
381.057	323.12
381.282	322.12
381.507	320.12
381.733	342.12
381.958	314.12
382.184	317.12
382.409	300.12
382.634	319.12
382.86	306.12
383.085	325.12
383.31	329.12
383.535	327.12
383.761	308.12
383.986	322.12
384.211	331.12
384.436	332.12
384.662	350.12
384.887	330.12
385.112	335.12
385.337	339.12
385.562	323.12
385.787	335.12
386.013	341.12
386.238	360.12
386.463	335.12
386.688	333.12
386.913	350.12
387.138	330.12
387.363	328.12
387.588	351.12
387.813	339.12
388.038	311.12
388.263	333.12
388.488	333.12
388.713	339.12
388.938	345.12
389.163	330.12
389.387	352.12
389.612	342.12
389.837	338.12
390.062	348.12
390.287	355.12
390.512	333.12
390.736	326.12
390.961	328.12
391.186	330.12
391.411	349.12
391.636	350.12
391.86	346.12
392.085	333.12
392.31	327.12
392.534	350.12
392.759	337.12
392.984	339.12
393.208	341.12
393.433	355.12
393.658	332.12
393.882	341.12
394.107	358.12
394.331	353.12
394.556	353.12
394.78	361.12
395.005	339.12
395.229	343.12
395.454	351.12
395.678	355.12
395.903	360.12
396.127	373.12
396.352	387.12
396.576	361.12
396.801	352.12
397.025	357.12
397.249	351.12
397.474	375.12
397.698	369.12
397.922	380.12
398.147	386.12
398.371	377.12
398.595	375.12
398.82	395.12
399.044	386.12
399.268	411.12
399.492	409.12
399.717	416.12
399.941	452.12
400.165	456.12
400.389	484.12
400.613	432.12
400.837	415.12
401.062	414.12
401.286	395.12
401.51	401.12
401.734	401.12
401.958	415.12
402.182	398.12
402.406	412.12
402.63	406.12
402.854	392.12
403.078	376.12
403.302	391.12
403.526	407.12
403.75	405.12
403.974	403.12
404.198	394.12
404.422	401.12
404.645	404.12
404.869	406.12
405.093	440.12
405.317	476.12
405.541	491.12
405.765	472.12
405.988	428.12
406.212	456.12
406.436	466.12
406.66	492.12
406.883	469.12
407.107	456.12
407.331	494.12
407.555	534.12
407.778	540.12
408.002	476.12
408.226	443.12
408.449	460.12
408.673	456.12
408.896	460.12
409.12	502.12
409.344	498.12
409.567	430.12
409.791	439.12
410.014	425.12
410.238	396.12
410.461	431.12
410.685	432.12
410.908	446.12
411.132	464.12
411.355	468.12
411.578	446.12
411.802	418.12
412.025	428.12
412.249	432.12
412.472	456.12
412.695	486.12
412.919	468.12
413.142	428.12
413.365	414.12
413.589	411.12
413.812	394.12
414.035	394.12
414.258	377.12
414.482	372.12
414.705	369.12
414.928	391.12
415.151	404.12
415.374	392.12
415.597	384.12
415.821	384.12
416.044	401.12
416.267	389.12
416.49	388.12
416.713	397.12
416.936	398.12
417.159	379.12
417.382	384.12
417.605	392.12
417.828	421.12
418.051	415.12
418.274	416.12
418.497	406.12
418.72	403.12
418.943	382.12
419.166	390.12
419.389	406.12
419.611	425.12
419.834	392.12
420.057	405.12
420.28	395.12
420.503	384.12
420.726	392.12
420.948	411.12
421.171	462.12
421.394	490.12
421.617	410.12
421.839	405.12
422.062	384.12
422.285	414.12
422.507	472.12
422.73	526.12
422.953	506.12
423.175	460.12
423.398	434.12
423.621	452.12
423.843	457.12
424.066	440.12
424.288	430.12
424.511	466.12
424.733	500.12
424.956	563.12
425.178	545.12
425.401	540.12
425.623	570.12
425.846	479.12
426.068	447.12
426.291	448.12
426.513	443.12
426.735	457.12
426.958	490.12
427.18	553.12
427.402	652.12
427.625	758.12
427.847	670.12
428.069	590.12
428.292	520.12
428.514	467.12
428.736	460.12
428.958	442.12
429.181	427.12
429.403	430.12
429.625	427.12
429.847	476.12
430.069	519.12
430.292	506.12
430.514	426.12
430.736	413.12
430.958	405.12
431.18	402.12
431.402	390.12
431.624	388.12
431.846	399.12
432.068	384.12
432.29	400.12
432.512	378.12
432.734	399.12
432.956	406.12
433.178	410.12
433.4	400.12
433.622	390.12
433.844	406.12
434.066	386.12
434.287	389.12
434.509	398.12
434.731	404.12
434.953	378.12
435.175	432.12
435.397	440.12
435.618	450.12
435.84	501.12
436.062	564.12
436.284	636.12
436.505	522.12
436.727	482.12
436.949	425.12
437.17	430.12
437.392	441.12
437.614	447.12
437.835	471.12
438.057	556.12
438.278	650.12
438.5	638.12
438.721	699.12
438.943	654.12
439.165	513.12
439.386	482.12
439.608	473.12
439.829	476.12
440.05	491.12
440.272	551.12
440.493	526.12
440.715	463.12
440.936	437.12
441.158	417.12
441.379	406.12
441.6	439.12
441.822	466.12
442.043	469.12
442.264	574.12
442.486	602.12
442.707	506.12
442.928	459.12
443.149	462.12
443.371	494.12
443.592	517.12
443.813	592.12
444.034	634.12
444.255	528.12
444.476	462.12
444.698	443.12
444.919	455.12
445.14	530.12
445.361	500.12
445.582	505.12
445.803	567.12
446.024	659.12
446.245	668.12
446.466	618.12
446.687	514.12
446.908	479.12
447.129	434.12
447.35	436.12
447.571	457.12
447.792	424.12
448.013	442.12
448.234	450.12
448.455	491.12
448.675	603.12
448.896	669.12
449.117	576.12
449.338	531.12
449.559	626.12
449.779	700.12
450	573.12
450.221	506.12
450.442	424.12
450.662	408.12
450.883	442.12
451.104	468.12
451.324	443.12
451.545	419.12
451.766	414.12
451.986	388.12
452.207	384.12
452.428	375.12
452.648	369.12
452.869	382.12
453.089	396.12
453.31	405.12
453.53	377.12
453.751	392.12
453.971	388.12
454.192	436.12
454.412	379.12
454.633	396.12
454.853	394.12
455.073	382.12
455.294	408.12
455.514	471.12
455.734	434.12
455.955	409.12
456.175	378.12
456.395	362.12
456.616	351.12
456.836	353.12
457.056	347.12
457.276	329.12
457.497	372.12
457.717	354.12
457.937	354.12
458.157	367.12
458.377	376.12
458.598	397.12
458.818	456.12
459.038	530.12
459.258	529.12
459.478	476.12
459.698	409.12
459.918	372.12
460.138	389.12
460.358	380.12
460.578	408.12
460.798	406.12
461.018	396.12
461.238	386.12
461.458	378.12
461.678	380.12
461.898	394.12
462.118	393.12
462.338	405.12
462.558	412.12
462.777	416.12
462.997	414.12
463.217	407.12
463.437	415.12
463.657	416.12
463.876	430.12
464.096	424.12
464.316	412.12
464.536	418.12
464.755	434.12
464.975	417.12
465.195	500.12
465.414	545.12
465.634	504.12
465.854	438.12
466.073	394.12
466.293	418.12
466.512	387.12
466.732	390.12
466.951	402.12
467.171	415.12
467.391	397.12
467.61	403.12
467.829	400.12
468.049	385.12
468.268	424.12
468.488	390.12
468.707	381.12
468.927	393.12
469.146	379.12
469.365	368.12
469.585	368.12
469.804	398.12
470.023	396.12
470.243	402.12
470.462	430.12
470.681	416.12
470.901	415.12
471.12	380.12
471.339	382.12
471.558	395.12
471.777	420.12
471.997	386.12
472.216	395.12
472.435	444.12
472.654	423.12
472.873	402.12
473.092	398.12
473.311	399.12
473.53	408.12
473.749	402.12
473.968	442.12
474.187	564.12
474.406	547.12
474.625	454.12
474.844	391.12
475.063	411.12
475.282	384.12
475.501	414.12
475.72	410.12
475.939	401.12
476.158	418.12
476.377	406.12
476.596	420.12
476.814	419.12
477.033	402.12
477.252	432.12
477.471	436.12
477.69	440.12
477.908	427.12
478.127	427.12
478.346	417.12
478.564	422.12
478.783	426.12
479.002	439.12
479.22	442.12
479.439	456.12
479.658	466.12
479.876	475.12
480.095	479.12
480.313	518.12
480.532	520.12
480.751	459.12
480.969	487.12
481.188	578.12
481.406	576.12
481.624	504.12
481.843	514.12
482.061	490.12
482.28	487.12
482.498	467.12
482.717	468.12
482.935	456.12
483.153	456.12
483.372	462.12
483.59	479.12
483.808	465.12
484.027	486.12
484.245	464.12
484.463	462.12
484.681	468.12
484.9	462.12
485.118	458.12
485.336	472.12
485.554	479.12
485.772	500.12
485.99	477.12
486.209	478.12
486.427	501.12
486.645	496.12
486.863	523.12
487.081	503.12
487.299	475.12
487.517	502.12
487.735	511.12
487.953	481.12
488.171	496.12
488.389	498.12
488.607	481.12
488.825	497.12
489.043	474.12
489.261	496.12
489.479	479.12
489.696	500.12
489.914	494.12
490.132	516.12
490.35	524.12
490.568	537.12
490.786	525.12
491.003	531.12
491.221	524.12
491.439	548.12
491.657	569.12
491.874	539.12
492.092	556.12
492.31	561.12
492.527	581.12
492.745	582.12
492.963	581.12
493.18	596.12
493.398	601.12
493.615	575.12
493.833	613.12
494.05	592.12
494.268	569.12
494.485	587.12
494.703	593.12
494.92	596.12
495.138	569.12
495.355	563.12
495.573	587.12
495.79	570.12
496.008	605.12
496.225	622.12
496.442	614.12
496.66	587.12
496.877	576.12
497.094	587.12
497.312	608.12
497.529	629.12
497.746	630.12
497.963	613.12
498.181	628.12
498.398	614.12
498.615	642.12
498.832	660.12
499.049	641.12
499.267	646.12
499.484	667.12
499.701	686.12
499.918	700.12
500.135	736.12
500.352	741.12
500.569	739.12
500.786	718.12
501.003	737.12
501.22	746.12
501.437	737.12
501.654	708.12
501.871	692.12
