Data from 1961.PennyLincolnUp.Lamp.En5.5.200Scan.071719.P1._HRD10591_13-45-48-057.txt Node
Date: Thu Jul 18 13:45:48 EDT 2019
User: cochatt
Spectrometer: HR+D1059
Trigger mode: 1
Integration Time (sec): 1.000000E-1
Scans to average: 1
Electric dark correction enabled: true
Nonlinearity correction enabled: false
Boxcar width: 0
XAxis mode: Wavelengths
Number of Pixels in Spectrum: 2048
>>>>>Begin Spectral Data<<<<<
223.165	-29.56
223.4	-29.56
223.635	-29.56
223.869	-17.56
224.104	-14.56
224.338	-16.56
224.573	-15.56
224.808	-23.56
225.042	-2.56
225.277	1.44
225.511	-6.56
225.746	6.44
225.98	6.44
226.215	22.44
226.449	14.44
226.683	25.44
226.918	18.44
227.152	31.44
227.387	34.44
227.621	36.44
227.856	39.44
228.09	50.44
228.324	50.44
228.559	53.44
228.793	61.44
229.027	74.44
229.262	85.44
229.496	81.44
229.73	73.44
229.964	94.44
230.199	98.44
230.433	86.44
230.667	86.44
230.901	99.44
231.136	89.44
231.37	90.44
231.604	108.44
231.838	87.44
232.072	98.44
232.306	96.44
232.541	99.44
232.775	104.44
233.009	83.44
233.243	104.44
233.477	98.44
233.711	99.44
233.945	99.44
234.179	98.44
234.413	114.44
234.647	100.44
234.881	105.44
235.115	88.44
235.349	101.44
235.583	100.44
235.817	98.44
236.051	94.44
236.285	102.44
236.519	98.44
236.753	105.44
236.987	114.44
237.221	114.44
237.455	136.44
237.689	118.44
237.922	93.44
238.156	121.44
238.39	102.44
238.624	100.44
238.858	110.44
239.091	93.44
239.325	103.44
239.559	103.44
239.793	101.44
240.027	113.44
240.26	111.44
240.494	102.44
240.728	113.44
240.961	108.44
241.195	106.44
241.429	98.44
241.662	101.44
241.896	118.44
242.13	127.44
242.363	108.44
242.597	106.44
242.83	98.44
243.064	119.44
243.298	123.44
243.531	97.44
243.765	104.44
243.998	104.44
244.232	111.44
244.465	112.44
244.699	108.44
244.932	124.44
245.166	115.44
245.399	120.44
245.633	103.44
245.866	113.44
246.099	105.44
246.333	111.44
246.566	137.44
246.8	104.44
247.033	123.44
247.266	122.44
247.5	121.44
247.733	145.44
247.966	139.44
248.2	129.44
248.433	119.44
248.666	133.44
248.899	129.44
249.133	124.44
249.366	149.44
249.599	141.44
249.832	126.44
250.066	141.44
250.299	142.44
250.532	145.44
250.765	134.44
250.998	149.44
251.231	147.44
251.465	153.44
251.698	150.44
251.931	147.44
252.164	139.44
252.397	143.44
252.63	145.44
252.863	141.44
253.096	150.44
253.329	140.44
253.562	156.44
253.795	152.44
254.028	165.44
254.261	152.44
254.494	180.44
254.727	162.44
254.96	173.44
255.193	155.44
255.426	157.44
255.659	151.44
255.892	144.44
256.124	152.44
256.357	158.44
256.59	154.44
256.823	150.44
257.056	155.44
257.289	154.44
257.521	155.44
257.754	153.44
257.987	140.44
258.22	162.44
258.452	155.44
258.685	145.44
258.918	153.44
259.151	152.44
259.383	158.44
259.616	166.44
259.849	158.44
260.081	159.44
260.314	170.44
260.547	169.44
260.779	165.44
261.012	164.44
261.244	161.44
261.477	175.44
261.71	173.44
261.942	162.44
262.175	147.44
262.407	165.44
262.64	171.44
262.872	165.44
263.105	164.44
263.337	165.44
263.57	152.44
263.802	151.44
264.035	176.44
264.267	181.44
264.499	169.44
264.732	165.44
264.964	160.44
265.197	164.44
265.429	149.44
265.661	170.44
265.894	158.44
266.126	175.44
266.358	177.44
266.591	185.44
266.823	177.44
267.055	164.44
267.287	175.44
267.52	177.44
267.752	176.44
267.984	170.44
268.216	165.44
268.448	168.44
268.681	165.44
268.913	179.44
269.145	183.44
269.377	195.44
269.609	179.44
269.841	179.44
270.073	181.44
270.306	197.44
270.538	201.44
270.77	217.44
271.002	198.44
271.234	190.44
271.466	187.44
271.698	194.44
271.93	198.44
272.162	195.44
272.394	199.44
272.626	196.44
272.858	200.44
273.09	196.44
273.322	190.44
273.553	187.44
273.785	195.44
274.017	194.44
274.249	196.44
274.481	195.44
274.713	200.44
274.945	183.44
275.176	185.44
275.408	177.44
275.64	192.44
275.872	188.44
276.104	201.44
276.335	194.44
276.567	195.44
276.799	205.44
277.031	194.44
277.262	209.44
277.494	226.44
277.726	209.44
277.957	181.44
278.189	208.44
278.421	201.44
278.652	193.44
278.884	208.44
279.115	208.44
279.347	207.44
279.579	200.44
279.81	209.44
280.042	213.44
280.273	197.44
280.505	195.44
280.736	198.44
280.968	215.44
281.199	209.44
281.431	215.44
281.662	202.44
281.894	207.44
282.125	209.44
282.356	213.44
282.588	203.44
282.819	226.44
283.051	211.44
283.282	191.44
283.513	198.44
283.745	195.44
283.976	209.44
284.207	206.44
284.439	210.44
284.67	210.44
284.901	205.44
285.132	205.44
285.364	198.44
285.595	213.44
285.826	221.44
286.057	214.44
286.288	210.44
286.52	219.44
286.751	204.44
286.982	197.44
287.213	214.44
287.444	214.44
287.675	216.44
287.906	209.44
288.138	221.44
288.369	229.44
288.6	212.44
288.831	209.44
289.062	232.44
289.293	209.44
289.524	207.44
289.755	202.44
289.986	217.44
290.217	219.44
290.448	216.44
290.679	203.44
290.91	209.44
291.141	205.44
291.371	230.44
291.602	234.44
291.833	206.44
292.064	222.44
292.295	224.44
292.526	225.44
292.757	229.44
292.987	225.44
293.218	227.44
293.449	230.44
293.68	227.44
293.91	199.44
294.141	229.44
294.372	201.44
294.603	220.44
294.833	213.44
295.064	221.44
295.295	213.44
295.525	229.44
295.756	235.44
295.987	223.44
296.217	229.44
296.448	222.44
296.679	227.44
296.909	237.44
297.14	223.44
297.37	235.44
297.601	231.44
297.831	237.44
298.062	239.44
298.292	241.44
298.523	243.44
298.753	236.44
298.984	233.44
299.214	224.44
299.445	222.44
299.675	248.44
299.905	227.44
300.136	241.44
300.366	234.44
300.597	219.44
300.827	220.44
301.057	247.44
301.288	227.44
301.518	244.44
301.748	248.44
301.979	240.44
302.209	243.44
302.439	256.44
302.669	235.44
302.9	259.44
303.13	246.44
303.36	255.44
303.59	242.44
303.82	243.44
304.051	255.44
304.281	259.44
304.511	257.44
304.741	240.44
304.971	247.44
305.201	264.44
305.431	251.44
305.661	256.44
305.891	247.44
306.121	256.44
306.352	247.44
306.582	249.44
306.812	261.44
307.042	253.44
307.272	243.44
307.502	241.44
307.731	260.44
307.961	254.44
308.191	247.44
308.421	255.44
308.651	259.44
308.881	261.44
309.111	257.44
309.341	238.44
309.571	243.44
309.8	253.44
310.03	279.44
310.26	273.44
310.49	265.44
310.72	297.44
310.949	270.44
311.179	259.44
311.409	279.44
311.639	277.44
311.868	279.44
312.098	282.44
312.328	279.44
312.557	271.44
312.787	273.44
313.017	271.44
313.246	272.44
313.476	276.44
313.706	290.44
313.935	275.44
314.165	267.44
314.394	269.44
314.624	288.44
314.853	265.44
315.083	269.44
315.312	291.44
315.542	274.44
315.771	269.44
316.001	256.44
316.23	267.44
316.46	267.44
316.689	273.44
316.919	266.44
317.148	282.44
317.377	270.44
317.607	289.44
317.836	267.44
318.065	278.44
318.295	282.44
318.524	284.44
318.753	291.44
318.983	297.44
319.212	282.44
319.441	290.44
319.67	285.44
319.9	289.44
320.129	295.44
320.358	290.44
320.587	287.44
320.816	289.44
321.046	279.44
321.275	283.44
321.504	293.44
321.733	264.44
321.962	299.44
322.191	286.44
322.42	295.44
322.649	301.44
322.878	305.44
323.108	301.44
323.337	309.44
323.566	317.44
323.795	342.44
324.024	352.44
324.253	394.44
324.482	533.44
324.71	751.44
324.939	980.44
325.168	805.44
325.397	468.44
325.626	345.44
325.855	329.44
326.084	306.44
326.313	330.44
326.542	305.44
326.77	346.44
326.999	382.44
327.228	488.44
327.457	683.44
327.686	779.44
327.914	504.44
328.143	384.44
328.372	356.44
328.6	337.44
328.829	334.44
329.058	331.44
329.287	328.44
329.515	345.44
329.744	343.44
329.972	340.44
330.201	320.44
330.43	345.44
330.658	355.44
330.887	339.44
331.115	354.44
331.344	336.44
331.572	326.44
331.801	316.44
332.03	327.44
332.258	298.44
332.486	327.44
332.715	330.44
332.943	314.44
333.172	328.44
333.4	339.44
333.629	323.44
333.857	330.44
334.085	343.44
334.314	345.44
334.542	346.44
334.771	356.44
334.999	328.44
335.227	332.44
335.455	329.44
335.684	330.44
335.912	329.44
336.14	334.44
336.369	327.44
336.597	309.44
336.825	305.44
337.053	323.44
337.281	334.44
337.51	314.44
337.738	326.44
337.966	329.44
338.194	315.44
338.422	321.44
338.65	308.44
338.878	330.44
339.106	310.44
339.334	314.44
339.562	298.44
339.79	314.44
340.018	308.44
340.246	322.44
340.474	329.44
340.702	308.44
340.93	307.44
341.158	304.44
341.386	304.44
341.614	313.44
341.842	292.44
342.07	296.44
342.298	298.44
342.526	291.44
342.754	290.44
342.981	296.44
343.209	298.44
343.437	304.44
343.665	298.44
343.893	311.44
344.12	308.44
344.348	311.44
344.576	321.44
344.804	310.44
345.031	309.44
345.259	288.44
345.487	290.44
345.714	319.44
345.942	293.44
346.17	282.44
346.397	292.44
346.625	294.44
346.853	275.44
347.08	279.44
347.308	285.44
347.535	278.44
347.763	290.44
347.99	281.44
348.218	289.44
348.445	304.44
348.673	275.44
348.9	293.44
349.128	273.44
349.355	289.44
349.583	279.44
349.81	285.44
350.037	280.44
350.265	307.44
350.492	273.44
350.72	289.44
350.947	274.44
351.174	269.44
351.402	269.44
351.629	287.44
351.856	290.44
352.083	283.44
352.311	305.44
352.538	292.44
352.765	271.44
352.992	282.44
353.22	275.44
353.447	293.44
353.674	288.44
353.901	291.44
354.128	274.44
354.355	287.44
354.583	280.44
354.81	278.44
355.037	283.44
355.264	272.44
355.491	267.44
355.718	261.44
355.945	257.44
356.172	265.44
356.399	279.44
356.626	284.44
356.853	273.44
357.08	275.44
357.307	264.44
357.534	264.44
357.761	256.44
357.988	282.44
358.215	278.44
358.441	269.44
358.668	264.44
358.895	271.44
359.122	291.44
359.349	281.44
359.576	263.44
359.802	308.44
360.029	281.44
360.256	277.44
360.483	288.44
360.709	289.44
360.936	291.44
361.163	273.44
361.39	278.44
361.616	279.44
361.843	272.44
362.07	286.44
362.296	265.44
362.523	278.44
362.749	267.44
362.976	283.44
363.203	281.44
363.429	278.44
363.656	291.44
363.882	296.44
364.109	278.44
364.335	271.44
364.562	264.44
364.788	253.44
365.015	261.44
365.241	274.44
365.468	284.44
365.694	270.44
365.92	287.44
366.147	273.44
366.373	278.44
366.599	271.44
366.826	286.44
367.052	272.44
367.278	288.44
367.505	282.44
367.731	278.44
367.957	283.44
368.184	298.44
368.41	286.44
368.636	280.44
368.862	282.44
369.089	266.44
369.315	271.44
369.541	282.44
369.767	274.44
369.993	262.44
370.219	272.44
370.445	283.44
370.672	264.44
370.898	265.44
371.124	267.44
371.35	261.44
371.576	286.44
371.802	289.44
372.028	272.44
372.254	289.44
372.48	262.44
372.706	273.44
372.932	275.44
373.158	296.44
373.384	284.44
373.61	285.44
373.835	288.44
374.061	267.44
374.287	296.44
374.513	288.44
374.739	290.44
374.965	281.44
375.191	291.44
375.416	295.44
375.642	283.44
375.868	282.44
376.094	268.44
376.319	267.44
376.545	273.44
376.771	263.44
376.997	306.44
377.222	284.44
377.448	273.44
377.674	275.44
377.899	276.44
378.125	279.44
378.35	286.44
378.576	281.44
378.802	277.44
379.027	275.44
379.253	288.44
379.478	277.44
379.704	263.44
379.929	261.44
380.155	270.44
380.38	296.44
380.606	273.44
380.831	275.44
381.057	281.44
381.282	294.44
381.507	273.44
381.733	286.44
381.958	261.44
382.184	286.44
382.409	297.44
382.634	284.44
382.86	282.44
383.085	294.44
383.31	271.44
383.535	288.44
383.761	287.44
383.986	297.44
384.211	293.44
384.436	302.44
384.662	285.44
384.887	314.44
385.112	294.44
385.337	309.44
385.562	306.44
385.787	295.44
386.013	321.44
386.238	295.44
386.463	291.44
386.688	319.44
386.913	292.44
387.138	313.44
387.363	296.44
387.588	303.44
387.813	305.44
388.038	298.44
388.263	294.44
388.488	324.44
388.713	307.44
388.938	301.44
389.163	293.44
389.387	294.44
389.612	287.44
389.837	292.44
390.062	304.44
390.287	290.44
390.512	297.44
390.736	288.44
390.961	280.44
391.186	298.44
391.411	303.44
391.636	302.44
391.86	318.44
392.085	304.44
392.31	298.44
392.534	294.44
392.759	319.44
392.984	292.44
393.208	319.44
393.433	318.44
393.658	313.44
393.882	323.44
394.107	294.44
394.331	313.44
394.556	307.44
394.78	289.44
395.005	302.44
395.229	295.44
395.454	306.44
395.678	312.44
395.903	325.44
396.127	305.44
396.352	322.44
396.576	308.44
396.801	319.44
397.025	335.44
397.249	313.44
397.474	318.44
397.698	313.44
397.922	317.44
398.147	331.44
398.371	337.44
398.595	317.44
398.82	345.44
399.044	355.44
399.268	362.44
399.492	371.44
399.717	374.44
399.941	391.44
400.165	396.44
400.389	387.44
400.613	367.44
400.837	340.44
401.062	347.44
401.286	353.44
401.51	346.44
401.734	330.44
401.958	335.44
402.182	322.44
402.406	338.44
402.63	336.44
402.854	330.44
403.078	340.44
403.302	353.44
403.526	348.44
403.75	349.44
403.974	354.44
404.198	345.44
404.422	320.44
404.645	338.44
404.869	351.44
405.093	365.44
405.317	362.44
405.541	382.44
405.765	374.44
405.988	369.44
406.212	353.44
406.436	332.44
406.66	362.44
406.883	372.44
407.107	360.44
407.331	399.44
407.555	430.44
407.778	418.44
408.002	399.44
408.226	353.44
408.449	373.44
408.673	367.44
408.896	357.44
409.12	384.44
409.344	381.44
409.567	349.44
409.791	343.44
410.014	363.44
410.238	323.44
410.461	360.44
410.685	333.44
410.908	356.44
411.132	361.44
411.355	362.44
411.578	363.44
411.802	340.44
412.025	318.44
412.249	341.44
412.472	360.44
412.695	349.44
412.919	353.44
413.142	341.44
413.365	323.44
413.589	327.44
413.812	311.44
414.035	327.44
414.258	310.44
414.482	342.44
414.705	323.44
414.928	325.44
415.151	309.44
415.374	301.44
415.597	315.44
415.821	316.44
416.044	324.44
416.267	320.44
416.49	305.44
416.713	310.44
416.936	317.44
417.159	305.44
417.382	321.44
417.605	322.44
417.828	330.44
418.051	307.44
418.274	322.44
418.497	325.44
418.72	321.44
418.943	322.44
419.166	333.44
419.389	327.44
419.611	333.44
419.834	318.44
420.057	315.44
420.28	314.44
420.503	339.44
420.726	326.44
420.948	327.44
421.171	345.44
421.394	339.44
421.617	323.44
421.839	322.44
422.062	307.44
422.285	330.44
422.507	345.44
422.73	365.44
422.953	361.44
423.175	330.44
423.398	339.44
423.621	328.44
423.843	339.44
424.066	347.44
424.288	336.44
424.511	352.44
424.733	357.44
424.956	393.44
425.178	387.44
425.401	367.44
425.623	369.44
425.846	350.44
426.068	333.44
426.291	311.44
426.513	325.44
426.735	324.44
426.958	360.44
427.18	400.44
427.402	446.44
427.625	481.44
427.847	399.44
428.069	374.44
428.292	330.44
428.514	313.44
428.736	327.44
428.958	328.44
429.181	309.44
429.403	314.44
429.625	309.44
429.847	318.44
430.069	348.44
430.292	353.44
430.514	299.44
430.736	314.44
430.958	309.44
431.18	305.44
431.402	288.44
431.624	303.44
431.846	315.44
432.068	321.44
432.29	299.44
432.512	304.44
432.734	305.44
432.956	307.44
433.178	302.44
433.4	310.44
433.622	302.44
433.844	310.44
434.066	313.44
434.287	303.44
434.509	298.44
434.731	293.44
434.953	320.44
435.175	323.44
435.397	321.44
435.618	328.44
435.84	333.44
436.062	378.44
436.284	415.44
436.505	358.44
436.727	331.44
436.949	316.44
437.17	307.44
437.392	299.44
437.614	298.44
437.835	329.44
438.057	368.44
438.278	401.44
438.5	410.44
438.721	432.44
438.943	409.44
439.165	357.44
439.386	328.44
439.608	312.44
439.829	312.44
440.05	336.44
440.272	344.44
440.493	323.44
440.715	304.44
440.936	310.44
441.158	296.44
441.379	307.44
441.6	293.44
441.822	321.44
442.043	341.44
442.264	376.44
442.486	398.44
442.707	335.44
442.928	327.44
443.149	346.44
443.371	329.44
443.592	343.44
443.813	397.44
444.034	409.44
444.255	372.44
444.476	329.44
444.698	332.44
444.919	340.44
445.14	476.44
445.361	398.44
445.582	356.44
445.803	367.44
446.024	406.44
446.245	377.44
446.466	391.44
446.687	344.44
446.908	313.44
447.129	322.44
447.35	305.44
447.571	299.44
447.792	294.44
448.013	313.44
448.234	338.44
448.455	322.44
448.675	385.44
448.896	451.44
449.117	372.44
449.338	347.44
449.559	422.44
449.779	458.44
450	356.44
450.221	326.44
450.442	297.44
450.662	306.44
450.883	289.44
451.104	314.44
451.324	273.44
451.545	277.44
451.766	290.44
451.986	286.44
452.207	273.44
452.428	266.44
452.648	294.44
452.869	271.44
453.089	290.44
453.31	280.44
453.53	263.44
453.751	268.44
453.971	284.44
454.192	277.44
454.412	293.44
454.633	285.44
454.853	278.44
455.073	288.44
455.294	301.44
455.514	298.44
455.734	301.44
455.955	282.44
456.175	271.44
456.395	264.44
456.616	285.44
456.836	273.44
457.056	270.44
457.276	251.44
457.497	276.44
457.717	281.44
457.937	275.44
458.157	293.44
458.377	286.44
458.598	286.44
458.818	288.44
459.038	324.44
459.258	334.44
459.478	314.44
459.698	311.44
459.918	292.44
460.138	307.44
460.358	287.44
460.578	293.44
460.798	325.44
461.018	321.44
461.238	315.44
461.458	305.44
461.678	317.44
461.898	317.44
462.118	322.44
462.338	309.44
462.558	325.44
462.777	336.44
462.997	339.44
463.217	347.44
463.437	344.44
463.657	338.44
463.876	321.44
464.096	327.44
464.316	345.44
464.536	332.44
464.755	318.44
464.975	324.44
465.195	325.44
465.414	348.44
465.634	327.44
465.854	299.44
466.073	292.44
466.293	287.44
466.512	277.44
466.732	313.44
466.951	275.44
467.171	290.44
467.391	303.44
467.61	296.44
467.829	304.44
468.049	288.44
468.268	290.44
468.488	281.44
468.707	298.44
468.927	284.44
469.146	276.44
469.365	298.44
469.585	285.44
469.804	287.44
470.023	297.44
470.243	303.44
470.462	286.44
470.681	299.44
470.901	285.44
471.12	313.44
471.339	294.44
471.558	288.44
471.777	294.44
471.997	290.44
472.216	294.44
472.435	294.44
472.654	313.44
472.873	287.44
473.092	282.44
473.311	301.44
473.53	300.44
473.749	285.44
473.968	303.44
474.187	351.44
474.406	351.44
474.625	289.44
474.844	292.44
475.063	305.44
475.282	309.44
475.501	298.44
475.72	297.44
475.939	313.44
476.158	298.44
476.377	280.44
476.596	295.44
476.814	313.44
477.033	285.44
477.252	316.44
477.471	302.44
477.69	306.44
477.908	312.44
478.127	326.44
478.346	311.44
478.564	305.44
478.783	336.44
479.002	320.44
479.22	350.44
479.439	355.44
479.658	347.44
479.876	353.44
480.095	334.44
480.313	347.44
480.532	354.44
480.751	351.44
480.969	338.44
481.188	373.44
481.406	355.44
481.624	342.44
481.843	338.44
482.061	353.44
482.28	338.44
482.498	350.44
482.717	327.44
482.935	357.44
483.153	346.44
483.372	333.44
483.59	342.44
483.808	322.44
484.027	338.44
484.245	360.44
484.463	333.44
484.681	352.44
484.9	321.44
485.118	353.44
485.336	367.44
485.554	351.44
485.772	353.44
485.99	342.44
486.209	341.44
486.427	334.44
486.645	343.44
486.863	337.44
487.081	357.44
487.299	359.44
487.517	354.44
487.735	365.44
487.953	359.44
488.171	358.44
488.389	353.44
488.607	353.44
488.825	342.44
489.043	344.44
489.261	353.44
489.479	352.44
489.696	362.44
489.914	339.44
490.132	350.44
490.35	385.44
490.568	366.44
490.786	369.44
491.003	368.44
491.221	370.44
491.439	385.44
491.657	399.44
491.874	392.44
492.092	385.44
492.31	375.44
492.527	369.44
492.745	377.44
492.963	379.44
493.18	387.44
493.398	383.44
493.615	393.44
493.833	410.44
494.05	378.44
494.268	387.44
494.485	395.44
494.703	376.44
494.92	385.44
495.138	381.44
495.355	387.44
495.573	389.44
495.79	403.44
496.008	416.44
496.225	394.44
496.442	389.44
496.66	405.44
496.877	417.44
497.094	413.44
497.312	423.44
497.529	423.44
497.746	422.44
497.963	424.44
498.181	416.44
498.398	460.44
498.615	487.44
498.832	477.44
499.049	481.44
499.267	501.44
499.484	513.44
499.701	543.44
499.918	539.44
500.135	591.44
500.352	600.44
500.569	615.44
500.786	622.44
501.003	603.44
501.22	577.44
501.437	547.44
501.654	519.44
501.871	517.44
502.088	506.44
502.305	493.44
