Data from 1961.PennyLincolnUp.Lamp.En5.5.200Scan.071719.P1._HRD10591_13-49-10-058.txt Node
Date: Thu Jul 18 13:49:10 EDT 2019
User: cochatt
Spectrometer: HR+D1059
Trigger mode: 1
Integration Time (sec): 1.000000E-1
Scans to average: 1
Electric dark correction enabled: true
Nonlinearity correction enabled: false
Boxcar width: 0
XAxis mode: Wavelengths
Number of Pixels in Spectrum: 2048
>>>>>Begin Spectral Data<<<<<
223.165	-10.19
223.4	-10.19
223.635	-10.19
223.869	-18.19
224.104	-19.19
224.338	-10.19
224.573	-23.19
224.808	-18.19
225.042	-6.19
225.277	-5.19
225.511	-2.19
225.746	3.81
225.98	5.81
226.215	5.81
226.449	19.81
226.683	17.81
226.918	19.81
227.152	39.81
227.387	20.81
227.621	41.81
227.856	40.81
228.09	44.81
228.324	55.81
228.559	49.81
228.793	71.81
229.027	95.81
229.262	110.81
229.496	111.81
229.73	138.81
229.964	152.81
230.199	125.81
230.433	117.81
230.667	121.81
230.901	122.81
231.136	87.81
231.37	97.81
231.604	101.81
231.838	101.81
232.072	108.81
232.306	114.81
232.541	93.81
232.775	122.81
233.009	107.81
233.243	101.81
233.477	117.81
233.711	123.81
233.945	104.81
234.179	107.81
234.413	102.81
234.647	104.81
234.881	116.81
235.115	109.81
235.349	121.81
235.583	118.81
235.817	118.81
236.051	114.81
236.285	108.81
236.519	105.81
236.753	125.81
236.987	147.81
237.221	170.81
237.455	208.81
237.689	183.81
237.922	136.81
238.156	140.81
238.39	123.81
238.624	127.81
238.858	124.81
239.091	107.81
239.325	111.81
239.559	129.81
239.793	122.81
240.027	127.81
240.26	137.81
240.494	146.81
240.728	132.81
240.961	148.81
241.195	131.81
241.429	138.81
241.662	132.81
241.896	134.81
242.13	115.81
242.363	128.81
242.597	119.81
242.83	123.81
243.064	138.81
243.298	129.81
243.531	125.81
243.765	133.81
243.998	127.81
244.232	125.81
244.465	139.81
244.699	129.81
244.932	125.81
245.166	135.81
245.399	141.81
245.633	123.81
245.866	136.81
246.099	122.81
246.333	139.81
246.566	119.81
246.8	147.81
247.033	147.81
247.266	156.81
247.5	133.81
247.733	145.81
247.966	159.81
248.2	156.81
248.433	160.81
248.666	155.81
248.899	171.81
249.133	168.81
249.366	179.81
249.599	169.81
249.832	173.81
250.066	151.81
250.299	171.81
250.532	169.81
250.765	188.81
250.998	181.81
251.231	211.81
251.465	188.81
251.698	165.81
251.931	192.81
252.164	175.81
252.397	188.81
252.63	176.81
252.863	162.81
253.096	203.81
253.329	190.81
253.562	197.81
253.795	196.81
254.028	191.81
254.261	188.81
254.494	203.81
254.727	235.81
254.96	250.81
255.193	238.81
255.426	209.81
255.659	205.81
255.892	207.81
256.124	209.81
256.357	199.81
256.59	210.81
256.823	188.81
257.056	197.81
257.289	172.81
257.521	170.81
257.754	198.81
257.987	179.81
258.22	199.81
258.452	192.81
258.685	175.81
258.918	185.81
259.151	207.81
259.383	196.81
259.616	193.81
259.849	192.81
260.081	196.81
260.314	230.81
260.547	216.81
260.779	208.81
261.012	207.81
261.244	195.81
261.477	203.81
261.71	201.81
261.942	195.81
262.175	211.81
262.407	216.81
262.64	187.81
262.872	205.81
263.105	197.81
263.337	205.81
263.57	189.81
263.802	192.81
264.035	196.81
264.267	182.81
264.499	181.81
264.732	193.81
264.964	193.81
265.197	194.81
265.429	179.81
265.661	167.81
265.894	175.81
266.126	179.81
266.358	188.81
266.591	186.81
266.823	195.81
267.055	190.81
267.287	191.81
267.52	203.81
267.752	202.81
267.984	183.81
268.216	191.81
268.448	194.81
268.681	203.81
268.913	223.81
269.145	255.81
269.377	235.81
269.609	231.81
269.841	232.81
270.073	220.81
270.306	261.81
270.538	270.81
270.77	243.81
271.002	257.81
271.234	263.81
271.466	269.81
271.698	278.81
271.93	294.81
272.162	274.81
272.394	269.81
272.626	251.81
272.858	242.81
273.09	226.81
273.322	241.81
273.553	244.81
273.785	239.81
274.017	227.81
274.249	227.81
274.481	239.81
274.713	244.81
274.945	215.81
275.176	240.81
275.408	225.81
275.64	226.81
275.872	221.81
276.104	207.81
276.335	250.81
276.567	231.81
276.799	241.81
277.031	256.81
277.262	282.81
277.494	263.81
277.726	264.81
277.957	254.81
278.189	242.81
278.421	243.81
278.652	239.81
278.884	210.81
279.115	221.81
279.347	228.81
279.579	232.81
279.81	217.81
280.042	232.81
280.273	218.81
280.505	219.81
280.736	237.81
280.968	221.81
281.199	236.81
281.431	240.81
281.662	227.81
281.894	239.81
282.125	224.81
282.356	252.81
282.588	275.81
282.819	283.81
283.051	220.81
283.282	223.81
283.513	215.81
283.745	228.81
283.976	240.81
284.207	226.81
284.439	243.81
284.67	220.81
284.901	236.81
285.132	227.81
285.364	241.81
285.595	230.81
285.826	230.81
286.057	227.81
286.288	237.81
286.52	253.81
286.751	227.81
286.982	232.81
287.213	229.81
287.444	233.81
287.675	247.81
287.906	246.81
288.138	245.81
288.369	245.81
288.6	255.81
288.831	247.81
289.062	263.81
289.293	253.81
289.524	237.81
289.755	241.81
289.986	248.81
290.217	232.81
290.448	247.81
290.679	234.81
290.91	239.81
291.141	260.81
291.371	259.81
291.602	226.81
291.833	245.81
292.064	246.81
292.295	248.81
292.526	238.81
292.757	239.81
292.987	224.81
293.218	254.81
293.449	239.81
293.68	237.81
293.91	237.81
294.141	247.81
294.372	240.81
294.603	236.81
294.833	231.81
295.064	243.81
295.295	250.81
295.525	247.81
295.756	242.81
295.987	252.81
296.217	275.81
296.448	293.81
296.679	273.81
296.909	229.81
297.14	253.81
297.37	257.81
297.601	259.81
297.831	233.81
298.062	239.81
298.292	233.81
298.523	246.81
298.753	261.81
298.984	280.81
299.214	264.81
299.445	262.81
299.675	262.81
299.905	269.81
300.136	260.81
300.366	267.81
300.597	263.81
300.827	268.81
301.057	264.81
301.288	275.81
301.518	254.81
301.748	262.81
301.979	269.81
302.209	271.81
302.439	274.81
302.669	275.81
302.9	277.81
303.13	280.81
303.36	278.81
303.59	295.81
303.82	291.81
304.051	278.81
304.281	273.81
304.511	277.81
304.741	274.81
304.971	268.81
305.201	264.81
305.431	269.81
305.661	266.81
305.891	272.81
306.121	274.81
306.352	268.81
306.582	279.81
306.812	267.81
307.042	273.81
307.272	281.81
307.502	286.81
307.731	294.81
307.961	274.81
308.191	264.81
308.421	282.81
308.651	305.81
308.881	294.81
309.111	298.81
309.341	282.81
309.571	291.81
309.8	304.81
310.03	299.81
310.26	327.81
310.49	340.81
310.72	344.81
310.949	344.81
311.179	357.81
311.409	311.81
311.639	337.81
311.868	320.81
312.098	334.81
312.328	347.81
312.557	348.81
312.787	369.81
313.017	351.81
313.246	324.81
313.476	335.81
313.706	319.81
313.935	318.81
314.165	332.81
314.394	358.81
314.624	345.81
314.853	355.81
315.083	339.81
315.312	330.81
315.542	309.81
315.771	332.81
316.001	308.81
316.23	320.81
316.46	333.81
316.689	334.81
316.919	327.81
317.148	344.81
317.377	339.81
317.607	349.81
317.836	328.81
318.065	337.81
318.295	337.81
318.524	334.81
318.753	311.81
318.983	320.81
319.212	328.81
319.441	340.81
319.67	332.81
319.9	322.81
320.129	325.81
320.358	315.81
320.587	326.81
320.816	331.81
321.046	361.81
321.275	351.81
321.504	342.81
321.733	348.81
321.962	356.81
322.191	370.81
322.42	416.81
322.649	393.81
322.878	416.81
323.108	438.81
323.337	463.81
323.566	452.81
323.795	523.81
324.024	560.81
324.253	717.81
324.482	1094.81
324.71	1630.81
324.939	2334.81
325.168	1923.81
325.397	1004.81
325.626	675.81
325.855	564.81
326.084	501.81
326.313	482.81
326.542	472.81
326.77	533.81
326.999	697.81
327.228	935.81
327.457	1473.81
327.686	1689.81
327.914	1101.81
328.143	725.81
328.372	631.81
328.6	583.81
328.829	552.81
329.058	561.81
329.287	575.81
329.515	519.81
329.744	470.81
329.972	475.81
330.201	504.81
330.43	563.81
330.658	553.81
330.887	586.81
331.115	573.81
331.344	478.81
331.572	453.81
331.801	459.81
332.03	427.81
332.258	412.81
332.486	396.81
332.715	389.81
332.943	381.81
333.172	381.81
333.4	395.81
333.629	404.81
333.857	413.81
334.085	443.81
334.314	455.81
334.542	483.81
334.771	486.81
334.999	435.81
335.227	421.81
335.455	381.81
335.684	393.81
335.912	383.81
336.14	373.81
336.369	372.81
336.597	395.81
336.825	392.81
337.053	362.81
337.281	371.81
337.51	375.81
337.738	373.81
337.966	388.81
338.194	388.81
338.422	362.81
338.65	368.81
338.878	371.81
339.106	355.81
339.334	357.81
339.562	345.81
339.79	377.81
340.018	370.81
340.246	363.81
340.474	375.81
340.702	383.81
340.93	367.81
341.158	388.81
341.386	355.81
341.614	361.81
341.842	372.81
342.07	353.81
342.298	354.81
342.526	344.81
342.754	356.81
342.981	344.81
343.209	345.81
343.437	345.81
343.665	350.81
343.893	348.81
344.12	373.81
344.348	383.81
344.576	369.81
344.804	378.81
345.031	377.81
345.259	389.81
345.487	361.81
345.714	364.81
345.942	384.81
346.17	364.81
346.397	349.81
346.625	357.81
346.853	375.81
347.08	361.81
347.308	375.81
347.535	361.81
347.763	381.81
347.99	375.81
348.218	361.81
348.445	383.81
348.673	380.81
348.9	355.81
349.128	337.81
349.355	346.81
349.583	324.81
349.81	312.81
350.037	352.81
350.265	347.81
350.492	349.81
350.72	338.81
350.947	363.81
351.174	377.81
351.402	346.81
351.629	373.81
351.856	374.81
352.083	387.81
352.311	375.81
352.538	394.81
352.765	381.81
352.992	353.81
353.22	353.81
353.447	372.81
353.674	339.81
353.901	336.81
354.128	342.81
354.355	348.81
354.583	334.81
354.81	341.81
355.037	327.81
355.264	319.81
355.491	309.81
355.718	317.81
355.945	330.81
356.172	308.81
356.399	344.81
356.626	323.81
356.853	321.81
357.08	331.81
357.307	332.81
357.534	324.81
357.761	328.81
357.988	333.81
358.215	338.81
358.441	324.81
358.668	336.81
358.895	333.81
359.122	336.81
359.349	352.81
359.576	356.81
359.802	398.81
360.029	413.81
360.256	429.81
360.483	389.81
360.709	356.81
360.936	355.81
361.163	365.81
361.39	376.81
361.616	377.81
361.843	349.81
362.07	356.81
362.296	380.81
362.523	363.81
362.749	359.81
362.976	370.81
363.203	363.81
363.429	337.81
363.656	341.81
363.882	343.81
364.109	353.81
364.335	356.81
364.562	332.81
364.788	366.81
365.015	337.81
365.241	323.81
365.468	357.81
365.694	363.81
365.92	334.81
366.147	338.81
366.373	330.81
366.599	345.81
366.826	339.81
367.052	331.81
367.278	336.81
367.505	327.81
367.731	338.81
367.957	339.81
368.184	331.81
368.41	332.81
368.636	351.81
368.862	344.81
369.089	341.81
369.315	332.81
369.541	320.81
369.767	337.81
369.993	343.81
370.219	337.81
370.445	327.81
370.672	333.81
370.898	339.81
371.124	326.81
371.35	337.81
371.576	340.81
371.802	336.81
372.028	317.81
372.254	334.81
372.48	332.81
372.706	343.81
372.932	321.81
373.158	333.81
373.384	346.81
373.61	344.81
373.835	313.81
374.061	355.81
374.287	337.81
374.513	334.81
374.739	332.81
374.965	335.81
375.191	342.81
375.416	324.81
375.642	317.81
375.868	345.81
376.094	328.81
376.319	328.81
376.545	331.81
376.771	323.81
376.997	312.81
377.222	341.81
377.448	338.81
377.674	332.81
377.899	333.81
378.125	313.81
378.35	313.81
378.576	331.81
378.802	324.81
379.027	315.81
379.253	317.81
379.478	329.81
379.704	338.81
379.929	323.81
380.155	323.81
380.38	323.81
380.606	352.81
380.831	326.81
381.057	319.81
381.282	327.81
381.507	311.81
381.733	333.81
381.958	324.81
382.184	330.81
382.409	333.81
382.634	329.81
382.86	317.81
383.085	326.81
383.31	332.81
383.535	337.81
383.761	334.81
383.986	346.81
384.211	348.81
384.436	332.81
384.662	325.81
384.887	342.81
385.112	341.81
385.337	335.81
385.562	326.81
385.787	365.81
386.013	372.81
386.238	377.81
386.463	362.81
386.688	362.81
386.913	341.81
387.138	348.81
387.363	375.81
387.588	356.81
387.813	363.81
388.038	337.81
388.263	325.81
388.488	365.81
388.713	355.81
388.938	353.81
389.163	346.81
389.387	367.81
389.612	352.81
389.837	350.81
390.062	349.81
390.287	357.81
390.512	355.81
390.736	358.81
390.961	360.81
391.186	353.81
391.411	355.81
391.636	352.81
391.86	357.81
392.085	367.81
392.31	342.81
392.534	373.81
392.759	367.81
392.984	371.81
393.208	341.81
393.433	373.81
393.658	377.81
393.882	341.81
394.107	351.81
394.331	370.81
394.556	367.81
394.78	359.81
395.005	348.81
395.229	353.81
395.454	371.81
395.678	381.81
395.903	374.81
396.127	387.81
396.352	386.81
396.576	376.81
396.801	365.81
397.025	355.81
397.249	387.81
397.474	371.81
397.698	384.81
397.922	390.81
398.147	394.81
398.371	409.81
398.595	393.81
398.82	398.81
399.044	403.81
399.268	411.81
399.492	423.81
399.717	436.81
399.941	464.81
400.165	501.81
400.389	496.81
400.613	452.81
400.837	419.81
401.062	417.81
401.286	402.81
401.51	396.81
401.734	406.81
401.958	406.81
402.182	413.81
402.406	430.81
402.63	424.81
402.854	409.81
403.078	409.81
403.302	426.81
403.526	396.81
403.75	420.81
403.974	424.81
404.198	407.81
404.422	412.81
404.645	425.81
404.869	429.81
405.093	459.81
405.317	477.81
405.541	521.81
405.765	477.81
405.988	441.81
406.212	461.81
406.436	473.81
406.66	491.81
406.883	479.81
407.107	459.81
407.331	504.81
407.555	571.81
407.778	557.81
408.002	513.81
408.226	482.81
408.449	466.81
408.673	460.81
408.896	498.81
409.12	535.81
409.344	491.81
409.567	449.81
409.791	456.81
410.014	438.81
410.238	423.81
410.461	411.81
410.685	424.81
410.908	447.81
411.132	488.81
411.355	490.81
411.578	467.81
411.802	432.81
412.025	453.81
412.249	441.81
412.472	452.81
412.695	510.81
412.919	490.81
413.142	435.81
413.365	411.81
413.589	403.81
413.812	396.81
414.035	383.81
414.258	412.81
414.482	403.81
414.705	405.81
414.928	407.81
415.151	392.81
415.374	399.81
415.597	403.81
415.821	390.81
416.044	418.81
416.267	393.81
416.49	397.81
416.713	379.81
416.936	398.81
417.159	400.81
417.382	397.81
417.605	404.81
417.828	405.81
418.051	406.81
418.274	409.81
418.497	398.81
418.72	383.81
418.943	380.81
419.166	431.81
419.389	440.81
419.611	419.81
419.834	406.81
420.057	428.81
420.28	423.81
420.503	425.81
420.726	410.81
420.948	451.81
421.171	468.81
421.394	486.81
421.617	442.81
421.839	410.81
422.062	440.81
422.285	447.81
422.507	486.81
422.73	554.81
422.953	531.81
423.175	456.81
423.398	437.81
423.621	445.81
423.843	465.81
424.066	447.81
424.288	465.81
424.511	464.81
424.733	506.81
424.956	584.81
425.178	572.81
425.401	575.81
425.623	586.81
425.846	507.81
426.068	490.81
426.291	475.81
426.513	458.81
426.735	481.81
426.958	528.81
427.18	579.81
427.402	698.81
427.625	761.81
427.847	700.81
428.069	607.81
428.292	521.81
428.514	463.81
428.736	473.81
428.958	449.81
429.181	426.81
429.403	439.81
429.625	450.81
429.847	480.81
430.069	538.81
430.292	539.81
430.514	444.81
430.736	426.81
430.958	418.81
431.18	408.81
431.402	411.81
431.624	387.81
431.846	405.81
432.068	401.81
432.29	399.81
432.512	421.81
432.734	410.81
432.956	423.81
433.178	426.81
433.4	422.81
433.622	416.81
433.844	412.81
434.066	410.81
434.287	399.81
434.509	419.81
434.731	411.81
434.953	425.81
435.175	431.81
435.397	449.81
435.618	465.81
435.84	512.81
436.062	599.81
436.284	660.81
436.505	539.81
436.727	500.81
436.949	455.81
437.17	450.81
437.392	456.81
437.614	449.81
437.835	481.81
438.057	573.81
438.278	643.81
438.5	638.81
438.721	699.81
438.943	684.81
439.165	556.81
439.386	484.81
439.608	476.81
439.829	484.81
440.05	515.81
440.272	572.81
440.493	523.81
440.715	474.81
440.936	457.81
441.158	451.81
441.379	428.81
441.6	454.81
441.822	455.81
442.043	516.81
442.264	562.81
442.486	607.81
442.707	519.81
442.928	470.81
443.149	499.81
443.371	512.81
443.592	545.81
443.813	616.81
444.034	668.81
444.255	560.81
444.476	465.81
444.698	459.81
444.919	464.81
445.14	563.81
445.361	535.81
445.582	515.81
445.803	591.81
446.024	671.81
446.245	687.81
446.466	633.81
446.687	529.81
446.908	476.81
447.129	461.81
447.35	448.81
447.571	444.81
447.792	431.81
448.013	455.81
448.234	464.81
448.455	524.81
448.675	628.81
448.896	715.81
449.117	591.81
449.338	560.81
449.559	651.81
449.779	749.81
450	593.81
450.221	479.81
450.442	464.81
450.662	468.81
450.883	461.81
451.104	475.81
451.324	447.81
451.545	435.81
451.766	418.81
451.986	397.81
452.207	388.81
452.428	404.81
452.648	409.81
452.869	396.81
453.089	406.81
453.31	420.81
453.53	401.81
453.751	404.81
453.971	410.81
454.192	432.81
454.412	418.81
454.633	421.81
454.853	413.81
455.073	413.81
455.294	441.81
455.514	492.81
455.734	465.81
455.955	396.81
456.175	379.81
456.395	370.81
456.616	373.81
456.836	361.81
457.056	373.81
457.276	348.81
457.497	380.81
457.717	379.81
457.937	371.81
458.157	386.81
458.377	387.81
458.598	415.81
458.818	475.81
459.038	554.81
459.258	564.81
459.478	469.81
459.698	443.81
459.918	409.81
460.138	419.81
460.358	418.81
460.578	412.81
460.798	410.81
461.018	404.81
461.238	426.81
461.458	388.81
461.678	385.81
461.898	404.81
462.118	398.81
462.338	402.81
462.558	409.81
462.777	413.81
462.997	422.81
463.217	429.81
463.437	436.81
463.657	437.81
463.876	443.81
464.096	424.81
464.316	420.81
464.536	431.81
464.755	445.81
464.975	443.81
465.195	486.81
465.414	565.81
465.634	525.81
465.854	453.81
466.073	420.81
466.293	423.81
466.512	399.81
466.732	390.81
466.951	400.81
467.171	397.81
467.391	409.81
467.61	429.81
467.829	430.81
468.049	411.81
468.268	421.81
468.488	397.81
468.707	395.81
468.927	396.81
469.146	375.81
469.365	388.81
469.585	391.81
469.804	383.81
470.023	403.81
470.243	406.81
470.462	439.81
470.681	423.81
470.901	433.81
471.12	415.81
471.339	438.81
471.558	417.81
471.777	428.81
471.997	403.81
472.216	410.81
472.435	460.81
472.654	454.81
472.873	432.81
473.092	419.81
473.311	425.81
473.53	429.81
473.749	413.81
473.968	474.81
474.187	568.81
474.406	577.81
474.625	477.81
474.844	438.81
475.063	427.81
475.282	409.81
475.501	413.81
475.72	405.81
475.939	409.81
476.158	434.81
476.377	431.81
476.596	429.81
476.814	447.81
477.033	447.81
477.252	424.81
477.471	441.81
477.69	444.81
477.908	444.81
478.127	443.81
478.346	441.81
478.564	449.81
478.783	441.81
479.002	459.81
479.22	460.81
479.439	453.81
479.658	503.81
479.876	498.81
480.095	503.81
480.313	523.81
480.532	495.81
480.751	488.81
480.969	509.81
481.188	586.81
481.406	618.81
481.624	544.81
481.843	505.81
482.061	511.81
482.28	515.81
482.498	489.81
482.717	491.81
482.935	474.81
483.153	484.81
483.372	466.81
483.59	474.81
483.808	485.81
484.027	500.81
484.245	513.81
484.463	481.81
484.681	498.81
484.9	493.81
485.118	492.81
485.336	499.81
485.554	501.81
485.772	509.81
485.99	490.81
486.209	516.81
486.427	488.81
486.645	517.81
486.863	508.81
487.081	525.81
487.299	532.81
487.517	514.81
487.735	515.81
487.953	510.81
488.171	521.81
488.389	529.81
488.607	520.81
488.825	524.81
489.043	520.81
489.261	536.81
489.479	519.81
489.696	517.81
489.914	529.81
490.132	547.81
490.35	533.81
490.568	532.81
490.786	533.81
491.003	544.81
491.221	561.81
491.439	575.81
491.657	576.81
491.874	587.81
492.092	580.81
492.31	594.81
492.527	607.81
492.745	586.81
492.963	627.81
493.18	602.81
493.398	625.81
493.615	587.81
493.833	619.81
494.05	584.81
494.268	575.81
494.485	582.81
494.703	623.81
494.92	595.81
495.138	612.81
495.355	592.81
495.573	611.81
495.79	611.81
496.008	631.81
496.225	611.81
496.442	618.81
496.66	647.81
496.877	635.81
497.094	620.81
497.312	625.81
497.529	615.81
497.746	648.81
497.963	635.81
498.181	663.81
498.398	675.81
498.615	678.81
498.832	682.81
499.049	683.81
499.267	669.81
499.484	705.81
499.701	715.81
499.918	723.81
500.135	723.81
500.352	733.81
500.569	737.81
500.786	790.81
501.003	769.81
501.22	746.81
501.437	731.81
501.654	722.81
501.871	736.81
