Data from 1961.PennyLincolnUp.Lamp.En5.5.200Scan.071719.P1._HRD10591_13-46-14-057.txt Node
Date: Thu Jul 18 13:46:14 EDT 2019
User: cochatt
Spectrometer: HR+D1059
Trigger mode: 1
Integration Time (sec): 1.000000E-1
Scans to average: 1
Electric dark correction enabled: true
Nonlinearity correction enabled: false
Boxcar width: 0
XAxis mode: Wavelengths
Number of Pixels in Spectrum: 2048
>>>>>Begin Spectral Data<<<<<
223.165	-7.44
223.4	-7.44
223.635	-7.44
223.869	-7.44
224.104	-21.44
224.338	-25.44
224.573	-15.44
224.808	-11.44
225.042	-17.44
225.277	-3.44
225.511	0.56
225.746	-7.44
225.98	5.56
226.215	24.56
226.449	14.56
226.683	17.56
226.918	30.56
227.152	23.56
227.387	21.56
227.621	32.56
227.856	36.56
228.09	37.56
228.324	60.56
228.559	51.56
228.793	57.56
229.027	69.56
229.262	69.56
229.496	96.56
229.73	86.56
229.964	105.56
230.199	92.56
230.433	75.56
230.667	103.56
230.901	91.56
231.136	94.56
231.37	96.56
231.604	86.56
231.838	100.56
232.072	86.56
232.306	104.56
232.541	91.56
232.775	88.56
233.009	84.56
233.243	88.56
233.477	104.56
233.711	98.56
233.945	89.56
234.179	99.56
234.413	102.56
234.647	97.56
234.881	99.56
235.115	108.56
235.349	97.56
235.583	93.56
235.817	104.56
236.051	92.56
236.285	86.56
236.519	96.56
236.753	96.56
236.987	108.56
237.221	139.56
237.455	131.56
237.689	121.56
237.922	110.56
238.156	100.56
238.39	104.56
238.624	95.56
238.858	108.56
239.091	97.56
239.325	97.56
239.559	91.56
239.793	102.56
240.027	98.56
240.26	105.56
240.494	116.56
240.728	104.56
240.961	109.56
241.195	94.56
241.429	99.56
241.662	108.56
241.896	102.56
242.13	110.56
242.363	101.56
242.597	100.56
242.83	101.56
243.064	97.56
243.298	92.56
243.531	112.56
243.765	110.56
243.998	95.56
244.232	107.56
244.465	110.56
244.699	113.56
244.932	112.56
245.166	103.56
245.399	95.56
245.633	104.56
245.866	119.56
246.099	114.56
246.333	103.56
246.566	113.56
246.8	114.56
247.033	108.56
247.266	107.56
247.5	104.56
247.733	138.56
247.966	126.56
248.2	109.56
248.433	117.56
248.666	124.56
248.899	124.56
249.133	148.56
249.366	124.56
249.599	134.56
249.832	122.56
250.066	133.56
250.299	122.56
250.532	133.56
250.765	139.56
250.998	144.56
251.231	140.56
251.465	140.56
251.698	147.56
251.931	139.56
252.164	130.56
252.397	131.56
252.63	129.56
252.863	140.56
253.096	141.56
253.329	174.56
253.562	133.56
253.795	135.56
254.028	144.56
254.261	142.56
254.494	154.56
254.727	150.56
254.96	175.56
255.193	180.56
255.426	163.56
255.659	154.56
255.892	177.56
256.124	140.56
256.357	160.56
256.59	164.56
256.823	131.56
257.056	146.56
257.289	154.56
257.521	141.56
257.754	128.56
257.987	146.56
258.22	134.56
258.452	137.56
258.685	132.56
258.918	139.56
259.151	129.56
259.383	141.56
259.616	144.56
259.849	165.56
260.081	171.56
260.314	164.56
260.547	163.56
260.779	159.56
261.012	141.56
261.244	154.56
261.477	151.56
261.71	132.56
261.942	141.56
262.175	156.56
262.407	176.56
262.64	132.56
262.872	135.56
263.105	149.56
263.337	138.56
263.57	143.56
263.802	140.56
264.035	136.56
264.267	146.56
264.499	140.56
264.732	136.56
264.964	147.56
265.197	152.56
265.429	144.56
265.661	144.56
265.894	142.56
266.126	148.56
266.358	140.56
266.591	143.56
266.823	145.56
267.055	152.56
267.287	150.56
267.52	149.56
267.752	146.56
267.984	146.56
268.216	142.56
268.448	159.56
268.681	145.56
268.913	170.56
269.145	157.56
269.377	171.56
269.609	175.56
269.841	160.56
270.073	162.56
270.306	189.56
270.538	177.56
270.77	175.56
271.002	178.56
271.234	169.56
271.466	162.56
271.698	176.56
271.93	182.56
272.162	174.56
272.394	188.56
272.626	175.56
272.858	169.56
273.09	173.56
273.322	171.56
273.553	172.56
273.785	173.56
274.017	161.56
274.249	162.56
274.481	167.56
274.713	158.56
274.945	173.56
275.176	172.56
275.408	169.56
275.64	170.56
275.872	170.56
276.104	187.56
276.335	175.56
276.567	164.56
276.799	184.56
277.031	191.56
277.262	178.56
277.494	188.56
277.726	196.56
277.957	175.56
278.189	177.56
278.421	184.56
278.652	189.56
278.884	166.56
279.115	172.56
279.347	173.56
279.579	163.56
279.81	181.56
280.042	168.56
280.273	174.56
280.505	172.56
280.736	174.56
280.968	172.56
281.199	179.56
281.431	158.56
281.662	159.56
281.894	159.56
282.125	169.56
282.356	193.56
282.588	188.56
282.819	187.56
283.051	173.56
283.282	176.56
283.513	176.56
283.745	180.56
283.976	164.56
284.207	173.56
284.439	182.56
284.67	177.56
284.901	175.56
285.132	178.56
285.364	182.56
285.595	176.56
285.826	184.56
286.057	168.56
286.288	170.56
286.52	179.56
286.751	171.56
286.982	186.56
287.213	176.56
287.444	152.56
287.675	175.56
287.906	196.56
288.138	180.56
288.369	189.56
288.6	194.56
288.831	192.56
289.062	187.56
289.293	186.56
289.524	176.56
289.755	174.56
289.986	201.56
290.217	192.56
290.448	170.56
290.679	174.56
290.91	186.56
291.141	182.56
291.371	173.56
291.602	194.56
291.833	194.56
292.064	181.56
292.295	188.56
292.526	194.56
292.757	188.56
292.987	189.56
293.218	187.56
293.449	186.56
293.68	191.56
293.91	182.56
294.141	184.56
294.372	181.56
294.603	182.56
294.833	179.56
295.064	178.56
295.295	196.56
295.525	197.56
295.756	198.56
295.987	180.56
296.217	195.56
296.448	207.56
296.679	187.56
296.909	180.56
297.14	195.56
297.37	174.56
297.601	184.56
297.831	188.56
298.062	185.56
298.292	181.56
298.523	198.56
298.753	186.56
298.984	183.56
299.214	199.56
299.445	189.56
299.675	213.56
299.905	198.56
300.136	184.56
300.366	181.56
300.597	187.56
300.827	194.56
301.057	218.56
301.288	198.56
301.518	187.56
301.748	203.56
301.979	189.56
302.209	196.56
302.439	212.56
302.669	207.56
302.9	208.56
303.13	193.56
303.36	221.56
303.59	206.56
303.82	207.56
304.051	209.56
304.281	197.56
304.511	208.56
304.741	189.56
304.971	185.56
305.201	217.56
305.431	212.56
305.661	208.56
305.891	208.56
306.121	198.56
306.352	208.56
306.582	212.56
306.812	211.56
307.042	196.56
307.272	207.56
307.502	204.56
307.731	203.56
307.961	209.56
308.191	204.56
308.421	223.56
308.651	203.56
308.881	215.56
309.111	200.56
309.341	208.56
309.571	222.56
309.8	221.56
310.03	223.56
310.26	230.56
310.49	203.56
310.72	228.56
310.949	216.56
311.179	242.56
311.409	253.56
311.639	226.56
311.868	235.56
312.098	232.56
312.328	243.56
312.557	227.56
312.787	238.56
313.017	258.56
313.246	223.56
313.476	229.56
313.706	244.56
313.935	222.56
314.165	232.56
314.394	252.56
314.624	243.56
314.853	220.56
315.083	244.56
315.312	229.56
315.542	226.56
315.771	234.56
316.001	221.56
316.23	222.56
316.46	228.56
316.689	220.56
316.919	223.56
317.148	241.56
317.377	235.56
317.607	257.56
317.836	233.56
318.065	229.56
318.295	237.56
318.524	229.56
318.753	224.56
318.983	221.56
319.212	232.56
319.441	219.56
319.67	236.56
319.9	229.56
320.129	242.56
320.358	220.56
320.587	248.56
320.816	239.56
321.046	253.56
321.275	243.56
321.504	253.56
321.733	247.56
321.962	262.56
322.191	251.56
322.42	250.56
322.649	259.56
322.878	256.56
323.108	284.56
323.337	296.56
323.566	300.56
323.795	313.56
324.024	337.56
324.253	393.56
324.482	545.56
324.71	812.56
324.939	1140.56
325.168	932.56
325.397	524.56
325.626	363.56
325.855	311.56
326.084	296.56
326.313	300.56
326.542	313.56
326.77	318.56
326.999	384.56
327.228	492.56
327.457	710.56
327.686	811.56
327.914	563.56
328.143	400.56
328.372	350.56
328.6	312.56
328.829	312.56
329.058	307.56
329.287	340.56
329.515	313.56
329.744	316.56
329.972	303.56
330.201	312.56
330.43	324.56
330.658	325.56
330.887	331.56
331.115	316.56
331.344	302.56
331.572	291.56
331.801	273.56
332.03	272.56
332.258	293.56
332.486	284.56
332.715	268.56
332.943	266.56
333.172	277.56
333.4	267.56
333.629	297.56
333.857	278.56
334.085	278.56
334.314	296.56
334.542	305.56
334.771	323.56
334.999	292.56
335.227	287.56
335.455	296.56
335.684	285.56
335.912	280.56
336.14	257.56
336.369	278.56
336.597	312.56
336.825	252.56
337.053	271.56
337.281	270.56
337.51	260.56
337.738	291.56
337.966	278.56
338.194	260.56
338.422	261.56
338.65	265.56
338.878	282.56
339.106	262.56
339.334	297.56
339.562	268.56
339.79	254.56
340.018	258.56
340.246	282.56
340.474	254.56
340.702	259.56
340.93	253.56
341.158	261.56
341.386	267.56
341.614	262.56
341.842	266.56
342.07	267.56
342.298	270.56
342.526	260.56
342.754	277.56
342.981	257.56
343.209	262.56
343.437	270.56
343.665	277.56
343.893	257.56
344.12	277.56
344.348	278.56
344.576	266.56
344.804	281.56
345.031	270.56
345.259	266.56
345.487	265.56
345.714	254.56
345.942	263.56
346.17	259.56
346.397	265.56
346.625	268.56
346.853	274.56
347.08	250.56
347.308	268.56
347.535	265.56
347.763	256.56
347.99	274.56
348.218	257.56
348.445	267.56
348.673	256.56
348.9	239.56
349.128	258.56
349.355	256.56
349.583	254.56
349.81	251.56
350.037	257.56
350.265	258.56
350.492	248.56
350.72	248.56
350.947	271.56
351.174	265.56
351.402	270.56
351.629	244.56
351.856	271.56
352.083	273.56
352.311	246.56
352.538	252.56
352.765	250.56
352.992	263.56
353.22	267.56
353.447	252.56
353.674	266.56
353.901	254.56
354.128	260.56
354.355	238.56
354.583	229.56
354.81	259.56
355.037	265.56
355.264	232.56
355.491	238.56
355.718	242.56
355.945	254.56
356.172	254.56
356.399	241.56
356.626	235.56
356.853	255.56
357.08	255.56
357.307	269.56
357.534	252.56
357.761	242.56
357.988	262.56
358.215	247.56
358.441	239.56
358.668	253.56
358.895	224.56
359.122	259.56
359.349	241.56
359.576	257.56
359.802	257.56
360.029	265.56
360.256	284.56
360.483	286.56
360.709	281.56
360.936	249.56
361.163	262.56
361.39	268.56
361.616	265.56
361.843	270.56
362.07	265.56
362.296	277.56
362.523	256.56
362.749	267.56
362.976	264.56
363.203	268.56
363.429	266.56
363.656	248.56
363.882	255.56
364.109	267.56
364.335	250.56
364.562	250.56
364.788	252.56
365.015	243.56
365.241	263.56
365.468	252.56
365.694	254.56
365.92	261.56
366.147	260.56
366.373	253.56
366.599	252.56
366.826	252.56
367.052	262.56
367.278	267.56
367.505	254.56
367.731	254.56
367.957	245.56
368.184	252.56
368.41	266.56
368.636	263.56
368.862	268.56
369.089	257.56
369.315	270.56
369.541	252.56
369.767	260.56
369.993	265.56
370.219	256.56
370.445	235.56
370.672	257.56
370.898	253.56
371.124	259.56
371.35	268.56
371.576	270.56
371.802	268.56
372.028	262.56
372.254	269.56
372.48	271.56
372.706	262.56
372.932	235.56
373.158	261.56
373.384	255.56
373.61	268.56
373.835	255.56
374.061	261.56
374.287	266.56
374.513	257.56
374.739	263.56
374.965	266.56
375.191	259.56
375.416	278.56
375.642	272.56
375.868	268.56
376.094	267.56
376.319	246.56
376.545	263.56
376.771	260.56
376.997	235.56
377.222	288.56
377.448	262.56
377.674	254.56
377.899	252.56
378.125	267.56
378.35	256.56
378.576	270.56
378.802	260.56
379.027	251.56
379.253	270.56
379.478	254.56
379.704	244.56
379.929	265.56
380.155	264.56
380.38	268.56
380.606	280.56
380.831	273.56
381.057	275.56
381.282	257.56
381.507	270.56
381.733	272.56
381.958	258.56
382.184	275.56
382.409	293.56
382.634	260.56
382.86	272.56
383.085	276.56
383.31	261.56
383.535	264.56
383.761	262.56
383.986	281.56
384.211	276.56
384.436	276.56
384.662	273.56
384.887	273.56
385.112	287.56
385.337	271.56
385.562	270.56
385.787	281.56
386.013	301.56
386.238	273.56
386.463	283.56
386.688	280.56
386.913	284.56
387.138	313.56
387.363	268.56
387.588	285.56
387.813	278.56
388.038	291.56
388.263	296.56
388.488	299.56
388.713	285.56
388.938	282.56
389.163	273.56
389.387	263.56
389.612	278.56
389.837	283.56
390.062	263.56
390.287	285.56
390.512	306.56
390.736	297.56
390.961	307.56
391.186	276.56
391.411	285.56
391.636	292.56
391.86	278.56
392.085	288.56
392.31	300.56
392.534	283.56
392.759	291.56
392.984	285.56
393.208	298.56
393.433	311.56
393.658	309.56
393.882	287.56
394.107	296.56
394.331	297.56
394.556	283.56
394.78	284.56
395.005	285.56
395.229	272.56
395.454	306.56
395.678	287.56
395.903	320.56
396.127	325.56
396.352	301.56
396.576	302.56
396.801	319.56
397.025	309.56
397.249	307.56
397.474	303.56
397.698	285.56
397.922	307.56
398.147	317.56
398.371	322.56
398.595	313.56
398.82	326.56
399.044	326.56
399.268	322.56
399.492	336.56
399.717	337.56
399.941	360.56
400.165	400.56
400.389	385.56
400.613	370.56
400.837	348.56
401.062	331.56
401.286	349.56
401.51	335.56
401.734	325.56
401.958	322.56
402.182	321.56
402.406	345.56
402.63	318.56
402.854	318.56
403.078	337.56
403.302	318.56
403.526	327.56
403.75	334.56
403.974	329.56
404.198	333.56
404.422	329.56
404.645	324.56
404.869	326.56
405.093	344.56
405.317	364.56
405.541	388.56
405.765	359.56
405.988	341.56
406.212	344.56
406.436	356.56
406.66	368.56
406.883	362.56
407.107	356.56
407.331	376.56
407.555	411.56
407.778	425.56
408.002	384.56
408.226	360.56
408.449	361.56
408.673	373.56
408.896	385.56
409.12	415.56
409.344	384.56
409.567	358.56
409.791	351.56
410.014	345.56
410.238	332.56
410.461	345.56
410.685	334.56
410.908	351.56
411.132	375.56
411.355	376.56
411.578	366.56
411.802	348.56
412.025	338.56
412.249	340.56
412.472	358.56
412.695	376.56
412.919	368.56
413.142	341.56
413.365	343.56
413.589	347.56
413.812	333.56
414.035	322.56
414.258	332.56
414.482	320.56
414.705	328.56
414.928	321.56
415.151	347.56
415.374	323.56
415.597	314.56
415.821	310.56
416.044	326.56
416.267	306.56
416.49	316.56
416.713	307.56
416.936	340.56
417.159	329.56
417.382	322.56
417.605	328.56
417.828	324.56
418.051	313.56
418.274	323.56
418.497	320.56
418.72	311.56
418.943	298.56
419.166	327.56
419.389	330.56
419.611	341.56
419.834	318.56
420.057	319.56
420.28	337.56
420.503	324.56
420.726	312.56
420.948	340.56
421.171	363.56
421.394	376.56
421.617	344.56
421.839	353.56
422.062	333.56
422.285	334.56
422.507	365.56
422.73	406.56
422.953	382.56
423.175	349.56
423.398	336.56
423.621	349.56
423.843	350.56
424.066	336.56
424.288	335.56
424.511	356.56
424.733	391.56
424.956	433.56
425.178	424.56
425.401	424.56
425.623	429.56
425.846	369.56
426.068	374.56
426.291	361.56
426.513	348.56
426.735	362.56
426.958	374.56
427.18	446.56
427.402	506.56
427.625	546.56
427.847	451.56
428.069	409.56
428.292	368.56
428.514	347.56
428.736	342.56
428.958	336.56
429.181	331.56
429.403	322.56
429.625	349.56
429.847	328.56
430.069	394.56
430.292	365.56
430.514	332.56
430.736	325.56
430.958	326.56
431.18	321.56
431.402	329.56
431.624	317.56
431.846	309.56
432.068	301.56
432.29	330.56
432.512	321.56
432.734	344.56
432.956	317.56
433.178	329.56
433.4	321.56
433.622	318.56
433.844	330.56
434.066	303.56
434.287	322.56
434.509	311.56
434.731	327.56
434.953	313.56
435.175	320.56
435.397	357.56
435.618	365.56
435.84	401.56
436.062	428.56
436.284	472.56
436.505	408.56
436.727	373.56
436.949	368.56
437.17	334.56
437.392	317.56
437.614	339.56
437.835	352.56
438.057	426.56
438.278	483.56
438.5	478.56
438.721	526.56
438.943	500.56
439.165	401.56
439.386	349.56
439.608	362.56
439.829	354.56
440.05	363.56
440.272	383.56
440.493	368.56
440.715	360.56
440.936	321.56
441.158	328.56
441.379	334.56
441.6	354.56
441.822	347.56
442.043	368.56
442.264	419.56
442.486	446.56
442.707	391.56
442.928	350.56
443.149	372.56
443.371	398.56
443.592	393.56
443.813	465.56
444.034	471.56
444.255	400.56
444.476	366.56
444.698	357.56
444.919	367.56
445.14	474.56
445.361	400.56
445.582	372.56
445.803	411.56
446.024	469.56
446.245	472.56
446.466	436.56
446.687	374.56
446.908	364.56
447.129	338.56
447.35	320.56
447.571	330.56
447.792	333.56
448.013	338.56
448.234	334.56
448.455	365.56
448.675	458.56
448.896	516.56
449.117	433.56
449.338	412.56
449.559	476.56
449.779	536.56
450	419.56
450.221	348.56
450.442	356.56
450.662	349.56
450.883	323.56
451.104	334.56
451.324	336.56
451.545	315.56
451.766	317.56
451.986	299.56
452.207	294.56
452.428	311.56
452.648	312.56
452.869	305.56
453.089	299.56
453.31	311.56
453.53	296.56
453.751	287.56
453.971	314.56
454.192	306.56
454.412	292.56
454.633	290.56
454.853	289.56
455.073	298.56
455.294	310.56
455.514	357.56
455.734	347.56
455.955	320.56
456.175	286.56
456.395	291.56
456.616	300.56
456.836	292.56
457.056	280.56
457.276	297.56
457.497	284.56
457.717	268.56
457.937	291.56
458.157	278.56
458.377	292.56
458.598	300.56
458.818	337.56
459.038	381.56
459.258	380.56
459.478	332.56
459.698	317.56
459.918	314.56
460.138	321.56
460.358	314.56
460.578	314.56
460.798	330.56
461.018	311.56
461.238	308.56
461.458	324.56
461.678	333.56
461.898	317.56
462.118	332.56
462.338	349.56
462.558	335.56
462.777	334.56
462.997	363.56
463.217	344.56
463.437	367.56
463.657	353.56
463.876	362.56
464.096	353.56
464.316	330.56
464.536	334.56
464.755	349.56
464.975	331.56
465.195	370.56
465.414	396.56
465.634	348.56
465.854	340.56
466.073	329.56
466.293	319.56
466.512	312.56
466.732	329.56
466.951	301.56
467.171	325.56
467.391	309.56
467.61	313.56
467.829	301.56
468.049	318.56
468.268	326.56
468.488	330.56
468.707	316.56
468.927	336.56
469.146	298.56
469.365	313.56
469.585	301.56
469.804	335.56
470.023	299.56
470.243	326.56
470.462	337.56
470.681	326.56
470.901	301.56
471.12	319.56
471.339	333.56
471.558	319.56
471.777	316.56
471.997	298.56
472.216	330.56
472.435	327.56
472.654	334.56
472.873	311.56
473.092	314.56
473.311	305.56
473.53	312.56
473.749	312.56
473.968	361.56
474.187	390.56
474.406	410.56
474.625	361.56
474.844	345.56
475.063	345.56
475.282	312.56
475.501	329.56
475.72	338.56
475.939	330.56
476.158	324.56
476.377	334.56
476.596	308.56
476.814	340.56
477.033	337.56
477.252	341.56
477.471	331.56
477.69	334.56
477.908	337.56
478.127	363.56
478.346	372.56
478.564	346.56
478.783	362.56
479.002	363.56
479.22	389.56
479.439	356.56
479.658	384.56
479.876	384.56
480.095	377.56
480.313	397.56
480.532	374.56
480.751	374.56
480.969	396.56
481.188	421.56
481.406	439.56
481.624	389.56
481.843	397.56
482.061	364.56
482.28	374.56
482.498	371.56
482.717	370.56
482.935	373.56
483.153	388.56
483.372	377.56
483.59	385.56
483.808	381.56
484.027	365.56
484.245	375.56
484.463	376.56
484.681	389.56
484.9	387.56
485.118	365.56
485.336	390.56
485.554	390.56
485.772	390.56
485.99	387.56
486.209	405.56
486.427	389.56
486.645	397.56
486.863	406.56
487.081	402.56
487.299	394.56
487.517	396.56
487.735	387.56
487.953	391.56
488.171	402.56
488.389	401.56
488.607	388.56
488.825	396.56
489.043	392.56
489.261	401.56
489.479	419.56
489.696	392.56
489.914	402.56
490.132	400.56
490.35	405.56
490.568	434.56
490.786	433.56
491.003	399.56
491.221	418.56
491.439	409.56
491.657	429.56
491.874	446.56
492.092	450.56
492.31	449.56
492.527	432.56
492.745	458.56
492.963	446.56
493.18	453.56
493.398	453.56
493.615	444.56
493.833	460.56
494.05	450.56
494.268	451.56
494.485	448.56
494.703	453.56
494.92	428.56
495.138	430.56
495.355	473.56
495.573	476.56
495.79	452.56
496.008	468.56
496.225	458.56
496.442	479.56
496.66	467.56
496.877	459.56
497.094	469.56
497.312	487.56
497.529	481.56
497.746	493.56
497.963	481.56
498.181	511.56
498.398	501.56
498.615	521.56
498.832	522.56
499.049	530.56
499.267	550.56
499.484	554.56
499.701	580.56
499.918	597.56
500.135	603.56
500.352	624.56
500.569	632.56
500.786	624.56
501.003	617.56
501.22	612.56
501.437	570.56
501.654	588.56
501.871	573.56
502.088	564.56
502.305	554.56
502.522	536.56
