Data from 1961.PennyLincolnUp.Lamp.En5.5.200Scan.071719.P1._HRD10591_13-46-58-057.txt Node
Date: Thu Jul 18 13:46:58 EDT 2019
User: cochatt
Spectrometer: HR+D1059
Trigger mode: 1
Integration Time (sec): 1.000000E-1
Scans to average: 1
Electric dark correction enabled: true
Nonlinearity correction enabled: false
Boxcar width: 0
XAxis mode: Wavelengths
Number of Pixels in Spectrum: 2048
>>>>>Begin Spectral Data<<<<<
223.165	-12.81
223.4	-12.81
223.635	-12.81
223.869	-21.81
224.104	-21.81
224.338	-19.81
224.573	-4.81
224.808	-8.81
225.042	-0.81
225.277	-7.81
225.511	1.19
225.746	-6.81
225.98	3.19
226.215	12.19
226.449	14.19
226.683	24.19
226.918	25.19
227.152	25.19
227.387	36.19
227.621	42.19
227.856	54.19
228.09	42.19
228.324	53.19
228.559	51.19
228.793	61.19
229.027	86.19
229.262	95.19
229.496	110.19
229.73	120.19
229.964	123.19
230.199	115.19
230.433	98.19
230.667	90.19
230.901	102.19
231.136	101.19
231.37	109.19
231.604	115.19
231.838	120.19
232.072	114.19
232.306	98.19
232.541	100.19
232.775	100.19
233.009	107.19
233.243	108.19
233.477	96.19
233.711	115.19
233.945	114.19
234.179	101.19
234.413	117.19
234.647	112.19
234.881	104.19
235.115	111.19
235.349	101.19
235.583	107.19
235.817	121.19
236.051	121.19
236.285	117.19
236.519	110.19
236.753	122.19
236.987	138.19
237.221	163.19
237.455	200.19
237.689	151.19
237.922	95.19
238.156	114.19
238.39	118.19
238.624	116.19
238.858	105.19
239.091	113.19
239.325	116.19
239.559	106.19
239.793	104.19
240.027	113.19
240.26	122.19
240.494	120.19
240.728	131.19
240.961	120.19
241.195	123.19
241.429	109.19
241.662	121.19
241.896	107.19
242.13	131.19
242.363	121.19
242.597	120.19
242.83	119.19
243.064	108.19
243.298	130.19
243.531	134.19
243.765	133.19
243.998	121.19
244.232	133.19
244.465	125.19
244.699	126.19
244.932	123.19
245.166	119.19
245.399	125.19
245.633	130.19
245.866	125.19
246.099	119.19
246.333	118.19
246.566	132.19
246.8	115.19
247.033	131.19
247.266	121.19
247.5	140.19
247.733	128.19
247.966	158.19
248.2	137.19
248.433	138.19
248.666	154.19
248.899	173.19
249.133	151.19
249.366	181.19
249.599	177.19
249.832	167.19
250.066	161.19
250.299	151.19
250.532	163.19
250.765	156.19
250.998	177.19
251.231	187.19
251.465	179.19
251.698	161.19
251.931	167.19
252.164	165.19
252.397	156.19
252.63	165.19
252.863	174.19
253.096	180.19
253.329	173.19
253.562	177.19
253.795	178.19
254.028	173.19
254.261	174.19
254.494	182.19
254.727	221.19
254.96	237.19
255.193	207.19
255.426	197.19
255.659	197.19
255.892	187.19
256.124	172.19
256.357	196.19
256.59	182.19
256.823	179.19
257.056	187.19
257.289	168.19
257.521	177.19
257.754	171.19
257.987	167.19
258.22	179.19
258.452	176.19
258.685	182.19
258.918	162.19
259.151	157.19
259.383	173.19
259.616	174.19
259.849	181.19
260.081	183.19
260.314	197.19
260.547	200.19
260.779	186.19
261.012	202.19
261.244	177.19
261.477	181.19
261.71	187.19
261.942	186.19
262.175	187.19
262.407	172.19
262.64	171.19
262.872	170.19
263.105	173.19
263.337	164.19
263.57	164.19
263.802	180.19
264.035	167.19
264.267	173.19
264.499	172.19
264.732	170.19
264.964	151.19
265.197	165.19
265.429	178.19
265.661	190.19
265.894	174.19
266.126	177.19
266.358	175.19
266.591	179.19
266.823	181.19
267.055	175.19
267.287	169.19
267.52	189.19
267.752	186.19
267.984	184.19
268.216	194.19
268.448	191.19
268.681	185.19
268.913	186.19
269.145	202.19
269.377	228.19
269.609	217.19
269.841	206.19
270.073	216.19
270.306	222.19
270.538	234.19
270.77	245.19
271.002	224.19
271.234	221.19
271.466	228.19
271.698	239.19
271.93	245.19
272.162	224.19
272.394	251.19
272.626	222.19
272.858	216.19
273.09	236.19
273.322	229.19
273.553	196.19
273.785	223.19
274.017	203.19
274.249	202.19
274.481	210.19
274.713	198.19
274.945	207.19
275.176	206.19
275.408	221.19
275.64	214.19
275.872	220.19
276.104	202.19
276.335	202.19
276.567	206.19
276.799	241.19
277.031	244.19
277.262	232.19
277.494	218.19
277.726	235.19
277.957	220.19
278.189	211.19
278.421	206.19
278.652	215.19
278.884	218.19
279.115	198.19
279.347	216.19
279.579	195.19
279.81	202.19
280.042	218.19
280.273	211.19
280.505	207.19
280.736	211.19
280.968	206.19
281.199	211.19
281.431	213.19
281.662	206.19
281.894	227.19
282.125	201.19
282.356	216.19
282.588	241.19
282.819	251.19
283.051	218.19
283.282	209.19
283.513	214.19
283.745	198.19
283.976	210.19
284.207	233.19
284.439	221.19
284.67	209.19
284.901	218.19
285.132	218.19
285.364	218.19
285.595	200.19
285.826	201.19
286.057	214.19
286.288	203.19
286.52	195.19
286.751	207.19
286.982	208.19
287.213	214.19
287.444	213.19
287.675	226.19
287.906	228.19
288.138	223.19
288.369	235.19
288.6	241.19
288.831	231.19
289.062	227.19
289.293	215.19
289.524	215.19
289.755	222.19
289.986	227.19
290.217	218.19
290.448	216.19
290.679	225.19
290.91	229.19
291.141	232.19
291.371	223.19
291.602	220.19
291.833	217.19
292.064	226.19
292.295	235.19
292.526	222.19
292.757	231.19
292.987	231.19
293.218	206.19
293.449	223.19
293.68	223.19
293.91	214.19
294.141	223.19
294.372	221.19
294.603	221.19
294.833	216.19
295.064	197.19
295.295	226.19
295.525	217.19
295.756	232.19
295.987	225.19
296.217	247.19
296.448	257.19
296.679	240.19
296.909	221.19
297.14	228.19
297.37	224.19
297.601	223.19
297.831	225.19
298.062	235.19
298.292	249.19
298.523	239.19
298.753	234.19
298.984	247.19
299.214	236.19
299.445	232.19
299.675	227.19
299.905	247.19
300.136	245.19
300.366	259.19
300.597	223.19
300.827	248.19
301.057	254.19
301.288	265.19
301.518	270.19
301.748	251.19
301.979	238.19
302.209	259.19
302.439	260.19
302.669	249.19
302.9	271.19
303.13	245.19
303.36	245.19
303.59	249.19
303.82	255.19
304.051	255.19
304.281	241.19
304.511	267.19
304.741	248.19
304.971	253.19
305.201	254.19
305.431	245.19
305.661	255.19
305.891	250.19
306.121	256.19
306.352	252.19
306.582	258.19
306.812	255.19
307.042	243.19
307.272	261.19
307.502	262.19
307.731	253.19
307.961	253.19
308.191	231.19
308.421	255.19
308.651	223.19
308.881	248.19
309.111	264.19
309.341	269.19
309.571	279.19
309.8	264.19
310.03	290.19
310.26	315.19
310.49	292.19
310.72	283.19
310.949	301.19
311.179	314.19
311.409	297.19
311.639	290.19
311.868	292.19
312.098	311.19
312.328	300.19
312.557	307.19
312.787	321.19
313.017	339.19
313.246	309.19
313.476	291.19
313.706	278.19
313.935	309.19
314.165	276.19
314.394	318.19
314.624	299.19
314.853	302.19
315.083	298.19
315.312	282.19
315.542	273.19
315.771	303.19
316.001	305.19
316.23	298.19
316.46	288.19
316.689	297.19
316.919	323.19
317.148	292.19
317.377	295.19
317.607	311.19
317.836	294.19
318.065	300.19
318.295	285.19
318.524	289.19
318.753	278.19
318.983	298.19
319.212	311.19
319.441	311.19
319.67	297.19
319.9	313.19
320.129	302.19
320.358	311.19
320.587	308.19
320.816	305.19
321.046	326.19
321.275	314.19
321.504	321.19
321.733	310.19
321.962	331.19
322.191	336.19
322.42	335.19
322.649	369.19
322.878	372.19
323.108	362.19
323.337	393.19
323.566	398.19
323.795	422.19
324.024	474.19
324.253	595.19
324.482	862.19
324.71	1322.19
324.939	1799.19
325.168	1531.19
325.397	804.19
325.626	552.19
325.855	453.19
326.084	413.19
326.313	412.19
326.542	417.19
326.77	444.19
326.999	539.19
327.228	757.19
327.457	1150.19
327.686	1389.19
327.914	907.19
328.143	606.19
328.372	527.19
328.6	492.19
328.829	487.19
329.058	473.19
329.287	480.19
329.515	435.19
329.744	408.19
329.972	401.19
330.201	423.19
330.43	473.19
330.658	498.19
330.887	498.19
331.115	477.19
331.344	408.19
331.572	387.19
331.801	383.19
332.03	358.19
332.258	375.19
332.486	365.19
332.715	348.19
332.943	338.19
333.172	367.19
333.4	359.19
333.629	344.19
333.857	365.19
334.085	365.19
334.314	390.19
334.542	416.19
334.771	444.19
334.999	389.19
335.227	363.19
335.455	348.19
335.684	359.19
335.912	337.19
336.14	332.19
336.369	326.19
336.597	340.19
336.825	359.19
337.053	341.19
337.281	337.19
337.51	330.19
337.738	345.19
337.966	334.19
338.194	345.19
338.422	354.19
338.65	335.19
338.878	326.19
339.106	313.19
339.334	316.19
339.562	329.19
339.79	338.19
340.018	311.19
340.246	324.19
340.474	335.19
340.702	346.19
340.93	324.19
341.158	317.19
341.386	329.19
341.614	331.19
341.842	341.19
342.07	321.19
342.298	337.19
342.526	322.19
342.754	317.19
342.981	317.19
343.209	320.19
343.437	309.19
343.665	323.19
343.893	320.19
344.12	328.19
344.348	340.19
344.576	342.19
344.804	346.19
345.031	348.19
345.259	332.19
345.487	338.19
345.714	345.19
345.942	341.19
346.17	318.19
346.397	332.19
346.625	336.19
346.853	318.19
347.08	332.19
347.308	333.19
347.535	325.19
347.763	325.19
347.99	342.19
348.218	319.19
348.445	343.19
348.673	331.19
348.9	319.19
349.128	297.19
349.355	317.19
349.583	315.19
349.81	300.19
350.037	287.19
350.265	326.19
350.492	321.19
350.72	312.19
350.947	319.19
351.174	327.19
351.402	334.19
351.629	338.19
351.856	326.19
352.083	330.19
352.311	341.19
352.538	331.19
352.765	346.19
352.992	352.19
353.22	316.19
353.447	322.19
353.674	329.19
353.901	323.19
354.128	313.19
354.355	301.19
354.583	318.19
354.81	313.19
355.037	318.19
355.264	289.19
355.491	280.19
355.718	285.19
355.945	304.19
356.172	298.19
356.399	295.19
356.626	301.19
356.853	305.19
357.08	297.19
357.307	277.19
357.534	307.19
357.761	312.19
357.988	317.19
358.215	298.19
358.441	280.19
358.668	293.19
358.895	327.19
359.122	321.19
359.349	299.19
359.576	327.19
359.802	344.19
360.029	370.19
360.256	389.19
360.483	364.19
360.709	341.19
360.936	313.19
361.163	310.19
361.39	324.19
361.616	336.19
361.843	314.19
362.07	341.19
362.296	325.19
362.523	333.19
362.749	309.19
362.976	298.19
363.203	317.19
363.429	313.19
363.656	327.19
363.882	291.19
364.109	318.19
364.335	303.19
364.562	305.19
364.788	299.19
365.015	309.19
365.241	324.19
365.468	302.19
365.694	299.19
365.92	312.19
366.147	306.19
366.373	297.19
366.599	293.19
366.826	321.19
367.052	307.19
367.278	317.19
367.505	302.19
367.731	302.19
367.957	307.19
368.184	307.19
368.41	315.19
368.636	319.19
368.862	327.19
369.089	309.19
369.315	307.19
369.541	303.19
369.767	309.19
369.993	311.19
370.219	310.19
370.445	309.19
370.672	307.19
370.898	312.19
371.124	303.19
371.35	304.19
371.576	301.19
371.802	305.19
372.028	323.19
372.254	291.19
372.48	293.19
372.706	309.19
372.932	311.19
373.158	296.19
373.384	299.19
373.61	320.19
373.835	299.19
374.061	305.19
374.287	326.19
374.513	310.19
374.739	314.19
374.965	316.19
375.191	305.19
375.416	307.19
375.642	312.19
375.868	309.19
376.094	307.19
376.319	299.19
376.545	314.19
376.771	311.19
376.997	317.19
377.222	310.19
377.448	296.19
377.674	297.19
377.899	303.19
378.125	296.19
378.35	316.19
378.576	295.19
378.802	307.19
379.027	298.19
379.253	309.19
379.478	315.19
379.704	309.19
379.929	311.19
380.155	321.19
380.38	307.19
380.606	302.19
380.831	313.19
381.057	323.19
381.282	297.19
381.507	318.19
381.733	297.19
381.958	307.19
382.184	302.19
382.409	296.19
382.634	298.19
382.86	319.19
383.085	309.19
383.31	302.19
383.535	335.19
383.761	303.19
383.986	303.19
384.211	320.19
384.436	318.19
384.662	331.19
384.887	340.19
385.112	323.19
385.337	317.19
385.562	323.19
385.787	332.19
386.013	363.19
386.238	348.19
386.463	330.19
386.688	345.19
386.913	324.19
387.138	318.19
387.363	339.19
387.588	334.19
387.813	325.19
388.038	321.19
388.263	328.19
388.488	325.19
388.713	333.19
388.938	323.19
389.163	335.19
389.387	359.19
389.612	331.19
389.837	321.19
390.062	325.19
390.287	326.19
390.512	325.19
390.736	347.19
390.961	318.19
391.186	309.19
391.411	332.19
391.636	319.19
391.86	333.19
392.085	335.19
392.31	328.19
392.534	334.19
392.759	330.19
392.984	335.19
393.208	325.19
393.433	343.19
393.658	340.19
393.882	337.19
394.107	325.19
394.331	332.19
394.556	330.19
394.78	335.19
395.005	341.19
395.229	328.19
395.454	341.19
395.678	343.19
395.903	366.19
396.127	365.19
396.352	379.19
396.576	363.19
396.801	343.19
397.025	366.19
397.249	349.19
397.474	345.19
397.698	360.19
397.922	367.19
398.147	371.19
398.371	358.19
398.595	369.19
398.82	372.19
399.044	366.19
399.268	377.19
399.492	403.19
399.717	401.19
399.941	419.19
400.165	454.19
400.389	461.19
400.613	421.19
400.837	395.19
401.062	381.19
401.286	379.19
401.51	380.19
401.734	375.19
401.958	371.19
402.182	370.19
402.406	378.19
402.63	378.19
402.854	371.19
403.078	371.19
403.302	389.19
403.526	378.19
403.75	373.19
403.974	389.19
404.198	396.19
404.422	382.19
404.645	394.19
404.869	400.19
405.093	445.19
405.317	451.19
405.541	473.19
405.765	437.19
405.988	411.19
406.212	417.19
406.436	442.19
406.66	461.19
406.883	444.19
407.107	437.19
407.331	466.19
407.555	527.19
407.778	521.19
408.002	470.19
408.226	437.19
408.449	436.19
408.673	415.19
408.896	461.19
409.12	481.19
409.344	428.19
409.567	413.19
409.791	395.19
410.014	397.19
410.238	382.19
410.461	406.19
410.685	414.19
410.908	413.19
411.132	433.19
411.355	469.19
411.578	424.19
411.802	395.19
412.025	383.19
412.249	387.19
412.472	410.19
412.695	448.19
412.919	458.19
413.142	416.19
413.365	379.19
413.589	381.19
413.812	390.19
414.035	391.19
414.258	382.19
414.482	378.19
414.705	364.19
414.928	393.19
415.151	353.19
415.374	384.19
415.597	376.19
415.821	377.19
416.044	363.19
416.267	354.19
416.49	383.19
416.713	376.19
416.936	366.19
417.159	367.19
417.382	369.19
417.605	382.19
417.828	377.19
418.051	390.19
418.274	369.19
418.497	383.19
418.72	377.19
418.943	369.19
419.166	376.19
419.389	391.19
419.611	400.19
419.834	364.19
420.057	384.19
420.28	410.19
420.503	373.19
420.726	374.19
420.948	402.19
421.171	427.19
421.394	452.19
421.617	412.19
421.839	389.19
422.062	381.19
422.285	402.19
422.507	448.19
422.73	516.19
422.953	479.19
423.175	438.19
423.398	391.19
423.621	392.19
423.843	400.19
424.066	416.19
424.288	422.19
424.511	435.19
424.733	493.19
424.956	518.19
425.178	513.19
425.401	511.19
425.623	499.19
425.846	447.19
426.068	440.19
426.291	437.19
426.513	437.19
426.735	438.19
426.958	472.19
427.18	515.19
427.402	602.19
427.625	691.19
427.847	600.19
428.069	535.19
428.292	477.19
428.514	451.19
428.736	400.19
428.958	408.19
429.181	406.19
429.403	379.19
429.625	379.19
429.847	427.19
430.069	493.19
430.292	484.19
430.514	411.19
430.736	415.19
430.958	398.19
431.18	380.19
431.402	382.19
431.624	377.19
431.846	354.19
432.068	349.19
432.29	388.19
432.512	371.19
432.734	387.19
432.956	353.19
433.178	393.19
433.4	379.19
433.622	374.19
433.844	374.19
434.066	370.19
434.287	374.19
434.509	364.19
434.731	391.19
434.953	403.19
435.175	394.19
435.397	410.19
435.618	425.19
435.84	458.19
436.062	525.19
436.284	558.19
436.505	481.19
436.727	459.19
436.949	429.19
437.17	409.19
437.392	410.19
437.614	399.19
437.835	454.19
438.057	509.19
438.278	581.19
438.5	575.19
438.721	645.19
438.943	600.19
439.165	472.19
439.386	432.19
439.608	421.19
439.829	439.19
440.05	464.19
440.272	498.19
440.493	476.19
440.715	441.19
440.936	418.19
441.158	406.19
441.379	426.19
441.6	424.19
441.822	421.19
442.043	448.19
442.264	517.19
442.486	569.19
442.707	461.19
442.928	457.19
443.149	460.19
443.371	454.19
443.592	490.19
443.813	582.19
444.034	598.19
444.255	498.19
444.476	446.19
444.698	435.19
444.919	421.19
445.14	503.19
445.361	463.19
445.582	474.19
445.803	503.19
446.024	575.19
446.245	607.19
446.466	568.19
446.687	479.19
446.908	438.19
447.129	407.19
447.35	404.19
447.571	410.19
447.792	418.19
448.013	409.19
448.234	412.19
448.455	465.19
448.675	552.19
448.896	631.19
449.117	539.19
449.338	518.19
449.559	596.19
449.779	644.19
450	531.19
450.221	449.19
450.442	422.19
450.662	393.19
450.883	404.19
451.104	402.19
451.324	414.19
451.545	390.19
451.766	391.19
451.986	373.19
452.207	350.19
452.428	353.19
452.648	366.19
452.869	352.19
453.089	381.19
453.31	376.19
453.53	367.19
453.751	366.19
453.971	365.19
454.192	380.19
454.412	360.19
454.633	374.19
454.853	385.19
455.073	376.19
455.294	385.19
455.514	422.19
455.734	414.19
455.955	367.19
456.175	361.19
456.395	340.19
456.616	323.19
456.836	350.19
457.056	344.19
457.276	331.19
457.497	318.19
457.717	333.19
457.937	342.19
458.157	349.19
458.377	362.19
458.598	396.19
458.818	427.19
459.038	487.19
459.258	487.19
459.478	425.19
459.698	409.19
459.918	395.19
460.138	388.19
460.358	393.19
460.578	391.19
460.798	364.19
461.018	373.19
461.238	375.19
461.458	387.19
461.678	377.19
461.898	379.19
462.118	369.19
462.338	382.19
462.558	379.19
462.777	381.19
462.997	409.19
463.217	407.19
463.437	406.19
463.657	392.19
463.876	373.19
464.096	396.19
464.316	405.19
464.536	400.19
464.755	403.19
464.975	395.19
465.195	454.19
465.414	512.19
465.634	450.19
465.854	428.19
466.073	401.19
466.293	375.19
466.512	379.19
466.732	381.19
466.951	346.19
467.171	374.19
467.391	365.19
467.61	375.19
467.829	401.19
468.049	393.19
468.268	385.19
468.488	379.19
468.707	343.19
468.927	350.19
469.146	347.19
469.365	350.19
469.585	365.19
469.804	367.19
470.023	370.19
470.243	369.19
470.462	381.19
470.681	389.19
470.901	392.19
471.12	379.19
471.339	373.19
471.558	386.19
471.777	386.19
471.997	380.19
472.216	385.19
472.435	425.19
472.654	417.19
472.873	382.19
473.092	362.19
473.311	368.19
473.53	382.19
473.749	409.19
473.968	439.19
474.187	502.19
474.406	522.19
474.625	417.19
474.844	391.19
475.063	387.19
475.282	390.19
475.501	378.19
475.72	388.19
475.939	391.19
476.158	389.19
476.377	389.19
476.596	403.19
476.814	421.19
477.033	410.19
477.252	395.19
477.471	402.19
477.69	389.19
477.908	377.19
478.127	423.19
478.346	381.19
478.564	418.19
478.783	411.19
479.002	421.19
479.22	429.19
479.439	440.19
479.658	447.19
479.876	477.19
480.095	461.19
480.313	459.19
480.532	461.19
480.751	469.19
480.969	467.19
481.188	517.19
481.406	562.19
481.624	481.19
481.843	458.19
482.061	455.19
482.28	435.19
482.498	455.19
482.717	445.19
482.935	441.19
483.153	439.19
483.372	445.19
483.59	428.19
483.808	433.19
484.027	454.19
484.245	458.19
484.463	450.19
484.681	472.19
484.9	455.19
485.118	447.19
485.336	445.19
485.554	453.19
485.772	458.19
485.99	466.19
486.209	479.19
486.427	453.19
486.645	467.19
486.863	486.19
487.081	476.19
487.299	469.19
487.517	476.19
487.735	464.19
487.953	481.19
488.171	474.19
488.389	457.19
488.607	472.19
488.825	471.19
489.043	481.19
489.261	464.19
489.479	470.19
489.696	469.19
489.914	483.19
490.132	492.19
490.35	502.19
490.568	489.19
490.786	490.19
491.003	503.19
491.221	513.19
491.439	490.19
491.657	549.19
491.874	526.19
492.092	528.19
492.31	550.19
492.527	507.19
492.745	543.19
492.963	556.19
493.18	542.19
493.398	543.19
493.615	532.19
493.833	559.19
494.05	563.19
494.268	528.19
494.485	535.19
494.703	543.19
494.92	536.19
495.138	561.19
495.355	543.19
495.573	571.19
495.79	543.19
496.008	569.19
496.225	580.19
496.442	559.19
496.66	573.19
496.877	572.19
497.094	543.19
497.312	580.19
497.529	577.19
497.746	575.19
497.963	590.19
498.181	574.19
498.398	598.19
498.615	603.19
498.832	600.19
499.049	625.19
499.267	646.19
499.484	646.19
499.701	670.19
499.918	669.19
500.135	679.19
500.352	715.19
500.569	697.19
500.786	708.19
501.003	705.19
501.22	706.19
501.437	694.19
501.654	701.19
501.871	670.19
502.088	657.19
