Data from 1961.PennyLincolnUp.Lamp.En5.5.200Scan.071719.P1._HRD10591_13-46-36-057.txt Node
Date: Thu Jul 18 13:46:36 EDT 2019
User: cochatt
Spectrometer: HR+D1059
Trigger mode: 1
Integration Time (sec): 1.000000E-1
Scans to average: 1
Electric dark correction enabled: true
Nonlinearity correction enabled: false
Boxcar width: 0
XAxis mode: Wavelengths
Number of Pixels in Spectrum: 2048
>>>>>Begin Spectral Data<<<<<
223.165	-12.06
223.4	-12.06
223.635	-12.06
223.869	-30.06
224.104	-17.06
224.338	-9.06
224.573	-10.06
224.808	-7.06
225.042	-9.06
225.277	1.94
225.511	-4.06
225.746	3.94
225.98	4.94
226.215	9.94
226.449	15.94
226.683	22.94
226.918	17.94
227.152	20.94
227.387	23.94
227.621	23.94
227.856	41.94
228.09	49.94
228.324	49.94
228.559	56.94
228.793	57.94
229.027	78.94
229.262	87.94
229.496	99.94
229.73	108.94
229.964	131.94
230.199	118.94
230.433	93.94
230.667	101.94
230.901	100.94
231.136	101.94
231.37	98.94
231.604	112.94
231.838	104.94
232.072	105.94
232.306	97.94
232.541	104.94
232.775	103.94
233.009	98.94
233.243	110.94
233.477	104.94
233.711	91.94
233.945	107.94
234.179	89.94
234.413	102.94
234.647	104.94
234.881	108.94
235.115	102.94
235.349	121.94
235.583	117.94
235.817	99.94
236.051	106.94
236.285	89.94
236.519	110.94
236.753	104.94
236.987	116.94
237.221	145.94
237.455	165.94
237.689	124.94
237.922	109.94
238.156	113.94
238.39	102.94
238.624	97.94
238.858	104.94
239.091	102.94
239.325	96.94
239.559	106.94
239.793	101.94
240.027	123.94
240.26	122.94
240.494	126.94
240.728	122.94
240.961	122.94
241.195	120.94
241.429	122.94
241.662	114.94
241.896	113.94
242.13	101.94
242.363	117.94
242.597	120.94
242.83	110.94
243.064	117.94
243.298	113.94
243.531	101.94
243.765	102.94
243.998	120.94
244.232	106.94
244.465	100.94
244.699	116.94
244.932	115.94
245.166	112.94
245.399	118.94
245.633	112.94
245.866	109.94
246.099	127.94
246.333	118.94
246.566	120.94
246.8	115.94
247.033	121.94
247.266	120.94
247.5	136.94
247.733	125.94
247.966	124.94
248.2	131.94
248.433	126.94
248.666	133.94
248.899	143.94
249.133	150.94
249.366	160.94
249.599	157.94
249.832	133.94
250.066	152.94
250.299	147.94
250.532	169.94
250.765	167.94
250.998	165.94
251.231	174.94
251.465	159.94
251.698	159.94
251.931	163.94
252.164	146.94
252.397	143.94
252.63	151.94
252.863	178.94
253.096	161.94
253.329	161.94
253.562	161.94
253.795	170.94
254.028	162.94
254.261	161.94
254.494	167.94
254.727	193.94
254.96	190.94
255.193	191.94
255.426	162.94
255.659	177.94
255.892	168.94
256.124	175.94
256.357	177.94
256.59	169.94
256.823	143.94
257.056	165.94
257.289	157.94
257.521	145.94
257.754	151.94
257.987	158.94
258.22	167.94
258.452	163.94
258.685	150.94
258.918	151.94
259.151	153.94
259.383	165.94
259.616	161.94
259.849	142.94
260.081	166.94
260.314	163.94
260.547	175.94
260.779	185.94
261.012	168.94
261.244	175.94
261.477	177.94
261.71	170.94
261.942	183.94
262.175	177.94
262.407	162.94
262.64	168.94
262.872	175.94
263.105	161.94
263.337	173.94
263.57	157.94
263.802	158.94
264.035	147.94
264.267	161.94
264.499	159.94
264.732	170.94
264.964	164.94
265.197	177.94
265.429	149.94
265.661	153.94
265.894	173.94
266.126	157.94
266.358	154.94
266.591	160.94
266.823	164.94
267.055	170.94
267.287	164.94
267.52	174.94
267.752	165.94
267.984	186.94
268.216	163.94
268.448	189.94
268.681	201.94
268.913	183.94
269.145	176.94
269.377	188.94
269.609	187.94
269.841	181.94
270.073	197.94
270.306	197.94
270.538	224.94
270.77	221.94
271.002	212.94
271.234	206.94
271.466	201.94
271.698	215.94
271.93	210.94
272.162	214.94
272.394	214.94
272.626	216.94
272.858	203.94
273.09	202.94
273.322	201.94
273.553	196.94
273.785	196.94
274.017	197.94
274.249	208.94
274.481	196.94
274.713	189.94
274.945	201.94
275.176	187.94
275.408	187.94
275.64	194.94
275.872	166.94
276.104	189.94
276.335	196.94
276.567	208.94
276.799	191.94
277.031	214.94
277.262	207.94
277.494	224.94
277.726	224.94
277.957	198.94
278.189	207.94
278.421	189.94
278.652	210.94
278.884	209.94
279.115	194.94
279.347	192.94
279.579	186.94
279.81	183.94
280.042	201.94
280.273	223.94
280.505	201.94
280.736	195.94
280.968	194.94
281.199	183.94
281.431	187.94
281.662	204.94
281.894	193.94
282.125	188.94
282.356	207.94
282.588	209.94
282.819	230.94
283.051	195.94
283.282	185.94
283.513	197.94
283.745	200.94
283.976	216.94
284.207	200.94
284.439	200.94
284.67	191.94
284.901	192.94
285.132	201.94
285.364	193.94
285.595	202.94
285.826	210.94
286.057	207.94
286.288	209.94
286.52	191.94
286.751	193.94
286.982	195.94
287.213	207.94
287.444	183.94
287.675	190.94
287.906	218.94
288.138	212.94
288.369	231.94
288.6	229.94
288.831	226.94
289.062	202.94
289.293	205.94
289.524	199.94
289.755	190.94
289.986	214.94
290.217	195.94
290.448	210.94
290.679	210.94
290.91	209.94
291.141	195.94
291.371	206.94
291.602	216.94
291.833	211.94
292.064	195.94
292.295	195.94
292.526	205.94
292.757	203.94
292.987	201.94
293.218	210.94
293.449	205.94
293.68	197.94
293.91	203.94
294.141	195.94
294.372	199.94
294.603	202.94
294.833	202.94
295.064	190.94
295.295	193.94
295.525	208.94
295.756	219.94
295.987	217.94
296.217	221.94
296.448	245.94
296.679	221.94
296.909	222.94
297.14	212.94
297.37	225.94
297.601	214.94
297.831	200.94
298.062	214.94
298.292	209.94
298.523	205.94
298.753	225.94
298.984	219.94
299.214	212.94
299.445	222.94
299.675	215.94
299.905	213.94
300.136	214.94
300.366	197.94
300.597	218.94
300.827	221.94
301.057	234.94
301.288	240.94
301.518	219.94
301.748	240.94
301.979	205.94
302.209	217.94
302.439	216.94
302.669	245.94
302.9	229.94
303.13	228.94
303.36	238.94
303.59	245.94
303.82	233.94
304.051	228.94
304.281	227.94
304.511	234.94
304.741	222.94
304.971	227.94
305.201	237.94
305.431	221.94
305.661	226.94
305.891	233.94
306.121	213.94
306.352	239.94
306.582	241.94
306.812	239.94
307.042	228.94
307.272	234.94
307.502	229.94
307.731	232.94
307.961	232.94
308.191	232.94
308.421	237.94
308.651	255.94
308.881	252.94
309.111	239.94
309.341	233.94
309.571	233.94
309.8	247.94
310.03	265.94
310.26	242.94
310.49	267.94
310.72	282.94
310.949	281.94
311.179	290.94
311.409	267.94
311.639	250.94
311.868	276.94
312.098	275.94
312.328	257.94
312.557	273.94
312.787	273.94
313.017	269.94
313.246	278.94
313.476	273.94
313.706	273.94
313.935	286.94
314.165	268.94
314.394	286.94
314.624	274.94
314.853	276.94
315.083	273.94
315.312	286.94
315.542	270.94
315.771	272.94
316.001	266.94
316.23	249.94
316.46	264.94
316.689	261.94
316.919	254.94
317.148	262.94
317.377	287.94
317.607	268.94
317.836	277.94
318.065	260.94
318.295	257.94
318.524	260.94
318.753	269.94
318.983	271.94
319.212	287.94
319.441	252.94
319.67	274.94
319.9	269.94
320.129	282.94
320.358	272.94
320.587	270.94
320.816	286.94
321.046	272.94
321.275	293.94
321.504	279.94
321.733	286.94
321.962	285.94
322.191	303.94
322.42	294.94
322.649	311.94
322.878	308.94
323.108	327.94
323.337	322.94
323.566	370.94
323.795	394.94
324.024	406.94
324.253	483.94
324.482	722.94
324.71	1081.94
324.939	1494.94
325.168	1268.94
325.397	673.94
325.626	477.94
325.855	404.94
326.084	367.94
326.313	354.94
326.542	354.94
326.77	386.94
326.999	466.94
327.228	636.94
327.457	955.94
327.686	1111.94
327.914	739.94
328.143	524.94
328.372	458.94
328.6	454.94
328.829	381.94
329.058	417.94
329.287	402.94
329.515	395.94
329.744	373.94
329.972	339.94
330.201	381.94
330.43	415.94
330.658	430.94
330.887	396.94
331.115	406.94
331.344	362.94
331.572	349.94
331.801	332.94
332.03	330.94
332.258	335.94
332.486	298.94
332.715	313.94
332.943	336.94
333.172	314.94
333.4	315.94
333.629	315.94
333.857	342.94
334.085	334.94
334.314	360.94
334.542	385.94
334.771	379.94
334.999	357.94
335.227	321.94
335.455	323.94
335.684	322.94
335.912	332.94
336.14	306.94
336.369	313.94
336.597	315.94
336.825	317.94
337.053	302.94
337.281	317.94
337.51	302.94
337.738	331.94
337.966	296.94
338.194	318.94
338.422	316.94
338.65	310.94
338.878	305.94
339.106	301.94
339.334	315.94
339.562	313.94
339.79	294.94
340.018	309.94
340.246	309.94
340.474	297.94
340.702	298.94
340.93	308.94
341.158	290.94
341.386	306.94
341.614	313.94
341.842	304.94
342.07	298.94
342.298	306.94
342.526	300.94
342.754	303.94
342.981	285.94
343.209	270.94
343.437	291.94
343.665	314.94
343.893	309.94
344.12	305.94
344.348	298.94
344.576	298.94
344.804	321.94
345.031	315.94
345.259	330.94
345.487	319.94
345.714	306.94
345.942	305.94
346.17	315.94
346.397	301.94
346.625	290.94
346.853	291.94
347.08	301.94
347.308	295.94
347.535	316.94
347.763	316.94
347.99	308.94
348.218	310.94
348.445	302.94
348.673	304.94
348.9	313.94
349.128	285.94
349.355	289.94
349.583	281.94
349.81	287.94
350.037	308.94
350.265	295.94
350.492	278.94
350.72	276.94
350.947	287.94
351.174	291.94
351.402	296.94
351.629	301.94
351.856	319.94
352.083	306.94
352.311	289.94
352.538	307.94
352.765	318.94
352.992	315.94
353.22	305.94
353.447	288.94
353.674	282.94
353.901	281.94
354.128	293.94
354.355	288.94
354.583	288.94
354.81	279.94
355.037	273.94
355.264	294.94
355.491	251.94
355.718	280.94
355.945	256.94
356.172	279.94
356.399	274.94
356.626	266.94
356.853	275.94
357.08	280.94
357.307	261.94
357.534	263.94
357.761	282.94
357.988	282.94
358.215	292.94
358.441	277.94
358.668	277.94
358.895	263.94
359.122	287.94
359.349	304.94
359.576	303.94
359.802	298.94
360.029	317.94
360.256	329.94
360.483	324.94
360.709	295.94
360.936	291.94
361.163	321.94
361.39	288.94
361.616	301.94
361.843	301.94
362.07	278.94
362.296	299.94
362.523	307.94
362.749	281.94
362.976	292.94
363.203	282.94
363.429	277.94
363.656	288.94
363.882	283.94
364.109	288.94
364.335	294.94
364.562	289.94
364.788	279.94
365.015	291.94
365.241	276.94
365.468	294.94
365.694	303.94
365.92	299.94
366.147	275.94
366.373	285.94
366.599	268.94
366.826	279.94
367.052	273.94
367.278	273.94
367.505	287.94
367.731	282.94
367.957	294.94
368.184	280.94
368.41	284.94
368.636	295.94
368.862	301.94
369.089	297.94
369.315	286.94
369.541	281.94
369.767	295.94
369.993	290.94
370.219	282.94
370.445	293.94
370.672	292.94
370.898	282.94
371.124	281.94
371.35	277.94
371.576	294.94
371.802	286.94
372.028	281.94
372.254	298.94
372.48	275.94
372.706	291.94
372.932	294.94
373.158	294.94
373.384	299.94
373.61	301.94
373.835	296.94
374.061	282.94
374.287	276.94
374.513	284.94
374.739	298.94
374.965	309.94
375.191	289.94
375.416	298.94
375.642	302.94
375.868	285.94
376.094	283.94
376.319	280.94
376.545	306.94
376.771	310.94
376.997	256.94
377.222	276.94
377.448	287.94
377.674	291.94
377.899	303.94
378.125	275.94
378.35	294.94
378.576	285.94
378.802	294.94
379.027	268.94
379.253	275.94
379.478	265.94
379.704	290.94
379.929	297.94
380.155	296.94
380.38	289.94
380.606	288.94
380.831	281.94
381.057	283.94
381.282	297.94
381.507	273.94
381.733	297.94
381.958	297.94
382.184	304.94
382.409	277.94
382.634	295.94
382.86	278.94
383.085	282.94
383.31	290.94
383.535	286.94
383.761	268.94
383.986	303.94
384.211	285.94
384.436	302.94
384.662	307.94
384.887	294.94
385.112	306.94
385.337	326.94
385.562	335.94
385.787	303.94
386.013	313.94
386.238	296.94
386.463	307.94
386.688	327.94
386.913	309.94
387.138	295.94
387.363	315.94
387.588	322.94
387.813	310.94
388.038	330.94
388.263	295.94
388.488	306.94
388.713	339.94
388.938	317.94
389.163	317.94
389.387	304.94
389.612	310.94
389.837	306.94
390.062	308.94
390.287	338.94
390.512	320.94
390.736	325.94
390.961	305.94
391.186	291.94
391.411	320.94
391.636	306.94
391.86	325.94
392.085	306.94
392.31	310.94
392.534	328.94
392.759	322.94
392.984	304.94
393.208	324.94
393.433	328.94
393.658	321.94
393.882	313.94
394.107	315.94
394.331	311.94
394.556	313.94
394.78	308.94
395.005	314.94
395.229	315.94
395.454	323.94
395.678	322.94
395.903	328.94
396.127	334.94
396.352	329.94
396.576	338.94
396.801	328.94
397.025	323.94
397.249	347.94
397.474	315.94
397.698	329.94
397.922	325.94
398.147	350.94
398.371	351.94
398.595	352.94
398.82	347.94
399.044	361.94
399.268	362.94
399.492	367.94
399.717	395.94
399.941	403.94
400.165	423.94
400.389	431.94
400.613	421.94
400.837	387.94
401.062	358.94
401.286	354.94
401.51	372.94
401.734	349.94
401.958	347.94
402.182	350.94
402.406	365.94
402.63	370.94
402.854	361.94
403.078	355.94
403.302	340.94
403.526	360.94
403.75	361.94
403.974	366.94
404.198	369.94
404.422	363.94
404.645	367.94
404.869	383.94
405.093	394.94
405.317	414.94
405.541	431.94
405.765	403.94
405.988	392.94
406.212	403.94
406.436	407.94
406.66	433.94
406.883	403.94
407.107	416.94
407.331	413.94
407.555	455.94
407.778	479.94
408.002	435.94
408.226	427.94
408.449	417.94
408.673	407.94
408.896	413.94
409.12	433.94
409.344	435.94
409.567	390.94
409.791	373.94
410.014	378.94
410.238	367.94
410.461	371.94
410.685	372.94
410.908	382.94
411.132	422.94
411.355	454.94
411.578	422.94
411.802	393.94
412.025	359.94
412.249	373.94
412.472	410.94
412.695	425.94
412.919	392.94
413.142	391.94
413.365	358.94
413.589	369.94
413.812	352.94
414.035	360.94
414.258	372.94
414.482	343.94
414.705	348.94
414.928	353.94
415.151	363.94
415.374	349.94
415.597	356.94
415.821	353.94
416.044	370.94
416.267	362.94
416.49	333.94
416.713	345.94
416.936	338.94
417.159	349.94
417.382	324.94
417.605	347.94
417.828	376.94
418.051	346.94
418.274	342.94
418.497	351.94
418.72	344.94
418.943	341.94
419.166	359.94
419.389	370.94
419.611	351.94
419.834	389.94
420.057	372.94
420.28	358.94
420.503	365.94
420.726	342.94
420.948	353.94
421.171	402.94
421.394	403.94
421.617	395.94
421.839	375.94
422.062	374.94
422.285	354.94
422.507	415.94
422.73	466.94
422.953	429.94
423.175	412.94
423.398	385.94
423.621	363.94
423.843	375.94
424.066	385.94
424.288	386.94
424.511	411.94
424.733	444.94
424.956	492.94
425.178	470.94
425.401	475.94
425.623	460.94
425.846	413.94
426.068	396.94
426.291	386.94
426.513	395.94
426.735	405.94
426.958	422.94
427.18	488.94
427.402	575.94
427.625	625.94
427.847	561.94
428.069	493.94
428.292	442.94
428.514	394.94
428.736	378.94
428.958	383.94
429.181	378.94
429.403	353.94
429.625	379.94
429.847	390.94
430.069	425.94
430.292	433.94
430.514	378.94
430.736	367.94
430.958	368.94
431.18	372.94
431.402	371.94
431.624	336.94
431.846	349.94
432.068	341.94
432.29	355.94
432.512	345.94
432.734	346.94
432.956	345.94
433.178	355.94
433.4	372.94
433.622	346.94
433.844	342.94
434.066	362.94
434.287	345.94
434.509	360.94
434.731	348.94
434.953	363.94
435.175	389.94
435.397	401.94
435.618	387.94
435.84	427.94
436.062	479.94
436.284	532.94
436.505	429.94
436.727	378.94
436.949	377.94
437.17	363.94
437.392	365.94
437.614	394.94
437.835	395.94
438.057	478.94
438.278	539.94
438.5	529.94
438.721	571.94
438.943	535.94
439.165	450.94
439.386	433.94
439.608	414.94
439.829	395.94
440.05	425.94
440.272	449.94
440.493	444.94
440.715	397.94
440.936	389.94
441.158	379.94
441.379	378.94
441.6	400.94
441.822	401.94
442.043	438.94
442.264	473.94
442.486	498.94
442.707	437.94
442.928	381.94
443.149	409.94
443.371	410.94
443.592	452.94
443.813	503.94
444.034	515.94
444.255	442.94
444.476	408.94
444.698	413.94
444.919	407.94
445.14	524.94
445.361	459.94
445.582	434.94
445.803	475.94
446.024	549.94
446.245	539.94
446.466	500.94
446.687	424.94
446.908	400.94
447.129	375.94
447.35	387.94
447.571	369.94
447.792	354.94
448.013	379.94
448.234	388.94
448.455	440.94
448.675	509.94
448.896	566.94
449.117	487.94
449.338	464.94
449.559	535.94
449.779	610.94
450	490.94
450.221	404.94
450.442	366.94
450.662	371.94
450.883	374.94
451.104	377.94
451.324	357.94
451.545	362.94
451.766	355.94
451.986	341.94
452.207	336.94
452.428	352.94
452.648	332.94
452.869	336.94
453.089	342.94
453.31	356.94
453.53	361.94
453.751	343.94
453.971	331.94
454.192	338.94
454.412	340.94
454.633	321.94
454.853	331.94
455.073	313.94
455.294	370.94
455.514	393.94
455.734	386.94
455.955	347.94
456.175	329.94
456.395	305.94
456.616	313.94
456.836	330.94
457.056	319.94
457.276	320.94
457.497	329.94
457.717	310.94
457.937	319.94
458.157	344.94
458.377	321.94
458.598	363.94
458.818	401.94
459.038	431.94
459.258	454.94
459.478	391.94
459.698	350.94
459.918	360.94
460.138	363.94
460.358	362.94
460.578	366.94
460.798	365.94
461.018	379.94
461.238	354.94
461.458	371.94
461.678	371.94
461.898	361.94
462.118	355.94
462.338	363.94
462.558	344.94
462.777	382.94
462.997	368.94
463.217	370.94
463.437	388.94
463.657	362.94
463.876	387.94
464.096	386.94
464.316	373.94
464.536	359.94
464.755	358.94
464.975	385.94
465.195	425.94
465.414	461.94
465.634	427.94
465.854	389.94
466.073	358.94
466.293	381.94
466.512	360.94
466.732	348.94
466.951	336.94
467.171	336.94
467.391	345.94
467.61	345.94
467.829	362.94
468.049	362.94
468.268	354.94
468.488	352.94
468.707	330.94
468.927	339.94
469.146	315.94
469.365	330.94
469.585	343.94
469.804	359.94
470.023	353.94
470.243	348.94
470.462	366.94
470.681	375.94
470.901	357.94
471.12	354.94
471.339	359.94
471.558	337.94
471.777	348.94
471.997	348.94
472.216	354.94
472.435	404.94
472.654	365.94
472.873	350.94
473.092	343.94
473.311	358.94
473.53	367.94
473.749	354.94
473.968	399.94
474.187	463.94
474.406	468.94
474.625	403.94
474.844	370.94
475.063	356.94
475.282	369.94
475.501	365.94
475.72	354.94
475.939	352.94
476.158	361.94
476.377	375.94
476.596	370.94
476.814	375.94
477.033	382.94
477.252	368.94
477.471	353.94
477.69	373.94
477.908	377.94
478.127	377.94
478.346	373.94
478.564	386.94
478.783	391.94
479.002	390.94
479.22	393.94
479.439	413.94
479.658	425.94
479.876	393.94
480.095	422.94
480.313	413.94
480.532	434.94
480.751	423.94
480.969	422.94
481.188	488.94
481.406	537.94
481.624	477.94
481.843	397.94
482.061	426.94
482.28	411.94
482.498	416.94
482.717	419.94
482.935	414.94
483.153	416.94
483.372	410.94
483.59	410.94
483.808	394.94
484.027	410.94
484.245	418.94
484.463	421.94
484.681	436.94
484.9	432.94
485.118	418.94
485.336	416.94
485.554	430.94
485.772	437.94
485.99	411.94
486.209	422.94
486.427	437.94
486.645	433.94
486.863	453.94
487.081	453.94
487.299	450.94
487.517	429.94
487.735	415.94
487.953	421.94
488.171	443.94
488.389	435.94
488.607	434.94
488.825	455.94
489.043	445.94
489.261	439.94
489.479	454.94
489.696	435.94
489.914	466.94
490.132	469.94
490.35	462.94
490.568	451.94
490.786	454.94
491.003	471.94
491.221	463.94
491.439	464.94
491.657	492.94
491.874	506.94
492.092	483.94
492.31	486.94
492.527	481.94
492.745	502.94
492.963	506.94
493.18	505.94
493.398	490.94
493.615	512.94
493.833	533.94
494.05	506.94
494.268	497.94
494.485	497.94
494.703	500.94
494.92	513.94
495.138	505.94
495.355	493.94
495.573	522.94
495.79	529.94
496.008	517.94
496.225	549.94
496.442	531.94
496.66	527.94
496.877	523.94
497.094	522.94
497.312	528.94
497.529	548.94
497.746	556.94
497.963	539.94
498.181	561.94
498.398	548.94
498.615	582.94
498.832	550.94
499.049	569.94
499.267	593.94
499.484	600.94
499.701	627.94
499.918	633.94
500.135	649.94
500.352	654.94
500.569	675.94
500.786	676.94
501.003	677.94
501.22	664.94
501.437	659.94
501.654	640.94
501.871	618.94
502.088	637.94
