Data from 1961.PennyLincolnUp.Lamp.En5.5.200Scan.071719.P1._HRD10591_13-47-27-058.txt Node
Date: Thu Jul 18 13:47:27 EDT 2019
User: cochatt
Spectrometer: HR+D1059
Trigger mode: 1
Integration Time (sec): 1.000000E-1
Scans to average: 1
Electric dark correction enabled: true
Nonlinearity correction enabled: false
Boxcar width: 0
XAxis mode: Wavelengths
Number of Pixels in Spectrum: 2048
>>>>>Begin Spectral Data<<<<<
223.165	-19.31
223.4	-19.31
223.635	-19.31
223.869	-11.31
224.104	-12.31
224.338	-16.31
224.573	-22.31
224.808	-13.31
225.042	-20.31
225.277	3.69
225.511	3.69
225.746	2.69
225.98	6.69
226.215	-3.31
226.449	9.69
226.683	24.69
226.918	31.69
227.152	35.69
227.387	32.69
227.621	43.69
227.856	55.69
228.09	51.69
228.324	40.69
228.559	49.69
228.793	75.69
229.027	103.69
229.262	100.69
229.496	109.69
229.73	129.69
229.964	126.69
230.199	112.69
230.433	108.69
230.667	124.69
230.901	106.69
231.136	111.69
231.37	93.69
231.604	103.69
231.838	102.69
232.072	109.69
232.306	95.69
232.541	103.69
232.775	101.69
233.009	113.69
233.243	88.69
233.477	111.69
233.711	118.69
233.945	118.69
234.179	100.69
234.413	104.69
234.647	108.69
234.881	113.69
235.115	98.69
235.349	118.69
235.583	113.69
235.817	109.69
236.051	113.69
236.285	111.69
236.519	104.69
236.753	121.69
236.987	135.69
237.221	166.69
237.455	200.69
237.689	157.69
237.922	138.69
238.156	121.69
238.39	119.69
238.624	124.69
238.858	115.69
239.091	115.69
239.325	113.69
239.559	108.69
239.793	113.69
240.027	116.69
240.26	119.69
240.494	134.69
240.728	135.69
240.961	131.69
241.195	140.69
241.429	118.69
241.662	115.69
241.896	108.69
242.13	131.69
242.363	106.69
242.597	121.69
242.83	114.69
243.064	134.69
243.298	120.69
243.531	124.69
243.765	127.69
243.998	121.69
244.232	127.69
244.465	117.69
244.699	131.69
244.932	136.69
245.166	136.69
245.399	117.69
245.633	133.69
245.866	136.69
246.099	128.69
246.333	122.69
246.566	137.69
246.8	144.69
247.033	124.69
247.266	139.69
247.5	135.69
247.733	142.69
247.966	140.69
248.2	138.69
248.433	128.69
248.666	147.69
248.899	155.69
249.133	157.69
249.366	173.69
249.599	166.69
249.832	151.69
250.066	168.69
250.299	159.69
250.532	166.69
250.765	177.69
250.998	173.69
251.231	182.69
251.465	184.69
251.698	187.69
251.931	163.69
252.164	172.69
252.397	171.69
252.63	166.69
252.863	166.69
253.096	188.69
253.329	175.69
253.562	187.69
253.795	169.69
254.028	196.69
254.261	178.69
254.494	187.69
254.727	203.69
254.96	212.69
255.193	210.69
255.426	184.69
255.659	183.69
255.892	188.69
256.124	204.69
256.357	203.69
256.59	181.69
256.823	188.69
257.056	165.69
257.289	194.69
257.521	182.69
257.754	176.69
257.987	176.69
258.22	172.69
258.452	151.69
258.685	183.69
258.918	163.69
259.151	172.69
259.383	199.69
259.616	198.69
259.849	193.69
260.081	189.69
260.314	200.69
260.547	192.69
260.779	212.69
261.012	191.69
261.244	188.69
261.477	189.69
261.71	203.69
261.942	182.69
262.175	186.69
262.407	183.69
262.64	184.69
262.872	185.69
263.105	184.69
263.337	180.69
263.57	180.69
263.802	177.69
264.035	178.69
264.267	170.69
264.499	170.69
264.732	160.69
264.964	176.69
265.197	169.69
265.429	184.69
265.661	167.69
265.894	199.69
266.126	177.69
266.358	166.69
266.591	163.69
266.823	181.69
267.055	181.69
267.287	194.69
267.52	178.69
267.752	190.69
267.984	189.69
268.216	183.69
268.448	204.69
268.681	199.69
268.913	197.69
269.145	212.69
269.377	210.69
269.609	212.69
269.841	217.69
270.073	209.69
270.306	220.69
270.538	238.69
270.77	235.69
271.002	247.69
271.234	240.69
271.466	231.69
271.698	235.69
271.93	265.69
272.162	259.69
272.394	252.69
272.626	233.69
272.858	214.69
273.09	232.69
273.322	221.69
273.553	213.69
273.785	220.69
274.017	219.69
274.249	214.69
274.481	212.69
274.713	194.69
274.945	208.69
275.176	224.69
275.408	223.69
275.64	212.69
275.872	236.69
276.104	216.69
276.335	198.69
276.567	222.69
276.799	220.69
277.031	222.69
277.262	243.69
277.494	265.69
277.726	232.69
277.957	221.69
278.189	210.69
278.421	243.69
278.652	223.69
278.884	219.69
279.115	195.69
279.347	211.69
279.579	212.69
279.81	212.69
280.042	214.69
280.273	209.69
280.505	217.69
280.736	212.69
280.968	195.69
281.199	203.69
281.431	207.69
281.662	227.69
281.894	206.69
282.125	215.69
282.356	234.69
282.588	244.69
282.819	273.69
283.051	203.69
283.282	221.69
283.513	225.69
283.745	203.69
283.976	213.69
284.207	214.69
284.439	218.69
284.67	214.69
284.901	223.69
285.132	202.69
285.364	211.69
285.595	219.69
285.826	202.69
286.057	209.69
286.288	211.69
286.52	223.69
286.751	212.69
286.982	215.69
287.213	220.69
287.444	225.69
287.675	221.69
287.906	229.69
288.138	243.69
288.369	229.69
288.6	235.69
288.831	220.69
289.062	254.69
289.293	221.69
289.524	231.69
289.755	240.69
289.986	215.69
290.217	228.69
290.448	227.69
290.679	226.69
290.91	214.69
291.141	205.69
291.371	232.69
291.602	216.69
291.833	218.69
292.064	211.69
292.295	205.69
292.526	237.69
292.757	209.69
292.987	221.69
293.218	214.69
293.449	204.69
293.68	221.69
293.91	204.69
294.141	230.69
294.372	225.69
294.603	235.69
294.833	229.69
295.064	230.69
295.295	225.69
295.525	232.69
295.756	222.69
295.987	231.69
296.217	243.69
296.448	257.69
296.679	230.69
296.909	218.69
297.14	218.69
297.37	231.69
297.601	210.69
297.831	214.69
298.062	237.69
298.292	251.69
298.523	228.69
298.753	244.69
298.984	232.69
299.214	229.69
299.445	227.69
299.675	240.69
299.905	225.69
300.136	235.69
300.366	263.69
300.597	230.69
300.827	228.69
301.057	239.69
301.288	240.69
301.518	266.69
301.748	227.69
301.979	259.69
302.209	259.69
302.439	264.69
302.669	265.69
302.9	244.69
303.13	239.69
303.36	246.69
303.59	243.69
303.82	261.69
304.051	251.69
304.281	250.69
304.511	260.69
304.741	261.69
304.971	259.69
305.201	247.69
305.431	262.69
305.661	256.69
305.891	253.69
306.121	258.69
306.352	249.69
306.582	248.69
306.812	255.69
307.042	249.69
307.272	263.69
307.502	259.69
307.731	286.69
307.961	257.69
308.191	260.69
308.421	248.69
308.651	251.69
308.881	277.69
309.111	274.69
309.341	268.69
309.571	270.69
309.8	291.69
310.03	294.69
310.26	277.69
310.49	288.69
310.72	305.69
310.949	306.69
311.179	321.69
311.409	312.69
311.639	298.69
311.868	313.69
312.098	306.69
312.328	319.69
312.557	312.69
312.787	324.69
313.017	327.69
313.246	313.69
313.476	308.69
313.706	307.69
313.935	305.69
314.165	288.69
314.394	303.69
314.624	329.69
314.853	303.69
315.083	290.69
315.312	307.69
315.542	287.69
315.771	284.69
316.001	306.69
316.23	303.69
316.46	289.69
316.689	304.69
316.919	315.69
317.148	304.69
317.377	307.69
317.607	293.69
317.836	297.69
318.065	291.69
318.295	287.69
318.524	294.69
318.753	285.69
318.983	297.69
319.212	313.69
319.441	311.69
319.67	323.69
319.9	305.69
320.129	311.69
320.358	307.69
320.587	293.69
320.816	321.69
321.046	323.69
321.275	337.69
321.504	312.69
321.733	315.69
321.962	337.69
322.191	347.69
322.42	346.69
322.649	375.69
322.878	382.69
323.108	385.69
323.337	403.69
323.566	414.69
323.795	446.69
324.024	499.69
324.253	620.69
324.482	909.69
324.71	1351.69
324.939	1972.69
325.168	1640.69
325.397	869.69
325.626	579.69
325.855	484.69
326.084	441.69
326.313	449.69
326.542	445.69
326.77	480.69
326.999	565.69
327.228	806.69
327.457	1181.69
327.686	1435.69
327.914	959.69
328.143	628.69
328.372	556.69
328.6	519.69
328.829	463.69
329.058	505.69
329.287	515.69
329.515	449.69
329.744	413.69
329.972	428.69
330.201	478.69
330.43	487.69
330.658	516.69
330.887	515.69
331.115	497.69
331.344	437.69
331.572	396.69
331.801	398.69
332.03	397.69
332.258	359.69
332.486	379.69
332.715	376.69
332.943	361.69
333.172	363.69
333.4	355.69
333.629	375.69
333.857	364.69
334.085	385.69
334.314	401.69
334.542	437.69
334.771	439.69
334.999	400.69
335.227	370.69
335.455	352.69
335.684	383.69
335.912	324.69
336.14	334.69
336.369	342.69
336.597	363.69
336.825	351.69
337.053	329.69
337.281	345.69
337.51	352.69
337.738	340.69
337.966	335.69
338.194	356.69
338.422	356.69
338.65	345.69
338.878	339.69
339.106	328.69
339.334	343.69
339.562	348.69
339.79	332.69
340.018	308.69
340.246	333.69
340.474	344.69
340.702	325.69
340.93	328.69
341.158	315.69
341.386	330.69
341.614	335.69
341.842	334.69
342.07	338.69
342.298	333.69
342.526	328.69
342.754	308.69
342.981	323.69
343.209	321.69
343.437	328.69
343.665	295.69
343.893	301.69
344.12	340.69
344.348	325.69
344.576	337.69
344.804	330.69
345.031	351.69
345.259	363.69
345.487	348.69
345.714	356.69
345.942	339.69
346.17	325.69
346.397	292.69
346.625	347.69
346.853	305.69
347.08	325.69
347.308	335.69
347.535	315.69
347.763	339.69
347.99	343.69
348.218	349.69
348.445	336.69
348.673	352.69
348.9	331.69
349.128	320.69
349.355	330.69
349.583	342.69
349.81	316.69
350.037	300.69
350.265	327.69
350.492	309.69
350.72	309.69
350.947	322.69
351.174	323.69
351.402	334.69
351.629	311.69
351.856	317.69
352.083	346.69
352.311	343.69
352.538	351.69
352.765	345.69
352.992	335.69
353.22	338.69
353.447	325.69
353.674	314.69
353.901	304.69
354.128	299.69
354.355	294.69
354.583	304.69
354.81	319.69
355.037	293.69
355.264	304.69
355.491	298.69
355.718	307.69
355.945	306.69
356.172	312.69
356.399	292.69
356.626	303.69
356.853	299.69
357.08	313.69
357.307	291.69
357.534	301.69
357.761	293.69
357.988	321.69
358.215	319.69
358.441	314.69
358.668	300.69
358.895	302.69
359.122	319.69
359.349	317.69
359.576	315.69
359.802	345.69
360.029	364.69
360.256	391.69
360.483	381.69
360.709	357.69
360.936	355.69
361.163	357.69
361.39	328.69
361.616	324.69
361.843	324.69
362.07	336.69
362.296	328.69
362.523	312.69
362.749	323.69
362.976	315.69
363.203	317.69
363.429	321.69
363.656	315.69
363.882	326.69
364.109	327.69
364.335	317.69
364.562	314.69
364.788	340.69
365.015	309.69
365.241	324.69
365.468	315.69
365.694	335.69
365.92	312.69
366.147	317.69
366.373	316.69
366.599	288.69
366.826	304.69
367.052	298.69
367.278	299.69
367.505	307.69
367.731	306.69
367.957	295.69
368.184	321.69
368.41	319.69
368.636	328.69
368.862	311.69
369.089	329.69
369.315	307.69
369.541	299.69
369.767	311.69
369.993	319.69
370.219	314.69
370.445	310.69
370.672	312.69
370.898	312.69
371.124	298.69
371.35	298.69
371.576	312.69
371.802	307.69
372.028	300.69
372.254	299.69
372.48	305.69
372.706	300.69
372.932	306.69
373.158	293.69
373.384	295.69
373.61	297.69
373.835	307.69
374.061	303.69
374.287	317.69
374.513	306.69
374.739	304.69
374.965	303.69
375.191	313.69
375.416	333.69
375.642	320.69
375.868	318.69
376.094	306.69
376.319	312.69
376.545	297.69
376.771	306.69
376.997	302.69
377.222	307.69
377.448	300.69
377.674	311.69
377.899	296.69
378.125	298.69
378.35	313.69
378.576	294.69
378.802	281.69
379.027	298.69
379.253	330.69
379.478	295.69
379.704	291.69
379.929	319.69
380.155	305.69
380.38	313.69
380.606	293.69
380.831	321.69
381.057	321.69
381.282	306.69
381.507	295.69
381.733	310.69
381.958	311.69
382.184	289.69
382.409	306.69
382.634	313.69
382.86	310.69
383.085	301.69
383.31	312.69
383.535	317.69
383.761	328.69
383.986	343.69
384.211	293.69
384.436	327.69
384.662	312.69
384.887	319.69
385.112	323.69
385.337	328.69
385.562	339.69
385.787	324.69
386.013	350.69
386.238	329.69
386.463	344.69
386.688	331.69
386.913	312.69
387.138	336.69
387.363	323.69
387.588	328.69
387.813	315.69
388.038	303.69
388.263	315.69
388.488	306.69
388.713	335.69
388.938	343.69
389.163	332.69
389.387	309.69
389.612	339.69
389.837	321.69
390.062	319.69
390.287	321.69
390.512	330.69
390.736	314.69
390.961	338.69
391.186	357.69
391.411	304.69
391.636	331.69
391.86	329.69
392.085	319.69
392.31	329.69
392.534	311.69
392.759	337.69
392.984	357.69
393.208	345.69
393.433	339.69
393.658	325.69
393.882	338.69
394.107	337.69
394.331	354.69
394.556	314.69
394.78	329.69
395.005	314.69
395.229	317.69
395.454	337.69
395.678	330.69
395.903	360.69
396.127	373.69
396.352	359.69
396.576	344.69
396.801	363.69
397.025	359.69
397.249	350.69
397.474	355.69
397.698	353.69
397.922	361.69
398.147	361.69
398.371	348.69
398.595	384.69
398.82	387.69
399.044	377.69
399.268	378.69
399.492	384.69
399.717	399.69
399.941	436.69
400.165	431.69
400.389	456.69
400.613	413.69
400.837	384.69
401.062	367.69
401.286	379.69
401.51	381.69
401.734	363.69
401.958	361.69
402.182	360.69
402.406	385.69
402.63	384.69
402.854	376.69
403.078	389.69
403.302	377.69
403.526	377.69
403.75	386.69
403.974	390.69
404.198	375.69
404.422	380.69
404.645	390.69
404.869	391.69
405.093	409.69
405.317	448.69
405.541	450.69
405.765	439.69
405.988	404.69
406.212	425.69
406.436	415.69
406.66	436.69
406.883	427.69
407.107	425.69
407.331	468.69
407.555	501.69
407.778	488.69
408.002	462.69
408.226	443.69
408.449	431.69
408.673	432.69
408.896	458.69
409.12	473.69
409.344	446.69
409.567	413.69
409.791	411.69
410.014	391.69
410.238	407.69
410.461	403.69
410.685	400.69
410.908	394.69
411.132	435.69
411.355	453.69
411.578	444.69
411.802	394.69
412.025	404.69
412.249	417.69
412.472	425.69
412.695	439.69
412.919	438.69
413.142	393.69
413.365	384.69
413.589	386.69
413.812	360.69
414.035	387.69
414.258	371.69
414.482	375.69
414.705	388.69
414.928	371.69
415.151	361.69
415.374	375.69
415.597	371.69
415.821	379.69
416.044	400.69
416.267	389.69
416.49	357.69
416.713	369.69
416.936	356.69
417.159	358.69
417.382	372.69
417.605	340.69
417.828	382.69
418.051	383.69
418.274	383.69
418.497	383.69
418.72	360.69
418.943	357.69
419.166	391.69
419.389	401.69
419.611	407.69
419.834	389.69
420.057	400.69
420.28	387.69
420.503	380.69
420.726	379.69
420.948	419.69
421.171	447.69
421.394	441.69
421.617	396.69
421.839	379.69
422.062	395.69
422.285	402.69
422.507	455.69
422.73	474.69
422.953	482.69
423.175	432.69
423.398	412.69
423.621	402.69
423.843	423.69
424.066	407.69
424.288	418.69
424.511	419.69
424.733	483.69
424.956	553.69
425.178	543.69
425.401	514.69
425.623	550.69
425.846	472.69
426.068	413.69
426.291	407.69
426.513	437.69
426.735	450.69
426.958	469.69
427.18	535.69
427.402	608.69
427.625	695.69
427.847	611.69
428.069	551.69
428.292	479.69
428.514	447.69
428.736	421.69
428.958	410.69
429.181	388.69
429.403	393.69
429.625	406.69
429.847	446.69
430.069	474.69
430.292	456.69
430.514	403.69
430.736	395.69
430.958	389.69
431.18	362.69
431.402	393.69
431.624	360.69
431.846	380.69
432.068	354.69
432.29	365.69
432.512	358.69
432.734	367.69
432.956	368.69
433.178	400.69
433.4	405.69
433.622	381.69
433.844	374.69
434.066	375.69
434.287	359.69
434.509	376.69
434.731	382.69
434.953	391.69
435.175	396.69
435.397	413.69
435.618	420.69
435.84	470.69
436.062	533.69
436.284	598.69
436.505	511.69
436.727	471.69
436.949	404.69
437.17	407.69
437.392	383.69
437.614	414.69
437.835	449.69
438.057	522.69
438.278	591.69
438.5	601.69
438.721	643.69
438.943	606.69
439.165	484.69
439.386	456.69
439.608	420.69
439.829	441.69
440.05	453.69
440.272	522.69
440.493	490.69
440.715	429.69
440.936	434.69
441.158	403.69
441.379	409.69
441.6	395.69
441.822	438.69
442.043	475.69
442.264	538.69
442.486	551.69
442.707	470.69
442.928	449.69
443.149	447.69
443.371	475.69
443.592	524.69
443.813	554.69
444.034	598.69
444.255	521.69
444.476	448.69
444.698	415.69
444.919	431.69
445.14	493.69
445.361	492.69
445.582	479.69
445.803	519.69
446.024	587.69
446.245	596.69
446.466	566.69
446.687	474.69
446.908	444.69
447.129	422.69
447.35	399.69
447.571	416.69
447.792	402.69
448.013	417.69
448.234	439.69
448.455	491.69
448.675	543.69
448.896	608.69
449.117	550.69
449.338	538.69
449.559	599.69
449.779	650.69
450	553.69
450.221	438.69
450.442	401.69
450.662	384.69
450.883	397.69
451.104	433.69
451.324	409.69
451.545	398.69
451.766	387.69
451.986	359.69
452.207	352.69
452.428	365.69
452.648	360.69
452.869	358.69
453.089	374.69
453.31	407.69
453.53	391.69
453.751	354.69
453.971	369.69
454.192	373.69
454.412	391.69
454.633	378.69
454.853	349.69
455.073	342.69
455.294	390.69
455.514	446.69
455.734	435.69
455.955	370.69
456.175	363.69
456.395	358.69
456.616	353.69
456.836	361.69
457.056	341.69
457.276	325.69
457.497	333.69
457.717	340.69
457.937	352.69
458.157	351.69
458.377	358.69
458.598	371.69
458.818	415.69
459.038	497.69
459.258	504.69
459.478	420.69
459.698	373.69
459.918	381.69
460.138	395.69
460.358	375.69
460.578	381.69
460.798	386.69
461.018	379.69
461.238	385.69
461.458	364.69
461.678	373.69
461.898	387.69
462.118	385.69
462.338	385.69
462.558	400.69
462.777	408.69
462.997	397.69
463.217	392.69
463.437	393.69
463.657	387.69
463.876	407.69
464.096	399.69
464.316	383.69
464.536	393.69
464.755	384.69
464.975	399.69
465.195	449.69
465.414	520.69
465.634	466.69
465.854	409.69
466.073	381.69
466.293	379.69
466.512	354.69
466.732	389.69
466.951	379.69
467.171	358.69
467.391	357.69
467.61	405.69
467.829	411.69
468.049	381.69
468.268	401.69
468.488	385.69
468.707	377.69
468.927	374.69
469.146	360.69
469.365	381.69
469.585	362.69
469.804	365.69
470.023	387.69
470.243	379.69
470.462	382.69
470.681	401.69
470.901	393.69
471.12	371.69
471.339	392.69
471.558	367.69
471.777	378.69
471.997	366.69
472.216	383.69
472.435	433.69
472.654	422.69
472.873	379.69
473.092	392.69
473.311	391.69
473.53	380.69
473.749	383.69
473.968	408.69
474.187	498.69
474.406	512.69
474.625	423.69
474.844	408.69
475.063	371.69
475.282	393.69
475.501	383.69
475.72	392.69
475.939	383.69
476.158	387.69
476.377	392.69
476.596	395.69
476.814	392.69
477.033	390.69
477.252	396.69
477.471	395.69
477.69	413.69
477.908	416.69
478.127	413.69
478.346	412.69
478.564	403.69
478.783	394.69
479.002	427.69
479.22	435.69
479.439	442.69
479.658	455.69
479.876	455.69
480.095	459.69
480.313	447.69
480.532	461.69
480.751	435.69
480.969	464.69
481.188	555.69
481.406	572.69
481.624	505.69
481.843	448.69
482.061	462.69
482.28	466.69
482.498	442.69
482.717	443.69
482.935	423.69
483.153	444.69
483.372	443.69
483.59	429.69
483.808	450.69
484.027	442.69
484.245	439.69
484.463	451.69
484.681	460.69
484.9	465.69
485.118	449.69
485.336	445.69
485.554	472.69
485.772	456.69
485.99	453.69
486.209	444.69
486.427	454.69
486.645	465.69
486.863	491.69
487.081	490.69
487.299	483.69
487.517	472.69
487.735	462.69
487.953	473.69
488.171	483.69
488.389	465.69
488.607	469.69
488.825	463.69
489.043	498.69
489.261	474.69
489.479	479.69
489.696	493.69
489.914	472.69
490.132	474.69
490.35	491.69
490.568	483.69
490.786	518.69
491.003	518.69
491.221	515.69
491.439	523.69
491.657	543.69
491.874	510.69
492.092	523.69
492.31	515.69
492.527	529.69
492.745	536.69
492.963	572.69
493.18	529.69
493.398	577.69
493.615	533.69
493.833	538.69
494.05	550.69
494.268	552.69
494.485	560.69
494.703	556.69
494.92	557.69
495.138	571.69
495.355	573.69
495.573	556.69
495.79	560.69
496.008	557.69
496.225	559.69
496.442	541.69
496.66	576.69
496.877	545.69
497.094	574.69
497.312	573.69
497.529	577.69
497.746	570.69
497.963	601.69
498.181	599.69
498.398	603.69
498.615	609.69
498.832	625.69
499.049	617.69
499.267	625.69
499.484	632.69
499.701	638.69
499.918	651.69
500.135	676.69
500.352	674.69
500.569	695.69
500.786	705.69
501.003	699.69
501.22	672.69
501.437	669.69
501.654	664.69
501.871	665.69
502.088	684.69
