Data from 1961.PennyLincolnUp.Lamp.En5.5.200Scan.071719.P1._HRD10591_13-48-24-057.txt Node
Date: Thu Jul 18 13:48:24 EDT 2019
User: cochatt
Spectrometer: HR+D1059
Trigger mode: 1
Integration Time (sec): 1.000000E-1
Scans to average: 1
Electric dark correction enabled: true
Nonlinearity correction enabled: false
Boxcar width: 0
XAxis mode: Wavelengths
Number of Pixels in Spectrum: 2048
>>>>>Begin Spectral Data<<<<<
223.165	-27.5
223.4	-27.5
223.635	-27.5
223.869	-18.5
224.104	-15.5
224.338	-13.5
224.573	-26.5
224.808	-22.5
225.042	-6.5
225.277	-6.5
225.511	-3.5
225.746	-2.5
225.98	15.5
226.215	16.5
226.449	26.5
226.683	23.5
226.918	30.5
227.152	30.5
227.387	31.5
227.621	49.5
227.856	51.5
228.09	51.5
228.324	50.5
228.559	44.5
228.793	62.5
229.027	107.5
229.262	107.5
229.496	112.5
229.73	133.5
229.964	147.5
230.199	123.5
230.433	117.5
230.667	99.5
230.901	108.5
231.136	107.5
231.37	124.5
231.604	119.5
231.838	109.5
232.072	110.5
232.306	96.5
232.541	97.5
232.775	115.5
233.009	92.5
233.243	115.5
233.477	122.5
233.711	113.5
233.945	102.5
234.179	105.5
234.413	127.5
234.647	101.5
234.881	105.5
235.115	104.5
235.349	106.5
235.583	96.5
235.817	116.5
236.051	114.5
236.285	115.5
236.519	114.5
236.753	125.5
236.987	133.5
237.221	177.5
237.455	216.5
237.689	154.5
237.922	124.5
238.156	124.5
238.39	122.5
238.624	125.5
238.858	98.5
239.091	123.5
239.325	119.5
239.559	119.5
239.793	134.5
240.027	133.5
240.26	138.5
240.494	152.5
240.728	147.5
240.961	132.5
241.195	148.5
241.429	132.5
241.662	113.5
241.896	119.5
242.13	122.5
242.363	121.5
242.597	115.5
242.83	119.5
243.064	120.5
243.298	113.5
243.531	135.5
243.765	123.5
243.998	115.5
244.232	119.5
244.465	133.5
244.699	140.5
244.932	134.5
245.166	123.5
245.399	130.5
245.633	139.5
245.866	136.5
246.099	111.5
246.333	135.5
246.566	134.5
246.8	137.5
247.033	151.5
247.266	125.5
247.5	129.5
247.733	140.5
247.966	149.5
248.2	158.5
248.433	162.5
248.666	152.5
248.899	167.5
249.133	174.5
249.366	181.5
249.599	168.5
249.832	168.5
250.066	153.5
250.299	159.5
250.532	162.5
250.765	196.5
250.998	194.5
251.231	201.5
251.465	187.5
251.698	178.5
251.931	169.5
252.164	182.5
252.397	157.5
252.63	176.5
252.863	177.5
253.096	181.5
253.329	188.5
253.562	189.5
253.795	194.5
254.028	198.5
254.261	191.5
254.494	195.5
254.727	215.5
254.96	236.5
255.193	222.5
255.426	217.5
255.659	206.5
255.892	194.5
256.124	200.5
256.357	208.5
256.59	210.5
256.823	186.5
257.056	194.5
257.289	198.5
257.521	192.5
257.754	181.5
257.987	192.5
258.22	169.5
258.452	184.5
258.685	187.5
258.918	187.5
259.151	184.5
259.383	199.5
259.616	205.5
259.849	197.5
260.081	200.5
260.314	207.5
260.547	224.5
260.779	209.5
261.012	201.5
261.244	200.5
261.477	207.5
261.71	191.5
261.942	205.5
262.175	213.5
262.407	213.5
262.64	184.5
262.872	196.5
263.105	179.5
263.337	175.5
263.57	177.5
263.802	187.5
264.035	179.5
264.267	181.5
264.499	192.5
264.732	191.5
264.964	183.5
265.197	186.5
265.429	171.5
265.661	193.5
265.894	166.5
266.126	166.5
266.358	191.5
266.591	205.5
266.823	193.5
267.055	181.5
267.287	192.5
267.52	176.5
267.752	204.5
267.984	203.5
268.216	200.5
268.448	197.5
268.681	201.5
268.913	212.5
269.145	214.5
269.377	224.5
269.609	230.5
269.841	227.5
270.073	236.5
270.306	241.5
270.538	279.5
270.77	275.5
271.002	246.5
271.234	263.5
271.466	251.5
271.698	282.5
271.93	267.5
272.162	280.5
272.394	261.5
272.626	257.5
272.858	240.5
273.09	229.5
273.322	234.5
273.553	227.5
273.785	225.5
274.017	235.5
274.249	241.5
274.481	222.5
274.713	219.5
274.945	225.5
275.176	228.5
275.408	225.5
275.64	226.5
275.872	225.5
276.104	234.5
276.335	234.5
276.567	242.5
276.799	262.5
277.031	264.5
277.262	283.5
277.494	266.5
277.726	259.5
277.957	239.5
278.189	240.5
278.421	234.5
278.652	221.5
278.884	232.5
279.115	237.5
279.347	222.5
279.579	219.5
279.81	216.5
280.042	241.5
280.273	216.5
280.505	215.5
280.736	220.5
280.968	213.5
281.199	232.5
281.431	227.5
281.662	223.5
281.894	233.5
282.125	230.5
282.356	239.5
282.588	258.5
282.819	258.5
283.051	231.5
283.282	228.5
283.513	227.5
283.745	232.5
283.976	243.5
284.207	229.5
284.439	243.5
284.67	242.5
284.901	226.5
285.132	233.5
285.364	212.5
285.595	220.5
285.826	228.5
286.057	221.5
286.288	232.5
286.52	255.5
286.751	235.5
286.982	225.5
287.213	254.5
287.444	225.5
287.675	240.5
287.906	240.5
288.138	242.5
288.369	248.5
288.6	244.5
288.831	220.5
289.062	234.5
289.293	236.5
289.524	259.5
289.755	236.5
289.986	223.5
290.217	256.5
290.448	249.5
290.679	269.5
290.91	233.5
291.141	244.5
291.371	241.5
291.602	240.5
291.833	243.5
292.064	234.5
292.295	238.5
292.526	244.5
292.757	242.5
292.987	221.5
293.218	216.5
293.449	224.5
293.68	242.5
293.91	233.5
294.141	234.5
294.372	241.5
294.603	258.5
294.833	254.5
295.064	248.5
295.295	250.5
295.525	244.5
295.756	247.5
295.987	251.5
296.217	269.5
296.448	294.5
296.679	265.5
296.909	246.5
297.14	245.5
297.37	246.5
297.601	247.5
297.831	239.5
298.062	253.5
298.292	255.5
298.523	244.5
298.753	241.5
298.984	250.5
299.214	245.5
299.445	234.5
299.675	251.5
299.905	245.5
300.136	244.5
300.366	252.5
300.597	257.5
300.827	243.5
301.057	282.5
301.288	292.5
301.518	277.5
301.748	263.5
301.979	257.5
302.209	284.5
302.439	265.5
302.669	267.5
302.9	276.5
303.13	263.5
303.36	274.5
303.59	261.5
303.82	287.5
304.051	281.5
304.281	266.5
304.511	279.5
304.741	249.5
304.971	251.5
305.201	266.5
305.431	281.5
305.661	275.5
305.891	274.5
306.121	282.5
306.352	300.5
306.582	301.5
306.812	288.5
307.042	294.5
307.272	273.5
307.502	271.5
307.731	278.5
307.961	285.5
308.191	267.5
308.421	264.5
308.651	280.5
308.881	283.5
309.111	296.5
309.341	285.5
309.571	292.5
309.8	293.5
310.03	307.5
310.26	337.5
310.49	325.5
310.72	337.5
310.949	340.5
311.179	368.5
311.409	324.5
311.639	323.5
311.868	345.5
312.098	335.5
312.328	330.5
312.557	345.5
312.787	356.5
313.017	335.5
313.246	334.5
313.476	323.5
313.706	339.5
313.935	318.5
314.165	325.5
314.394	342.5
314.624	340.5
314.853	335.5
315.083	323.5
315.312	319.5
315.542	299.5
315.771	316.5
316.001	319.5
316.23	315.5
316.46	321.5
316.689	321.5
316.919	334.5
317.148	344.5
317.377	336.5
317.607	336.5
317.836	319.5
318.065	346.5
318.295	336.5
318.524	322.5
318.753	339.5
318.983	331.5
319.212	316.5
319.441	333.5
319.67	340.5
319.9	316.5
320.129	323.5
320.358	330.5
320.587	328.5
320.816	337.5
321.046	343.5
321.275	359.5
321.504	358.5
321.733	343.5
321.962	369.5
322.191	395.5
322.42	384.5
322.649	406.5
322.878	412.5
323.108	396.5
323.337	450.5
323.566	456.5
323.795	497.5
324.024	583.5
324.253	689.5
324.482	1042.5
324.71	1611.5
324.939	2227.5
325.168	1881.5
325.397	969.5
325.626	641.5
325.855	511.5
326.084	483.5
326.313	475.5
326.542	477.5
326.77	523.5
326.999	644.5
327.228	949.5
327.457	1399.5
327.686	1655.5
327.914	1094.5
328.143	719.5
328.372	601.5
328.6	555.5
328.829	540.5
329.058	568.5
329.287	552.5
329.515	504.5
329.744	474.5
329.972	466.5
330.201	506.5
330.43	535.5
330.658	578.5
330.887	577.5
331.115	556.5
331.344	491.5
331.572	437.5
331.801	451.5
332.03	428.5
332.258	419.5
332.486	388.5
332.715	379.5
332.943	385.5
333.172	392.5
333.4	380.5
333.629	375.5
333.857	421.5
334.085	431.5
334.314	441.5
334.542	474.5
334.771	483.5
334.999	455.5
335.227	409.5
335.455	387.5
335.684	372.5
335.912	392.5
336.14	375.5
336.369	372.5
336.597	389.5
336.825	380.5
337.053	378.5
337.281	360.5
337.51	344.5
337.738	360.5
337.966	353.5
338.194	374.5
338.422	364.5
338.65	354.5
338.878	346.5
339.106	351.5
339.334	359.5
339.562	349.5
339.79	347.5
340.018	373.5
340.246	363.5
340.474	355.5
340.702	375.5
340.93	359.5
341.158	372.5
341.386	350.5
341.614	373.5
341.842	367.5
342.07	360.5
342.298	359.5
342.526	371.5
342.754	343.5
342.981	329.5
343.209	340.5
343.437	367.5
343.665	371.5
343.893	345.5
344.12	361.5
344.348	362.5
344.576	343.5
344.804	371.5
345.031	389.5
345.259	395.5
345.487	356.5
345.714	348.5
345.942	387.5
346.17	365.5
346.397	338.5
346.625	353.5
346.853	355.5
347.08	360.5
347.308	351.5
347.535	362.5
347.763	371.5
347.99	371.5
348.218	350.5
348.445	367.5
348.673	381.5
348.9	364.5
349.128	367.5
349.355	351.5
349.583	339.5
349.81	344.5
350.037	360.5
350.265	324.5
350.492	358.5
350.72	350.5
350.947	363.5
351.174	362.5
351.402	368.5
351.629	383.5
351.856	370.5
352.083	374.5
352.311	383.5
352.538	387.5
352.765	376.5
352.992	367.5
353.22	369.5
353.447	365.5
353.674	352.5
353.901	356.5
354.128	344.5
354.355	349.5
354.583	341.5
354.81	336.5
355.037	322.5
355.264	324.5
355.491	325.5
355.718	336.5
355.945	330.5
356.172	328.5
356.399	316.5
356.626	328.5
356.853	336.5
357.08	336.5
357.307	315.5
357.534	328.5
357.761	332.5
357.988	317.5
358.215	327.5
358.441	333.5
358.668	330.5
358.895	331.5
359.122	338.5
359.349	345.5
359.576	359.5
359.802	376.5
360.029	389.5
360.256	426.5
360.483	397.5
360.709	371.5
360.936	374.5
361.163	353.5
361.39	369.5
361.616	352.5
361.843	348.5
362.07	358.5
362.296	373.5
362.523	345.5
362.749	337.5
362.976	341.5
363.203	342.5
363.429	343.5
363.656	365.5
363.882	356.5
364.109	343.5
364.335	339.5
364.562	353.5
364.788	341.5
365.015	341.5
365.241	339.5
365.468	343.5
365.694	342.5
365.92	348.5
366.147	343.5
366.373	324.5
366.599	330.5
366.826	354.5
367.052	326.5
367.278	322.5
367.505	339.5
367.731	335.5
367.957	333.5
368.184	345.5
368.41	344.5
368.636	340.5
368.862	338.5
369.089	329.5
369.315	315.5
369.541	339.5
369.767	335.5
369.993	349.5
370.219	316.5
370.445	336.5
370.672	313.5
370.898	330.5
371.124	331.5
371.35	343.5
371.576	322.5
371.802	324.5
372.028	342.5
372.254	339.5
372.48	339.5
372.706	336.5
372.932	324.5
373.158	325.5
373.384	313.5
373.61	331.5
373.835	330.5
374.061	349.5
374.287	351.5
374.513	322.5
374.739	314.5
374.965	335.5
375.191	331.5
375.416	339.5
375.642	323.5
375.868	343.5
376.094	335.5
376.319	323.5
376.545	321.5
376.771	317.5
376.997	327.5
377.222	323.5
377.448	324.5
377.674	325.5
377.899	297.5
378.125	319.5
378.35	306.5
378.576	323.5
378.802	320.5
379.027	328.5
379.253	316.5
379.478	315.5
379.704	324.5
379.929	329.5
380.155	343.5
380.38	326.5
380.606	316.5
380.831	319.5
381.057	344.5
381.282	338.5
381.507	326.5
381.733	326.5
381.958	339.5
382.184	331.5
382.409	325.5
382.634	336.5
382.86	324.5
383.085	330.5
383.31	328.5
383.535	346.5
383.761	348.5
383.986	353.5
384.211	314.5
384.436	336.5
384.662	328.5
384.887	337.5
385.112	350.5
385.337	351.5
385.562	333.5
385.787	342.5
386.013	360.5
386.238	361.5
386.463	349.5
386.688	365.5
386.913	344.5
387.138	348.5
387.363	353.5
387.588	367.5
387.813	328.5
388.038	344.5
388.263	349.5
388.488	321.5
388.713	363.5
388.938	346.5
389.163	364.5
389.387	359.5
389.612	357.5
389.837	343.5
390.062	359.5
390.287	353.5
390.512	346.5
390.736	325.5
390.961	363.5
391.186	345.5
391.411	352.5
391.636	360.5
391.86	351.5
392.085	353.5
392.31	355.5
392.534	363.5
392.759	355.5
392.984	351.5
393.208	341.5
393.433	363.5
393.658	347.5
393.882	372.5
394.107	359.5
394.331	355.5
394.556	341.5
394.78	354.5
395.005	349.5
395.229	342.5
395.454	359.5
395.678	373.5
395.903	364.5
396.127	395.5
396.352	391.5
396.576	400.5
396.801	375.5
397.025	373.5
397.249	381.5
397.474	381.5
397.698	356.5
397.922	384.5
398.147	415.5
398.371	399.5
398.595	395.5
398.82	388.5
399.044	404.5
399.268	408.5
399.492	424.5
399.717	443.5
399.941	458.5
400.165	471.5
400.389	502.5
400.613	455.5
400.837	431.5
401.062	407.5
401.286	404.5
401.51	396.5
401.734	402.5
401.958	406.5
402.182	412.5
402.406	398.5
402.63	397.5
402.854	413.5
403.078	425.5
403.302	431.5
403.526	426.5
403.75	396.5
403.974	402.5
404.198	428.5
404.422	405.5
404.645	424.5
404.869	439.5
405.093	456.5
405.317	474.5
405.541	513.5
405.765	490.5
405.988	453.5
406.212	455.5
406.436	474.5
406.66	452.5
406.883	456.5
407.107	477.5
407.331	513.5
407.555	539.5
407.778	565.5
408.002	526.5
408.226	487.5
408.449	457.5
408.673	465.5
408.896	491.5
409.12	550.5
409.344	491.5
409.567	453.5
409.791	422.5
410.014	427.5
410.238	423.5
410.461	431.5
410.685	415.5
410.908	446.5
411.132	495.5
411.355	528.5
411.578	488.5
411.802	431.5
412.025	422.5
412.249	455.5
412.472	456.5
412.695	495.5
412.919	472.5
413.142	441.5
413.365	431.5
413.589	412.5
413.812	401.5
414.035	396.5
414.258	393.5
414.482	404.5
414.705	394.5
414.928	369.5
415.151	405.5
415.374	407.5
415.597	394.5
415.821	383.5
416.044	402.5
416.267	395.5
416.49	399.5
416.713	389.5
416.936	388.5
417.159	410.5
417.382	410.5
417.605	411.5
417.828	397.5
418.051	418.5
418.274	413.5
418.497	394.5
418.72	401.5
418.943	389.5
419.166	407.5
419.389	425.5
419.611	419.5
419.834	407.5
420.057	414.5
420.28	438.5
420.503	425.5
420.726	435.5
420.948	437.5
421.171	458.5
421.394	491.5
421.617	443.5
421.839	431.5
422.062	412.5
422.285	429.5
422.507	474.5
422.73	549.5
422.953	522.5
423.175	457.5
423.398	452.5
423.621	447.5
423.843	435.5
424.066	441.5
424.288	445.5
424.511	464.5
424.733	512.5
424.956	573.5
425.178	560.5
425.401	568.5
425.623	556.5
425.846	503.5
426.068	483.5
426.291	449.5
426.513	473.5
426.735	467.5
426.958	517.5
427.18	590.5
427.402	690.5
427.625	790.5
427.847	681.5
428.069	573.5
428.292	521.5
428.514	474.5
428.736	441.5
428.958	437.5
429.181	431.5
429.403	445.5
429.625	459.5
429.847	485.5
430.069	542.5
430.292	524.5
430.514	456.5
430.736	432.5
430.958	412.5
431.18	390.5
431.402	413.5
431.624	401.5
431.846	381.5
432.068	380.5
432.29	421.5
432.512	416.5
432.734	398.5
432.956	405.5
433.178	432.5
433.4	417.5
433.622	411.5
433.844	386.5
434.066	411.5
434.287	420.5
434.509	419.5
434.731	389.5
434.953	429.5
435.175	449.5
435.397	464.5
435.618	486.5
435.84	516.5
436.062	600.5
436.284	629.5
436.505	544.5
436.727	474.5
436.949	460.5
437.17	412.5
437.392	439.5
437.614	446.5
437.835	506.5
438.057	579.5
438.278	654.5
438.5	654.5
438.721	716.5
438.943	678.5
439.165	563.5
439.386	476.5
439.608	490.5
439.829	493.5
440.05	524.5
440.272	566.5
440.493	530.5
440.715	473.5
440.936	434.5
441.158	441.5
441.379	445.5
441.6	455.5
441.822	477.5
442.043	519.5
442.264	575.5
442.486	596.5
442.707	520.5
442.928	488.5
443.149	474.5
443.371	505.5
443.592	548.5
443.813	607.5
444.034	677.5
444.255	542.5
444.476	479.5
444.698	465.5
444.919	443.5
445.14	553.5
445.361	531.5
445.582	519.5
445.803	571.5
446.024	673.5
446.245	675.5
446.466	611.5
446.687	488.5
446.908	498.5
447.129	445.5
447.35	439.5
447.571	437.5
447.792	423.5
448.013	444.5
448.234	474.5
448.455	525.5
448.675	618.5
448.896	678.5
449.117	602.5
449.338	563.5
449.559	656.5
449.779	701.5
450	597.5
450.221	493.5
450.442	457.5
450.662	445.5
450.883	444.5
451.104	462.5
451.324	463.5
451.545	428.5
451.766	410.5
451.986	381.5
452.207	401.5
452.428	375.5
452.648	404.5
452.869	410.5
453.089	416.5
453.31	420.5
453.53	401.5
453.751	403.5
453.971	401.5
454.192	418.5
454.412	398.5
454.633	402.5
454.853	406.5
455.073	381.5
455.294	425.5
455.514	461.5
455.734	453.5
455.955	385.5
456.175	374.5
456.395	341.5
456.616	343.5
456.836	365.5
457.056	378.5
457.276	359.5
457.497	389.5
457.717	377.5
457.937	358.5
458.157	369.5
458.377	388.5
458.598	406.5
458.818	463.5
459.038	544.5
459.258	544.5
459.478	472.5
459.698	420.5
459.918	413.5
460.138	422.5
460.358	401.5
460.578	388.5
460.798	412.5
461.018	404.5
461.238	408.5
461.458	396.5
461.678	401.5
461.898	401.5
462.118	404.5
462.338	409.5
462.558	411.5
462.777	409.5
462.997	418.5
463.217	423.5
463.437	432.5
463.657	405.5
463.876	430.5
464.096	441.5
464.316	425.5
464.536	433.5
464.755	426.5
464.975	429.5
465.195	482.5
465.414	578.5
465.634	496.5
465.854	448.5
466.073	419.5
466.293	413.5
466.512	396.5
466.732	423.5
466.951	417.5
467.171	395.5
467.391	416.5
467.61	417.5
467.829	400.5
468.049	403.5
468.268	409.5
468.488	397.5
468.707	378.5
468.927	380.5
469.146	394.5
469.365	375.5
469.585	397.5
469.804	403.5
470.023	405.5
470.243	396.5
470.462	411.5
470.681	453.5
470.901	424.5
471.12	396.5
471.339	415.5
471.558	403.5
471.777	390.5
471.997	421.5
472.216	420.5
472.435	483.5
472.654	460.5
472.873	422.5
473.092	406.5
473.311	414.5
473.53	405.5
473.749	429.5
473.968	459.5
474.187	554.5
474.406	568.5
474.625	460.5
474.844	436.5
475.063	420.5
475.282	428.5
475.501	407.5
475.72	434.5
475.939	404.5
476.158	407.5
476.377	418.5
476.596	433.5
476.814	426.5
477.033	445.5
477.252	431.5
477.471	448.5
477.69	428.5
477.908	424.5
478.127	443.5
478.346	441.5
478.564	450.5
478.783	452.5
479.002	434.5
479.22	452.5
479.439	483.5
479.658	488.5
479.876	474.5
480.095	500.5
480.313	506.5
480.532	486.5
480.751	481.5
480.969	515.5
481.188	589.5
481.406	607.5
481.624	519.5
481.843	516.5
482.061	481.5
482.28	492.5
482.498	488.5
482.717	482.5
482.935	473.5
483.153	480.5
483.372	487.5
483.59	460.5
483.808	477.5
484.027	508.5
484.245	493.5
484.463	490.5
484.681	492.5
484.9	493.5
485.118	473.5
485.336	479.5
485.554	469.5
485.772	502.5
485.99	490.5
486.209	478.5
486.427	488.5
486.645	486.5
486.863	510.5
487.081	521.5
487.299	518.5
487.517	528.5
487.735	507.5
487.953	506.5
488.171	467.5
488.389	515.5
488.607	516.5
488.825	532.5
489.043	527.5
489.261	517.5
489.479	521.5
489.696	517.5
489.914	529.5
490.132	534.5
490.35	530.5
490.568	525.5
490.786	537.5
491.003	540.5
491.221	579.5
491.439	563.5
491.657	566.5
491.874	608.5
492.092	567.5
492.31	585.5
492.527	592.5
492.745	574.5
492.963	607.5
493.18	596.5
493.398	595.5
493.615	596.5
493.833	596.5
494.05	603.5
494.268	595.5
494.485	612.5
494.703	582.5
494.92	569.5
495.138	593.5
495.355	594.5
495.573	600.5
495.79	608.5
496.008	615.5
496.225	619.5
496.442	607.5
496.66	610.5
496.877	622.5
497.094	615.5
497.312	620.5
497.529	632.5
497.746	620.5
497.963	626.5
498.181	635.5
498.398	664.5
498.615	684.5
498.832	667.5
499.049	676.5
499.267	648.5
499.484	701.5
499.701	695.5
499.918	717.5
500.135	746.5
500.352	767.5
500.569	741.5
500.786	777.5
501.003	765.5
501.22	742.5
501.437	728.5
501.654	712.5
501.871	759.5
502.088	707.5
502.305	689.5
502.522	677.5
502.739	650.5
502.956	664.5
503.172	658.5
503.389	657.5
503.606	653.5
503.823	642.5
504.04	619.5
504.256	619.5
504.473	592.5
504.69	602.5
504.907	598.5
505.123	586.5
505.34	605.5
505.557	598.5
505.773	600.5
505.99	579.5
506.207	613.5
506.423	620.5
506.64	578.5
506.856	601.5
507.073	599.5
507.289	575.5
507.506	625.5
507.722	587.5
507.939	590.5
508.155	583.5
508.372	568.5
508.588	573.5
508.805	549.5
509.021	571.5
509.238	601.5
509.454	596.5
509.67	581.5
509.887	573.5
510.103	576.5
510.319	582.5
510.536	690.5
510.752	1203.5
510.968	959.5
511.184	608.5
511.401	555.5
511.617	570.5
511.833	537.5
512.049	557.5
512.265	550.5
512.481	535.5
512.698	518.5
512.914	545.5
513.13	563.5
513.346	538.5
513.562	556.5
513.778	542.5
513.994	514.5
514.21	556.5
514.426	580.5
514.642	632.5
514.858	661.5
515.074	692.5
515.29	871.5
515.506	1283.5
515.721	1064.5
515.937	723.5
516.153	655.5
516.369	599.5
516.585	561.5
516.801	577.5
517.016	538.5
517.232	542.5
517.448	562.5
517.664	565.5
517.879	554.5
518.095	559.5
518.311	567.5
518.527	547.5
518.742	534.5
518.958	534.5
519.173	536.5
519.389	554.5
519.605	563.5
519.82	571.5
