Data from 1961.PennyLincolnUp.Lamp.En5.5.200Scan.071719.P1._HRD10591_13-48-36-059.txt Node
Date: Thu Jul 18 13:48:36 EDT 2019
User: cochatt
Spectrometer: HR+D1059
Trigger mode: 1
Integration Time (sec): 1.000000E-1
Scans to average: 1
Electric dark correction enabled: true
Nonlinearity correction enabled: false
Boxcar width: 0
XAxis mode: Wavelengths
Number of Pixels in Spectrum: 2048
>>>>>Begin Spectral Data<<<<<
223.165	-3.25
223.4	-3.25
223.635	-3.25
223.869	-14.25
224.104	-14.25
224.338	-4.25
224.573	3.75
224.808	-20.25
225.042	-3.25
225.277	-15.25
225.511	1.75
225.746	-3.25
225.98	-6.25
226.215	-1.25
226.449	25.75
226.683	17.75
226.918	13.75
227.152	22.75
227.387	26.75
227.621	40.75
227.856	42.75
228.09	54.75
228.324	38.75
228.559	46.75
228.793	74.75
229.027	80.75
229.262	105.75
229.496	113.75
229.73	128.75
229.964	137.75
230.199	107.75
230.433	108.75
230.667	116.75
230.901	105.75
231.136	98.75
231.37	118.75
231.604	108.75
231.838	108.75
232.072	105.75
232.306	112.75
232.541	96.75
232.775	106.75
233.009	107.75
233.243	96.75
233.477	102.75
233.711	110.75
233.945	113.75
234.179	110.75
234.413	99.75
234.647	110.75
234.881	104.75
235.115	96.75
235.349	115.75
235.583	120.75
235.817	132.75
236.051	127.75
236.285	124.75
236.519	128.75
236.753	119.75
236.987	118.75
237.221	172.75
237.455	211.75
237.689	162.75
237.922	132.75
238.156	129.75
238.39	118.75
238.624	114.75
238.858	115.75
239.091	107.75
239.325	110.75
239.559	105.75
239.793	107.75
240.027	134.75
240.26	134.75
240.494	137.75
240.728	145.75
240.961	130.75
241.195	104.75
241.429	126.75
241.662	114.75
241.896	114.75
242.13	124.75
242.363	128.75
242.597	133.75
242.83	115.75
243.064	114.75
243.298	125.75
243.531	125.75
243.765	132.75
243.998	135.75
244.232	136.75
244.465	124.75
244.699	134.75
244.932	127.75
245.166	116.75
245.399	127.75
245.633	131.75
245.866	139.75
246.099	120.75
246.333	127.75
246.566	146.75
246.8	139.75
247.033	128.75
247.266	156.75
247.5	139.75
247.733	161.75
247.966	160.75
248.2	153.75
248.433	146.75
248.666	145.75
248.899	168.75
249.133	168.75
249.366	172.75
249.599	174.75
249.832	169.75
250.066	148.75
250.299	162.75
250.532	168.75
250.765	177.75
250.998	190.75
251.231	195.75
251.465	195.75
251.698	184.75
251.931	170.75
252.164	168.75
252.397	166.75
252.63	177.75
252.863	184.75
253.096	184.75
253.329	191.75
253.562	200.75
253.795	184.75
254.028	175.75
254.261	197.75
254.494	189.75
254.727	221.75
254.96	239.75
255.193	229.75
255.426	210.75
255.659	204.75
255.892	202.75
256.124	182.75
256.357	210.75
256.59	183.75
256.823	185.75
257.056	190.75
257.289	176.75
257.521	185.75
257.754	175.75
257.987	180.75
258.22	209.75
258.452	195.75
258.685	176.75
258.918	201.75
259.151	192.75
259.383	195.75
259.616	198.75
259.849	191.75
260.081	200.75
260.314	215.75
260.547	214.75
260.779	211.75
261.012	185.75
261.244	197.75
261.477	190.75
261.71	197.75
261.942	191.75
262.175	217.75
262.407	198.75
262.64	204.75
262.872	197.75
263.105	178.75
263.337	187.75
263.57	186.75
263.802	178.75
264.035	176.75
264.267	196.75
264.499	166.75
264.732	168.75
264.964	177.75
265.197	179.75
265.429	177.75
265.661	171.75
265.894	184.75
266.126	196.75
266.358	193.75
266.591	182.75
266.823	174.75
267.055	186.75
267.287	202.75
267.52	203.75
267.752	209.75
267.984	196.75
268.216	192.75
268.448	205.75
268.681	187.75
268.913	215.75
269.145	218.75
269.377	226.75
269.609	235.75
269.841	239.75
270.073	237.75
270.306	241.75
270.538	269.75
270.77	262.75
271.002	270.75
271.234	229.75
271.466	244.75
271.698	272.75
271.93	275.75
272.162	291.75
272.394	273.75
272.626	249.75
272.858	242.75
273.09	250.75
273.322	242.75
273.553	218.75
273.785	235.75
274.017	202.75
274.249	225.75
274.481	204.75
274.713	226.75
274.945	236.75
275.176	228.75
275.408	217.75
275.64	232.75
275.872	239.75
276.104	244.75
276.335	241.75
276.567	236.75
276.799	240.75
277.031	258.75
277.262	267.75
277.494	271.75
277.726	254.75
277.957	227.75
278.189	243.75
278.421	246.75
278.652	238.75
278.884	214.75
279.115	219.75
279.347	218.75
279.579	238.75
279.81	225.75
280.042	211.75
280.273	231.75
280.505	234.75
280.736	210.75
280.968	226.75
281.199	217.75
281.431	225.75
281.662	210.75
281.894	217.75
282.125	218.75
282.356	251.75
282.588	258.75
282.819	256.75
283.051	241.75
283.282	232.75
283.513	204.75
283.745	234.75
283.976	228.75
284.207	228.75
284.439	248.75
284.67	224.75
284.901	219.75
285.132	234.75
285.364	231.75
285.595	219.75
285.826	230.75
286.057	236.75
286.288	235.75
286.52	235.75
286.751	228.75
286.982	234.75
287.213	224.75
287.444	233.75
287.675	241.75
287.906	246.75
288.138	244.75
288.369	238.75
288.6	258.75
288.831	238.75
289.062	244.75
289.293	243.75
289.524	238.75
289.755	239.75
289.986	253.75
290.217	236.75
290.448	218.75
290.679	231.75
290.91	227.75
291.141	232.75
291.371	243.75
291.602	249.75
291.833	230.75
292.064	233.75
292.295	227.75
292.526	234.75
292.757	246.75
292.987	232.75
293.218	210.75
293.449	238.75
293.68	225.75
293.91	215.75
294.141	238.75
294.372	245.75
294.603	231.75
294.833	253.75
295.064	232.75
295.295	222.75
295.525	233.75
295.756	241.75
295.987	257.75
296.217	286.75
296.448	298.75
296.679	244.75
296.909	229.75
297.14	222.75
297.37	237.75
297.601	264.75
297.831	230.75
298.062	227.75
298.292	238.75
298.523	238.75
298.753	259.75
298.984	256.75
299.214	244.75
299.445	235.75
299.675	242.75
299.905	256.75
300.136	264.75
300.366	264.75
300.597	263.75
300.827	256.75
301.057	270.75
301.288	274.75
301.518	265.75
301.748	279.75
301.979	264.75
302.209	266.75
302.439	272.75
302.669	256.75
302.9	272.75
303.13	255.75
303.36	278.75
303.59	281.75
303.82	290.75
304.051	288.75
304.281	279.75
304.511	273.75
304.741	278.75
304.971	258.75
305.201	267.75
305.431	250.75
305.661	262.75
305.891	263.75
306.121	282.75
306.352	277.75
306.582	276.75
306.812	268.75
307.042	273.75
307.272	285.75
307.502	272.75
307.731	279.75
307.961	297.75
308.191	257.75
308.421	262.75
308.651	264.75
308.881	289.75
309.111	294.75
309.341	290.75
309.571	293.75
309.8	291.75
310.03	320.75
310.26	312.75
310.49	316.75
310.72	332.75
310.949	347.75
311.179	349.75
311.409	322.75
311.639	327.75
311.868	331.75
312.098	308.75
312.328	331.75
312.557	342.75
312.787	367.75
313.017	369.75
313.246	328.75
313.476	312.75
313.706	338.75
313.935	300.75
314.165	328.75
314.394	343.75
314.624	348.75
314.853	331.75
315.083	322.75
315.312	326.75
315.542	304.75
315.771	303.75
316.001	317.75
316.23	313.75
316.46	306.75
316.689	312.75
316.919	316.75
317.148	329.75
317.377	331.75
317.607	337.75
317.836	321.75
318.065	315.75
318.295	306.75
318.524	326.75
318.753	324.75
318.983	329.75
319.212	319.75
319.441	310.75
319.67	328.75
319.9	315.75
320.129	322.75
320.358	343.75
320.587	313.75
320.816	336.75
321.046	346.75
321.275	348.75
321.504	334.75
321.733	344.75
321.962	350.75
322.191	372.75
322.42	384.75
322.649	396.75
322.878	393.75
323.108	402.75
323.337	446.75
323.566	452.75
323.795	483.75
324.024	558.75
324.253	690.75
324.482	1024.75
324.71	1572.75
324.939	2215.75
325.168	1886.75
325.397	970.75
325.626	638.75
325.855	551.75
326.084	482.75
326.313	464.75
326.542	454.75
326.77	525.75
326.999	628.75
327.228	907.75
327.457	1401.75
327.686	1665.75
327.914	1115.75
328.143	716.75
328.372	584.75
328.6	556.75
328.829	523.75
329.058	550.75
329.287	555.75
329.515	499.75
329.744	440.75
329.972	467.75
330.201	477.75
330.43	541.75
330.658	538.75
330.887	580.75
331.115	554.75
331.344	471.75
331.572	454.75
331.801	442.75
332.03	423.75
332.258	406.75
332.486	367.75
332.715	368.75
332.943	383.75
333.172	389.75
333.4	378.75
333.629	393.75
333.857	411.75
334.085	418.75
334.314	441.75
334.542	460.75
334.771	482.75
334.999	446.75
335.227	379.75
335.455	398.75
335.684	372.75
335.912	375.75
336.14	377.75
336.369	362.75
336.597	390.75
336.825	362.75
337.053	372.75
337.281	352.75
337.51	357.75
337.738	372.75
337.966	359.75
338.194	376.75
338.422	369.75
338.65	358.75
338.878	354.75
339.106	354.75
339.334	372.75
339.562	353.75
339.79	348.75
340.018	354.75
340.246	361.75
340.474	370.75
340.702	363.75
340.93	361.75
341.158	358.75
341.386	349.75
341.614	355.75
341.842	353.75
342.07	329.75
342.298	338.75
342.526	348.75
342.754	340.75
342.981	328.75
343.209	338.75
343.437	350.75
343.665	343.75
343.893	347.75
344.12	359.75
344.348	342.75
344.576	355.75
344.804	344.75
345.031	362.75
345.259	404.75
345.487	392.75
345.714	341.75
345.942	336.75
346.17	353.75
346.397	332.75
346.625	368.75
346.853	356.75
347.08	352.75
347.308	359.75
347.535	383.75
347.763	356.75
347.99	345.75
348.218	362.75
348.445	374.75
348.673	374.75
348.9	336.75
349.128	351.75
349.355	362.75
349.583	341.75
349.81	347.75
350.037	329.75
350.265	337.75
350.492	335.75
350.72	339.75
350.947	357.75
351.174	355.75
351.402	362.75
351.629	365.75
351.856	364.75
352.083	395.75
352.311	358.75
352.538	379.75
352.765	377.75
352.992	369.75
353.22	356.75
353.447	364.75
353.674	351.75
353.901	330.75
354.128	325.75
354.355	316.75
354.583	313.75
354.81	310.75
355.037	323.75
355.264	319.75
355.491	326.75
355.718	326.75
355.945	295.75
356.172	314.75
356.399	318.75
356.626	313.75
356.853	322.75
357.08	307.75
357.307	316.75
357.534	324.75
357.761	320.75
357.988	315.75
358.215	323.75
358.441	321.75
358.668	310.75
358.895	334.75
359.122	323.75
359.349	335.75
359.576	342.75
359.802	395.75
360.029	406.75
360.256	406.75
360.483	371.75
360.709	361.75
360.936	362.75
361.163	353.75
361.39	343.75
361.616	356.75
361.843	356.75
362.07	343.75
362.296	367.75
362.523	344.75
362.749	358.75
362.976	358.75
363.203	337.75
363.429	310.75
363.656	318.75
363.882	334.75
364.109	337.75
364.335	338.75
364.562	331.75
364.788	333.75
365.015	338.75
365.241	334.75
365.468	332.75
365.694	336.75
365.92	342.75
366.147	328.75
366.373	332.75
366.599	319.75
366.826	324.75
367.052	310.75
367.278	324.75
367.505	327.75
367.731	306.75
367.957	328.75
368.184	322.75
368.41	320.75
368.636	345.75
368.862	359.75
369.089	337.75
369.315	333.75
369.541	328.75
369.767	334.75
369.993	326.75
370.219	320.75
370.445	333.75
370.672	342.75
370.898	330.75
371.124	323.75
371.35	315.75
371.576	320.75
371.802	322.75
372.028	324.75
372.254	314.75
372.48	306.75
372.706	310.75
372.932	319.75
373.158	309.75
373.384	331.75
373.61	329.75
373.835	319.75
374.061	311.75
374.287	337.75
374.513	331.75
374.739	319.75
374.965	313.75
375.191	338.75
375.416	319.75
375.642	335.75
375.868	316.75
376.094	321.75
376.319	316.75
376.545	305.75
376.771	312.75
376.997	298.75
377.222	332.75
377.448	322.75
377.674	314.75
377.899	313.75
378.125	325.75
378.35	310.75
378.576	337.75
378.802	315.75
379.027	298.75
379.253	308.75
379.478	322.75
379.704	329.75
379.929	311.75
380.155	314.75
380.38	349.75
380.606	336.75
380.831	318.75
381.057	319.75
381.282	324.75
381.507	329.75
381.733	332.75
381.958	312.75
382.184	321.75
382.409	305.75
382.634	326.75
382.86	333.75
383.085	322.75
383.31	327.75
383.535	331.75
383.761	344.75
383.986	336.75
384.211	324.75
384.436	337.75
384.662	336.75
384.887	319.75
385.112	328.75
385.337	339.75
385.562	335.75
385.787	330.75
386.013	350.75
386.238	356.75
386.463	332.75
386.688	333.75
386.913	352.75
387.138	322.75
387.363	353.75
387.588	330.75
387.813	327.75
388.038	350.75
388.263	334.75
388.488	356.75
388.713	347.75
388.938	347.75
389.163	347.75
389.387	344.75
389.612	351.75
389.837	334.75
390.062	352.75
390.287	333.75
390.512	332.75
390.736	358.75
390.961	348.75
391.186	352.75
391.411	351.75
391.636	343.75
391.86	357.75
392.085	332.75
392.31	346.75
392.534	355.75
392.759	367.75
392.984	356.75
393.208	354.75
393.433	347.75
393.658	353.75
393.882	330.75
394.107	344.75
394.331	359.75
394.556	353.75
394.78	355.75
395.005	340.75
395.229	352.75
395.454	348.75
395.678	357.75
395.903	370.75
396.127	392.75
396.352	374.75
396.576	376.75
396.801	375.75
397.025	372.75
397.249	367.75
397.474	377.75
397.698	384.75
397.922	382.75
398.147	403.75
398.371	385.75
398.595	385.75
398.82	391.75
399.044	392.75
399.268	387.75
399.492	414.75
399.717	442.75
399.941	456.75
400.165	486.75
400.389	479.75
400.613	454.75
400.837	417.75
401.062	398.75
401.286	396.75
401.51	386.75
401.734	396.75
401.958	395.75
402.182	408.75
402.406	409.75
402.63	414.75
402.854	423.75
403.078	413.75
403.302	410.75
403.526	421.75
403.75	412.75
403.974	400.75
404.198	396.75
404.422	418.75
404.645	412.75
404.869	402.75
405.093	456.75
405.317	472.75
405.541	507.75
405.765	464.75
405.988	459.75
406.212	446.75
406.436	451.75
406.66	483.75
406.883	460.75
407.107	480.75
407.331	504.75
407.555	556.75
407.778	546.75
408.002	499.75
408.226	464.75
408.449	459.75
408.673	455.75
408.896	458.75
409.12	502.75
409.344	491.75
409.567	425.75
409.791	432.75
410.014	423.75
410.238	403.75
410.461	426.75
410.685	416.75
410.908	426.75
411.132	473.75
411.355	501.75
411.578	450.75
411.802	430.75
412.025	404.75
412.249	430.75
412.472	427.75
412.695	474.75
412.919	461.75
413.142	414.75
413.365	417.75
413.589	409.75
413.812	389.75
414.035	386.75
414.258	395.75
414.482	376.75
414.705	353.75
414.928	380.75
415.151	386.75
415.374	389.75
415.597	374.75
415.821	393.75
416.044	395.75
416.267	405.75
416.49	386.75
416.713	368.75
416.936	377.75
417.159	394.75
417.382	407.75
417.605	393.75
417.828	394.75
418.051	395.75
418.274	392.75
418.497	408.75
418.72	376.75
418.943	380.75
419.166	403.75
419.389	426.75
419.611	411.75
419.834	388.75
420.057	430.75
420.28	423.75
420.503	401.75
420.726	430.75
420.948	420.75
421.171	458.75
421.394	476.75
421.617	438.75
421.839	418.75
422.062	404.75
422.285	428.75
422.507	482.75
422.73	547.75
422.953	509.75
423.175	458.75
423.398	441.75
423.621	427.75
423.843	444.75
424.066	464.75
424.288	448.75
424.511	446.75
424.733	512.75
424.956	583.75
425.178	553.75
425.401	523.75
425.623	560.75
425.846	497.75
426.068	458.75
426.291	465.75
426.513	448.75
426.735	457.75
426.958	514.75
427.18	588.75
427.402	669.75
427.625	744.75
427.847	675.75
428.069	589.75
428.292	514.75
428.514	467.75
428.736	438.75
428.958	420.75
429.181	421.75
429.403	423.75
429.625	426.75
429.847	461.75
430.069	499.75
430.292	531.75
430.514	450.75
430.736	413.75
430.958	433.75
431.18	414.75
431.402	414.75
431.624	387.75
431.846	397.75
432.068	380.75
432.29	391.75
432.512	403.75
432.734	415.75
432.956	407.75
433.178	402.75
433.4	420.75
433.622	422.75
433.844	416.75
434.066	394.75
434.287	409.75
434.509	406.75
434.731	392.75
434.953	395.75
435.175	409.75
435.397	447.75
435.618	459.75
435.84	489.75
436.062	587.75
436.284	616.75
436.505	542.75
436.727	483.75
436.949	439.75
437.17	427.75
437.392	419.75
437.614	440.75
437.835	496.75
438.057	600.75
438.278	646.75
438.5	626.75
438.721	696.75
438.943	642.75
439.165	504.75
439.386	490.75
439.608	476.75
439.829	468.75
440.05	511.75
440.272	550.75
440.493	524.75
440.715	485.75
440.936	438.75
441.158	437.75
441.379	441.75
441.6	424.75
441.822	443.75
442.043	482.75
442.264	562.75
442.486	585.75
442.707	531.75
442.928	491.75
443.149	474.75
443.371	482.75
443.592	535.75
443.813	632.75
444.034	658.75
444.255	546.75
444.476	474.75
444.698	454.75
444.919	452.75
445.14	579.75
445.361	508.75
445.582	511.75
445.803	578.75
446.024	633.75
446.245	675.75
446.466	597.75
446.687	525.75
446.908	482.75
447.129	442.75
447.35	441.75
447.571	427.75
447.792	436.75
448.013	416.75
448.234	438.75
448.455	484.75
448.675	605.75
448.896	666.75
449.117	576.75
449.338	582.75
449.559	639.75
449.779	710.75
450	569.75
450.221	485.75
450.442	456.75
450.662	449.75
450.883	446.75
451.104	470.75
451.324	440.75
451.545	422.75
451.766	404.75
451.986	388.75
452.207	388.75
452.428	374.75
452.648	395.75
452.869	404.75
453.089	391.75
453.31	409.75
453.53	428.75
453.751	401.75
453.971	382.75
454.192	406.75
454.412	419.75
454.633	400.75
454.853	388.75
455.073	384.75
455.294	415.75
455.514	471.75
455.734	464.75
455.955	383.75
456.175	380.75
456.395	374.75
456.616	373.75
456.836	370.75
457.056	356.75
457.276	353.75
457.497	358.75
457.717	360.75
457.937	367.75
458.157	377.75
458.377	372.75
458.598	380.75
458.818	452.75
459.038	530.75
459.258	524.75
459.478	466.75
459.698	409.75
459.918	418.75
460.138	388.75
460.358	400.75
460.578	397.75
460.798	402.75
461.018	397.75
461.238	388.75
461.458	396.75
461.678	363.75
461.898	386.75
462.118	402.75
462.338	418.75
462.558	401.75
462.777	415.75
462.997	407.75
463.217	420.75
463.437	415.75
463.657	399.75
463.876	419.75
464.096	417.75
464.316	423.75
464.536	408.75
464.755	446.75
464.975	421.75
465.195	481.75
465.414	578.75
465.634	505.75
465.854	465.75
466.073	434.75
466.293	391.75
466.512	390.75
466.732	404.75
466.951	381.75
467.171	388.75
467.391	402.75
467.61	391.75
467.829	418.75
468.049	444.75
468.268	404.75
468.488	386.75
468.707	378.75
468.927	381.75
469.146	371.75
469.365	375.75
469.585	390.75
469.804	398.75
470.023	414.75
470.243	406.75
470.462	394.75
470.681	408.75
470.901	408.75
471.12	378.75
471.339	387.75
471.558	392.75
471.777	406.75
471.997	396.75
472.216	398.75
472.435	442.75
472.654	430.75
472.873	414.75
473.092	402.75
473.311	391.75
473.53	407.75
473.749	403.75
473.968	450.75
474.187	532.75
474.406	554.75
474.625	450.75
474.844	404.75
475.063	414.75
475.282	385.75
475.501	402.75
475.72	406.75
475.939	412.75
476.158	410.75
476.377	404.75
476.596	417.75
476.814	424.75
477.033	430.75
477.252	441.75
477.471	434.75
477.69	418.75
477.908	425.75
478.127	446.75
478.346	439.75
478.564	432.75
478.783	431.75
479.002	432.75
479.22	442.75
479.439	464.75
479.658	483.75
479.876	486.75
480.095	513.75
480.313	498.75
480.532	501.75
480.751	479.75
480.969	515.75
481.188	577.75
481.406	606.75
481.624	534.75
481.843	498.75
482.061	494.75
482.28	467.75
482.498	466.75
482.717	454.75
482.935	459.75
483.153	489.75
483.372	450.75
483.59	473.75
483.808	479.75
484.027	482.75
484.245	472.75
484.463	460.75
484.681	498.75
484.9	479.75
485.118	492.75
485.336	495.75
485.554	501.75
485.772	495.75
485.99	465.75
486.209	450.75
486.427	481.75
486.645	506.75
486.863	507.75
487.081	532.75
487.299	495.75
487.517	499.75
487.735	491.75
487.953	500.75
488.171	507.75
488.389	526.75
488.607	496.75
488.825	481.75
489.043	498.75
489.261	490.75
489.479	482.75
489.696	511.75
489.914	521.75
490.132	511.75
490.35	527.75
490.568	530.75
490.786	546.75
491.003	547.75
491.221	564.75
491.439	560.75
491.657	567.75
491.874	578.75
492.092	568.75
492.31	572.75
492.527	580.75
492.745	559.75
492.963	573.75
493.18	584.75
493.398	608.75
493.615	618.75
493.833	609.75
494.05	600.75
494.268	596.75
494.485	582.75
494.703	594.75
494.92	597.75
495.138	588.75
495.355	592.75
495.573	616.75
495.79	582.75
496.008	583.75
496.225	587.75
496.442	603.75
496.66	583.75
496.877	588.75
497.094	598.75
497.312	579.75
497.529	617.75
497.746	604.75
497.963	624.75
498.181	631.75
498.398	635.75
498.615	665.75
498.832	659.75
499.049	650.75
499.267	662.75
499.484	667.75
499.701	719.75
499.918	694.75
500.135	698.75
500.352	729.75
500.569	756.75
500.786	756.75
501.003	740.75
501.22	726.75
501.437	717.75
501.654	721.75
501.871	729.75
502.088	707.75
