Data from 1961.PennyLincolnUp.Lamp.En5.5.200Scan.071719.P1._HRD10591_13-47-15-057.txt Node
Date: Thu Jul 18 13:47:15 EDT 2019
User: cochatt
Spectrometer: HR+D1059
Trigger mode: 1
Integration Time (sec): 1.000000E-1
Scans to average: 1
Electric dark correction enabled: true
Nonlinearity correction enabled: false
Boxcar width: 0
XAxis mode: Wavelengths
Number of Pixels in Spectrum: 2048
>>>>>Begin Spectral Data<<<<<
223.165	-22.62
223.4	-22.62
223.635	-22.62
223.869	-15.62
224.104	-11.62
224.338	-11.62
224.573	-15.62
224.808	-11.62
225.042	-0.62
225.277	2.38
225.511	-3.62
225.746	5.38
225.98	4.38
226.215	13.38
226.449	7.38
226.683	26.38
226.918	14.38
227.152	19.38
227.387	39.38
227.621	36.38
227.856	43.38
228.09	54.38
228.324	46.38
228.559	38.38
228.793	53.38
229.027	101.38
229.262	104.38
229.496	107.38
229.73	125.38
229.964	138.38
230.199	105.38
230.433	106.38
230.667	103.38
230.901	102.38
231.136	108.38
231.37	79.38
231.604	95.38
231.838	96.38
232.072	98.38
232.306	111.38
232.541	104.38
232.775	88.38
233.009	116.38
233.243	122.38
233.477	97.38
233.711	105.38
233.945	113.38
234.179	118.38
234.413	120.38
234.647	101.38
234.881	105.38
235.115	114.38
235.349	92.38
235.583	109.38
235.817	102.38
236.051	102.38
236.285	120.38
236.519	116.38
236.753	123.38
236.987	147.38
237.221	166.38
237.455	190.38
237.689	167.38
237.922	120.38
238.156	99.38
238.39	112.38
238.624	121.38
238.858	118.38
239.091	118.38
239.325	113.38
239.559	111.38
239.793	117.38
240.027	134.38
240.26	127.38
240.494	130.38
240.728	131.38
240.961	121.38
241.195	122.38
241.429	132.38
241.662	122.38
241.896	116.38
242.13	124.38
242.363	106.38
242.597	103.38
242.83	117.38
243.064	111.38
243.298	111.38
243.531	123.38
243.765	120.38
243.998	110.38
244.232	126.38
244.465	132.38
244.699	123.38
244.932	118.38
245.166	115.38
245.399	131.38
245.633	125.38
245.866	122.38
246.099	131.38
246.333	119.38
246.566	134.38
246.8	128.38
247.033	119.38
247.266	135.38
247.5	130.38
247.733	134.38
247.966	144.38
248.2	139.38
248.433	133.38
248.666	136.38
248.899	151.38
249.133	170.38
249.366	180.38
249.599	163.38
249.832	150.38
250.066	149.38
250.299	168.38
250.532	163.38
250.765	162.38
250.998	189.38
251.231	203.38
251.465	194.38
251.698	164.38
251.931	165.38
252.164	152.38
252.397	168.38
252.63	173.38
252.863	158.38
253.096	193.38
253.329	178.38
253.562	176.38
253.795	163.38
254.028	169.38
254.261	186.38
254.494	180.38
254.727	192.38
254.96	232.38
255.193	207.38
255.426	199.38
255.659	192.38
255.892	198.38
256.124	191.38
256.357	200.38
256.59	188.38
256.823	184.38
257.056	169.38
257.289	166.38
257.521	176.38
257.754	174.38
257.987	179.38
258.22	182.38
258.452	171.38
258.685	178.38
258.918	178.38
259.151	177.38
259.383	166.38
259.616	186.38
259.849	193.38
260.081	190.38
260.314	199.38
260.547	207.38
260.779	208.38
261.012	188.38
261.244	182.38
261.477	182.38
261.71	175.38
261.942	166.38
262.175	213.38
262.407	188.38
262.64	179.38
262.872	177.38
263.105	163.38
263.337	173.38
263.57	166.38
263.802	178.38
264.035	170.38
264.267	185.38
264.499	168.38
264.732	176.38
264.964	174.38
265.197	174.38
265.429	174.38
265.661	170.38
265.894	160.38
266.126	161.38
266.358	176.38
266.591	175.38
266.823	171.38
267.055	180.38
267.287	189.38
267.52	192.38
267.752	184.38
267.984	174.38
268.216	185.38
268.448	190.38
268.681	178.38
268.913	195.38
269.145	193.38
269.377	225.38
269.609	225.38
269.841	227.38
270.073	203.38
270.306	220.38
270.538	229.38
270.77	245.38
271.002	254.38
271.234	240.38
271.466	233.38
271.698	252.38
271.93	229.38
272.162	242.38
272.394	241.38
272.626	246.38
272.858	228.38
273.09	233.38
273.322	228.38
273.553	216.38
273.785	211.38
274.017	214.38
274.249	220.38
274.481	225.38
274.713	213.38
274.945	211.38
275.176	213.38
275.408	215.38
275.64	216.38
275.872	213.38
276.104	208.38
276.335	231.38
276.567	219.38
276.799	214.38
277.031	228.38
277.262	247.38
277.494	258.38
277.726	245.38
277.957	233.38
278.189	230.38
278.421	209.38
278.652	215.38
278.884	209.38
279.115	210.38
279.347	216.38
279.579	211.38
279.81	207.38
280.042	212.38
280.273	202.38
280.505	215.38
280.736	208.38
280.968	208.38
281.199	213.38
281.431	215.38
281.662	211.38
281.894	211.38
282.125	208.38
282.356	225.38
282.588	243.38
282.819	239.38
283.051	227.38
283.282	198.38
283.513	210.38
283.745	206.38
283.976	218.38
284.207	222.38
284.439	217.38
284.67	231.38
284.901	209.38
285.132	221.38
285.364	206.38
285.595	213.38
285.826	223.38
286.057	222.38
286.288	223.38
286.52	220.38
286.751	207.38
286.982	227.38
287.213	218.38
287.444	217.38
287.675	213.38
287.906	235.38
288.138	229.38
288.369	224.38
288.6	230.38
288.831	219.38
289.062	242.38
289.293	218.38
289.524	219.38
289.755	240.38
289.986	218.38
290.217	224.38
290.448	218.38
290.679	236.38
290.91	233.38
291.141	214.38
291.371	238.38
291.602	212.38
291.833	227.38
292.064	214.38
292.295	208.38
292.526	202.38
292.757	222.38
292.987	228.38
293.218	226.38
293.449	224.38
293.68	228.38
293.91	233.38
294.141	222.38
294.372	211.38
294.603	238.38
294.833	234.38
295.064	235.38
295.295	214.38
295.525	229.38
295.756	241.38
295.987	226.38
296.217	265.38
296.448	272.38
296.679	247.38
296.909	240.38
297.14	227.38
297.37	236.38
297.601	222.38
297.831	247.38
298.062	232.38
298.292	228.38
298.523	222.38
298.753	236.38
298.984	226.38
299.214	229.38
299.445	250.38
299.675	265.38
299.905	260.38
300.136	246.38
300.366	230.38
300.597	250.38
300.827	238.38
301.057	245.38
301.288	263.38
301.518	235.38
301.748	246.38
301.979	264.38
302.209	251.38
302.439	255.38
302.669	255.38
302.9	252.38
303.13	249.38
303.36	271.38
303.59	267.38
303.82	257.38
304.051	267.38
304.281	264.38
304.511	249.38
304.741	246.38
304.971	233.38
305.201	244.38
305.431	256.38
305.661	248.38
305.891	267.38
306.121	243.38
306.352	275.38
306.582	250.38
306.812	248.38
307.042	252.38
307.272	259.38
307.502	256.38
307.731	251.38
307.961	275.38
308.191	265.38
308.421	256.38
308.651	254.38
308.881	281.38
309.111	263.38
309.341	270.38
309.571	281.38
309.8	292.38
310.03	305.38
310.26	300.38
310.49	303.38
310.72	312.38
310.949	329.38
311.179	318.38
311.409	313.38
311.639	309.38
311.868	286.38
312.098	310.38
312.328	310.38
312.557	324.38
312.787	312.38
313.017	323.38
313.246	313.38
313.476	285.38
313.706	283.38
313.935	297.38
314.165	303.38
314.394	312.38
314.624	324.38
314.853	310.38
315.083	302.38
315.312	304.38
315.542	311.38
315.771	299.38
316.001	285.38
316.23	293.38
316.46	298.38
316.689	295.38
316.919	302.38
317.148	295.38
317.377	324.38
317.607	308.38
317.836	298.38
318.065	306.38
318.295	299.38
318.524	300.38
318.753	291.38
318.983	299.38
319.212	300.38
319.441	293.38
319.67	314.38
319.9	319.38
320.129	287.38
320.358	307.38
320.587	285.38
320.816	306.38
321.046	323.38
321.275	325.38
321.504	327.38
321.733	324.38
321.962	336.38
322.191	335.38
322.42	351.38
322.649	383.38
322.878	381.38
323.108	364.38
323.337	400.38
323.566	435.38
323.795	470.38
324.024	508.38
324.253	633.38
324.482	900.38
324.71	1395.38
324.939	1968.38
325.168	1619.38
325.397	849.38
325.626	574.38
325.855	491.38
326.084	460.38
326.313	447.38
326.542	449.38
326.77	464.38
326.999	564.38
327.228	804.38
327.457	1212.38
327.686	1453.38
327.914	960.38
328.143	663.38
328.372	549.38
328.6	512.38
328.829	489.38
329.058	488.38
329.287	496.38
329.515	464.38
329.744	425.38
329.972	427.38
330.201	465.38
330.43	486.38
330.658	488.38
330.887	499.38
331.115	514.38
331.344	412.38
331.572	391.38
331.801	392.38
332.03	383.38
332.258	377.38
332.486	366.38
332.715	371.38
332.943	364.38
333.172	350.38
333.4	375.38
333.629	383.38
333.857	381.38
334.085	382.38
334.314	400.38
334.542	455.38
334.771	444.38
334.999	404.38
335.227	390.38
335.455	356.38
335.684	332.38
335.912	338.38
336.14	332.38
336.369	359.38
336.597	357.38
336.825	369.38
337.053	342.38
337.281	318.38
337.51	334.38
337.738	358.38
337.966	346.38
338.194	346.38
338.422	363.38
338.65	356.38
338.878	337.38
339.106	319.38
339.334	330.38
339.562	348.38
339.79	322.38
340.018	332.38
340.246	329.38
340.474	328.38
340.702	333.38
340.93	336.38
341.158	348.38
341.386	321.38
341.614	350.38
341.842	335.38
342.07	353.38
342.298	339.38
342.526	342.38
342.754	305.38
342.981	306.38
343.209	336.38
343.437	316.38
343.665	323.38
343.893	310.38
344.12	337.38
344.348	348.38
344.576	342.38
344.804	349.38
345.031	338.38
345.259	340.38
345.487	346.38
345.714	360.38
345.942	324.38
346.17	328.38
346.397	314.38
346.625	327.38
346.853	332.38
347.08	337.38
347.308	343.38
347.535	343.38
347.763	345.38
347.99	363.38
348.218	350.38
348.445	336.38
348.673	331.38
348.9	328.38
349.128	321.38
349.355	324.38
349.583	318.38
349.81	311.38
350.037	309.38
350.265	307.38
350.492	335.38
350.72	321.38
350.947	327.38
351.174	341.38
351.402	346.38
351.629	332.38
351.856	320.38
352.083	341.38
352.311	347.38
352.538	343.38
352.765	343.38
352.992	331.38
353.22	346.38
353.447	325.38
353.674	329.38
353.901	322.38
354.128	314.38
354.355	301.38
354.583	306.38
354.81	298.38
355.037	280.38
355.264	305.38
355.491	302.38
355.718	302.38
355.945	312.38
356.172	308.38
356.399	303.38
356.626	291.38
356.853	297.38
357.08	287.38
357.307	295.38
357.534	300.38
357.761	291.38
357.988	287.38
358.215	299.38
358.441	300.38
358.668	300.38
358.895	311.38
359.122	299.38
359.349	315.38
359.576	315.38
359.802	332.38
360.029	363.38
360.256	379.38
360.483	372.38
360.709	324.38
360.936	325.38
361.163	330.38
361.39	323.38
361.616	323.38
361.843	327.38
362.07	328.38
362.296	316.38
362.523	344.38
362.749	316.38
362.976	319.38
363.203	331.38
363.429	299.38
363.656	318.38
363.882	283.38
364.109	323.38
364.335	318.38
364.562	327.38
364.788	314.38
365.015	310.38
365.241	293.38
365.468	315.38
365.694	314.38
365.92	322.38
366.147	324.38
366.373	315.38
366.599	331.38
366.826	302.38
367.052	306.38
367.278	323.38
367.505	304.38
367.731	309.38
367.957	310.38
368.184	305.38
368.41	305.38
368.636	339.38
368.862	318.38
369.089	321.38
369.315	309.38
369.541	304.38
369.767	312.38
369.993	309.38
370.219	290.38
370.445	295.38
370.672	297.38
370.898	298.38
371.124	316.38
371.35	305.38
371.576	299.38
371.802	299.38
372.028	283.38
372.254	293.38
372.48	337.38
372.706	311.38
372.932	325.38
373.158	289.38
373.384	323.38
373.61	316.38
373.835	310.38
374.061	308.38
374.287	294.38
374.513	296.38
374.739	296.38
374.965	314.38
375.191	308.38
375.416	304.38
375.642	300.38
375.868	315.38
376.094	314.38
376.319	296.38
376.545	310.38
376.771	303.38
376.997	303.38
377.222	321.38
377.448	306.38
377.674	302.38
377.899	303.38
378.125	309.38
378.35	300.38
378.576	290.38
378.802	296.38
379.027	310.38
379.253	300.38
379.478	295.38
379.704	316.38
379.929	322.38
380.155	297.38
380.38	292.38
380.606	299.38
380.831	300.38
381.057	312.38
381.282	315.38
381.507	310.38
381.733	300.38
381.958	299.38
382.184	319.38
382.409	327.38
382.634	319.38
382.86	313.38
383.085	320.38
383.31	325.38
383.535	322.38
383.761	320.38
383.986	314.38
384.211	337.38
384.436	321.38
384.662	314.38
384.887	322.38
385.112	324.38
385.337	335.38
385.562	320.38
385.787	316.38
386.013	327.38
386.238	336.38
386.463	335.38
386.688	343.38
386.913	338.38
387.138	333.38
387.363	316.38
387.588	332.38
387.813	328.38
388.038	331.38
388.263	318.38
388.488	335.38
388.713	327.38
388.938	330.38
389.163	337.38
389.387	325.38
389.612	337.38
389.837	327.38
390.062	329.38
390.287	329.38
390.512	343.38
390.736	321.38
390.961	350.38
391.186	333.38
391.411	332.38
391.636	334.38
391.86	338.38
392.085	336.38
392.31	337.38
392.534	332.38
392.759	321.38
392.984	329.38
393.208	320.38
393.433	338.38
393.658	326.38
393.882	327.38
394.107	337.38
394.331	327.38
394.556	312.38
394.78	324.38
395.005	337.38
395.229	346.38
395.454	341.38
395.678	351.38
395.903	378.38
396.127	364.38
396.352	360.38
396.576	360.38
396.801	345.38
397.025	353.38
397.249	367.38
397.474	336.38
397.698	358.38
397.922	364.38
398.147	360.38
398.371	380.38
398.595	364.38
398.82	358.38
399.044	373.38
399.268	388.38
399.492	397.38
399.717	408.38
399.941	433.38
400.165	445.38
400.389	452.38
400.613	424.38
400.837	384.38
401.062	392.38
401.286	383.38
401.51	373.38
401.734	376.38
401.958	379.38
402.182	388.38
402.406	389.38
402.63	388.38
402.854	391.38
403.078	376.38
403.302	391.38
403.526	404.38
403.75	386.38
403.974	388.38
404.198	391.38
404.422	392.38
404.645	387.38
404.869	401.38
405.093	418.38
405.317	463.38
405.541	472.38
405.765	433.38
405.988	410.38
406.212	436.38
406.436	426.38
406.66	452.38
406.883	424.38
407.107	445.38
407.331	474.38
407.555	511.38
407.778	529.38
408.002	480.38
408.226	446.38
408.449	432.38
408.673	441.38
408.896	472.38
409.12	510.38
409.344	452.38
409.567	423.38
409.791	408.38
410.014	411.38
410.238	402.38
410.461	391.38
410.685	414.38
410.908	388.38
411.132	451.38
411.355	466.38
411.578	432.38
411.802	402.38
412.025	403.38
412.249	404.38
412.472	427.38
412.695	436.38
412.919	417.38
413.142	393.38
413.365	389.38
413.589	372.38
413.812	381.38
414.035	371.38
414.258	390.38
414.482	375.38
414.705	372.38
414.928	375.38
415.151	363.38
415.374	368.38
415.597	358.38
415.821	385.38
416.044	354.38
416.267	373.38
416.49	378.38
416.713	374.38
416.936	372.38
417.159	354.38
417.382	372.38
417.605	392.38
417.828	372.38
418.051	382.38
418.274	370.38
418.497	374.38
418.72	358.38
418.943	363.38
419.166	383.38
419.389	401.38
419.611	363.38
419.834	402.38
420.057	392.38
420.28	382.38
420.503	389.38
420.726	385.38
420.948	397.38
421.171	441.38
421.394	463.38
421.617	400.38
421.839	388.38
422.062	402.38
422.285	411.38
422.507	464.38
422.73	500.38
422.953	482.38
423.175	419.38
423.398	406.38
423.621	402.38
423.843	415.38
424.066	445.38
424.288	411.38
424.511	436.38
424.733	482.38
424.956	546.38
425.178	528.38
425.401	531.38
425.623	538.38
425.846	458.38
426.068	442.38
426.291	428.38
426.513	415.38
426.735	435.38
426.958	467.38
427.18	560.38
427.402	632.38
427.625	675.38
427.847	627.38
428.069	546.38
428.292	492.38
428.514	426.38
428.736	418.38
428.958	424.38
429.181	394.38
429.403	403.38
429.625	406.38
429.847	429.38
430.069	479.38
430.292	486.38
430.514	424.38
430.736	400.38
430.958	398.38
431.18	397.38
431.402	383.38
431.624	366.38
431.846	380.38
432.068	360.38
432.29	368.38
432.512	359.38
432.734	378.38
432.956	396.38
433.178	405.38
433.4	403.38
433.622	373.38
433.844	370.38
434.066	379.38
434.287	378.38
434.509	398.38
434.731	396.38
434.953	394.38
435.175	405.38
435.397	442.38
435.618	425.38
435.84	480.38
436.062	560.38
436.284	599.38
436.505	496.38
436.727	439.38
436.949	415.38
437.17	406.38
437.392	389.38
437.614	417.38
437.835	463.38
438.057	530.38
438.278	596.38
438.5	586.38
438.721	637.38
438.943	610.38
439.165	499.38
439.386	459.38
439.608	452.38
439.829	447.38
440.05	474.38
440.272	496.38
440.493	480.38
440.715	450.38
440.936	414.38
441.158	418.38
441.379	427.38
441.6	416.38
441.822	450.38
442.043	463.38
442.264	538.38
442.486	570.38
442.707	479.38
442.928	437.38
443.149	455.38
443.371	463.38
443.592	516.38
443.813	559.38
444.034	614.38
444.255	498.38
444.476	453.38
444.698	454.38
444.919	442.38
445.14	527.38
445.361	503.38
445.582	465.38
445.803	537.38
446.024	605.38
446.245	643.38
446.466	563.38
446.687	503.38
446.908	466.38
447.129	412.38
447.35	415.38
447.571	404.38
447.792	406.38
448.013	423.38
448.234	424.38
448.455	466.38
448.675	540.38
448.896	617.38
449.117	555.38
449.338	506.38
449.559	592.38
449.779	653.38
450	552.38
450.221	460.38
450.442	432.38
450.662	396.38
450.883	410.38
451.104	435.38
451.324	408.38
451.545	400.38
451.766	363.38
451.986	380.38
452.207	378.38
452.428	377.38
452.648	375.38
452.869	370.38
453.089	378.38
453.31	388.38
453.53	367.38
453.751	366.38
453.971	379.38
454.192	380.38
454.412	395.38
454.633	395.38
454.853	364.38
455.073	364.38
455.294	392.38
455.514	441.38
455.734	430.38
455.955	392.38
456.175	355.38
456.395	360.38
456.616	356.38
456.836	354.38
457.056	350.38
457.276	351.38
457.497	342.38
457.717	338.38
457.937	363.38
458.157	368.38
458.377	374.38
458.598	395.38
458.818	425.38
459.038	504.38
459.258	520.38
459.478	426.38
459.698	388.38
459.918	374.38
460.138	374.38
460.358	372.38
460.578	390.38
460.798	386.38
461.018	385.38
461.238	366.38
461.458	378.38
461.678	379.38
461.898	377.38
462.118	382.38
462.338	374.38
462.558	380.38
462.777	383.38
462.997	385.38
463.217	388.38
463.437	403.38
463.657	406.38
463.876	406.38
464.096	401.38
464.316	402.38
464.536	386.38
464.755	404.38
464.975	413.38
465.195	461.38
465.414	525.38
465.634	468.38
465.854	434.38
466.073	388.38
466.293	363.38
466.512	365.38
466.732	370.38
466.951	367.38
467.171	374.38
467.391	393.38
467.61	397.38
467.829	396.38
468.049	408.38
468.268	412.38
468.488	382.38
468.707	375.38
468.927	351.38
469.146	355.38
469.365	368.38
469.585	367.38
469.804	381.38
470.023	386.38
470.243	397.38
470.462	382.38
470.681	410.38
470.901	396.38
471.12	378.38
471.339	378.38
471.558	388.38
471.777	386.38
471.997	362.38
472.216	400.38
472.435	434.38
472.654	409.38
472.873	394.38
473.092	390.38
473.311	386.38
473.53	368.38
473.749	403.38
473.968	451.38
474.187	514.38
474.406	541.38
474.625	448.38
474.844	413.38
475.063	402.38
475.282	388.38
475.501	400.38
475.72	379.38
475.939	375.38
476.158	381.38
476.377	376.38
476.596	385.38
476.814	406.38
477.033	419.38
477.252	397.38
477.471	423.38
477.69	401.38
477.908	404.38
478.127	403.38
478.346	381.38
478.564	407.38
478.783	412.38
479.002	415.38
479.22	409.38
479.439	455.38
479.658	461.38
479.876	475.38
480.095	448.38
480.313	486.38
480.532	447.38
480.751	441.38
480.969	487.38
481.188	523.38
481.406	596.38
481.624	489.38
481.843	478.38
482.061	440.38
482.28	451.38
482.498	460.38
482.717	431.38
482.935	437.38
483.153	446.38
483.372	470.38
483.59	438.38
483.808	439.38
484.027	447.38
484.245	438.38
484.463	442.38
484.681	443.38
484.9	457.38
485.118	462.38
485.336	427.38
485.554	461.38
485.772	460.38
485.99	451.38
486.209	446.38
486.427	476.38
486.645	476.38
486.863	507.38
487.081	488.38
487.299	467.38
487.517	486.38
487.735	488.38
487.953	477.38
488.171	490.38
488.389	489.38
488.607	487.38
488.825	483.38
489.043	467.38
489.261	470.38
489.479	485.38
489.696	495.38
489.914	485.38
490.132	485.38
490.35	518.38
490.568	502.38
490.786	515.38
491.003	530.38
491.221	520.38
491.439	524.38
491.657	551.38
491.874	521.38
492.092	551.38
492.31	545.38
492.527	552.38
492.745	529.38
492.963	564.38
493.18	516.38
493.398	560.38
493.615	558.38
493.833	565.38
494.05	554.38
494.268	578.38
494.485	564.38
494.703	546.38
494.92	568.38
495.138	578.38
495.355	548.38
495.573	560.38
495.79	547.38
496.008	556.38
496.225	566.38
496.442	574.38
496.66	570.38
496.877	541.38
497.094	584.38
497.312	583.38
497.529	578.38
497.746	576.38
497.963	590.38
498.181	622.38
498.398	615.38
498.615	606.38
498.832	612.38
499.049	618.38
499.267	640.38
499.484	639.38
499.701	675.38
499.918	674.38
500.135	689.38
500.352	692.38
500.569	726.38
500.786	707.38
501.003	757.38
501.22	724.38
501.437	682.38
501.654	699.38
501.871	702.38
502.088	688.38
