Data from 1961.PennyLincolnUp.Lamp.En5.5.200Scan.071719.P1._HRD10591_13-47-02-057.txt Node
Date: Thu Jul 18 13:47:02 EDT 2019
User: cochatt
Spectrometer: HR+D1059
Trigger mode: 1
Integration Time (sec): 1.000000E-1
Scans to average: 1
Electric dark correction enabled: true
Nonlinearity correction enabled: false
Boxcar width: 0
XAxis mode: Wavelengths
Number of Pixels in Spectrum: 2048
>>>>>Begin Spectral Data<<<<<
223.165	-14.44
223.4	-14.44
223.635	-14.44
223.869	-19.44
224.104	-7.44
224.338	-1.44
224.573	-10.44
224.808	-9.44
225.042	-9.44
225.277	-8.44
225.511	-5.44
225.746	5.56
225.98	13.56
226.215	-1.44
226.449	-4.44
226.683	24.56
226.918	28.56
227.152	19.56
227.387	32.56
227.621	34.56
227.856	26.56
228.09	65.56
228.324	56.56
228.559	43.56
228.793	64.56
229.027	94.56
229.262	102.56
229.496	90.56
229.73	126.56
229.964	138.56
230.199	133.56
230.433	111.56
230.667	103.56
230.901	107.56
231.136	115.56
231.37	106.56
231.604	109.56
231.838	89.56
232.072	92.56
232.306	104.56
232.541	102.56
232.775	94.56
233.009	119.56
233.243	102.56
233.477	89.56
233.711	115.56
233.945	102.56
234.179	114.56
234.413	105.56
234.647	122.56
234.881	117.56
235.115	107.56
235.349	122.56
235.583	121.56
235.817	121.56
236.051	115.56
236.285	132.56
236.519	117.56
236.753	120.56
236.987	149.56
237.221	154.56
237.455	195.56
237.689	168.56
237.922	124.56
238.156	117.56
238.39	103.56
238.624	110.56
238.858	117.56
239.091	99.56
239.325	101.56
239.559	112.56
239.793	119.56
240.027	121.56
240.26	133.56
240.494	132.56
240.728	121.56
240.961	142.56
241.195	115.56
241.429	125.56
241.662	120.56
241.896	108.56
242.13	113.56
242.363	104.56
242.597	105.56
242.83	110.56
243.064	104.56
243.298	138.56
243.531	133.56
243.765	130.56
243.998	135.56
244.232	106.56
244.465	120.56
244.699	122.56
244.932	113.56
245.166	122.56
245.399	126.56
245.633	128.56
245.866	116.56
246.099	136.56
246.333	136.56
246.566	121.56
246.8	128.56
247.033	132.56
247.266	139.56
247.5	141.56
247.733	132.56
247.966	134.56
248.2	146.56
248.433	145.56
248.666	130.56
248.899	134.56
249.133	158.56
249.366	166.56
249.599	166.56
249.832	152.56
250.066	149.56
250.299	166.56
250.532	172.56
250.765	169.56
250.998	173.56
251.231	185.56
251.465	178.56
251.698	163.56
251.931	165.56
252.164	172.56
252.397	171.56
252.63	161.56
252.863	164.56
253.096	168.56
253.329	181.56
253.562	174.56
253.795	182.56
254.028	171.56
254.261	184.56
254.494	167.56
254.727	192.56
254.96	223.56
255.193	212.56
255.426	202.56
255.659	198.56
255.892	206.56
256.124	191.56
256.357	183.56
256.59	176.56
256.823	182.56
257.056	180.56
257.289	158.56
257.521	174.56
257.754	181.56
257.987	176.56
258.22	171.56
258.452	172.56
258.685	161.56
258.918	170.56
259.151	165.56
259.383	186.56
259.616	170.56
259.849	172.56
260.081	192.56
260.314	204.56
260.547	205.56
260.779	177.56
261.012	206.56
261.244	190.56
261.477	183.56
261.71	192.56
261.942	175.56
262.175	183.56
262.407	192.56
262.64	169.56
262.872	176.56
263.105	144.56
263.337	168.56
263.57	161.56
263.802	168.56
264.035	170.56
264.267	175.56
264.499	171.56
264.732	184.56
264.964	176.56
265.197	173.56
265.429	180.56
265.661	169.56
265.894	171.56
266.126	172.56
266.358	161.56
266.591	160.56
266.823	177.56
267.055	192.56
267.287	180.56
267.52	180.56
267.752	174.56
267.984	195.56
268.216	178.56
268.448	192.56
268.681	165.56
268.913	196.56
269.145	203.56
269.377	213.56
269.609	201.56
269.841	195.56
270.073	214.56
270.306	232.56
270.538	244.56
270.77	228.56
271.002	228.56
271.234	226.56
271.466	245.56
271.698	228.56
271.93	260.56
272.162	246.56
272.394	256.56
272.626	234.56
272.858	228.56
273.09	222.56
273.322	221.56
273.553	235.56
273.785	226.56
274.017	206.56
274.249	198.56
274.481	216.56
274.713	207.56
274.945	236.56
275.176	197.56
275.408	214.56
275.64	201.56
275.872	204.56
276.104	209.56
276.335	201.56
276.567	219.56
276.799	203.56
277.031	236.56
277.262	229.56
277.494	233.56
277.726	238.56
277.957	231.56
278.189	221.56
278.421	201.56
278.652	218.56
278.884	193.56
279.115	208.56
279.347	202.56
279.579	200.56
279.81	218.56
280.042	221.56
280.273	212.56
280.505	195.56
280.736	218.56
280.968	188.56
281.199	224.56
281.431	204.56
281.662	206.56
281.894	217.56
282.125	194.56
282.356	248.56
282.588	240.56
282.819	264.56
283.051	225.56
283.282	210.56
283.513	213.56
283.745	225.56
283.976	213.56
284.207	211.56
284.439	215.56
284.67	215.56
284.901	224.56
285.132	209.56
285.364	207.56
285.595	232.56
285.826	211.56
286.057	212.56
286.288	205.56
286.52	218.56
286.751	231.56
286.982	205.56
287.213	221.56
287.444	235.56
287.675	230.56
287.906	228.56
288.138	230.56
288.369	229.56
288.6	221.56
288.831	224.56
289.062	237.56
289.293	222.56
289.524	216.56
289.755	237.56
289.986	229.56
290.217	213.56
290.448	217.56
290.679	229.56
290.91	213.56
291.141	224.56
291.371	218.56
291.602	241.56
291.833	231.56
292.064	212.56
292.295	228.56
292.526	213.56
292.757	201.56
292.987	224.56
293.218	216.56
293.449	226.56
293.68	213.56
293.91	230.56
294.141	234.56
294.372	226.56
294.603	240.56
294.833	208.56
295.064	224.56
295.295	250.56
295.525	234.56
295.756	225.56
295.987	242.56
296.217	255.56
296.448	270.56
296.679	230.56
296.909	213.56
297.14	229.56
297.37	229.56
297.601	203.56
297.831	228.56
298.062	219.56
298.292	228.56
298.523	234.56
298.753	227.56
298.984	249.56
299.214	235.56
299.445	229.56
299.675	236.56
299.905	247.56
300.136	244.56
300.366	232.56
300.597	233.56
300.827	244.56
301.057	246.56
301.288	249.56
301.518	270.56
301.748	240.56
301.979	249.56
302.209	244.56
302.439	258.56
302.669	230.56
302.9	248.56
303.13	248.56
303.36	262.56
303.59	246.56
303.82	270.56
304.051	263.56
304.281	258.56
304.511	264.56
304.741	262.56
304.971	250.56
305.201	250.56
305.431	264.56
305.661	250.56
305.891	259.56
306.121	245.56
306.352	243.56
306.582	255.56
306.812	246.56
307.042	236.56
307.272	249.56
307.502	262.56
307.731	267.56
307.961	258.56
308.191	258.56
308.421	249.56
308.651	245.56
308.881	269.56
309.111	268.56
309.341	281.56
309.571	278.56
309.8	279.56
310.03	285.56
310.26	292.56
310.49	284.56
310.72	302.56
310.949	304.56
311.179	330.56
311.409	292.56
311.639	296.56
311.868	291.56
312.098	311.56
312.328	308.56
312.557	335.56
312.787	316.56
313.017	333.56
313.246	316.56
313.476	284.56
313.706	298.56
313.935	294.56
314.165	310.56
314.394	314.56
314.624	318.56
314.853	303.56
315.083	293.56
315.312	290.56
315.542	298.56
315.771	285.56
316.001	284.56
316.23	283.56
316.46	296.56
316.689	283.56
316.919	290.56
317.148	316.56
317.377	315.56
317.607	300.56
317.836	313.56
318.065	307.56
318.295	298.56
318.524	296.56
318.753	275.56
318.983	286.56
319.212	302.56
319.441	282.56
319.67	324.56
319.9	315.56
320.129	297.56
320.358	304.56
320.587	322.56
320.816	306.56
321.046	308.56
321.275	310.56
321.504	315.56
321.733	307.56
321.962	320.56
322.191	349.56
322.42	333.56
322.649	391.56
322.878	386.56
323.108	372.56
323.337	393.56
323.566	395.56
323.795	437.56
324.024	503.56
324.253	592.56
324.482	853.56
324.71	1358.56
324.939	1932.56
325.168	1573.56
325.397	832.56
325.626	547.56
325.855	458.56
326.084	410.56
326.313	411.56
326.542	417.56
326.77	456.56
326.999	566.56
327.228	774.56
327.457	1181.56
327.686	1395.56
327.914	946.56
328.143	638.56
328.372	536.56
328.6	475.56
328.829	472.56
329.058	474.56
329.287	468.56
329.515	426.56
329.744	420.56
329.972	427.56
330.201	447.56
330.43	475.56
330.658	491.56
330.887	504.56
331.115	485.56
331.344	426.56
331.572	400.56
331.801	388.56
332.03	363.56
332.258	378.56
332.486	360.56
332.715	354.56
332.943	350.56
333.172	338.56
333.4	364.56
333.629	374.56
333.857	396.56
334.085	381.56
334.314	402.56
334.542	413.56
334.771	440.56
334.999	393.56
335.227	378.56
335.455	368.56
335.684	348.56
335.912	353.56
336.14	345.56
336.369	341.56
336.597	351.56
336.825	345.56
337.053	340.56
337.281	356.56
337.51	336.56
337.738	349.56
337.966	340.56
338.194	350.56
338.422	345.56
338.65	340.56
338.878	320.56
339.106	339.56
339.334	340.56
339.562	338.56
339.79	314.56
340.018	338.56
340.246	343.56
340.474	351.56
340.702	349.56
340.93	336.56
341.158	337.56
341.386	327.56
341.614	308.56
341.842	316.56
342.07	323.56
342.298	323.56
342.526	320.56
342.754	335.56
342.981	324.56
343.209	323.56
343.437	320.56
343.665	327.56
343.893	325.56
344.12	339.56
344.348	332.56
344.576	339.56
344.804	331.56
345.031	339.56
345.259	363.56
345.487	365.56
345.714	348.56
345.942	331.56
346.17	349.56
346.397	317.56
346.625	322.56
346.853	316.56
347.08	314.56
347.308	338.56
347.535	327.56
347.763	319.56
347.99	318.56
348.218	331.56
348.445	312.56
348.673	347.56
348.9	330.56
349.128	313.56
349.355	335.56
349.583	324.56
349.81	309.56
350.037	326.56
350.265	330.56
350.492	330.56
350.72	313.56
350.947	330.56
351.174	342.56
351.402	333.56
351.629	330.56
351.856	322.56
352.083	343.56
352.311	345.56
352.538	349.56
352.765	341.56
352.992	334.56
353.22	340.56
353.447	331.56
353.674	338.56
353.901	317.56
354.128	311.56
354.355	310.56
354.583	304.56
354.81	307.56
355.037	305.56
355.264	307.56
355.491	298.56
355.718	300.56
355.945	295.56
356.172	296.56
356.399	310.56
356.626	314.56
356.853	316.56
357.08	279.56
357.307	291.56
357.534	298.56
357.761	290.56
357.988	300.56
358.215	298.56
358.441	297.56
358.668	309.56
358.895	301.56
359.122	314.56
359.349	308.56
359.576	332.56
359.802	360.56
360.029	376.56
360.256	382.56
360.483	353.56
360.709	341.56
360.936	343.56
361.163	337.56
361.39	307.56
361.616	323.56
361.843	324.56
362.07	321.56
362.296	321.56
362.523	330.56
362.749	330.56
362.976	320.56
363.203	341.56
363.429	321.56
363.656	316.56
363.882	286.56
364.109	288.56
364.335	306.56
364.562	315.56
364.788	326.56
365.015	308.56
365.241	323.56
365.468	331.56
365.694	323.56
365.92	339.56
366.147	306.56
366.373	313.56
366.599	317.56
366.826	308.56
367.052	300.56
367.278	304.56
367.505	332.56
367.731	314.56
367.957	333.56
368.184	317.56
368.41	320.56
368.636	333.56
368.862	310.56
369.089	304.56
369.315	295.56
369.541	324.56
369.767	308.56
369.993	299.56
370.219	312.56
370.445	317.56
370.672	290.56
370.898	324.56
371.124	298.56
371.35	310.56
371.576	294.56
371.802	300.56
372.028	303.56
372.254	308.56
372.48	299.56
372.706	310.56
372.932	283.56
373.158	292.56
373.384	312.56
373.61	331.56
373.835	319.56
374.061	308.56
374.287	320.56
374.513	310.56
374.739	304.56
374.965	333.56
375.191	320.56
375.416	309.56
375.642	307.56
375.868	316.56
376.094	308.56
376.319	307.56
376.545	304.56
376.771	312.56
376.997	298.56
377.222	301.56
377.448	311.56
377.674	301.56
377.899	306.56
378.125	308.56
378.35	314.56
378.576	311.56
378.802	306.56
379.027	288.56
379.253	307.56
379.478	308.56
379.704	294.56
379.929	317.56
380.155	310.56
380.38	319.56
380.606	316.56
380.831	325.56
381.057	305.56
381.282	307.56
381.507	284.56
381.733	320.56
381.958	313.56
382.184	311.56
382.409	301.56
382.634	324.56
382.86	317.56
383.085	312.56
383.31	318.56
383.535	331.56
383.761	326.56
383.986	327.56
384.211	320.56
384.436	308.56
384.662	329.56
384.887	324.56
385.112	323.56
385.337	332.56
385.562	328.56
385.787	345.56
386.013	350.56
386.238	344.56
386.463	339.56
386.688	323.56
386.913	325.56
387.138	321.56
387.363	334.56
387.588	308.56
387.813	321.56
388.038	324.56
388.263	321.56
388.488	330.56
388.713	323.56
388.938	334.56
389.163	346.56
389.387	343.56
389.612	333.56
389.837	336.56
390.062	333.56
390.287	348.56
390.512	337.56
390.736	333.56
390.961	324.56
391.186	352.56
391.411	334.56
391.636	310.56
391.86	349.56
392.085	336.56
392.31	326.56
392.534	326.56
392.759	333.56
392.984	318.56
393.208	330.56
393.433	349.56
393.658	326.56
393.882	333.56
394.107	339.56
394.331	344.56
394.556	317.56
394.78	353.56
395.005	356.56
395.229	343.56
395.454	344.56
395.678	356.56
395.903	343.56
396.127	346.56
396.352	358.56
396.576	366.56
396.801	352.56
397.025	357.56
397.249	350.56
397.474	344.56
397.698	323.56
397.922	365.56
398.147	358.56
398.371	380.56
398.595	376.56
398.82	352.56
399.044	373.56
399.268	376.56
399.492	404.56
399.717	403.56
399.941	429.56
400.165	457.56
400.389	445.56
400.613	423.56
400.837	410.56
401.062	418.56
401.286	384.56
401.51	368.56
401.734	377.56
401.958	370.56
402.182	390.56
402.406	399.56
402.63	374.56
402.854	372.56
403.078	391.56
403.302	398.56
403.526	372.56
403.75	403.56
403.974	404.56
404.198	381.56
404.422	380.56
404.645	412.56
404.869	399.56
405.093	421.56
405.317	472.56
405.541	482.56
405.765	454.56
405.988	416.56
406.212	421.56
406.436	436.56
406.66	459.56
406.883	420.56
407.107	449.56
407.331	483.56
407.555	521.56
407.778	528.56
408.002	458.56
408.226	432.56
408.449	440.56
408.673	432.56
408.896	486.56
409.12	488.56
409.344	462.56
409.567	403.56
409.791	402.56
410.014	421.56
410.238	397.56
410.461	377.56
410.685	393.56
410.908	428.56
411.132	440.56
411.355	446.56
411.578	439.56
411.802	384.56
412.025	408.56
412.249	399.56
412.472	418.56
412.695	455.56
412.919	447.56
413.142	413.56
413.365	406.56
413.589	399.56
413.812	382.56
414.035	396.56
414.258	384.56
414.482	377.56
414.705	374.56
414.928	380.56
415.151	373.56
415.374	361.56
415.597	363.56
415.821	360.56
416.044	380.56
416.267	361.56
416.49	382.56
416.713	369.56
416.936	356.56
417.159	374.56
417.382	375.56
417.605	380.56
417.828	376.56
418.051	387.56
418.274	384.56
418.497	375.56
418.72	372.56
418.943	382.56
419.166	384.56
419.389	381.56
419.611	400.56
419.834	398.56
420.057	408.56
420.28	396.56
420.503	400.56
420.726	392.56
420.948	427.56
421.171	437.56
421.394	442.56
421.617	429.56
421.839	410.56
422.062	397.56
422.285	410.56
422.507	422.56
422.73	516.56
422.953	474.56
423.175	428.56
423.398	410.56
423.621	407.56
423.843	412.56
424.066	416.56
424.288	418.56
424.511	467.56
424.733	496.56
424.956	534.56
425.178	509.56
425.401	503.56
425.623	515.56
425.846	457.56
426.068	427.56
426.291	413.56
426.513	422.56
426.735	454.56
426.958	455.56
427.18	530.56
427.402	616.56
427.625	691.56
427.847	632.56
428.069	541.56
428.292	470.56
428.514	409.56
428.736	411.56
428.958	417.56
429.181	401.56
429.403	395.56
429.625	416.56
429.847	437.56
430.069	464.56
430.292	475.56
430.514	412.56
430.736	389.56
430.958	413.56
431.18	389.56
431.402	380.56
431.624	380.56
431.846	385.56
432.068	372.56
432.29	385.56
432.512	376.56
432.734	396.56
432.956	377.56
433.178	376.56
433.4	414.56
433.622	388.56
433.844	378.56
434.066	385.56
434.287	390.56
434.509	372.56
434.731	380.56
434.953	380.56
435.175	394.56
435.397	424.56
435.618	426.56
435.84	464.56
436.062	553.56
436.284	586.56
436.505	516.56
436.727	466.56
436.949	397.56
437.17	402.56
437.392	412.56
437.614	429.56
437.835	455.56
438.057	530.56
438.278	585.56
438.5	621.56
438.721	631.56
438.943	613.56
439.165	480.56
439.386	452.56
439.608	438.56
439.829	427.56
440.05	468.56
440.272	490.56
440.493	458.56
440.715	418.56
440.936	395.56
441.158	409.56
441.379	419.56
441.6	423.56
441.822	424.56
442.043	481.56
442.264	540.56
442.486	566.56
442.707	478.56
442.928	452.56
443.149	454.56
443.371	473.56
443.592	502.56
443.813	584.56
444.034	618.56
444.255	507.56
444.476	457.56
444.698	434.56
444.919	436.56
445.14	522.56
445.361	469.56
445.582	468.56
445.803	533.56
446.024	591.56
446.245	619.56
446.466	560.56
446.687	473.56
446.908	432.56
447.129	416.56
447.35	422.56
447.571	403.56
447.792	400.56
448.013	428.56
448.234	443.56
448.455	484.56
448.675	565.56
448.896	621.56
449.117	525.56
449.338	522.56
449.559	590.56
449.779	652.56
450	532.56
450.221	456.56
450.442	424.56
450.662	398.56
450.883	426.56
451.104	419.56
451.324	427.56
451.545	401.56
451.766	392.56
451.986	362.56
452.207	377.56
452.428	356.56
452.648	364.56
452.869	376.56
453.089	369.56
453.31	367.56
453.53	355.56
453.751	355.56
453.971	376.56
454.192	388.56
454.412	381.56
454.633	378.56
454.853	352.56
455.073	372.56
455.294	388.56
455.514	441.56
455.734	434.56
455.955	392.56
456.175	356.56
456.395	359.56
456.616	359.56
456.836	355.56
457.056	358.56
457.276	331.56
457.497	347.56
457.717	356.56
457.937	347.56
458.157	352.56
458.377	371.56
458.598	362.56
458.818	420.56
459.038	503.56
459.258	478.56
459.478	414.56
459.698	381.56
459.918	369.56
460.138	381.56
460.358	394.56
460.578	381.56
460.798	392.56
461.018	384.56
461.238	370.56
461.458	380.56
461.678	387.56
461.898	376.56
462.118	371.56
462.338	396.56
462.558	390.56
462.777	399.56
462.997	402.56
463.217	396.56
463.437	412.56
463.657	408.56
463.876	413.56
464.096	389.56
464.316	393.56
464.536	429.56
464.755	402.56
464.975	415.56
465.195	462.56
465.414	536.56
465.634	444.56
465.854	414.56
466.073	388.56
466.293	398.56
466.512	383.56
466.732	385.56
466.951	370.56
467.171	371.56
467.391	382.56
467.61	374.56
467.829	395.56
468.049	390.56
468.268	385.56
468.488	353.56
468.707	392.56
468.927	353.56
469.146	353.56
469.365	378.56
469.585	370.56
469.804	361.56
470.023	386.56
470.243	367.56
470.462	392.56
470.681	401.56
470.901	397.56
471.12	373.56
471.339	378.56
471.558	365.56
471.777	406.56
471.997	376.56
472.216	391.56
472.435	429.56
472.654	415.56
472.873	412.56
473.092	381.56
473.311	385.56
473.53	393.56
473.749	413.56
473.968	411.56
474.187	489.56
474.406	512.56
474.625	416.56
474.844	407.56
475.063	376.56
475.282	378.56
475.501	364.56
475.72	399.56
475.939	390.56
476.158	383.56
476.377	386.56
476.596	382.56
476.814	401.56
477.033	395.56
477.252	403.56
477.471	403.56
477.69	408.56
477.908	416.56
478.127	408.56
478.346	418.56
478.564	403.56
478.783	409.56
479.002	415.56
479.22	418.56
479.439	440.56
479.658	449.56
479.876	444.56
480.095	440.56
480.313	479.56
480.532	472.56
480.751	470.56
480.969	465.56
481.188	530.56
481.406	577.56
481.624	516.56
481.843	476.56
482.061	461.56
482.28	456.56
482.498	445.56
482.717	446.56
482.935	448.56
483.153	433.56
483.372	423.56
483.59	461.56
483.808	425.56
484.027	454.56
484.245	429.56
484.463	443.56
484.681	451.56
484.9	464.56
485.118	436.56
485.336	442.56
485.554	448.56
485.772	453.56
485.99	443.56
486.209	457.56
486.427	477.56
486.645	457.56
486.863	486.56
487.081	491.56
487.299	476.56
487.517	470.56
487.735	473.56
487.953	485.56
488.171	462.56
488.389	478.56
488.607	489.56
488.825	499.56
489.043	494.56
489.261	500.56
489.479	482.56
489.696	493.56
489.914	494.56
490.132	486.56
490.35	501.56
490.568	542.56
490.786	503.56
491.003	483.56
491.221	518.56
491.439	510.56
491.657	501.56
491.874	533.56
492.092	521.56
492.31	522.56
492.527	561.56
492.745	540.56
492.963	532.56
493.18	531.56
493.398	555.56
493.615	550.56
493.833	544.56
494.05	526.56
494.268	549.56
494.485	554.56
494.703	557.56
494.92	557.56
495.138	549.56
495.355	574.56
495.573	575.56
495.79	580.56
496.008	548.56
496.225	566.56
496.442	573.56
496.66	575.56
496.877	564.56
497.094	576.56
497.312	570.56
497.529	587.56
497.746	570.56
497.963	590.56
498.181	588.56
498.398	603.56
498.615	622.56
498.832	624.56
499.049	635.56
499.267	635.56
499.484	637.56
499.701	666.56
499.918	690.56
500.135	696.56
500.352	699.56
500.569	678.56
500.786	706.56
501.003	706.56
501.22	695.56
501.437	712.56
501.654	700.56
501.871	713.56
502.088	684.56
