Data from 1961.PennyLincolnUp.Lamp.En5.5.200Scan.071719.P1._HRD10591_13-49-05-058.txt Node
Date: Thu Jul 18 13:49:05 EDT 2019
User: cochatt
Spectrometer: HR+D1059
Trigger mode: 1
Integration Time (sec): 1.000000E-1
Scans to average: 1
Electric dark correction enabled: true
Nonlinearity correction enabled: false
Boxcar width: 0
XAxis mode: Wavelengths
Number of Pixels in Spectrum: 2048
>>>>>Begin Spectral Data<<<<<
223.165	-13.69
223.4	-13.69
223.635	-13.69
223.869	-19.69
224.104	-15.69
224.338	-17.69
224.573	-14.69
224.808	-13.69
225.042	-12.69
225.277	-0.69
225.511	8.31
225.746	3.31
225.98	1.31
226.215	6.31
226.449	7.31
226.683	16.31
226.918	27.31
227.152	38.31
227.387	47.31
227.621	41.31
227.856	41.31
228.09	46.31
228.324	46.31
228.559	54.31
228.793	64.31
229.027	78.31
229.262	95.31
229.496	103.31
229.73	117.31
229.964	135.31
230.199	116.31
230.433	108.31
230.667	108.31
230.901	107.31
231.136	119.31
231.37	114.31
231.604	101.31
231.838	107.31
232.072	99.31
232.306	110.31
232.541	100.31
232.775	98.31
233.009	99.31
233.243	107.31
233.477	103.31
233.711	106.31
233.945	121.31
234.179	117.31
234.413	134.31
234.647	102.31
234.881	118.31
235.115	126.31
235.349	102.31
235.583	110.31
235.817	116.31
236.051	117.31
236.285	115.31
236.519	108.31
236.753	116.31
236.987	128.31
237.221	188.31
237.455	207.31
237.689	168.31
237.922	134.31
238.156	118.31
238.39	137.31
238.624	116.31
238.858	124.31
239.091	118.31
239.325	113.31
239.559	118.31
239.793	123.31
240.027	118.31
240.26	134.31
240.494	149.31
240.728	135.31
240.961	135.31
241.195	139.31
241.429	126.31
241.662	118.31
241.896	126.31
242.13	120.31
242.363	114.31
242.597	126.31
242.83	103.31
243.064	120.31
243.298	134.31
243.531	119.31
243.765	137.31
243.998	138.31
244.232	134.31
244.465	124.31
244.699	136.31
244.932	143.31
245.166	110.31
245.399	142.31
245.633	141.31
245.866	148.31
246.099	152.31
246.333	131.31
246.566	130.31
246.8	139.31
247.033	145.31
247.266	144.31
247.5	154.31
247.733	164.31
247.966	147.31
248.2	147.31
248.433	150.31
248.666	159.31
248.899	155.31
249.133	167.31
249.366	192.31
249.599	164.31
249.832	164.31
250.066	167.31
250.299	139.31
250.532	156.31
250.765	180.31
250.998	187.31
251.231	197.31
251.465	190.31
251.698	178.31
251.931	179.31
252.164	162.31
252.397	168.31
252.63	172.31
252.863	168.31
253.096	166.31
253.329	202.31
253.562	193.31
253.795	191.31
254.028	192.31
254.261	208.31
254.494	195.31
254.727	209.31
254.96	233.31
255.193	225.31
255.426	221.31
255.659	216.31
255.892	220.31
256.124	204.31
256.357	204.31
256.59	182.31
256.823	184.31
257.056	174.31
257.289	188.31
257.521	193.31
257.754	188.31
257.987	175.31
258.22	187.31
258.452	193.31
258.685	184.31
258.918	181.31
259.151	188.31
259.383	186.31
259.616	191.31
259.849	206.31
260.081	178.31
260.314	212.31
260.547	214.31
260.779	214.31
261.012	206.31
261.244	176.31
261.477	202.31
261.71	166.31
261.942	202.31
262.175	198.31
262.407	197.31
262.64	183.31
262.872	180.31
263.105	182.31
263.337	199.31
263.57	169.31
263.802	168.31
264.035	198.31
264.267	179.31
264.499	170.31
264.732	182.31
264.964	174.31
265.197	176.31
265.429	181.31
265.661	197.31
265.894	191.31
266.126	166.31
266.358	171.31
266.591	185.31
266.823	161.31
267.055	184.31
267.287	198.31
267.52	207.31
267.752	184.31
267.984	195.31
268.216	192.31
268.448	196.31
268.681	191.31
268.913	200.31
269.145	211.31
269.377	227.31
269.609	228.31
269.841	226.31
270.073	231.31
270.306	241.31
270.538	274.31
270.77	258.31
271.002	246.31
271.234	249.31
271.466	255.31
271.698	275.31
271.93	264.31
272.162	264.31
272.394	259.31
272.626	254.31
272.858	234.31
273.09	226.31
273.322	238.31
273.553	221.31
273.785	222.31
274.017	238.31
274.249	216.31
274.481	222.31
274.713	230.31
274.945	213.31
275.176	224.31
275.408	231.31
275.64	225.31
275.872	228.31
276.104	226.31
276.335	231.31
276.567	221.31
276.799	235.31
277.031	242.31
277.262	277.31
277.494	272.31
277.726	247.31
277.957	248.31
278.189	235.31
278.421	226.31
278.652	224.31
278.884	231.31
279.115	215.31
279.347	228.31
279.579	216.31
279.81	208.31
280.042	200.31
280.273	222.31
280.505	222.31
280.736	223.31
280.968	216.31
281.199	227.31
281.431	217.31
281.662	228.31
281.894	209.31
282.125	225.31
282.356	238.31
282.588	275.31
282.819	254.31
283.051	225.31
283.282	220.31
283.513	229.31
283.745	221.31
283.976	224.31
284.207	230.31
284.439	236.31
284.67	223.31
284.901	224.31
285.132	220.31
285.364	227.31
285.595	207.31
285.826	227.31
286.057	228.31
286.288	240.31
286.52	214.31
286.751	218.31
286.982	214.31
287.213	230.31
287.444	239.31
287.675	251.31
287.906	233.31
288.138	231.31
288.369	235.31
288.6	263.31
288.831	231.31
289.062	242.31
289.293	229.31
289.524	227.31
289.755	223.31
289.986	234.31
290.217	238.31
290.448	230.31
290.679	217.31
290.91	239.31
291.141	241.31
291.371	228.31
291.602	242.31
291.833	222.31
292.064	244.31
292.295	228.31
292.526	230.31
292.757	229.31
292.987	244.31
293.218	240.31
293.449	231.31
293.68	231.31
293.91	235.31
294.141	224.31
294.372	250.31
294.603	244.31
294.833	241.31
295.064	242.31
295.295	243.31
295.525	250.31
295.756	256.31
295.987	261.31
296.217	278.31
296.448	282.31
296.679	256.31
296.909	256.31
297.14	243.31
297.37	252.31
297.601	242.31
297.831	232.31
298.062	238.31
298.292	243.31
298.523	247.31
298.753	250.31
298.984	246.31
299.214	254.31
299.445	262.31
299.675	242.31
299.905	243.31
300.136	264.31
300.366	244.31
300.597	254.31
300.827	249.31
301.057	268.31
301.288	281.31
301.518	262.31
301.748	257.31
301.979	257.31
302.209	276.31
302.439	266.31
302.669	251.31
302.9	254.31
303.13	255.31
303.36	265.31
303.59	264.31
303.82	277.31
304.051	290.31
304.281	259.31
304.511	266.31
304.741	267.31
304.971	254.31
305.201	263.31
305.431	278.31
305.661	262.31
305.891	261.31
306.121	257.31
306.352	287.31
306.582	286.31
306.812	272.31
307.042	270.31
307.272	266.31
307.502	282.31
307.731	271.31
307.961	277.31
308.191	264.31
308.421	268.31
308.651	295.31
308.881	266.31
309.111	282.31
309.341	288.31
309.571	283.31
309.8	312.31
310.03	323.31
310.26	322.31
310.49	318.31
310.72	319.31
310.949	329.31
311.179	328.31
311.409	310.31
311.639	331.31
311.868	327.31
312.098	316.31
312.328	330.31
312.557	338.31
312.787	343.31
313.017	350.31
313.246	327.31
313.476	309.31
313.706	309.31
313.935	332.31
314.165	337.31
314.394	334.31
314.624	331.31
314.853	306.31
315.083	316.31
315.312	335.31
315.542	313.31
315.771	304.31
316.001	300.31
316.23	308.31
316.46	295.31
316.689	298.31
316.919	322.31
317.148	308.31
317.377	314.31
317.607	325.31
317.836	308.31
318.065	310.31
318.295	321.31
318.524	311.31
318.753	323.31
318.983	298.31
319.212	325.31
319.441	334.31
319.67	330.31
319.9	330.31
320.129	303.31
320.358	325.31
320.587	328.31
320.816	350.31
321.046	345.31
321.275	356.31
321.504	338.31
321.733	336.31
321.962	350.31
322.191	354.31
322.42	371.31
322.649	404.31
322.878	403.31
323.108	405.31
323.337	446.31
323.566	468.31
323.795	519.31
324.024	542.31
324.253	729.31
324.482	1006.31
324.71	1596.31
324.939	2211.31
325.168	1831.31
325.397	937.31
325.626	666.31
325.855	543.31
326.084	506.31
326.313	476.31
326.542	494.31
326.77	496.31
326.999	623.31
327.228	904.31
327.457	1348.31
327.686	1587.31
327.914	1074.31
328.143	718.31
328.372	616.31
328.6	578.31
328.829	539.31
329.058	541.31
329.287	552.31
329.515	500.31
329.744	461.31
329.972	487.31
330.201	484.31
330.43	534.31
330.658	550.31
330.887	560.31
331.115	529.31
331.344	454.31
331.572	438.31
331.801	426.31
332.03	416.31
332.258	402.31
332.486	378.31
332.715	362.31
332.943	362.31
333.172	390.31
333.4	374.31
333.629	384.31
333.857	416.31
334.085	422.31
334.314	444.31
334.542	482.31
334.771	467.31
334.999	448.31
335.227	404.31
335.455	392.31
335.684	377.31
335.912	363.31
336.14	362.31
336.369	355.31
336.597	370.31
336.825	378.31
337.053	375.31
337.281	356.31
337.51	347.31
337.738	361.31
337.966	350.31
338.194	376.31
338.422	368.31
338.65	363.31
338.878	338.31
339.106	369.31
339.334	364.31
339.562	348.31
339.79	346.31
340.018	329.31
340.246	363.31
340.474	359.31
340.702	364.31
340.93	355.31
341.158	359.31
341.386	354.31
341.614	357.31
341.842	359.31
342.07	352.31
342.298	364.31
342.526	346.31
342.754	335.31
342.981	329.31
343.209	338.31
343.437	342.31
343.665	327.31
343.893	349.31
344.12	357.31
344.348	323.31
344.576	357.31
344.804	382.31
345.031	362.31
345.259	386.31
345.487	373.31
345.714	334.31
345.942	339.31
346.17	346.31
346.397	343.31
346.625	346.31
346.853	352.31
347.08	355.31
347.308	357.31
347.535	348.31
347.763	344.31
347.99	371.31
348.218	348.31
348.445	369.31
348.673	365.31
348.9	327.31
349.128	326.31
349.355	347.31
349.583	325.31
349.81	355.31
350.037	339.31
350.265	329.31
350.492	345.31
350.72	339.31
350.947	342.31
351.174	340.31
351.402	358.31
351.629	364.31
351.856	371.31
352.083	354.31
352.311	368.31
352.538	388.31
352.765	371.31
352.992	371.31
353.22	351.31
353.447	347.31
353.674	347.31
353.901	330.31
354.128	306.31
354.355	331.31
354.583	329.31
354.81	332.31
355.037	325.31
355.264	322.31
355.491	317.31
355.718	317.31
355.945	337.31
356.172	309.31
356.399	319.31
356.626	311.31
356.853	303.31
357.08	316.31
357.307	309.31
357.534	316.31
357.761	320.31
357.988	325.31
358.215	307.31
358.441	324.31
358.668	346.31
358.895	303.31
359.122	341.31
359.349	327.31
359.576	349.31
359.802	383.31
360.029	412.31
360.256	404.31
360.483	391.31
360.709	353.31
360.936	353.31
361.163	342.31
361.39	337.31
361.616	363.31
361.843	332.31
362.07	343.31
362.296	360.31
362.523	353.31
362.749	350.31
362.976	337.31
363.203	350.31
363.429	339.31
363.656	326.31
363.882	326.31
364.109	315.31
364.335	312.31
364.562	339.31
364.788	322.31
365.015	346.31
365.241	338.31
365.468	341.31
365.694	338.31
365.92	314.31
366.147	316.31
366.373	328.31
366.599	309.31
366.826	321.31
367.052	331.31
367.278	329.31
367.505	321.31
367.731	338.31
367.957	316.31
368.184	333.31
368.41	348.31
368.636	345.31
368.862	351.31
369.089	330.31
369.315	322.31
369.541	323.31
369.767	329.31
369.993	322.31
370.219	318.31
370.445	310.31
370.672	337.31
370.898	333.31
371.124	336.31
371.35	330.31
371.576	321.31
371.802	318.31
372.028	326.31
372.254	312.31
372.48	285.31
372.706	322.31
372.932	306.31
373.158	314.31
373.384	341.31
373.61	322.31
373.835	322.31
374.061	318.31
374.287	305.31
374.513	337.31
374.739	326.31
374.965	310.31
375.191	309.31
375.416	322.31
375.642	321.31
375.868	319.31
376.094	340.31
376.319	320.31
376.545	320.31
376.771	309.31
376.997	320.31
377.222	311.31
377.448	320.31
377.674	294.31
377.899	329.31
378.125	313.31
378.35	317.31
378.576	316.31
378.802	292.31
379.027	328.31
379.253	307.31
379.478	300.31
379.704	324.31
379.929	328.31
380.155	319.31
380.38	324.31
380.606	320.31
380.831	325.31
381.057	326.31
381.282	336.31
381.507	311.31
381.733	305.31
381.958	302.31
382.184	311.31
382.409	310.31
382.634	306.31
382.86	312.31
383.085	317.31
383.31	328.31
383.535	329.31
383.761	335.31
383.986	322.31
384.211	331.31
384.436	326.31
384.662	326.31
384.887	334.31
385.112	326.31
385.337	334.31
385.562	341.31
385.787	357.31
386.013	351.31
386.238	354.31
386.463	362.31
386.688	350.31
386.913	340.31
387.138	357.31
387.363	336.31
387.588	332.31
387.813	344.31
388.038	332.31
388.263	345.31
388.488	354.31
388.713	340.31
388.938	332.31
389.163	342.31
389.387	345.31
389.612	337.31
389.837	350.31
390.062	331.31
390.287	360.31
390.512	353.31
390.736	357.31
390.961	353.31
391.186	310.31
391.411	348.31
391.636	355.31
391.86	347.31
392.085	335.31
392.31	350.31
392.534	347.31
392.759	342.31
392.984	352.31
393.208	367.31
393.433	338.31
393.658	321.31
393.882	336.31
394.107	332.31
394.331	334.31
394.556	326.31
394.78	356.31
395.005	366.31
395.229	355.31
395.454	368.31
395.678	362.31
395.903	372.31
396.127	392.31
396.352	372.31
396.576	362.31
396.801	366.31
397.025	363.31
397.249	366.31
397.474	358.31
397.698	376.31
397.922	404.31
398.147	371.31
398.371	399.31
398.595	399.31
398.82	375.31
399.044	385.31
399.268	414.31
399.492	411.31
399.717	409.31
399.941	452.31
400.165	480.31
400.389	489.31
400.613	443.31
400.837	426.31
401.062	412.31
401.286	408.31
401.51	397.31
401.734	384.31
401.958	396.31
402.182	397.31
402.406	388.31
402.63	409.31
402.854	388.31
403.078	407.31
403.302	400.31
403.526	408.31
403.75	406.31
403.974	419.31
404.198	386.31
404.422	402.31
404.645	402.31
404.869	422.31
405.093	435.31
405.317	461.31
405.541	496.31
405.765	480.31
405.988	440.31
406.212	446.31
406.436	442.31
406.66	448.31
406.883	436.31
407.107	463.31
407.331	504.31
407.555	554.31
407.778	540.31
408.002	478.31
408.226	474.31
408.449	458.31
408.673	464.31
408.896	474.31
409.12	517.31
409.344	476.31
409.567	452.31
409.791	436.31
410.014	432.31
410.238	425.31
410.461	412.31
410.685	415.31
410.908	414.31
411.132	456.31
411.355	463.31
411.578	475.31
411.802	416.31
412.025	432.31
412.249	406.31
412.472	436.31
412.695	471.31
412.919	470.31
413.142	417.31
413.365	420.31
413.589	406.31
413.812	398.31
414.035	395.31
414.258	390.31
414.482	390.31
414.705	389.31
414.928	376.31
415.151	391.31
415.374	401.31
415.597	394.31
415.821	377.31
416.044	393.31
416.267	382.31
416.49	379.31
416.713	366.31
416.936	374.31
417.159	377.31
417.382	398.31
417.605	394.31
417.828	394.31
418.051	425.31
418.274	413.31
418.497	384.31
418.72	366.31
418.943	384.31
419.166	409.31
419.389	418.31
419.611	429.31
419.834	408.31
420.057	417.31
420.28	394.31
420.503	399.31
420.726	395.31
420.948	416.31
421.171	461.31
421.394	487.31
421.617	446.31
421.839	414.31
422.062	412.31
422.285	446.31
422.507	488.31
422.73	541.31
422.953	523.31
423.175	443.31
423.398	433.31
423.621	419.31
423.843	422.31
424.066	459.31
424.288	460.31
424.511	462.31
424.733	512.31
424.956	569.31
425.178	547.31
425.401	544.31
425.623	570.31
425.846	486.31
426.068	468.31
426.291	456.31
426.513	440.31
426.735	466.31
426.958	504.31
427.18	553.31
427.402	692.31
427.625	743.31
427.847	693.31
428.069	565.31
428.292	484.31
428.514	464.31
428.736	440.31
428.958	427.31
429.181	416.31
429.403	400.31
429.625	426.31
429.847	458.31
430.069	524.31
430.292	494.31
430.514	439.31
430.736	428.31
430.958	414.31
431.18	388.31
431.402	397.31
431.624	397.31
431.846	395.31
432.068	392.31
432.29	386.31
432.512	384.31
432.734	405.31
432.956	378.31
433.178	403.31
433.4	396.31
433.622	403.31
433.844	398.31
434.066	380.31
434.287	408.31
434.509	403.31
434.731	380.31
434.953	417.31
435.175	436.31
435.397	457.31
435.618	450.31
435.84	490.31
436.062	561.31
436.284	604.31
436.505	531.31
436.727	463.31
436.949	458.31
437.17	426.31
437.392	427.31
437.614	458.31
437.835	496.31
438.057	554.31
438.278	644.31
438.5	628.31
438.721	680.31
438.943	655.31
439.165	522.31
439.386	469.31
439.608	483.31
439.829	475.31
440.05	523.31
440.272	543.31
440.493	490.31
440.715	465.31
440.936	438.31
441.158	425.31
441.379	424.31
441.6	419.31
441.822	447.31
442.043	487.31
442.264	580.31
442.486	594.31
442.707	519.31
442.928	472.31
443.149	469.31
443.371	512.31
443.592	534.31
443.813	609.31
444.034	662.31
444.255	546.31
444.476	494.31
444.698	468.31
444.919	466.31
445.14	549.31
445.361	483.31
445.582	492.31
445.803	566.31
446.024	656.31
446.245	655.31
446.466	606.31
446.687	524.31
446.908	476.31
447.129	452.31
447.35	412.31
447.571	422.31
447.792	410.31
448.013	428.31
448.234	452.31
448.455	491.31
448.675	609.31
448.896	644.31
449.117	580.31
449.338	566.31
449.559	645.31
449.779	708.31
450	540.31
450.221	489.31
450.442	452.31
450.662	412.31
450.883	437.31
451.104	452.31
451.324	437.31
451.545	434.31
451.766	410.31
451.986	388.31
452.207	387.31
452.428	393.31
452.648	374.31
452.869	400.31
453.089	405.31
453.31	400.31
453.53	402.31
453.751	378.31
453.971	391.31
454.192	403.31
454.412	396.31
454.633	397.31
454.853	391.31
455.073	400.31
455.294	419.31
455.514	473.31
455.734	468.31
455.955	390.31
456.175	368.31
456.395	369.31
456.616	372.31
456.836	374.31
457.056	350.31
457.276	340.31
457.497	340.31
457.717	353.31
457.937	359.31
458.157	363.31
458.377	373.31
458.598	414.31
458.818	452.31
459.038	545.31
459.258	544.31
459.478	467.31
459.698	404.31
459.918	396.31
460.138	378.31
460.358	382.31
460.578	376.31
460.798	414.31
461.018	402.31
461.238	402.31
461.458	415.31
461.678	377.31
461.898	380.31
462.118	405.31
462.338	400.31
462.558	409.31
462.777	388.31
462.997	414.31
463.217	430.31
463.437	407.31
463.657	404.31
463.876	402.31
464.096	423.31
464.316	429.31
464.536	426.31
464.755	427.31
464.975	448.31
465.195	473.31
465.414	550.31
465.634	480.31
465.854	433.31
466.073	421.31
466.293	405.31
466.512	394.31
466.732	390.31
466.951	390.31
467.171	391.31
467.391	381.31
467.61	407.31
467.829	418.31
468.049	395.31
468.268	404.31
468.488	390.31
468.707	386.31
468.927	402.31
469.146	359.31
469.365	396.31
469.585	382.31
469.804	392.31
470.023	395.31
470.243	382.31
470.462	418.31
470.681	432.31
470.901	422.31
471.12	386.31
471.339	397.31
471.558	402.31
471.777	386.31
471.997	407.31
472.216	418.31
472.435	448.31
472.654	453.31
472.873	411.31
473.092	411.31
473.311	401.31
473.53	393.31
473.749	400.31
473.968	465.31
474.187	558.31
474.406	564.31
474.625	456.31
474.844	416.31
475.063	388.31
475.282	415.31
475.501	402.31
475.72	383.31
475.939	414.31
476.158	400.31
476.377	414.31
476.596	404.31
476.814	440.31
477.033	422.31
477.252	427.31
477.471	420.31
477.69	445.31
477.908	418.31
478.127	421.31
478.346	437.31
478.564	419.31
478.783	427.31
479.002	443.31
479.22	435.31
479.439	465.31
479.658	473.31
479.876	467.31
480.095	492.31
480.313	505.31
480.532	488.31
480.751	471.31
480.969	490.31
481.188	566.31
481.406	624.31
481.624	545.31
481.843	489.31
482.061	475.31
482.28	475.31
482.498	479.31
482.717	482.31
482.935	476.31
483.153	465.31
483.372	475.31
483.59	463.31
483.808	462.31
484.027	469.31
484.245	469.31
484.463	507.31
484.681	494.31
484.9	459.31
485.118	484.31
485.336	471.31
485.554	487.31
485.772	488.31
485.99	479.31
486.209	483.31
486.427	487.31
486.645	482.31
486.863	525.31
487.081	506.31
487.299	516.31
487.517	504.31
487.735	487.31
487.953	499.31
488.171	508.31
488.389	490.31
488.607	513.31
488.825	518.31
489.043	535.31
489.261	498.31
489.479	501.31
489.696	496.31
489.914	510.31
490.132	518.31
490.35	520.31
490.568	528.31
490.786	525.31
491.003	537.31
491.221	556.31
491.439	570.31
491.657	574.31
491.874	553.31
492.092	580.31
492.31	584.31
492.527	552.31
492.745	592.31
492.963	583.31
493.18	574.31
493.398	584.31
493.615	580.31
493.833	589.31
494.05	598.31
494.268	604.31
494.485	589.31
494.703	599.31
494.92	571.31
495.138	583.31
495.355	594.31
495.573	589.31
495.79	580.31
496.008	580.31
496.225	574.31
496.442	590.31
496.66	595.31
496.877	604.31
497.094	588.31
497.312	585.31
497.529	610.31
497.746	611.31
497.963	628.31
498.181	634.31
498.398	612.31
498.615	672.31
498.832	661.31
499.049	666.31
499.267	665.31
499.484	683.31
499.701	696.31
499.918	707.31
500.135	714.31
500.352	734.31
500.569	736.31
500.786	713.31
501.003	723.31
501.22	727.31
501.437	719.31
501.654	702.31
501.871	697.31
502.088	717.31
