Data from 1961.PennyLincolnUp.Lamp.En5.5.200Scan.071719.P1._HRD10591_13-47-23-057.txt Node
Date: Thu Jul 18 13:47:23 EDT 2019
User: cochatt
Spectrometer: HR+D1059
Trigger mode: 1
Integration Time (sec): 1.000000E-1
Scans to average: 1
Electric dark correction enabled: true
Nonlinearity correction enabled: false
Boxcar width: 0
XAxis mode: Wavelengths
Number of Pixels in Spectrum: 2048
>>>>>Begin Spectral Data<<<<<
223.165	-27.19
223.4	-27.19
223.635	-27.19
223.869	-23.19
224.104	-2.19
224.338	-13.19
224.573	-16.19
224.808	-1.19
225.042	3.81
225.277	-13.19
225.511	-1.19
225.746	8.81
225.98	1.81
226.215	-2.19
226.449	20.81
226.683	19.81
226.918	20.81
227.152	23.81
227.387	36.81
227.621	36.81
227.856	40.81
228.09	42.81
228.324	47.81
228.559	62.81
228.793	58.81
229.027	69.81
229.262	96.81
229.496	101.81
229.73	115.81
229.964	119.81
230.199	110.81
230.433	118.81
230.667	112.81
230.901	106.81
231.136	104.81
231.37	108.81
231.604	92.81
231.838	105.81
232.072	108.81
232.306	116.81
232.541	115.81
232.775	118.81
233.009	113.81
233.243	102.81
233.477	112.81
233.711	112.81
233.945	97.81
234.179	85.81
234.413	106.81
234.647	97.81
234.881	92.81
235.115	88.81
235.349	87.81
235.583	102.81
235.817	104.81
236.051	94.81
236.285	106.81
236.519	113.81
236.753	129.81
236.987	121.81
237.221	142.81
237.455	185.81
237.689	162.81
237.922	125.81
238.156	106.81
238.39	119.81
238.624	104.81
238.858	110.81
239.091	110.81
239.325	124.81
239.559	89.81
239.793	108.81
240.027	115.81
240.26	119.81
240.494	136.81
240.728	151.81
240.961	119.81
241.195	123.81
241.429	136.81
241.662	112.81
241.896	116.81
242.13	106.81
242.363	108.81
242.597	105.81
242.83	113.81
243.064	117.81
243.298	112.81
243.531	111.81
243.765	112.81
243.998	114.81
244.232	119.81
244.465	109.81
244.699	116.81
244.932	118.81
245.166	118.81
245.399	138.81
245.633	134.81
245.866	134.81
246.099	119.81
246.333	121.81
246.566	123.81
246.8	119.81
247.033	130.81
247.266	129.81
247.5	129.81
247.733	130.81
247.966	155.81
248.2	142.81
248.433	144.81
248.666	140.81
248.899	164.81
249.133	170.81
249.366	186.81
249.599	163.81
249.832	146.81
250.066	146.81
250.299	155.81
250.532	167.81
250.765	161.81
250.998	162.81
251.231	182.81
251.465	182.81
251.698	168.81
251.931	174.81
252.164	172.81
252.397	156.81
252.63	184.81
252.863	175.81
253.096	172.81
253.329	191.81
253.562	182.81
253.795	187.81
254.028	171.81
254.261	196.81
254.494	170.81
254.727	194.81
254.96	229.81
255.193	229.81
255.426	208.81
255.659	190.81
255.892	197.81
256.124	194.81
256.357	178.81
256.59	177.81
256.823	164.81
257.056	161.81
257.289	176.81
257.521	178.81
257.754	169.81
257.987	177.81
258.22	180.81
258.452	167.81
258.685	161.81
258.918	166.81
259.151	190.81
259.383	185.81
259.616	151.81
259.849	184.81
260.081	184.81
260.314	181.81
260.547	183.81
260.779	192.81
261.012	204.81
261.244	180.81
261.477	192.81
261.71	187.81
261.942	183.81
262.175	194.81
262.407	162.81
262.64	192.81
262.872	187.81
263.105	170.81
263.337	174.81
263.57	183.81
263.802	179.81
264.035	168.81
264.267	173.81
264.499	172.81
264.732	183.81
264.964	177.81
265.197	168.81
265.429	179.81
265.661	164.81
265.894	179.81
266.126	186.81
266.358	167.81
266.591	184.81
266.823	177.81
267.055	187.81
267.287	186.81
267.52	179.81
267.752	165.81
267.984	181.81
268.216	189.81
268.448	204.81
268.681	180.81
268.913	181.81
269.145	203.81
269.377	216.81
269.609	217.81
269.841	201.81
270.073	228.81
270.306	231.81
270.538	255.81
270.77	237.81
271.002	231.81
271.234	223.81
271.466	230.81
271.698	237.81
271.93	250.81
272.162	249.81
272.394	234.81
272.626	233.81
272.858	234.81
273.09	214.81
273.322	221.81
273.553	218.81
273.785	224.81
274.017	209.81
274.249	190.81
274.481	198.81
274.713	199.81
274.945	221.81
275.176	211.81
275.408	198.81
275.64	215.81
275.872	213.81
276.104	207.81
276.335	228.81
276.567	217.81
276.799	239.81
277.031	231.81
277.262	245.81
277.494	234.81
277.726	253.81
277.957	228.81
278.189	209.81
278.421	210.81
278.652	226.81
278.884	207.81
279.115	202.81
279.347	218.81
279.579	228.81
279.81	225.81
280.042	240.81
280.273	221.81
280.505	216.81
280.736	208.81
280.968	217.81
281.199	210.81
281.431	218.81
281.662	213.81
281.894	212.81
282.125	216.81
282.356	215.81
282.588	238.81
282.819	244.81
283.051	243.81
283.282	201.81
283.513	219.81
283.745	218.81
283.976	213.81
284.207	233.81
284.439	206.81
284.67	224.81
284.901	240.81
285.132	227.81
285.364	225.81
285.595	221.81
285.826	210.81
286.057	213.81
286.288	214.81
286.52	206.81
286.751	213.81
286.982	220.81
287.213	232.81
287.444	210.81
287.675	217.81
287.906	220.81
288.138	218.81
288.369	234.81
288.6	242.81
288.831	228.81
289.062	223.81
289.293	223.81
289.524	221.81
289.755	223.81
289.986	222.81
290.217	229.81
290.448	218.81
290.679	232.81
290.91	214.81
291.141	208.81
291.371	239.81
291.602	216.81
291.833	208.81
292.064	228.81
292.295	237.81
292.526	224.81
292.757	198.81
292.987	218.81
293.218	220.81
293.449	236.81
293.68	228.81
293.91	240.81
294.141	229.81
294.372	217.81
294.603	219.81
294.833	232.81
295.064	230.81
295.295	230.81
295.525	215.81
295.756	228.81
295.987	251.81
296.217	284.81
296.448	255.81
296.679	246.81
296.909	236.81
297.14	236.81
297.37	245.81
297.601	229.81
297.831	220.81
298.062	229.81
298.292	231.81
298.523	236.81
298.753	254.81
298.984	240.81
299.214	228.81
299.445	231.81
299.675	238.81
299.905	235.81
300.136	229.81
300.366	214.81
300.597	241.81
300.827	248.81
301.057	256.81
301.288	253.81
301.518	253.81
301.748	254.81
301.979	254.81
302.209	263.81
302.439	269.81
302.669	240.81
302.9	247.81
303.13	265.81
303.36	263.81
303.59	280.81
303.82	278.81
304.051	260.81
304.281	266.81
304.511	246.81
304.741	251.81
304.971	257.81
305.201	254.81
305.431	245.81
305.661	242.81
305.891	256.81
306.121	248.81
306.352	270.81
306.582	268.81
306.812	257.81
307.042	256.81
307.272	258.81
307.502	256.81
307.731	274.81
307.961	268.81
308.191	264.81
308.421	295.81
308.651	274.81
308.881	272.81
309.111	280.81
309.341	261.81
309.571	264.81
309.8	288.81
310.03	287.81
310.26	291.81
310.49	290.81
310.72	306.81
310.949	324.81
311.179	320.81
311.409	304.81
311.639	322.81
311.868	291.81
312.098	318.81
312.328	305.81
312.557	322.81
312.787	325.81
313.017	338.81
313.246	305.81
313.476	316.81
313.706	292.81
313.935	312.81
314.165	322.81
314.394	321.81
314.624	313.81
314.853	311.81
315.083	314.81
315.312	306.81
315.542	306.81
315.771	291.81
316.001	304.81
316.23	289.81
316.46	306.81
316.689	291.81
316.919	297.81
317.148	304.81
317.377	315.81
317.607	301.81
317.836	290.81
318.065	304.81
318.295	308.81
318.524	287.81
318.753	298.81
318.983	294.81
319.212	306.81
319.441	309.81
319.67	317.81
319.9	315.81
320.129	310.81
320.358	298.81
320.587	311.81
320.816	307.81
321.046	326.81
321.275	343.81
321.504	318.81
321.733	338.81
321.962	370.81
322.191	360.81
322.42	368.81
322.649	374.81
322.878	375.81
323.108	380.81
323.337	408.81
323.566	433.81
323.795	477.81
324.024	497.81
324.253	610.81
324.482	889.81
324.71	1443.81
324.939	1967.81
325.168	1704.81
325.397	891.81
325.626	564.81
325.855	475.81
326.084	441.81
326.313	429.81
326.542	444.81
326.77	479.81
326.999	570.81
327.228	850.81
327.457	1229.81
327.686	1451.81
327.914	980.81
328.143	636.81
328.372	567.81
328.6	517.81
328.829	471.81
329.058	472.81
329.287	499.81
329.515	488.81
329.744	432.81
329.972	442.81
330.201	479.81
330.43	484.81
330.658	494.81
330.887	517.81
331.115	508.81
331.344	437.81
331.572	402.81
331.801	414.81
332.03	406.81
332.258	382.81
332.486	364.81
332.715	335.81
332.943	367.81
333.172	355.81
333.4	352.81
333.629	375.81
333.857	376.81
334.085	396.81
334.314	428.81
334.542	444.81
334.771	445.81
334.999	406.81
335.227	388.81
335.455	352.81
335.684	359.81
335.912	342.81
336.14	345.81
336.369	357.81
336.597	355.81
336.825	357.81
337.053	344.81
337.281	345.81
337.51	346.81
337.738	367.81
337.966	336.81
338.194	353.81
338.422	357.81
338.65	330.81
338.878	354.81
339.106	354.81
339.334	324.81
339.562	315.81
339.79	345.81
340.018	340.81
340.246	336.81
340.474	333.81
340.702	338.81
340.93	343.81
341.158	338.81
341.386	327.81
341.614	346.81
341.842	327.81
342.07	330.81
342.298	343.81
342.526	319.81
342.754	320.81
342.981	333.81
343.209	325.81
343.437	337.81
343.665	318.81
343.893	320.81
344.12	343.81
344.348	328.81
344.576	351.81
344.804	362.81
345.031	366.81
345.259	358.81
345.487	368.81
345.714	350.81
345.942	329.81
346.17	348.81
346.397	336.81
346.625	336.81
346.853	323.81
347.08	328.81
347.308	336.81
347.535	348.81
347.763	356.81
347.99	344.81
348.218	345.81
348.445	329.81
348.673	329.81
348.9	321.81
349.128	314.81
349.355	329.81
349.583	320.81
349.81	317.81
350.037	318.81
350.265	329.81
350.492	307.81
350.72	320.81
350.947	321.81
351.174	359.81
351.402	361.81
351.629	340.81
351.856	335.81
352.083	360.81
352.311	372.81
352.538	338.81
352.765	378.81
352.992	349.81
353.22	335.81
353.447	343.81
353.674	330.81
353.901	327.81
354.128	303.81
354.355	316.81
354.583	292.81
354.81	306.81
355.037	307.81
355.264	288.81
355.491	309.81
355.718	308.81
355.945	294.81
356.172	297.81
356.399	301.81
356.626	317.81
356.853	308.81
357.08	316.81
357.307	288.81
357.534	291.81
357.761	285.81
357.988	298.81
358.215	310.81
358.441	318.81
358.668	320.81
358.895	312.81
359.122	312.81
359.349	314.81
359.576	339.81
359.802	366.81
360.029	368.81
360.256	376.81
360.483	375.81
360.709	338.81
360.936	340.81
361.163	340.81
361.39	367.81
361.616	334.81
361.843	313.81
362.07	326.81
362.296	337.81
362.523	328.81
362.749	329.81
362.976	338.81
363.203	316.81
363.429	320.81
363.656	310.81
363.882	337.81
364.109	323.81
364.335	324.81
364.562	304.81
364.788	311.81
365.015	316.81
365.241	326.81
365.468	308.81
365.694	334.81
365.92	330.81
366.147	310.81
366.373	316.81
366.599	312.81
366.826	320.81
367.052	308.81
367.278	314.81
367.505	307.81
367.731	305.81
367.957	317.81
368.184	304.81
368.41	323.81
368.636	328.81
368.862	324.81
369.089	306.81
369.315	288.81
369.541	333.81
369.767	332.81
369.993	332.81
370.219	313.81
370.445	304.81
370.672	307.81
370.898	313.81
371.124	304.81
371.35	308.81
371.576	324.81
371.802	308.81
372.028	307.81
372.254	310.81
372.48	308.81
372.706	292.81
372.932	314.81
373.158	300.81
373.384	318.81
373.61	323.81
373.835	312.81
374.061	304.81
374.287	309.81
374.513	304.81
374.739	315.81
374.965	318.81
375.191	311.81
375.416	310.81
375.642	297.81
375.868	302.81
376.094	312.81
376.319	320.81
376.545	286.81
376.771	309.81
376.997	318.81
377.222	310.81
377.448	318.81
377.674	312.81
377.899	311.81
378.125	301.81
378.35	297.81
378.576	288.81
378.802	307.81
379.027	304.81
379.253	306.81
379.478	313.81
379.704	310.81
379.929	308.81
380.155	318.81
380.38	296.81
380.606	304.81
380.831	295.81
381.057	322.81
381.282	329.81
381.507	326.81
381.733	307.81
381.958	316.81
382.184	309.81
382.409	321.81
382.634	317.81
382.86	321.81
383.085	319.81
383.31	317.81
383.535	321.81
383.761	316.81
383.986	294.81
384.211	310.81
384.436	312.81
384.662	311.81
384.887	320.81
385.112	344.81
385.337	322.81
385.562	329.81
385.787	327.81
386.013	334.81
386.238	350.81
386.463	348.81
386.688	338.81
386.913	321.81
387.138	325.81
387.363	329.81
387.588	338.81
387.813	327.81
388.038	319.81
388.263	334.81
388.488	352.81
388.713	328.81
388.938	307.81
389.163	328.81
389.387	343.81
389.612	327.81
389.837	334.81
390.062	335.81
390.287	342.81
390.512	334.81
390.736	330.81
390.961	325.81
391.186	341.81
391.411	342.81
391.636	333.81
391.86	330.81
392.085	347.81
392.31	357.81
392.534	337.81
392.759	344.81
392.984	316.81
393.208	342.81
393.433	337.81
393.658	332.81
393.882	327.81
394.107	328.81
394.331	322.81
394.556	343.81
394.78	336.81
395.005	344.81
395.229	338.81
395.454	365.81
395.678	348.81
395.903	337.81
396.127	385.81
396.352	360.81
396.576	349.81
396.801	372.81
397.025	343.81
397.249	343.81
397.474	354.81
397.698	358.81
397.922	367.81
398.147	382.81
398.371	385.81
398.595	368.81
398.82	380.81
399.044	381.81
399.268	400.81
399.492	387.81
399.717	414.81
399.941	425.81
400.165	450.81
400.389	462.81
400.613	447.81
400.837	406.81
401.062	404.81
401.286	379.81
401.51	381.81
401.734	386.81
401.958	366.81
402.182	381.81
402.406	378.81
402.63	401.81
402.854	391.81
403.078	374.81
403.302	388.81
403.526	389.81
403.75	400.81
403.974	380.81
404.198	378.81
404.422	407.81
404.645	405.81
404.869	401.81
405.093	434.81
405.317	484.81
405.541	486.81
405.765	462.81
405.988	410.81
406.212	429.81
406.436	449.81
406.66	448.81
406.883	432.81
407.107	439.81
407.331	490.81
407.555	521.81
407.778	519.81
408.002	467.81
408.226	435.81
408.449	444.81
408.673	437.81
408.896	459.81
409.12	492.81
409.344	482.81
409.567	408.81
409.791	418.81
410.014	396.81
410.238	388.81
410.461	400.81
410.685	415.81
410.908	424.81
411.132	438.81
411.355	481.81
411.578	441.81
411.802	403.81
412.025	404.81
412.249	416.81
412.472	416.81
412.695	450.81
412.919	446.81
413.142	408.81
413.365	402.81
413.589	402.81
413.812	410.81
414.035	391.81
414.258	381.81
414.482	380.81
414.705	371.81
414.928	381.81
415.151	364.81
415.374	368.81
415.597	365.81
415.821	376.81
416.044	367.81
416.267	369.81
416.49	378.81
416.713	384.81
416.936	376.81
417.159	366.81
417.382	359.81
417.605	394.81
417.828	384.81
418.051	395.81
418.274	400.81
418.497	380.81
418.72	376.81
418.943	379.81
419.166	395.81
419.389	419.81
419.611	386.81
419.834	398.81
420.057	392.81
420.28	407.81
420.503	373.81
420.726	374.81
420.948	414.81
421.171	460.81
421.394	457.81
421.617	413.81
421.839	379.81
422.062	399.81
422.285	409.81
422.507	451.81
422.73	494.81
422.953	501.81
423.175	443.81
423.398	420.81
423.621	411.81
423.843	445.81
424.066	411.81
424.288	447.81
424.511	448.81
424.733	485.81
424.956	537.81
425.178	537.81
425.401	502.81
425.623	524.81
425.846	459.81
426.068	429.81
426.291	441.81
426.513	425.81
426.735	430.81
426.958	510.81
427.18	540.81
427.402	657.81
427.625	721.81
427.847	614.81
428.069	547.81
428.292	484.81
428.514	439.81
428.736	417.81
428.958	416.81
429.181	404.81
429.403	417.81
429.625	424.81
429.847	446.81
430.069	478.81
430.292	482.81
430.514	413.81
430.736	409.81
430.958	393.81
431.18	378.81
431.402	397.81
431.624	361.81
431.846	389.81
432.068	377.81
432.29	401.81
432.512	371.81
432.734	377.81
432.956	381.81
433.178	391.81
433.4	394.81
433.622	377.81
433.844	376.81
434.066	376.81
434.287	375.81
434.509	373.81
434.731	381.81
434.953	378.81
435.175	410.81
435.397	416.81
435.618	437.81
435.84	468.81
436.062	537.81
436.284	605.81
436.505	510.81
436.727	453.81
436.949	418.81
437.17	435.81
437.392	413.81
437.614	408.81
437.835	461.81
438.057	530.81
438.278	607.81
438.5	602.81
438.721	657.81
438.943	601.81
439.165	496.81
439.386	460.81
439.608	450.81
439.829	450.81
440.05	470.81
440.272	495.81
440.493	479.81
440.715	437.81
440.936	430.81
441.158	403.81
441.379	384.81
441.6	421.81
441.822	448.81
442.043	472.81
442.264	557.81
442.486	561.81
442.707	482.81
442.928	452.81
443.149	483.81
443.371	478.81
443.592	507.81
443.813	576.81
444.034	612.81
444.255	507.81
444.476	464.81
444.698	426.81
444.919	446.81
445.14	518.81
445.361	479.81
445.582	485.81
445.803	559.81
446.024	653.81
446.245	638.81
446.466	562.81
446.687	489.81
446.908	446.81
447.129	429.81
447.35	415.81
447.571	409.81
447.792	410.81
448.013	432.81
448.234	419.81
448.455	465.81
448.675	582.81
448.896	645.81
449.117	562.81
449.338	518.81
449.559	609.81
449.779	671.81
450	556.81
450.221	460.81
450.442	429.81
450.662	403.81
450.883	403.81
451.104	430.81
451.324	429.81
451.545	373.81
451.766	386.81
451.986	376.81
452.207	377.81
452.428	375.81
452.648	375.81
452.869	385.81
453.089	383.81
453.31	374.81
453.53	376.81
453.751	366.81
453.971	397.81
454.192	388.81
454.412	385.81
454.633	377.81
454.853	377.81
455.073	377.81
455.294	413.81
455.514	446.81
455.734	447.81
455.955	390.81
456.175	366.81
456.395	364.81
456.616	347.81
456.836	353.81
457.056	361.81
457.276	348.81
457.497	357.81
457.717	352.81
457.937	326.81
458.157	355.81
458.377	343.81
458.598	387.81
458.818	468.81
459.038	513.81
459.258	485.81
459.478	433.81
459.698	407.81
459.918	393.81
460.138	368.81
460.358	399.81
460.578	384.81
460.798	393.81
461.018	394.81
461.238	371.81
461.458	380.81
461.678	392.81
461.898	383.81
462.118	384.81
462.338	402.81
462.558	387.81
462.777	376.81
462.997	401.81
463.217	393.81
463.437	406.81
463.657	379.81
463.876	404.81
464.096	417.81
464.316	390.81
464.536	413.81
464.755	432.81
464.975	433.81
465.195	445.81
465.414	529.81
465.634	464.81
465.854	416.81
466.073	395.81
466.293	392.81
466.512	389.81
466.732	365.81
466.951	369.81
467.171	367.81
467.391	395.81
467.61	392.81
467.829	406.81
468.049	385.81
468.268	416.81
468.488	384.81
468.707	385.81
468.927	388.81
469.146	362.81
469.365	364.81
469.585	372.81
469.804	377.81
470.023	401.81
470.243	408.81
470.462	404.81
470.681	399.81
470.901	402.81
471.12	384.81
471.339	381.81
471.558	388.81
471.777	369.81
471.997	384.81
472.216	403.81
472.435	443.81
472.654	443.81
472.873	391.81
473.092	372.81
473.311	378.81
473.53	390.81
473.749	411.81
473.968	423.81
474.187	496.81
474.406	534.81
474.625	423.81
474.844	392.81
475.063	393.81
475.282	409.81
475.501	386.81
475.72	402.81
475.939	394.81
476.158	398.81
476.377	394.81
476.596	406.81
476.814	430.81
477.033	410.81
477.252	388.81
477.471	377.81
477.69	416.81
477.908	404.81
478.127	401.81
478.346	402.81
478.564	404.81
478.783	431.81
479.002	424.81
479.22	426.81
479.439	448.81
479.658	472.81
479.876	458.81
480.095	457.81
480.313	494.81
480.532	449.81
480.751	469.81
480.969	455.81
481.188	534.81
481.406	564.81
481.624	497.81
481.843	496.81
482.061	470.81
482.28	450.81
482.498	457.81
482.717	445.81
482.935	445.81
483.153	440.81
483.372	455.81
483.59	455.81
483.808	454.81
484.027	444.81
484.245	443.81
484.463	457.81
484.681	448.81
484.9	458.81
485.118	479.81
485.336	451.81
485.554	455.81
485.772	434.81
485.99	449.81
486.209	459.81
486.427	467.81
486.645	478.81
486.863	504.81
487.081	486.81
487.299	482.81
487.517	473.81
487.735	472.81
487.953	480.81
488.171	474.81
488.389	499.81
488.607	488.81
488.825	477.81
489.043	495.81
489.261	480.81
489.479	501.81
489.696	480.81
489.914	504.81
490.132	484.81
490.35	502.81
490.568	499.81
490.786	477.81
491.003	510.81
491.221	516.81
491.439	528.81
491.657	522.81
491.874	520.81
492.092	531.81
492.31	549.81
492.527	558.81
492.745	548.81
492.963	547.81
493.18	543.81
493.398	553.81
493.615	559.81
493.833	563.81
494.05	549.81
494.268	580.81
494.485	576.81
494.703	559.81
494.92	574.81
495.138	597.81
495.355	566.81
495.573	559.81
495.79	589.81
496.008	568.81
496.225	552.81
496.442	581.81
496.66	546.81
496.877	566.81
497.094	584.81
497.312	597.81
497.529	563.81
497.746	576.81
497.963	581.81
498.181	600.81
498.398	604.81
498.615	591.81
498.832	627.81
499.049	630.81
499.267	627.81
499.484	649.81
499.701	649.81
499.918	669.81
500.135	688.81
500.352	706.81
500.569	718.81
500.786	715.81
501.003	733.81
501.22	719.81
501.437	693.81
501.654	700.81
501.871	670.81
502.088	669.81
