Data from 1961.PennyLincolnUp.Lamp.En5.5.200Scan.071719.P1._HRD10591_13-47-56-057.txt Node
Date: Thu Jul 18 13:47:56 EDT 2019
User: cochatt
Spectrometer: HR+D1059
Trigger mode: 1
Integration Time (sec): 1.000000E-1
Scans to average: 1
Electric dark correction enabled: true
Nonlinearity correction enabled: false
Boxcar width: 0
XAxis mode: Wavelengths
Number of Pixels in Spectrum: 2048
>>>>>Begin Spectral Data<<<<<
223.165	-5.81
223.4	-5.81
223.635	-5.81
223.869	-8.81
224.104	-17.81
224.338	-6.81
224.573	-16.81
224.808	2.19
225.042	-16.81
225.277	-16.81
225.511	-1.81
225.746	11.19
225.98	2.19
226.215	5.19
226.449	18.19
226.683	20.19
226.918	16.19
227.152	16.19
227.387	28.19
227.621	25.19
227.856	38.19
228.09	46.19
228.324	54.19
228.559	51.19
228.793	56.19
229.027	88.19
229.262	102.19
229.496	92.19
229.73	120.19
229.964	142.19
230.199	108.19
230.433	126.19
230.667	105.19
230.901	107.19
231.136	104.19
231.37	95.19
231.604	107.19
231.838	106.19
232.072	83.19
232.306	104.19
232.541	102.19
232.775	110.19
233.009	107.19
233.243	111.19
233.477	95.19
233.711	106.19
233.945	124.19
234.179	117.19
234.413	110.19
234.647	107.19
234.881	92.19
235.115	107.19
235.349	116.19
235.583	104.19
235.817	111.19
236.051	114.19
236.285	96.19
236.519	118.19
236.753	115.19
236.987	133.19
237.221	174.19
237.455	191.19
237.689	169.19
237.922	132.19
238.156	118.19
238.39	115.19
238.624	129.19
238.858	107.19
239.091	99.19
239.325	98.19
239.559	112.19
239.793	109.19
240.027	119.19
240.26	138.19
240.494	133.19
240.728	146.19
240.961	147.19
241.195	134.19
241.429	126.19
241.662	117.19
241.896	115.19
242.13	123.19
242.363	123.19
242.597	123.19
242.83	120.19
243.064	126.19
243.298	119.19
243.531	123.19
243.765	121.19
243.998	130.19
244.232	123.19
244.465	138.19
244.699	126.19
244.932	131.19
245.166	127.19
245.399	130.19
245.633	122.19
245.866	126.19
246.099	115.19
246.333	128.19
246.566	134.19
246.8	126.19
247.033	139.19
247.266	146.19
247.5	137.19
247.733	153.19
247.966	149.19
248.2	133.19
248.433	135.19
248.666	145.19
248.899	161.19
249.133	171.19
249.366	178.19
249.599	174.19
249.832	158.19
250.066	162.19
250.299	154.19
250.532	164.19
250.765	170.19
250.998	197.19
251.231	197.19
251.465	176.19
251.698	171.19
251.931	163.19
252.164	169.19
252.397	167.19
252.63	163.19
252.863	186.19
253.096	190.19
253.329	193.19
253.562	176.19
253.795	191.19
254.028	193.19
254.261	178.19
254.494	193.19
254.727	214.19
254.96	223.19
255.193	224.19
255.426	194.19
255.659	200.19
255.892	195.19
256.124	183.19
256.357	183.19
256.59	195.19
256.823	176.19
257.056	189.19
257.289	180.19
257.521	168.19
257.754	176.19
257.987	164.19
258.22	179.19
258.452	178.19
258.685	178.19
258.918	183.19
259.151	182.19
259.383	172.19
259.616	178.19
259.849	185.19
260.081	184.19
260.314	202.19
260.547	219.19
260.779	187.19
261.012	206.19
261.244	184.19
261.477	186.19
261.71	186.19
261.942	179.19
262.175	190.19
262.407	192.19
262.64	182.19
262.872	181.19
263.105	178.19
263.337	178.19
263.57	191.19
263.802	171.19
264.035	172.19
264.267	190.19
264.499	169.19
264.732	187.19
264.964	165.19
265.197	182.19
265.429	183.19
265.661	189.19
265.894	174.19
266.126	185.19
266.358	178.19
266.591	169.19
266.823	174.19
267.055	183.19
267.287	185.19
267.52	199.19
267.752	188.19
267.984	195.19
268.216	182.19
268.448	186.19
268.681	198.19
268.913	194.19
269.145	212.19
269.377	207.19
269.609	215.19
269.841	241.19
270.073	230.19
270.306	221.19
270.538	249.19
270.77	244.19
271.002	224.19
271.234	258.19
271.466	252.19
271.698	269.19
271.93	240.19
272.162	247.19
272.394	261.19
272.626	257.19
272.858	239.19
273.09	220.19
273.322	223.19
273.553	222.19
273.785	212.19
274.017	205.19
274.249	216.19
274.481	224.19
274.713	228.19
274.945	219.19
275.176	219.19
275.408	216.19
275.64	230.19
275.872	217.19
276.104	217.19
276.335	231.19
276.567	215.19
276.799	221.19
277.031	237.19
277.262	255.19
277.494	258.19
277.726	234.19
277.957	239.19
278.189	221.19
278.421	238.19
278.652	239.19
278.884	229.19
279.115	218.19
279.347	200.19
279.579	217.19
279.81	206.19
280.042	198.19
280.273	213.19
280.505	221.19
280.736	215.19
280.968	226.19
281.199	223.19
281.431	225.19
281.662	217.19
281.894	211.19
282.125	225.19
282.356	232.19
282.588	242.19
282.819	255.19
283.051	238.19
283.282	217.19
283.513	230.19
283.745	227.19
283.976	228.19
284.207	232.19
284.439	217.19
284.67	235.19
284.901	220.19
285.132	210.19
285.364	228.19
285.595	217.19
285.826	234.19
286.057	225.19
286.288	210.19
286.52	239.19
286.751	226.19
286.982	215.19
287.213	211.19
287.444	214.19
287.675	225.19
287.906	235.19
288.138	266.19
288.369	233.19
288.6	232.19
288.831	245.19
289.062	219.19
289.293	246.19
289.524	232.19
289.755	233.19
289.986	237.19
290.217	214.19
290.448	209.19
290.679	233.19
290.91	219.19
291.141	229.19
291.371	226.19
291.602	236.19
291.833	221.19
292.064	234.19
292.295	226.19
292.526	224.19
292.757	246.19
292.987	228.19
293.218	224.19
293.449	238.19
293.68	226.19
293.91	228.19
294.141	230.19
294.372	228.19
294.603	257.19
294.833	239.19
295.064	235.19
295.295	243.19
295.525	235.19
295.756	233.19
295.987	240.19
296.217	254.19
296.448	277.19
296.679	243.19
296.909	241.19
297.14	249.19
297.37	216.19
297.601	243.19
297.831	225.19
298.062	241.19
298.292	225.19
298.523	238.19
298.753	247.19
298.984	248.19
299.214	233.19
299.445	238.19
299.675	251.19
299.905	262.19
300.136	240.19
300.366	250.19
300.597	249.19
300.827	248.19
301.057	265.19
301.288	252.19
301.518	242.19
301.748	266.19
301.979	282.19
302.209	256.19
302.439	258.19
302.669	249.19
302.9	260.19
303.13	249.19
303.36	265.19
303.59	277.19
303.82	259.19
304.051	280.19
304.281	260.19
304.511	250.19
304.741	265.19
304.971	261.19
305.201	246.19
305.431	252.19
305.661	250.19
305.891	263.19
306.121	266.19
306.352	278.19
306.582	244.19
306.812	268.19
307.042	242.19
307.272	266.19
307.502	254.19
307.731	272.19
307.961	265.19
308.191	260.19
308.421	262.19
308.651	262.19
308.881	275.19
309.111	276.19
309.341	275.19
309.571	299.19
309.8	286.19
310.03	310.19
310.26	309.19
310.49	299.19
310.72	322.19
310.949	322.19
311.179	344.19
311.409	316.19
311.639	304.19
311.868	311.19
312.098	276.19
312.328	310.19
312.557	320.19
312.787	339.19
313.017	326.19
313.246	316.19
313.476	312.19
313.706	320.19
313.935	327.19
314.165	326.19
314.394	336.19
314.624	328.19
314.853	311.19
315.083	314.19
315.312	290.19
315.542	299.19
315.771	303.19
316.001	300.19
316.23	314.19
316.46	307.19
316.689	314.19
316.919	306.19
317.148	320.19
317.377	317.19
317.607	312.19
317.836	310.19
318.065	315.19
318.295	292.19
318.524	306.19
318.753	304.19
318.983	299.19
319.212	294.19
319.441	307.19
319.67	307.19
319.9	327.19
320.129	306.19
320.358	298.19
320.587	323.19
320.816	331.19
321.046	321.19
321.275	326.19
321.504	342.19
321.733	326.19
321.962	327.19
322.191	357.19
322.42	370.19
322.649	378.19
322.878	389.19
323.108	382.19
323.337	414.19
323.566	451.19
323.795	466.19
324.024	504.19
324.253	639.19
324.482	949.19
324.71	1411.19
324.939	1992.19
325.168	1661.19
325.397	887.19
325.626	615.19
325.855	488.19
326.084	457.19
326.313	434.19
326.542	446.19
326.77	489.19
326.999	614.19
327.228	846.19
327.457	1255.19
327.686	1467.19
327.914	998.19
328.143	671.19
328.372	570.19
328.6	529.19
328.829	506.19
329.058	500.19
329.287	520.19
329.515	483.19
329.744	468.19
329.972	451.19
330.201	490.19
330.43	485.19
330.658	528.19
330.887	533.19
331.115	519.19
331.344	451.19
331.572	419.19
331.801	422.19
332.03	414.19
332.258	388.19
332.486	383.19
332.715	364.19
332.943	373.19
333.172	370.19
333.4	383.19
333.629	370.19
333.857	390.19
334.085	386.19
334.314	415.19
334.542	448.19
334.771	468.19
334.999	423.19
335.227	392.19
335.455	367.19
335.684	362.19
335.912	356.19
336.14	378.19
336.369	376.19
336.597	359.19
336.825	376.19
337.053	385.19
337.281	367.19
337.51	343.19
337.738	350.19
337.966	351.19
338.194	343.19
338.422	337.19
338.65	357.19
338.878	353.19
339.106	329.19
339.334	350.19
339.562	346.19
339.79	356.19
340.018	346.19
340.246	333.19
340.474	344.19
340.702	346.19
340.93	341.19
341.158	346.19
341.386	351.19
341.614	350.19
341.842	369.19
342.07	338.19
342.298	327.19
342.526	320.19
342.754	336.19
342.981	325.19
343.209	340.19
343.437	345.19
343.665	328.19
343.893	336.19
344.12	352.19
344.348	330.19
344.576	337.19
344.804	347.19
345.031	364.19
345.259	373.19
345.487	354.19
345.714	353.19
345.942	344.19
346.17	351.19
346.397	316.19
346.625	337.19
346.853	330.19
347.08	341.19
347.308	334.19
347.535	335.19
347.763	340.19
347.99	348.19
348.218	340.19
348.445	359.19
348.673	358.19
348.9	347.19
349.128	341.19
349.355	318.19
349.583	324.19
349.81	325.19
350.037	316.19
350.265	327.19
350.492	302.19
350.72	315.19
350.947	338.19
351.174	355.19
351.402	347.19
351.629	347.19
351.856	316.19
352.083	350.19
352.311	356.19
352.538	349.19
352.765	345.19
352.992	363.19
353.22	337.19
353.447	331.19
353.674	347.19
353.901	319.19
354.128	302.19
354.355	321.19
354.583	314.19
354.81	309.19
355.037	291.19
355.264	318.19
355.491	302.19
355.718	320.19
355.945	312.19
356.172	308.19
356.399	310.19
356.626	312.19
356.853	305.19
357.08	308.19
357.307	302.19
357.534	320.19
357.761	306.19
357.988	304.19
358.215	306.19
358.441	310.19
358.668	311.19
358.895	330.19
359.122	324.19
359.349	316.19
359.576	337.19
359.802	346.19
360.029	399.19
360.256	394.19
360.483	375.19
360.709	343.19
360.936	351.19
361.163	330.19
361.39	328.19
361.616	347.19
361.843	328.19
362.07	344.19
362.296	340.19
362.523	348.19
362.749	337.19
362.976	335.19
363.203	336.19
363.429	307.19
363.656	324.19
363.882	326.19
364.109	332.19
364.335	329.19
364.562	315.19
364.788	333.19
365.015	316.19
365.241	317.19
365.468	322.19
365.694	319.19
365.92	342.19
366.147	329.19
366.373	330.19
366.599	330.19
366.826	319.19
367.052	315.19
367.278	302.19
367.505	337.19
367.731	318.19
367.957	318.19
368.184	312.19
368.41	323.19
368.636	325.19
368.862	327.19
369.089	317.19
369.315	332.19
369.541	332.19
369.767	324.19
369.993	336.19
370.219	298.19
370.445	322.19
370.672	311.19
370.898	320.19
371.124	304.19
371.35	310.19
371.576	324.19
371.802	323.19
372.028	326.19
372.254	306.19
372.48	299.19
372.706	291.19
372.932	299.19
373.158	325.19
373.384	338.19
373.61	323.19
373.835	318.19
374.061	319.19
374.287	313.19
374.513	330.19
374.739	313.19
374.965	291.19
375.191	305.19
375.416	303.19
375.642	328.19
375.868	315.19
376.094	328.19
376.319	322.19
376.545	334.19
376.771	322.19
376.997	328.19
377.222	328.19
377.448	310.19
377.674	309.19
377.899	295.19
378.125	293.19
378.35	310.19
378.576	315.19
378.802	303.19
379.027	306.19
379.253	296.19
379.478	303.19
379.704	311.19
379.929	310.19
380.155	312.19
380.38	323.19
380.606	339.19
380.831	320.19
381.057	332.19
381.282	305.19
381.507	320.19
381.733	302.19
381.958	314.19
382.184	320.19
382.409	317.19
382.634	307.19
382.86	315.19
383.085	315.19
383.31	336.19
383.535	322.19
383.761	328.19
383.986	310.19
384.211	319.19
384.436	343.19
384.662	315.19
384.887	322.19
385.112	330.19
385.337	345.19
385.562	338.19
385.787	322.19
386.013	354.19
386.238	366.19
386.463	328.19
386.688	331.19
386.913	337.19
387.138	342.19
387.363	319.19
387.588	343.19
387.813	318.19
388.038	343.19
388.263	327.19
388.488	327.19
388.713	331.19
388.938	326.19
389.163	338.19
389.387	342.19
389.612	353.19
389.837	323.19
390.062	340.19
390.287	339.19
390.512	321.19
390.736	336.19
390.961	352.19
391.186	345.19
391.411	347.19
391.636	340.19
391.86	342.19
392.085	345.19
392.31	338.19
392.534	340.19
392.759	362.19
392.984	342.19
393.208	335.19
393.433	339.19
393.658	327.19
393.882	342.19
394.107	332.19
394.331	335.19
394.556	343.19
394.78	355.19
395.005	345.19
395.229	361.19
395.454	338.19
395.678	345.19
395.903	362.19
396.127	381.19
396.352	363.19
396.576	361.19
396.801	361.19
397.025	369.19
397.249	355.19
397.474	352.19
397.698	374.19
397.922	376.19
398.147	372.19
398.371	386.19
398.595	377.19
398.82	365.19
399.044	384.19
399.268	388.19
399.492	385.19
399.717	435.19
399.941	437.19
400.165	471.19
400.389	451.19
400.613	414.19
400.837	401.19
401.062	382.19
401.286	391.19
401.51	403.19
401.734	385.19
401.958	391.19
402.182	393.19
402.406	402.19
402.63	397.19
402.854	398.19
403.078	394.19
403.302	399.19
403.526	386.19
403.75	403.19
403.974	404.19
404.198	388.19
404.422	400.19
404.645	395.19
404.869	407.19
405.093	423.19
405.317	471.19
405.541	511.19
405.765	451.19
405.988	423.19
406.212	445.19
406.436	450.19
406.66	452.19
406.883	434.19
407.107	453.19
407.331	479.19
407.555	519.19
407.778	542.19
408.002	465.19
408.226	442.19
408.449	430.19
408.673	453.19
408.896	466.19
409.12	485.19
409.344	470.19
409.567	412.19
409.791	409.19
410.014	397.19
410.238	406.19
410.461	403.19
410.685	416.19
410.908	439.19
411.132	427.19
411.355	459.19
411.578	437.19
411.802	404.19
412.025	404.19
412.249	393.19
412.472	447.19
412.695	459.19
412.919	456.19
413.142	411.19
413.365	388.19
413.589	404.19
413.812	394.19
414.035	380.19
414.258	400.19
414.482	394.19
414.705	383.19
414.928	351.19
415.151	357.19
415.374	372.19
415.597	368.19
415.821	367.19
416.044	383.19
416.267	372.19
416.49	375.19
416.713	359.19
416.936	393.19
417.159	388.19
417.382	396.19
417.605	393.19
417.828	416.19
418.051	390.19
418.274	381.19
418.497	362.19
418.72	368.19
418.943	390.19
419.166	403.19
419.389	400.19
419.611	379.19
419.834	395.19
420.057	394.19
420.28	424.19
420.503	384.19
420.726	407.19
420.948	419.19
421.171	447.19
421.394	471.19
421.617	415.19
421.839	406.19
422.062	408.19
422.285	433.19
422.507	467.19
422.73	521.19
422.953	494.19
423.175	444.19
423.398	422.19
423.621	410.19
423.843	413.19
424.066	430.19
424.288	442.19
424.511	456.19
424.733	510.19
424.956	571.19
425.178	537.19
425.401	521.19
425.623	522.19
425.846	466.19
426.068	436.19
426.291	451.19
426.513	433.19
426.735	431.19
426.958	476.19
427.18	548.19
427.402	643.19
427.625	710.19
427.847	616.19
428.069	545.19
428.292	498.19
428.514	444.19
428.736	427.19
428.958	422.19
429.181	396.19
429.403	424.19
429.625	409.19
429.847	467.19
430.069	509.19
430.292	461.19
430.514	419.19
430.736	406.19
430.958	402.19
431.18	385.19
431.402	386.19
431.624	367.19
431.846	379.19
432.068	371.19
432.29	403.19
432.512	391.19
432.734	389.19
432.956	388.19
433.178	401.19
433.4	400.19
433.622	392.19
433.844	378.19
434.066	368.19
434.287	376.19
434.509	383.19
434.731	409.19
434.953	400.19
435.175	421.19
435.397	428.19
435.618	454.19
435.84	482.19
436.062	553.19
436.284	611.19
436.505	496.19
436.727	456.19
436.949	433.19
437.17	415.19
437.392	410.19
437.614	445.19
437.835	475.19
438.057	557.19
438.278	630.19
438.5	593.19
438.721	649.19
438.943	626.19
439.165	514.19
439.386	466.19
439.608	446.19
439.829	461.19
440.05	489.19
440.272	495.19
440.493	494.19
440.715	431.19
440.936	422.19
441.158	420.19
441.379	424.19
441.6	433.19
441.822	446.19
442.043	488.19
442.264	549.19
442.486	575.19
442.707	484.19
442.928	455.19
443.149	463.19
443.371	469.19
443.592	511.19
443.813	565.19
444.034	618.19
444.255	514.19
444.476	461.19
444.698	421.19
444.919	420.19
445.14	548.19
445.361	485.19
445.582	474.19
445.803	539.19
446.024	610.19
446.245	621.19
446.466	574.19
446.687	491.19
446.908	449.19
447.129	429.19
447.35	410.19
447.571	412.19
447.792	414.19
448.013	396.19
448.234	439.19
448.455	471.19
448.675	565.19
448.896	658.19
449.117	539.19
449.338	519.19
449.559	600.19
449.779	688.19
450	528.19
450.221	472.19
450.442	433.19
450.662	423.19
450.883	434.19
451.104	421.19
451.324	427.19
451.545	393.19
451.766	418.19
451.986	394.19
452.207	364.19
452.428	369.19
452.648	372.19
452.869	382.19
453.089	378.19
453.31	389.19
453.53	380.19
453.751	386.19
453.971	374.19
454.192	402.19
454.412	388.19
454.633	371.19
454.853	360.19
455.073	364.19
455.294	391.19
455.514	449.19
455.734	441.19
455.955	391.19
456.175	378.19
456.395	377.19
456.616	351.19
456.836	359.19
457.056	335.19
457.276	359.19
457.497	351.19
457.717	363.19
457.937	351.19
458.157	375.19
458.377	350.19
458.598	392.19
458.818	442.19
459.038	510.19
459.258	521.19
459.478	439.19
459.698	394.19
459.918	363.19
460.138	384.19
460.358	382.19
460.578	367.19
460.798	378.19
461.018	372.19
461.238	393.19
461.458	388.19
461.678	394.19
461.898	400.19
462.118	398.19
462.338	396.19
462.558	399.19
462.777	396.19
462.997	410.19
463.217	417.19
463.437	400.19
463.657	402.19
463.876	407.19
464.096	431.19
464.316	404.19
464.536	419.19
464.755	423.19
464.975	417.19
465.195	443.19
465.414	528.19
465.634	455.19
465.854	419.19
466.073	408.19
466.293	398.19
466.512	376.19
466.732	393.19
466.951	373.19
467.171	391.19
467.391	402.19
467.61	396.19
467.829	402.19
468.049	402.19
468.268	403.19
468.488	382.19
468.707	392.19
468.927	374.19
469.146	369.19
469.365	362.19
469.585	361.19
469.804	383.19
470.023	400.19
470.243	394.19
470.462	401.19
470.681	416.19
470.901	387.19
471.12	406.19
471.339	392.19
471.558	396.19
471.777	390.19
471.997	391.19
472.216	412.19
472.435	427.19
472.654	424.19
472.873	383.19
473.092	392.19
473.311	396.19
473.53	374.19
473.749	423.19
473.968	433.19
474.187	518.19
474.406	537.19
474.625	445.19
474.844	390.19
475.063	385.19
475.282	383.19
475.501	397.19
475.72	405.19
475.939	361.19
476.158	390.19
476.377	400.19
476.596	414.19
476.814	416.19
477.033	400.19
477.252	436.19
477.471	410.19
477.69	414.19
477.908	411.19
478.127	436.19
478.346	398.19
478.564	428.19
478.783	411.19
479.002	426.19
479.22	444.19
479.439	447.19
479.658	468.19
479.876	473.19
480.095	474.19
480.313	512.19
480.532	477.19
480.751	459.19
480.969	486.19
481.188	566.19
481.406	578.19
481.624	535.19
481.843	489.19
482.061	487.19
482.28	470.19
482.498	463.19
482.717	459.19
482.935	461.19
483.153	463.19
483.372	456.19
483.59	439.19
483.808	449.19
484.027	455.19
484.245	459.19
484.463	444.19
484.681	453.19
484.9	464.19
485.118	471.19
485.336	451.19
485.554	454.19
485.772	460.19
485.99	465.19
486.209	459.19
486.427	459.19
486.645	481.19
486.863	519.19
487.081	496.19
487.299	494.19
487.517	506.19
487.735	468.19
487.953	496.19
488.171	488.19
488.389	468.19
488.607	505.19
488.825	482.19
489.043	489.19
489.261	495.19
489.479	492.19
489.696	495.19
489.914	510.19
490.132	486.19
490.35	486.19
490.568	489.19
490.786	514.19
491.003	536.19
491.221	534.19
491.439	538.19
491.657	553.19
491.874	561.19
492.092	568.19
492.31	528.19
492.527	552.19
492.745	548.19
492.963	551.19
493.18	549.19
493.398	568.19
493.615	561.19
493.833	567.19
494.05	555.19
494.268	558.19
494.485	558.19
494.703	549.19
494.92	592.19
495.138	556.19
495.355	575.19
495.573	562.19
495.79	571.19
496.008	578.19
496.225	586.19
496.442	582.19
496.66	572.19
496.877	565.19
497.094	575.19
497.312	583.19
497.529	589.19
497.746	600.19
497.963	587.19
498.181	626.19
498.398	607.19
498.615	609.19
498.832	641.19
499.049	633.19
499.267	647.19
499.484	647.19
499.701	692.19
499.918	682.19
500.135	713.19
500.352	723.19
500.569	704.19
500.786	717.19
501.003	691.19
501.22	731.19
501.437	729.19
501.654	659.19
501.871	693.19
502.088	706.19
