Data from 1961.PennyLincolnUp.Lamp.En5.5.200Scan.071719.P1._HRD10591_13-47-47-057.txt Node
Date: Thu Jul 18 13:47:47 EDT 2019
User: cochatt
Spectrometer: HR+D1059
Trigger mode: 1
Integration Time (sec): 1.000000E-1
Scans to average: 1
Electric dark correction enabled: true
Nonlinearity correction enabled: false
Boxcar width: 0
XAxis mode: Wavelengths
Number of Pixels in Spectrum: 2048
>>>>>Begin Spectral Data<<<<<
223.165	-10.88
223.4	-10.88
223.635	-10.88
223.869	-35.88
224.104	-15.88
224.338	-15.88
224.573	-13.88
224.808	-17.88
225.042	-2.88
225.277	-6.88
225.511	-5.88
225.746	6.12
225.98	20.12
226.215	26.12
226.449	14.12
226.683	9.12
226.918	20.12
227.152	30.12
227.387	43.12
227.621	45.12
227.856	36.12
228.09	42.12
228.324	54.12
228.559	61.12
228.793	57.12
229.027	88.12
229.262	107.12
229.496	122.12
229.73	126.12
229.964	161.12
230.199	120.12
230.433	105.12
230.667	107.12
230.901	117.12
231.136	109.12
231.37	99.12
231.604	112.12
231.838	112.12
232.072	114.12
232.306	106.12
232.541	101.12
232.775	108.12
233.009	104.12
233.243	96.12
233.477	101.12
233.711	83.12
233.945	105.12
234.179	96.12
234.413	109.12
234.647	114.12
234.881	99.12
235.115	118.12
235.349	85.12
235.583	106.12
235.817	115.12
236.051	120.12
236.285	112.12
236.519	126.12
236.753	113.12
236.987	141.12
237.221	170.12
237.455	217.12
237.689	168.12
237.922	139.12
238.156	123.12
238.39	117.12
238.624	126.12
238.858	111.12
239.091	115.12
239.325	100.12
239.559	122.12
239.793	136.12
240.027	134.12
240.26	135.12
240.494	144.12
240.728	137.12
240.961	137.12
241.195	112.12
241.429	117.12
241.662	116.12
241.896	126.12
242.13	114.12
242.363	116.12
242.597	130.12
242.83	110.12
243.064	133.12
243.298	119.12
243.531	123.12
243.765	125.12
243.998	112.12
244.232	124.12
244.465	115.12
244.699	127.12
244.932	127.12
245.166	130.12
245.399	141.12
245.633	144.12
245.866	124.12
246.099	121.12
246.333	132.12
246.566	120.12
246.8	119.12
247.033	129.12
247.266	135.12
247.5	154.12
247.733	144.12
247.966	156.12
248.2	149.12
248.433	139.12
248.666	147.12
248.899	154.12
249.133	166.12
249.366	183.12
249.599	163.12
249.832	164.12
250.066	163.12
250.299	159.12
250.532	172.12
250.765	192.12
250.998	194.12
251.231	206.12
251.465	170.12
251.698	149.12
251.931	172.12
252.164	186.12
252.397	166.12
252.63	158.12
252.863	162.12
253.096	178.12
253.329	205.12
253.562	188.12
253.795	176.12
254.028	179.12
254.261	193.12
254.494	207.12
254.727	214.12
254.96	231.12
255.193	225.12
255.426	200.12
255.659	187.12
255.892	205.12
256.124	206.12
256.357	217.12
256.59	198.12
256.823	185.12
257.056	196.12
257.289	182.12
257.521	177.12
257.754	189.12
257.987	172.12
258.22	176.12
258.452	195.12
258.685	179.12
258.918	177.12
259.151	172.12
259.383	183.12
259.616	181.12
259.849	192.12
260.081	202.12
260.314	217.12
260.547	212.12
260.779	222.12
261.012	203.12
261.244	205.12
261.477	199.12
261.71	178.12
261.942	202.12
262.175	214.12
262.407	204.12
262.64	181.12
262.872	200.12
263.105	181.12
263.337	185.12
263.57	178.12
263.802	194.12
264.035	187.12
264.267	171.12
264.499	180.12
264.732	183.12
264.964	179.12
265.197	170.12
265.429	182.12
265.661	187.12
265.894	157.12
266.126	179.12
266.358	178.12
266.591	201.12
266.823	200.12
267.055	210.12
267.287	181.12
267.52	183.12
267.752	196.12
267.984	202.12
268.216	180.12
268.448	177.12
268.681	198.12
268.913	221.12
269.145	199.12
269.377	211.12
269.609	228.12
269.841	232.12
270.073	236.12
270.306	241.12
270.538	282.12
270.77	259.12
271.002	256.12
271.234	243.12
271.466	244.12
271.698	265.12
271.93	262.12
272.162	250.12
272.394	268.12
272.626	240.12
272.858	248.12
273.09	233.12
273.322	229.12
273.553	237.12
273.785	213.12
274.017	216.12
274.249	223.12
274.481	220.12
274.713	210.12
274.945	213.12
275.176	208.12
275.408	224.12
275.64	233.12
275.872	228.12
276.104	237.12
276.335	239.12
276.567	228.12
276.799	238.12
277.031	269.12
277.262	256.12
277.494	263.12
277.726	251.12
277.957	223.12
278.189	237.12
278.421	224.12
278.652	219.12
278.884	216.12
279.115	222.12
279.347	225.12
279.579	208.12
279.81	224.12
280.042	215.12
280.273	210.12
280.505	218.12
280.736	211.12
280.968	215.12
281.199	222.12
281.431	224.12
281.662	221.12
281.894	224.12
282.125	228.12
282.356	221.12
282.588	263.12
282.819	251.12
283.051	220.12
283.282	241.12
283.513	205.12
283.745	226.12
283.976	226.12
284.207	229.12
284.439	234.12
284.67	225.12
284.901	214.12
285.132	204.12
285.364	209.12
285.595	226.12
285.826	229.12
286.057	219.12
286.288	210.12
286.52	233.12
286.751	231.12
286.982	224.12
287.213	227.12
287.444	230.12
287.675	219.12
287.906	250.12
288.138	242.12
288.369	224.12
288.6	242.12
288.831	235.12
289.062	241.12
289.293	236.12
289.524	220.12
289.755	244.12
289.986	237.12
290.217	229.12
290.448	224.12
290.679	234.12
290.91	227.12
291.141	215.12
291.371	217.12
291.602	226.12
291.833	224.12
292.064	253.12
292.295	228.12
292.526	238.12
292.757	235.12
292.987	228.12
293.218	229.12
293.449	236.12
293.68	244.12
293.91	234.12
294.141	230.12
294.372	231.12
294.603	233.12
294.833	243.12
295.064	238.12
295.295	238.12
295.525	228.12
295.756	222.12
295.987	244.12
296.217	258.12
296.448	283.12
296.679	257.12
296.909	230.12
297.14	232.12
297.37	254.12
297.601	235.12
297.831	229.12
298.062	222.12
298.292	237.12
298.523	233.12
298.753	259.12
298.984	246.12
299.214	264.12
299.445	234.12
299.675	240.12
299.905	232.12
300.136	265.12
300.366	254.12
300.597	259.12
300.827	274.12
301.057	284.12
301.288	250.12
301.518	267.12
301.748	258.12
301.979	272.12
302.209	275.12
302.439	264.12
302.669	268.12
302.9	268.12
303.13	274.12
303.36	249.12
303.59	251.12
303.82	285.12
304.051	255.12
304.281	281.12
304.511	273.12
304.741	253.12
304.971	267.12
305.201	254.12
305.431	275.12
305.661	273.12
305.891	248.12
306.121	255.12
306.352	266.12
306.582	268.12
306.812	264.12
307.042	252.12
307.272	273.12
307.502	280.12
307.731	273.12
307.961	267.12
308.191	274.12
308.421	280.12
308.651	268.12
308.881	272.12
309.111	291.12
309.341	296.12
309.571	292.12
309.8	309.12
310.03	288.12
310.26	326.12
310.49	311.12
310.72	343.12
310.949	331.12
311.179	331.12
311.409	321.12
311.639	318.12
311.868	324.12
312.098	331.12
312.328	325.12
312.557	333.12
312.787	336.12
313.017	351.12
313.246	318.12
313.476	309.12
313.706	313.12
313.935	319.12
314.165	329.12
314.394	339.12
314.624	334.12
314.853	334.12
315.083	327.12
315.312	293.12
315.542	292.12
315.771	301.12
316.001	312.12
316.23	295.12
316.46	296.12
316.689	311.12
316.919	325.12
317.148	331.12
317.377	327.12
317.607	318.12
317.836	316.12
318.065	312.12
318.295	306.12
318.524	293.12
318.753	285.12
318.983	298.12
319.212	298.12
319.441	315.12
319.67	332.12
319.9	322.12
320.129	309.12
320.358	307.12
320.587	308.12
320.816	321.12
321.046	338.12
321.275	332.12
321.504	327.12
321.733	332.12
321.962	310.12
322.191	375.12
322.42	361.12
322.649	382.12
322.878	405.12
323.108	386.12
323.337	441.12
323.566	450.12
323.795	473.12
324.024	511.12
324.253	681.12
324.482	992.12
324.71	1533.12
324.939	2150.12
325.168	1808.12
325.397	944.12
325.626	635.12
325.855	508.12
326.084	476.12
326.313	463.12
326.542	474.12
326.77	512.12
326.999	624.12
327.228	899.12
327.457	1354.12
327.686	1632.12
327.914	1068.12
328.143	699.12
328.372	596.12
328.6	546.12
328.829	504.12
329.058	514.12
329.287	512.12
329.515	490.12
329.744	473.12
329.972	438.12
330.201	475.12
330.43	508.12
330.658	526.12
330.887	572.12
331.115	522.12
331.344	436.12
331.572	444.12
331.801	438.12
332.03	412.12
332.258	394.12
332.486	370.12
332.715	374.12
332.943	377.12
333.172	379.12
333.4	363.12
333.629	392.12
333.857	390.12
334.085	401.12
334.314	422.12
334.542	466.12
334.771	482.12
334.999	413.12
335.227	368.12
335.455	371.12
335.684	362.12
335.912	371.12
336.14	364.12
336.369	364.12
336.597	372.12
336.825	396.12
337.053	360.12
337.281	361.12
337.51	355.12
337.738	376.12
337.966	337.12
338.194	371.12
338.422	374.12
338.65	340.12
338.878	351.12
339.106	338.12
339.334	340.12
339.562	346.12
339.79	353.12
340.018	355.12
340.246	343.12
340.474	350.12
340.702	356.12
340.93	350.12
341.158	341.12
341.386	341.12
341.614	357.12
341.842	354.12
342.07	354.12
342.298	330.12
342.526	328.12
342.754	354.12
342.981	354.12
343.209	352.12
343.437	325.12
343.665	345.12
343.893	337.12
344.12	352.12
344.348	333.12
344.576	320.12
344.804	349.12
345.031	357.12
345.259	372.12
345.487	374.12
345.714	353.12
345.942	351.12
346.17	351.12
346.397	331.12
346.625	332.12
346.853	334.12
347.08	345.12
347.308	362.12
347.535	369.12
347.763	354.12
347.99	359.12
348.218	337.12
348.445	379.12
348.673	356.12
348.9	365.12
349.128	345.12
349.355	340.12
349.583	336.12
349.81	318.12
350.037	350.12
350.265	333.12
350.492	341.12
350.72	341.12
350.947	341.12
351.174	333.12
351.402	361.12
351.629	339.12
351.856	360.12
352.083	349.12
352.311	360.12
352.538	379.12
352.765	372.12
352.992	364.12
353.22	349.12
353.447	325.12
353.674	325.12
353.901	333.12
354.128	305.12
354.355	338.12
354.583	314.12
354.81	326.12
355.037	298.12
355.264	306.12
355.491	294.12
355.718	306.12
355.945	310.12
356.172	309.12
356.399	311.12
356.626	300.12
356.853	326.12
357.08	308.12
357.307	317.12
357.534	316.12
357.761	312.12
357.988	316.12
358.215	325.12
358.441	297.12
358.668	323.12
358.895	336.12
359.122	310.12
359.349	333.12
359.576	356.12
359.802	366.12
360.029	384.12
360.256	382.12
360.483	385.12
360.709	334.12
360.936	358.12
361.163	341.12
361.39	346.12
361.616	338.12
361.843	347.12
362.07	360.12
362.296	344.12
362.523	326.12
362.749	337.12
362.976	309.12
363.203	347.12
363.429	332.12
363.656	328.12
363.882	311.12
364.109	337.12
364.335	328.12
364.562	306.12
364.788	316.12
365.015	318.12
365.241	331.12
365.468	340.12
365.694	328.12
365.92	341.12
366.147	345.12
366.373	320.12
366.599	338.12
366.826	324.12
367.052	314.12
367.278	338.12
367.505	337.12
367.731	327.12
367.957	326.12
368.184	324.12
368.41	340.12
368.636	359.12
368.862	344.12
369.089	327.12
369.315	317.12
369.541	324.12
369.767	325.12
369.993	319.12
370.219	324.12
370.445	318.12
370.672	306.12
370.898	317.12
371.124	297.12
371.35	321.12
371.576	310.12
371.802	301.12
372.028	297.12
372.254	318.12
372.48	322.12
372.706	317.12
372.932	301.12
373.158	307.12
373.384	317.12
373.61	317.12
373.835	323.12
374.061	330.12
374.287	309.12
374.513	327.12
374.739	325.12
374.965	322.12
375.191	309.12
375.416	329.12
375.642	325.12
375.868	327.12
376.094	313.12
376.319	326.12
376.545	311.12
376.771	318.12
376.997	294.12
377.222	305.12
377.448	320.12
377.674	317.12
377.899	296.12
378.125	310.12
378.35	317.12
378.576	325.12
378.802	307.12
379.027	320.12
379.253	307.12
379.478	316.12
379.704	302.12
379.929	303.12
380.155	305.12
380.38	328.12
380.606	327.12
380.831	328.12
381.057	326.12
381.282	323.12
381.507	310.12
381.733	321.12
381.958	323.12
382.184	315.12
382.409	318.12
382.634	313.12
382.86	328.12
383.085	329.12
383.31	329.12
383.535	338.12
383.761	330.12
383.986	334.12
384.211	336.12
384.436	322.12
384.662	320.12
384.887	341.12
385.112	331.12
385.337	333.12
385.562	331.12
385.787	340.12
386.013	334.12
386.238	345.12
386.463	351.12
386.688	325.12
386.913	334.12
387.138	353.12
387.363	330.12
387.588	352.12
387.813	332.12
388.038	341.12
388.263	328.12
388.488	338.12
388.713	335.12
388.938	336.12
389.163	330.12
389.387	357.12
389.612	345.12
389.837	325.12
390.062	333.12
390.287	350.12
390.512	337.12
390.736	341.12
390.961	345.12
391.186	359.12
391.411	352.12
391.636	342.12
391.86	345.12
392.085	333.12
392.31	329.12
392.534	327.12
392.759	348.12
392.984	342.12
393.208	329.12
393.433	333.12
393.658	330.12
393.882	356.12
394.107	346.12
394.331	340.12
394.556	349.12
394.78	345.12
395.005	334.12
395.229	339.12
395.454	354.12
395.678	347.12
395.903	373.12
396.127	390.12
396.352	379.12
396.576	375.12
396.801	343.12
397.025	371.12
397.249	368.12
397.474	352.12
397.698	364.12
397.922	381.12
398.147	386.12
398.371	385.12
398.595	378.12
398.82	358.12
399.044	374.12
399.268	388.12
399.492	400.12
399.717	399.12
399.941	451.12
400.165	453.12
400.389	482.12
400.613	445.12
400.837	408.12
401.062	385.12
401.286	388.12
401.51	392.12
401.734	389.12
401.958	391.12
402.182	376.12
402.406	396.12
402.63	405.12
402.854	376.12
403.078	388.12
403.302	420.12
403.526	399.12
403.75	398.12
403.974	397.12
404.198	384.12
404.422	400.12
404.645	410.12
404.869	422.12
405.093	429.12
405.317	475.12
405.541	506.12
405.765	432.12
405.988	438.12
406.212	454.12
406.436	478.12
406.66	460.12
406.883	448.12
407.107	463.12
407.331	473.12
407.555	512.12
407.778	496.12
408.002	483.12
408.226	461.12
408.449	474.12
408.673	428.12
408.896	490.12
409.12	489.12
409.344	475.12
409.567	435.12
409.791	420.12
410.014	413.12
410.238	408.12
410.461	425.12
410.685	416.12
410.908	443.12
411.132	442.12
411.355	480.12
411.578	442.12
411.802	410.12
412.025	404.12
412.249	412.12
412.472	434.12
412.695	470.12
412.919	479.12
413.142	411.12
413.365	413.12
413.589	401.12
413.812	385.12
414.035	378.12
414.258	390.12
414.482	376.12
414.705	381.12
414.928	394.12
415.151	384.12
415.374	365.12
415.597	372.12
415.821	383.12
416.044	384.12
416.267	392.12
416.49	380.12
416.713	374.12
416.936	368.12
417.159	394.12
417.382	383.12
417.605	362.12
417.828	407.12
418.051	419.12
418.274	402.12
418.497	365.12
418.72	380.12
418.943	370.12
419.166	376.12
419.389	404.12
419.611	406.12
419.834	394.12
420.057	414.12
420.28	436.12
420.503	400.12
420.726	392.12
420.948	415.12
421.171	452.12
421.394	472.12
421.617	434.12
421.839	402.12
422.062	405.12
422.285	417.12
422.507	453.12
422.73	527.12
422.953	516.12
423.175	456.12
423.398	432.12
423.621	438.12
423.843	455.12
424.066	413.12
424.288	432.12
424.511	462.12
424.733	501.12
424.956	582.12
425.178	566.12
425.401	556.12
425.623	557.12
425.846	476.12
426.068	448.12
426.291	435.12
426.513	438.12
426.735	480.12
426.958	482.12
427.18	549.12
427.402	661.12
427.625	717.12
427.847	682.12
428.069	580.12
428.292	508.12
428.514	459.12
428.736	451.12
428.958	452.12
429.181	424.12
429.403	425.12
429.625	418.12
429.847	455.12
430.069	498.12
430.292	510.12
430.514	443.12
430.736	440.12
430.958	392.12
431.18	405.12
431.402	393.12
431.624	381.12
431.846	407.12
432.068	389.12
432.29	401.12
432.512	389.12
432.734	399.12
432.956	393.12
433.178	397.12
433.4	396.12
433.622	387.12
433.844	388.12
434.066	381.12
434.287	395.12
434.509	392.12
434.731	400.12
434.953	393.12
435.175	421.12
435.397	450.12
435.618	457.12
435.84	474.12
436.062	562.12
436.284	597.12
436.505	514.12
436.727	482.12
436.949	451.12
437.17	445.12
437.392	399.12
437.614	451.12
437.835	448.12
438.057	566.12
438.278	617.12
438.5	636.12
438.721	676.12
438.943	630.12
439.165	506.12
439.386	477.12
439.608	470.12
439.829	488.12
440.05	482.12
440.272	538.12
440.493	517.12
440.715	454.12
440.936	426.12
441.158	423.12
441.379	437.12
441.6	438.12
441.822	458.12
442.043	481.12
442.264	559.12
442.486	580.12
442.707	510.12
442.928	486.12
443.149	464.12
443.371	474.12
443.592	530.12
443.813	615.12
444.034	642.12
444.255	534.12
444.476	466.12
444.698	456.12
444.919	436.12
445.14	546.12
445.361	523.12
445.582	488.12
445.803	570.12
446.024	640.12
446.245	646.12
446.466	603.12
446.687	508.12
446.908	449.12
447.129	430.12
447.35	439.12
447.571	420.12
447.792	423.12
448.013	439.12
448.234	462.12
448.455	497.12
448.675	560.12
448.896	664.12
449.117	581.12
449.338	562.12
449.559	646.12
449.779	690.12
450	574.12
450.221	485.12
450.442	464.12
450.662	418.12
450.883	434.12
451.104	464.12
451.324	442.12
451.545	421.12
451.766	408.12
451.986	389.12
452.207	396.12
452.428	386.12
452.648	397.12
452.869	387.12
453.089	412.12
453.31	402.12
453.53	395.12
453.751	383.12
453.971	406.12
454.192	427.12
454.412	397.12
454.633	392.12
454.853	382.12
455.073	384.12
455.294	409.12
455.514	460.12
455.734	429.12
455.955	397.12
456.175	379.12
456.395	363.12
456.616	357.12
456.836	345.12
457.056	357.12
457.276	343.12
457.497	361.12
457.717	377.12
457.937	372.12
458.157	374.12
458.377	377.12
458.598	390.12
458.818	451.12
459.038	533.12
459.258	524.12
459.478	448.12
459.698	414.12
459.918	390.12
460.138	403.12
460.358	377.12
460.578	389.12
460.798	416.12
461.018	397.12
461.238	404.12
461.458	396.12
461.678	380.12
461.898	394.12
462.118	388.12
462.338	392.12
462.558	393.12
462.777	394.12
462.997	421.12
463.217	412.12
463.437	419.12
463.657	399.12
463.876	412.12
464.096	417.12
464.316	405.12
464.536	425.12
464.755	435.12
464.975	436.12
465.195	469.12
465.414	576.12
465.634	477.12
465.854	465.12
466.073	409.12
466.293	413.12
466.512	386.12
466.732	372.12
466.951	394.12
467.171	380.12
467.391	381.12
467.61	403.12
467.829	412.12
468.049	416.12
468.268	403.12
468.488	373.12
468.707	390.12
468.927	377.12
469.146	376.12
469.365	377.12
469.585	378.12
469.804	383.12
470.023	414.12
470.243	377.12
470.462	414.12
470.681	418.12
470.901	412.12
471.12	384.12
471.339	384.12
471.558	402.12
471.777	404.12
471.997	394.12
472.216	390.12
472.435	437.12
472.654	417.12
472.873	379.12
473.092	394.12
473.311	388.12
473.53	421.12
473.749	423.12
473.968	459.12
474.187	568.12
474.406	544.12
474.625	474.12
474.844	408.12
475.063	409.12
475.282	376.12
475.501	402.12
475.72	402.12
475.939	404.12
476.158	409.12
476.377	409.12
476.596	393.12
476.814	405.12
477.033	418.12
477.252	412.12
477.471	407.12
477.69	405.12
477.908	426.12
478.127	423.12
478.346	431.12
478.564	441.12
478.783	428.12
479.002	438.12
479.22	434.12
479.439	452.12
479.658	470.12
479.876	453.12
480.095	459.12
480.313	509.12
480.532	504.12
480.751	458.12
480.969	486.12
481.188	558.12
481.406	610.12
481.624	538.12
481.843	517.12
482.061	476.12
482.28	457.12
482.498	462.12
482.717	444.12
482.935	456.12
483.153	455.12
483.372	452.12
483.59	473.12
483.808	450.12
484.027	459.12
484.245	449.12
484.463	451.12
484.681	469.12
484.9	462.12
485.118	476.12
485.336	459.12
485.554	475.12
485.772	470.12
485.99	468.12
486.209	513.12
486.427	487.12
486.645	481.12
486.863	531.12
487.081	519.12
487.299	494.12
487.517	500.12
487.735	514.12
487.953	500.12
488.171	477.12
488.389	482.12
488.607	493.12
488.825	489.12
489.043	497.12
489.261	492.12
489.479	497.12
489.696	488.12
489.914	475.12
490.132	540.12
490.35	514.12
490.568	521.12
490.786	523.12
491.003	514.12
491.221	545.12
491.439	546.12
491.657	546.12
491.874	541.12
492.092	561.12
492.31	562.12
492.527	572.12
492.745	550.12
492.963	571.12
493.18	553.12
493.398	576.12
493.615	583.12
493.833	581.12
494.05	582.12
494.268	568.12
494.485	578.12
494.703	571.12
494.92	572.12
495.138	576.12
495.355	582.12
495.573	585.12
495.79	597.12
496.008	590.12
496.225	583.12
496.442	581.12
496.66	586.12
496.877	601.12
497.094	574.12
497.312	578.12
497.529	602.12
497.746	600.12
497.963	594.12
498.181	631.12
498.398	605.12
498.615	636.12
498.832	628.12
499.049	638.12
499.267	660.12
499.484	665.12
499.701	681.12
499.918	689.12
500.135	725.12
500.352	729.12
500.569	746.12
500.786	734.12
501.003	739.12
501.22	707.12
501.437	725.12
501.654	728.12
501.871	718.12
502.088	683.12
