Data from 1961.PennyLincolnUp.Lamp.En5.5.200Scan.071719.P1._HRD10591_13-49-07-057.txt Node
Date: Thu Jul 18 13:49:07 EDT 2019
User: cochatt
Spectrometer: HR+D1059
Trigger mode: 1
Integration Time (sec): 1.000000E-1
Scans to average: 1
Electric dark correction enabled: true
Nonlinearity correction enabled: false
Boxcar width: 0
XAxis mode: Wavelengths
Number of Pixels in Spectrum: 2048
>>>>>Begin Spectral Data<<<<<
223.165	-23.25
223.4	-23.25
223.635	-23.25
223.869	-18.25
224.104	-24.25
224.338	-15.25
224.573	-9.25
224.808	-14.25
225.042	1.75
225.277	6.75
225.511	-9.25
225.746	11.75
225.98	1.75
226.215	18.75
226.449	19.75
226.683	11.75
226.918	21.75
227.152	19.75
227.387	48.75
227.621	42.75
227.856	47.75
228.09	39.75
228.324	37.75
228.559	66.75
228.793	62.75
229.027	86.75
229.262	97.75
229.496	121.75
229.73	127.75
229.964	148.75
230.199	113.75
230.433	117.75
230.667	97.75
230.901	108.75
231.136	125.75
231.37	99.75
231.604	102.75
231.838	103.75
232.072	94.75
232.306	116.75
232.541	119.75
232.775	113.75
233.009	101.75
233.243	119.75
233.477	104.75
233.711	100.75
233.945	110.75
234.179	118.75
234.413	108.75
234.647	95.75
234.881	106.75
235.115	118.75
235.349	110.75
235.583	115.75
235.817	118.75
236.051	115.75
236.285	108.75
236.519	122.75
236.753	118.75
236.987	130.75
237.221	162.75
237.455	226.75
237.689	170.75
237.922	136.75
238.156	104.75
238.39	120.75
238.624	103.75
238.858	109.75
239.091	92.75
239.325	132.75
239.559	114.75
239.793	124.75
240.027	124.75
240.26	127.75
240.494	146.75
240.728	148.75
240.961	129.75
241.195	144.75
241.429	118.75
241.662	125.75
241.896	116.75
242.13	108.75
242.363	118.75
242.597	117.75
242.83	118.75
243.064	107.75
243.298	124.75
243.531	118.75
243.765	131.75
243.998	122.75
244.232	118.75
244.465	123.75
244.699	119.75
244.932	123.75
245.166	132.75
245.399	140.75
245.633	112.75
245.866	125.75
246.099	144.75
246.333	130.75
246.566	146.75
246.8	133.75
247.033	142.75
247.266	125.75
247.5	139.75
247.733	149.75
247.966	160.75
248.2	144.75
248.433	148.75
248.666	163.75
248.899	164.75
249.133	176.75
249.366	193.75
249.599	170.75
249.832	162.75
250.066	159.75
250.299	158.75
250.532	178.75
250.765	195.75
250.998	199.75
251.231	204.75
251.465	198.75
251.698	162.75
251.931	170.75
252.164	181.75
252.397	180.75
252.63	189.75
252.863	171.75
253.096	185.75
253.329	193.75
253.562	200.75
253.795	187.75
254.028	196.75
254.261	196.75
254.494	196.75
254.727	193.75
254.96	255.75
255.193	232.75
255.426	217.75
255.659	203.75
255.892	197.75
256.124	193.75
256.357	205.75
256.59	209.75
256.823	184.75
257.056	196.75
257.289	193.75
257.521	200.75
257.754	190.75
257.987	178.75
258.22	183.75
258.452	173.75
258.685	207.75
258.918	188.75
259.151	192.75
259.383	190.75
259.616	186.75
259.849	173.75
260.081	211.75
260.314	201.75
260.547	198.75
260.779	209.75
261.012	200.75
261.244	188.75
261.477	194.75
261.71	208.75
261.942	188.75
262.175	202.75
262.407	191.75
262.64	187.75
262.872	181.75
263.105	168.75
263.337	190.75
263.57	181.75
263.802	174.75
264.035	184.75
264.267	178.75
264.499	178.75
264.732	172.75
264.964	172.75
265.197	174.75
265.429	184.75
265.661	170.75
265.894	175.75
266.126	162.75
266.358	200.75
266.591	195.75
266.823	177.75
267.055	188.75
267.287	205.75
267.52	188.75
267.752	193.75
267.984	186.75
268.216	201.75
268.448	189.75
268.681	207.75
268.913	215.75
269.145	221.75
269.377	221.75
269.609	242.75
269.841	235.75
270.073	243.75
270.306	257.75
270.538	271.75
270.77	265.75
271.002	238.75
271.234	233.75
271.466	269.75
271.698	268.75
271.93	297.75
272.162	280.75
272.394	260.75
272.626	254.75
272.858	248.75
273.09	231.75
273.322	225.75
273.553	243.75
273.785	233.75
274.017	221.75
274.249	224.75
274.481	225.75
274.713	221.75
274.945	217.75
275.176	214.75
275.408	211.75
275.64	225.75
275.872	220.75
276.104	224.75
276.335	231.75
276.567	254.75
276.799	258.75
277.031	253.75
277.262	280.75
277.494	272.75
277.726	241.75
277.957	230.75
278.189	249.75
278.421	244.75
278.652	237.75
278.884	228.75
279.115	208.75
279.347	226.75
279.579	218.75
279.81	230.75
280.042	222.75
280.273	229.75
280.505	205.75
280.736	230.75
280.968	225.75
281.199	209.75
281.431	223.75
281.662	220.75
281.894	217.75
282.125	214.75
282.356	222.75
282.588	258.75
282.819	260.75
283.051	243.75
283.282	215.75
283.513	253.75
283.745	209.75
283.976	216.75
284.207	228.75
284.439	216.75
284.67	222.75
284.901	228.75
285.132	227.75
285.364	229.75
285.595	231.75
285.826	216.75
286.057	225.75
286.288	234.75
286.52	241.75
286.751	228.75
286.982	221.75
287.213	225.75
287.444	236.75
287.675	242.75
287.906	237.75
288.138	242.75
288.369	264.75
288.6	249.75
288.831	238.75
289.062	243.75
289.293	225.75
289.524	250.75
289.755	256.75
289.986	249.75
290.217	234.75
290.448	235.75
290.679	256.75
290.91	249.75
291.141	214.75
291.371	238.75
291.602	249.75
291.833	249.75
292.064	226.75
292.295	233.75
292.526	231.75
292.757	244.75
292.987	241.75
293.218	248.75
293.449	236.75
293.68	225.75
293.91	239.75
294.141	239.75
294.372	222.75
294.603	237.75
294.833	240.75
295.064	233.75
295.295	240.75
295.525	246.75
295.756	241.75
295.987	244.75
296.217	260.75
296.448	266.75
296.679	261.75
296.909	241.75
297.14	243.75
297.37	238.75
297.601	249.75
297.831	255.75
298.062	246.75
298.292	245.75
298.523	253.75
298.753	251.75
298.984	237.75
299.214	253.75
299.445	240.75
299.675	245.75
299.905	233.75
300.136	252.75
300.366	231.75
300.597	273.75
300.827	258.75
301.057	270.75
301.288	270.75
301.518	268.75
301.748	255.75
301.979	273.75
302.209	264.75
302.439	268.75
302.669	259.75
302.9	270.75
303.13	261.75
303.36	279.75
303.59	281.75
303.82	270.75
304.051	282.75
304.281	270.75
304.511	272.75
304.741	257.75
304.971	259.75
305.201	276.75
305.431	256.75
305.661	265.75
305.891	254.75
306.121	275.75
306.352	280.75
306.582	286.75
306.812	288.75
307.042	270.75
307.272	277.75
307.502	280.75
307.731	294.75
307.961	286.75
308.191	251.75
308.421	272.75
308.651	289.75
308.881	280.75
309.111	287.75
309.341	292.75
309.571	296.75
309.8	312.75
310.03	306.75
310.26	322.75
310.49	316.75
310.72	329.75
310.949	340.75
311.179	347.75
311.409	325.75
311.639	319.75
311.868	326.75
312.098	328.75
312.328	334.75
312.557	344.75
312.787	352.75
313.017	350.75
313.246	330.75
313.476	304.75
313.706	297.75
313.935	337.75
314.165	327.75
314.394	340.75
314.624	351.75
314.853	348.75
315.083	331.75
315.312	311.75
315.542	331.75
315.771	321.75
316.001	296.75
316.23	315.75
316.46	322.75
316.689	330.75
316.919	313.75
317.148	322.75
317.377	322.75
317.607	329.75
317.836	344.75
318.065	330.75
318.295	299.75
318.524	320.75
318.753	308.75
318.983	302.75
319.212	329.75
319.441	323.75
319.67	328.75
319.9	344.75
320.129	336.75
320.358	345.75
320.587	328.75
320.816	347.75
321.046	356.75
321.275	347.75
321.504	345.75
321.733	343.75
321.962	366.75
322.191	363.75
322.42	373.75
322.649	402.75
322.878	414.75
323.108	415.75
323.337	434.75
323.566	459.75
323.795	501.75
324.024	569.75
324.253	703.75
324.482	1052.75
324.71	1588.75
324.939	2252.75
325.168	1871.75
325.397	964.75
325.626	644.75
325.855	540.75
326.084	475.75
326.313	470.75
326.542	482.75
326.77	534.75
326.999	627.75
327.228	898.75
327.457	1373.75
327.686	1604.75
327.914	1074.75
328.143	704.75
328.372	604.75
328.6	565.75
328.829	522.75
329.058	538.75
329.287	553.75
329.515	503.75
329.744	496.75
329.972	459.75
330.201	520.75
330.43	536.75
330.658	530.75
330.887	564.75
331.115	526.75
331.344	475.75
331.572	430.75
331.801	428.75
332.03	430.75
332.258	405.75
332.486	384.75
332.715	381.75
332.943	398.75
333.172	390.75
333.4	382.75
333.629	373.75
333.857	402.75
334.085	412.75
334.314	440.75
334.542	466.75
334.771	496.75
334.999	434.75
335.227	428.75
335.455	385.75
335.684	390.75
335.912	357.75
336.14	366.75
336.369	377.75
336.597	360.75
336.825	366.75
337.053	373.75
337.281	370.75
337.51	360.75
337.738	372.75
337.966	373.75
338.194	348.75
338.422	363.75
338.65	363.75
338.878	371.75
339.106	359.75
339.334	351.75
339.562	364.75
339.79	352.75
340.018	340.75
340.246	372.75
340.474	362.75
340.702	352.75
340.93	349.75
341.158	344.75
341.386	353.75
341.614	378.75
341.842	360.75
342.07	347.75
342.298	342.75
342.526	340.75
342.754	333.75
342.981	340.75
343.209	340.75
343.437	337.75
343.665	345.75
343.893	350.75
344.12	338.75
344.348	338.75
344.576	357.75
344.804	388.75
345.031	369.75
345.259	383.75
345.487	376.75
345.714	368.75
345.942	375.75
346.17	370.75
346.397	342.75
346.625	348.75
346.853	358.75
347.08	346.75
347.308	350.75
347.535	372.75
347.763	366.75
347.99	370.75
348.218	356.75
348.445	379.75
348.673	367.75
348.9	363.75
349.128	363.75
349.355	351.75
349.583	328.75
349.81	335.75
350.037	333.75
350.265	343.75
350.492	330.75
350.72	356.75
350.947	340.75
351.174	347.75
351.402	369.75
351.629	340.75
351.856	347.75
352.083	379.75
352.311	386.75
352.538	376.75
352.765	375.75
352.992	372.75
353.22	360.75
353.447	356.75
353.674	338.75
353.901	330.75
354.128	324.75
354.355	318.75
354.583	326.75
354.81	326.75
355.037	329.75
355.264	319.75
355.491	334.75
355.718	304.75
355.945	328.75
356.172	311.75
356.399	304.75
356.626	314.75
356.853	331.75
357.08	312.75
357.307	306.75
357.534	315.75
357.761	320.75
357.988	313.75
358.215	308.75
358.441	304.75
358.668	325.75
358.895	326.75
359.122	351.75
359.349	333.75
359.576	336.75
359.802	387.75
360.029	418.75
360.256	403.75
360.483	392.75
360.709	373.75
360.936	359.75
361.163	348.75
361.39	354.75
361.616	368.75
361.843	333.75
362.07	344.75
362.296	365.75
362.523	346.75
362.749	358.75
362.976	353.75
363.203	348.75
363.429	342.75
363.656	339.75
363.882	346.75
364.109	329.75
364.335	338.75
364.562	327.75
364.788	317.75
365.015	340.75
365.241	321.75
365.468	339.75
365.694	347.75
365.92	349.75
366.147	339.75
366.373	345.75
366.599	334.75
366.826	322.75
367.052	309.75
367.278	321.75
367.505	317.75
367.731	315.75
367.957	315.75
368.184	352.75
368.41	339.75
368.636	350.75
368.862	358.75
369.089	343.75
369.315	318.75
369.541	313.75
369.767	330.75
369.993	313.75
370.219	331.75
370.445	326.75
370.672	308.75
370.898	324.75
371.124	322.75
371.35	338.75
371.576	333.75
371.802	320.75
372.028	321.75
372.254	316.75
372.48	331.75
372.706	322.75
372.932	324.75
373.158	318.75
373.384	304.75
373.61	323.75
373.835	320.75
374.061	340.75
374.287	347.75
374.513	322.75
374.739	331.75
374.965	341.75
375.191	323.75
375.416	323.75
375.642	323.75
375.868	338.75
376.094	330.75
376.319	324.75
376.545	314.75
376.771	324.75
376.997	309.75
377.222	352.75
377.448	324.75
377.674	312.75
377.899	304.75
378.125	331.75
378.35	336.75
378.576	327.75
378.802	330.75
379.027	308.75
379.253	321.75
379.478	313.75
379.704	320.75
379.929	326.75
380.155	332.75
380.38	315.75
380.606	335.75
380.831	318.75
381.057	322.75
381.282	316.75
381.507	336.75
381.733	326.75
381.958	328.75
382.184	346.75
382.409	348.75
382.634	324.75
382.86	339.75
383.085	333.75
383.31	331.75
383.535	332.75
383.761	338.75
383.986	325.75
384.211	331.75
384.436	329.75
384.662	320.75
384.887	337.75
385.112	346.75
385.337	339.75
385.562	332.75
385.787	333.75
386.013	360.75
386.238	346.75
386.463	345.75
386.688	344.75
386.913	350.75
387.138	338.75
387.363	338.75
387.588	340.75
387.813	331.75
388.038	345.75
388.263	351.75
388.488	332.75
388.713	341.75
388.938	349.75
389.163	341.75
389.387	341.75
389.612	341.75
389.837	363.75
390.062	335.75
390.287	354.75
390.512	358.75
390.736	353.75
390.961	354.75
391.186	350.75
391.411	347.75
391.636	360.75
391.86	354.75
392.085	346.75
392.31	329.75
392.534	354.75
392.759	343.75
392.984	357.75
393.208	343.75
393.433	346.75
393.658	346.75
393.882	348.75
394.107	339.75
394.331	334.75
394.556	348.75
394.78	345.75
395.005	345.75
395.229	362.75
395.454	365.75
395.678	348.75
395.903	358.75
396.127	363.75
396.352	393.75
396.576	361.75
396.801	346.75
397.025	360.75
397.249	369.75
397.474	379.75
397.698	391.75
397.922	393.75
398.147	400.75
398.371	417.75
398.595	377.75
398.82	370.75
399.044	388.75
399.268	393.75
399.492	407.75
399.717	424.75
399.941	457.75
400.165	460.75
400.389	477.75
400.613	472.75
400.837	425.75
401.062	401.75
401.286	411.75
401.51	411.75
401.734	409.75
401.958	403.75
402.182	396.75
402.406	399.75
402.63	421.75
402.854	404.75
403.078	419.75
403.302	399.75
403.526	412.75
403.75	402.75
403.974	417.75
404.198	405.75
404.422	416.75
404.645	429.75
404.869	427.75
405.093	454.75
405.317	490.75
405.541	520.75
405.765	461.75
405.988	441.75
406.212	443.75
406.436	470.75
406.66	477.75
406.883	454.75
407.107	477.75
407.331	504.75
407.555	532.75
407.778	567.75
408.002	500.75
408.226	478.75
408.449	448.75
408.673	444.75
408.896	489.75
409.12	503.75
409.344	523.75
409.567	429.75
409.791	429.75
410.014	429.75
410.238	397.75
410.461	437.75
410.685	442.75
410.908	442.75
411.132	461.75
411.355	465.75
411.578	462.75
411.802	412.75
412.025	406.75
412.249	433.75
412.472	459.75
412.695	494.75
412.919	468.75
413.142	415.75
413.365	421.75
413.589	436.75
413.812	400.75
414.035	405.75
414.258	389.75
414.482	394.75
414.705	409.75
414.928	377.75
415.151	392.75
415.374	392.75
415.597	395.75
415.821	380.75
416.044	381.75
416.267	405.75
416.49	401.75
416.713	386.75
416.936	392.75
417.159	388.75
417.382	408.75
417.605	394.75
417.828	407.75
418.051	409.75
418.274	382.75
418.497	386.75
418.72	390.75
418.943	391.75
419.166	396.75
419.389	416.75
419.611	421.75
419.834	430.75
420.057	418.75
420.28	403.75
420.503	412.75
420.726	421.75
420.948	433.75
421.171	460.75
421.394	496.75
421.617	449.75
421.839	420.75
422.062	427.75
422.285	436.75
422.507	484.75
422.73	531.75
422.953	519.75
423.175	468.75
423.398	432.75
423.621	434.75
423.843	456.75
424.066	436.75
424.288	445.75
424.511	488.75
424.733	510.75
424.956	544.75
425.178	542.75
425.401	557.75
425.623	580.75
425.846	482.75
426.068	461.75
426.291	472.75
426.513	467.75
426.735	465.75
426.958	517.75
427.18	594.75
427.402	668.75
427.625	733.75
427.847	676.75
428.069	584.75
428.292	527.75
428.514	481.75
428.736	442.75
428.958	453.75
429.181	398.75
429.403	421.75
429.625	424.75
429.847	480.75
430.069	520.75
430.292	511.75
430.514	429.75
430.736	434.75
430.958	414.75
431.18	395.75
431.402	390.75
431.624	403.75
431.846	380.75
432.068	384.75
432.29	378.75
432.512	389.75
432.734	412.75
432.956	406.75
433.178	395.75
433.4	418.75
433.622	425.75
433.844	403.75
434.066	388.75
434.287	386.75
434.509	390.75
434.731	399.75
434.953	410.75
435.175	437.75
435.397	456.75
435.618	452.75
435.84	501.75
436.062	579.75
436.284	625.75
436.505	552.75
436.727	464.75
436.949	444.75
437.17	427.75
437.392	434.75
437.614	441.75
437.835	474.75
438.057	578.75
438.278	644.75
438.5	641.75
438.721	691.75
438.943	660.75
439.165	539.75
439.386	461.75
439.608	487.75
439.829	476.75
440.05	521.75
440.272	553.75
440.493	534.75
440.715	457.75
440.936	466.75
441.158	443.75
441.379	421.75
441.6	443.75
441.822	457.75
442.043	515.75
442.264	579.75
442.486	613.75
442.707	519.75
442.928	503.75
443.149	482.75
443.371	504.75
443.592	524.75
443.813	638.75
444.034	655.75
444.255	538.75
444.476	484.75
444.698	446.75
444.919	454.75
445.14	564.75
445.361	516.75
445.582	497.75
445.803	557.75
446.024	670.75
446.245	652.75
446.466	599.75
446.687	480.75
446.908	474.75
447.129	445.75
447.35	433.75
447.571	435.75
447.792	426.75
448.013	434.75
448.234	459.75
448.455	492.75
448.675	601.75
448.896	674.75
449.117	614.75
449.338	560.75
449.559	669.75
449.779	722.75
450	581.75
450.221	475.75
450.442	461.75
450.662	430.75
450.883	448.75
451.104	475.75
451.324	461.75
451.545	420.75
451.766	392.75
451.986	381.75
452.207	378.75
452.428	394.75
452.648	362.75
452.869	388.75
453.089	394.75
453.31	405.75
453.53	399.75
453.751	381.75
453.971	389.75
454.192	439.75
454.412	415.75
454.633	402.75
454.853	384.75
455.073	383.75
455.294	418.75
455.514	484.75
455.734	462.75
455.955	406.75
456.175	376.75
456.395	374.75
456.616	365.75
456.836	376.75
457.056	350.75
457.276	351.75
457.497	353.75
457.717	367.75
457.937	364.75
458.157	354.75
458.377	389.75
458.598	398.75
458.818	466.75
459.038	536.75
459.258	534.75
459.478	494.75
459.698	447.75
459.918	407.75
460.138	406.75
460.358	402.75
460.578	397.75
460.798	408.75
461.018	398.75
461.238	401.75
461.458	400.75
461.678	402.75
461.898	392.75
462.118	396.75
462.338	405.75
462.558	410.75
462.777	402.75
462.997	419.75
463.217	424.75
463.437	429.75
463.657	409.75
463.876	426.75
464.096	441.75
464.316	414.75
464.536	402.75
464.755	424.75
464.975	433.75
465.195	485.75
465.414	593.75
465.634	493.75
465.854	457.75
466.073	445.75
466.293	411.75
466.512	410.75
466.732	392.75
466.951	400.75
467.171	396.75
467.391	402.75
467.61	432.75
467.829	421.75
468.049	404.75
468.268	422.75
468.488	406.75
468.707	404.75
468.927	382.75
469.146	377.75
469.365	395.75
469.585	402.75
469.804	395.75
470.023	406.75
470.243	394.75
470.462	378.75
470.681	422.75
470.901	426.75
471.12	386.75
471.339	399.75
471.558	393.75
471.777	396.75
471.997	392.75
472.216	389.75
472.435	448.75
472.654	449.75
472.873	418.75
473.092	416.75
473.311	398.75
473.53	414.75
473.749	422.75
473.968	451.75
474.187	551.75
474.406	554.75
474.625	453.75
474.844	423.75
475.063	412.75
475.282	395.75
475.501	398.75
475.72	382.75
475.939	415.75
476.158	395.75
476.377	408.75
476.596	398.75
476.814	405.75
477.033	424.75
477.252	438.75
477.471	416.75
477.69	444.75
477.908	409.75
478.127	428.75
478.346	403.75
478.564	418.75
478.783	457.75
479.002	442.75
479.22	471.75
479.439	467.75
479.658	468.75
479.876	488.75
480.095	508.75
480.313	500.75
480.532	468.75
480.751	492.75
480.969	492.75
481.188	551.75
481.406	648.75
481.624	530.75
481.843	499.75
482.061	474.75
482.28	472.75
482.498	464.75
482.717	463.75
482.935	472.75
483.153	470.75
483.372	462.75
483.59	484.75
483.808	463.75
484.027	460.75
484.245	479.75
484.463	451.75
484.681	514.75
484.9	473.75
485.118	460.75
485.336	469.75
485.554	493.75
485.772	494.75
485.99	473.75
486.209	469.75
486.427	520.75
486.645	508.75
486.863	512.75
487.081	504.75
487.299	501.75
487.517	511.75
487.735	512.75
487.953	488.75
488.171	493.75
488.389	491.75
488.607	518.75
488.825	506.75
489.043	508.75
489.261	502.75
489.479	485.75
489.696	521.75
489.914	532.75
490.132	509.75
490.35	505.75
490.568	518.75
490.786	535.75
491.003	550.75
491.221	552.75
491.439	567.75
491.657	577.75
491.874	590.75
492.092	581.75
492.31	580.75
492.527	576.75
492.745	577.75
492.963	603.75
493.18	584.75
493.398	601.75
493.615	598.75
493.833	574.75
494.05	610.75
494.268	591.75
494.485	590.75
494.703	589.75
494.92	589.75
495.138	581.75
495.355	584.75
495.573	594.75
495.79	621.75
496.008	608.75
496.225	598.75
496.442	609.75
496.66	612.75
496.877	580.75
497.094	578.75
497.312	618.75
497.529	619.75
497.746	617.75
497.963	635.75
498.181	639.75
498.398	627.75
498.615	633.75
498.832	653.75
499.049	634.75
499.267	666.75
499.484	668.75
499.701	687.75
499.918	704.75
500.135	717.75
500.352	748.75
500.569	736.75
500.786	759.75
501.003	742.75
501.22	712.75
501.437	689.75
501.654	710.75
501.871	707.75
502.088	685.75
