Data from 1961.PennyLincolnUp.Lamp.En5.5.200Scan.071719.P1._HRD10591_13-47-50-058.txt Node
Date: Thu Jul 18 13:47:50 EDT 2019
User: cochatt
Spectrometer: HR+D1059
Trigger mode: 1
Integration Time (sec): 1.000000E-1
Scans to average: 1
Electric dark correction enabled: true
Nonlinearity correction enabled: false
Boxcar width: 0
XAxis mode: Wavelengths
Number of Pixels in Spectrum: 2048
>>>>>Begin Spectral Data<<<<<
223.165	-17.88
223.4	-17.88
223.635	-17.88
223.869	-10.88
224.104	-6.88
224.338	-16.88
224.573	-5.88
224.808	-13.88
225.042	-7.88
225.277	0.12
225.511	-0.88
225.746	-7.88
225.98	12.12
226.215	2.12
226.449	2.12
226.683	17.12
226.918	24.12
227.152	31.12
227.387	21.12
227.621	27.12
227.856	42.12
228.09	44.12
228.324	48.12
228.559	47.12
228.793	58.12
229.027	92.12
229.262	96.12
229.496	106.12
229.73	112.12
229.964	139.12
230.199	130.12
230.433	93.12
230.667	103.12
230.901	109.12
231.136	93.12
231.37	110.12
231.604	105.12
231.838	97.12
232.072	110.12
232.306	112.12
232.541	100.12
232.775	108.12
233.009	82.12
233.243	119.12
233.477	108.12
233.711	102.12
233.945	99.12
234.179	111.12
234.413	108.12
234.647	99.12
234.881	96.12
235.115	102.12
235.349	104.12
235.583	96.12
235.817	108.12
236.051	122.12
236.285	118.12
236.519	114.12
236.753	126.12
236.987	136.12
237.221	171.12
237.455	196.12
237.689	168.12
237.922	130.12
238.156	128.12
238.39	106.12
238.624	114.12
238.858	107.12
239.091	119.12
239.325	116.12
239.559	111.12
239.793	119.12
240.027	122.12
240.26	122.12
240.494	130.12
240.728	133.12
240.961	136.12
241.195	116.12
241.429	118.12
241.662	121.12
241.896	124.12
242.13	126.12
242.363	120.12
242.597	112.12
242.83	123.12
243.064	120.12
243.298	116.12
243.531	131.12
243.765	130.12
243.998	140.12
244.232	127.12
244.465	132.12
244.699	124.12
244.932	122.12
245.166	139.12
245.399	122.12
245.633	125.12
245.866	121.12
246.099	121.12
246.333	124.12
246.566	144.12
246.8	136.12
247.033	140.12
247.266	126.12
247.5	157.12
247.733	138.12
247.966	150.12
248.2	146.12
248.433	142.12
248.666	136.12
248.899	153.12
249.133	158.12
249.366	181.12
249.599	162.12
249.832	149.12
250.066	154.12
250.299	143.12
250.532	157.12
250.765	176.12
250.998	188.12
251.231	207.12
251.465	183.12
251.698	184.12
251.931	175.12
252.164	170.12
252.397	174.12
252.63	157.12
252.863	197.12
253.096	175.12
253.329	192.12
253.562	176.12
253.795	189.12
254.028	172.12
254.261	177.12
254.494	188.12
254.727	228.12
254.96	220.12
255.193	241.12
255.426	211.12
255.659	185.12
255.892	211.12
256.124	204.12
256.357	223.12
256.59	205.12
256.823	192.12
257.056	168.12
257.289	165.12
257.521	163.12
257.754	169.12
257.987	191.12
258.22	166.12
258.452	172.12
258.685	182.12
258.918	182.12
259.151	175.12
259.383	166.12
259.616	174.12
259.849	190.12
260.081	191.12
260.314	215.12
260.547	209.12
260.779	197.12
261.012	188.12
261.244	186.12
261.477	171.12
261.71	168.12
261.942	190.12
262.175	188.12
262.407	197.12
262.64	197.12
262.872	183.12
263.105	177.12
263.337	185.12
263.57	168.12
263.802	164.12
264.035	193.12
264.267	178.12
264.499	161.12
264.732	196.12
264.964	184.12
265.197	189.12
265.429	172.12
265.661	190.12
265.894	172.12
266.126	173.12
266.358	174.12
266.591	182.12
266.823	182.12
267.055	164.12
267.287	191.12
267.52	180.12
267.752	192.12
267.984	192.12
268.216	187.12
268.448	179.12
268.681	177.12
268.913	199.12
269.145	221.12
269.377	231.12
269.609	225.12
269.841	230.12
270.073	214.12
270.306	230.12
270.538	252.12
270.77	242.12
271.002	244.12
271.234	250.12
271.466	237.12
271.698	266.12
271.93	261.12
272.162	261.12
272.394	271.12
272.626	243.12
272.858	240.12
273.09	238.12
273.322	237.12
273.553	216.12
273.785	213.12
274.017	221.12
274.249	196.12
274.481	226.12
274.713	219.12
274.945	226.12
275.176	210.12
275.408	226.12
275.64	228.12
275.872	217.12
276.104	231.12
276.335	223.12
276.567	216.12
276.799	240.12
277.031	257.12
277.262	249.12
277.494	270.12
277.726	264.12
277.957	230.12
278.189	229.12
278.421	221.12
278.652	221.12
278.884	209.12
279.115	222.12
279.347	221.12
279.579	225.12
279.81	211.12
280.042	245.12
280.273	223.12
280.505	212.12
280.736	220.12
280.968	214.12
281.199	201.12
281.431	216.12
281.662	203.12
281.894	215.12
282.125	228.12
282.356	240.12
282.588	260.12
282.819	260.12
283.051	224.12
283.282	211.12
283.513	194.12
283.745	206.12
283.976	232.12
284.207	209.12
284.439	245.12
284.67	231.12
284.901	229.12
285.132	225.12
285.364	222.12
285.595	214.12
285.826	227.12
286.057	232.12
286.288	243.12
286.52	214.12
286.751	208.12
286.982	249.12
287.213	222.12
287.444	230.12
287.675	206.12
287.906	242.12
288.138	254.12
288.369	234.12
288.6	228.12
288.831	227.12
289.062	247.12
289.293	234.12
289.524	227.12
289.755	228.12
289.986	213.12
290.217	229.12
290.448	231.12
290.679	216.12
290.91	240.12
291.141	240.12
291.371	223.12
291.602	245.12
291.833	238.12
292.064	238.12
292.295	226.12
292.526	218.12
292.757	238.12
292.987	220.12
293.218	236.12
293.449	240.12
293.68	216.12
293.91	250.12
294.141	241.12
294.372	229.12
294.603	238.12
294.833	228.12
295.064	241.12
295.295	243.12
295.525	238.12
295.756	243.12
295.987	251.12
296.217	266.12
296.448	276.12
296.679	266.12
296.909	224.12
297.14	224.12
297.37	223.12
297.601	257.12
297.831	238.12
298.062	255.12
298.292	234.12
298.523	229.12
298.753	238.12
298.984	245.12
299.214	242.12
299.445	250.12
299.675	254.12
299.905	264.12
300.136	256.12
300.366	247.12
300.597	272.12
300.827	243.12
301.057	241.12
301.288	257.12
301.518	263.12
301.748	266.12
301.979	260.12
302.209	262.12
302.439	263.12
302.669	284.12
302.9	264.12
303.13	262.12
303.36	266.12
303.59	262.12
303.82	264.12
304.051	280.12
304.281	248.12
304.511	271.12
304.741	279.12
304.971	268.12
305.201	272.12
305.431	271.12
305.661	256.12
305.891	248.12
306.121	260.12
306.352	260.12
306.582	280.12
306.812	262.12
307.042	268.12
307.272	255.12
307.502	278.12
307.731	269.12
307.961	249.12
308.191	258.12
308.421	274.12
308.651	275.12
308.881	270.12
309.111	269.12
309.341	294.12
309.571	310.12
309.8	302.12
310.03	313.12
310.26	307.12
310.49	319.12
310.72	317.12
310.949	321.12
311.179	337.12
311.409	321.12
311.639	330.12
311.868	309.12
312.098	317.12
312.328	320.12
312.557	324.12
312.787	328.12
313.017	352.12
313.246	327.12
313.476	320.12
313.706	308.12
313.935	345.12
314.165	333.12
314.394	334.12
314.624	329.12
314.853	329.12
315.083	319.12
315.312	312.12
315.542	316.12
315.771	306.12
316.001	288.12
316.23	303.12
316.46	302.12
316.689	316.12
316.919	297.12
317.148	320.12
317.377	328.12
317.607	319.12
317.836	330.12
318.065	301.12
318.295	312.12
318.524	328.12
318.753	306.12
318.983	293.12
319.212	322.12
319.441	325.12
319.67	325.12
319.9	306.12
320.129	314.12
320.358	321.12
320.587	345.12
320.816	334.12
321.046	345.12
321.275	327.12
321.504	346.12
321.733	350.12
321.962	336.12
322.191	377.12
322.42	380.12
322.649	402.12
322.878	392.12
323.108	418.12
323.337	412.12
323.566	448.12
323.795	480.12
324.024	514.12
324.253	682.12
324.482	1012.12
324.71	1572.12
324.939	2188.12
325.168	1870.12
325.397	965.12
325.626	627.12
325.855	511.12
326.084	469.12
326.313	448.12
326.542	467.12
326.77	516.12
326.999	622.12
327.228	885.12
327.457	1346.12
327.686	1609.12
327.914	1041.12
328.143	696.12
328.372	614.12
328.6	560.12
328.829	524.12
329.058	548.12
329.287	537.12
329.515	506.12
329.744	463.12
329.972	457.12
330.201	490.12
330.43	509.12
330.658	544.12
330.887	566.12
331.115	532.12
331.344	488.12
331.572	445.12
331.801	434.12
332.03	432.12
332.258	406.12
332.486	384.12
332.715	362.12
332.943	383.12
333.172	391.12
333.4	386.12
333.629	406.12
333.857	388.12
334.085	409.12
334.314	448.12
334.542	486.12
334.771	474.12
334.999	439.12
335.227	393.12
335.455	397.12
335.684	380.12
335.912	376.12
336.14	343.12
336.369	374.12
336.597	383.12
336.825	389.12
337.053	358.12
337.281	349.12
337.51	348.12
337.738	365.12
337.966	368.12
338.194	376.12
338.422	369.12
338.65	365.12
338.878	358.12
339.106	324.12
339.334	365.12
339.562	348.12
339.79	360.12
340.018	364.12
340.246	346.12
340.474	369.12
340.702	352.12
340.93	370.12
341.158	351.12
341.386	356.12
341.614	366.12
341.842	351.12
342.07	358.12
342.298	356.12
342.526	344.12
342.754	339.12
342.981	340.12
343.209	333.12
343.437	339.12
343.665	325.12
343.893	348.12
344.12	337.12
344.348	350.12
344.576	351.12
344.804	367.12
345.031	376.12
345.259	388.12
345.487	361.12
345.714	368.12
345.942	344.12
346.17	350.12
346.397	355.12
346.625	350.12
346.853	373.12
347.08	330.12
347.308	349.12
347.535	372.12
347.763	356.12
347.99	365.12
348.218	334.12
348.445	361.12
348.673	360.12
348.9	352.12
349.128	342.12
349.355	325.12
349.583	329.12
349.81	326.12
350.037	332.12
350.265	322.12
350.492	328.12
350.72	340.12
350.947	328.12
351.174	341.12
351.402	371.12
351.629	368.12
351.856	366.12
352.083	360.12
352.311	376.12
352.538	372.12
352.765	366.12
352.992	361.12
353.22	365.12
353.447	340.12
353.674	357.12
353.901	344.12
354.128	326.12
354.355	323.12
354.583	312.12
354.81	318.12
355.037	325.12
355.264	324.12
355.491	298.12
355.718	320.12
355.945	316.12
356.172	303.12
356.399	302.12
356.626	302.12
356.853	323.12
357.08	310.12
357.307	314.12
357.534	314.12
357.761	308.12
357.988	328.12
358.215	325.12
358.441	320.12
358.668	320.12
358.895	314.12
359.122	310.12
359.349	342.12
359.576	349.12
359.802	376.12
360.029	407.12
360.256	401.12
360.483	394.12
360.709	357.12
360.936	357.12
361.163	364.12
361.39	342.12
361.616	345.12
361.843	355.12
362.07	349.12
362.296	342.12
362.523	332.12
362.749	336.12
362.976	342.12
363.203	347.12
363.429	337.12
363.656	329.12
363.882	323.12
364.109	328.12
364.335	320.12
364.562	324.12
364.788	322.12
365.015	323.12
365.241	313.12
365.468	343.12
365.694	349.12
365.92	335.12
366.147	345.12
366.373	314.12
366.599	323.12
366.826	329.12
367.052	301.12
367.278	322.12
367.505	341.12
367.731	333.12
367.957	326.12
368.184	333.12
368.41	332.12
368.636	354.12
368.862	344.12
369.089	338.12
369.315	323.12
369.541	340.12
369.767	320.12
369.993	321.12
370.219	329.12
370.445	304.12
370.672	324.12
370.898	318.12
371.124	327.12
371.35	317.12
371.576	300.12
371.802	312.12
372.028	316.12
372.254	310.12
372.48	320.12
372.706	322.12
372.932	322.12
373.158	328.12
373.384	340.12
373.61	321.12
373.835	309.12
374.061	321.12
374.287	321.12
374.513	319.12
374.739	316.12
374.965	336.12
375.191	311.12
375.416	333.12
375.642	343.12
375.868	320.12
376.094	310.12
376.319	316.12
376.545	333.12
376.771	322.12
376.997	307.12
377.222	314.12
377.448	328.12
377.674	322.12
377.899	337.12
378.125	329.12
378.35	326.12
378.576	322.12
378.802	301.12
379.027	321.12
379.253	316.12
379.478	313.12
379.704	306.12
379.929	329.12
380.155	325.12
380.38	317.12
380.606	313.12
380.831	324.12
381.057	336.12
381.282	324.12
381.507	330.12
381.733	324.12
381.958	323.12
382.184	316.12
382.409	335.12
382.634	312.12
382.86	314.12
383.085	321.12
383.31	329.12
383.535	326.12
383.761	330.12
383.986	340.12
384.211	322.12
384.436	335.12
384.662	327.12
384.887	327.12
385.112	326.12
385.337	336.12
385.562	333.12
385.787	332.12
386.013	352.12
386.238	346.12
386.463	350.12
386.688	353.12
386.913	339.12
387.138	337.12
387.363	345.12
387.588	337.12
387.813	336.12
388.038	346.12
388.263	348.12
388.488	336.12
388.713	335.12
388.938	347.12
389.163	358.12
389.387	336.12
389.612	341.12
389.837	326.12
390.062	352.12
390.287	329.12
390.512	338.12
390.736	320.12
390.961	337.12
391.186	329.12
391.411	355.12
391.636	361.12
391.86	343.12
392.085	366.12
392.31	380.12
392.534	365.12
392.759	352.12
392.984	344.12
393.208	339.12
393.433	336.12
393.658	341.12
393.882	338.12
394.107	346.12
394.331	339.12
394.556	336.12
394.78	358.12
395.005	356.12
395.229	343.12
395.454	349.12
395.678	349.12
395.903	385.12
396.127	361.12
396.352	395.12
396.576	367.12
396.801	367.12
397.025	370.12
397.249	371.12
397.474	374.12
397.698	387.12
397.922	381.12
398.147	394.12
398.371	385.12
398.595	389.12
398.82	382.12
399.044	392.12
399.268	373.12
399.492	393.12
399.717	412.12
399.941	444.12
400.165	479.12
400.389	507.12
400.613	460.12
400.837	411.12
401.062	405.12
401.286	401.12
401.51	374.12
401.734	384.12
401.958	382.12
402.182	394.12
402.406	402.12
402.63	394.12
402.854	407.12
403.078	391.12
403.302	399.12
403.526	401.12
403.75	423.12
403.974	398.12
404.198	394.12
404.422	415.12
404.645	400.12
404.869	404.12
405.093	435.12
405.317	470.12
405.541	478.12
405.765	454.12
405.988	438.12
406.212	452.12
406.436	457.12
406.66	468.12
406.883	438.12
407.107	471.12
407.331	494.12
407.555	552.12
407.778	540.12
408.002	523.12
408.226	476.12
408.449	471.12
408.673	451.12
408.896	470.12
409.12	498.12
409.344	473.12
409.567	446.12
409.791	419.12
410.014	420.12
410.238	409.12
410.461	420.12
410.685	423.12
410.908	407.12
411.132	462.12
411.355	496.12
411.578	461.12
411.802	426.12
412.025	423.12
412.249	419.12
412.472	445.12
412.695	458.12
412.919	471.12
413.142	422.12
413.365	408.12
413.589	393.12
413.812	390.12
414.035	391.12
414.258	381.12
414.482	390.12
414.705	400.12
414.928	396.12
415.151	376.12
415.374	375.12
415.597	369.12
415.821	377.12
416.044	391.12
416.267	382.12
416.49	376.12
416.713	397.12
416.936	374.12
417.159	386.12
417.382	397.12
417.605	408.12
417.828	392.12
418.051	416.12
418.274	398.12
418.497	392.12
418.72	386.12
418.943	386.12
419.166	417.12
419.389	415.12
419.611	418.12
419.834	387.12
420.057	404.12
420.28	395.12
420.503	404.12
420.726	405.12
420.948	425.12
421.171	449.12
421.394	452.12
421.617	452.12
421.839	401.12
422.062	425.12
422.285	442.12
422.507	468.12
422.73	505.12
422.953	520.12
423.175	464.12
423.398	407.12
423.621	418.12
423.843	428.12
424.066	422.12
424.288	439.12
424.511	465.12
424.733	493.12
424.956	556.12
425.178	552.12
425.401	547.12
425.623	556.12
425.846	482.12
426.068	446.12
426.291	456.12
426.513	446.12
426.735	456.12
426.958	492.12
427.18	565.12
427.402	672.12
427.625	731.12
427.847	679.12
428.069	573.12
428.292	488.12
428.514	445.12
428.736	413.12
428.958	456.12
429.181	423.12
429.403	408.12
429.625	421.12
429.847	452.12
430.069	520.12
430.292	500.12
430.514	430.12
430.736	423.12
430.958	424.12
431.18	402.12
431.402	383.12
431.624	381.12
431.846	396.12
432.068	397.12
432.29	404.12
432.512	386.12
432.734	420.12
432.956	426.12
433.178	403.12
433.4	404.12
433.622	399.12
433.844	392.12
434.066	390.12
434.287	402.12
434.509	395.12
434.731	400.12
434.953	414.12
435.175	392.12
435.397	442.12
435.618	461.12
435.84	510.12
436.062	556.12
436.284	623.12
436.505	552.12
436.727	473.12
436.949	444.12
437.17	420.12
437.392	430.12
437.614	454.12
437.835	459.12
438.057	559.12
438.278	639.12
438.5	644.12
438.721	682.12
438.943	649.12
439.165	522.12
439.386	516.12
439.608	458.12
439.829	471.12
440.05	511.12
440.272	527.12
440.493	479.12
440.715	441.12
440.936	440.12
441.158	441.12
441.379	427.12
441.6	444.12
441.822	448.12
442.043	485.12
442.264	576.12
442.486	594.12
442.707	509.12
442.928	469.12
443.149	481.12
443.371	481.12
443.592	522.12
443.813	618.12
444.034	629.12
444.255	545.12
444.476	502.12
444.698	460.12
444.919	436.12
445.14	539.12
445.361	512.12
445.582	507.12
445.803	580.12
446.024	656.12
446.245	660.12
446.466	597.12
446.687	511.12
446.908	475.12
447.129	453.12
447.35	434.12
447.571	436.12
447.792	401.12
448.013	414.12
448.234	449.12
448.455	484.12
448.675	604.12
448.896	658.12
449.117	576.12
449.338	550.12
449.559	617.12
449.779	693.12
450	577.12
450.221	463.12
450.442	420.12
450.662	432.12
450.883	432.12
451.104	438.12
451.324	441.12
451.545	406.12
451.766	413.12
451.986	408.12
452.207	387.12
452.428	376.12
452.648	383.12
452.869	383.12
453.089	405.12
453.31	410.12
453.53	410.12
453.751	374.12
453.971	390.12
454.192	412.12
454.412	409.12
454.633	362.12
454.853	384.12
455.073	392.12
455.294	409.12
455.514	457.12
455.734	455.12
455.955	393.12
456.175	389.12
456.395	360.12
456.616	366.12
456.836	345.12
457.056	366.12
457.276	350.12
457.497	368.12
457.717	352.12
457.937	394.12
458.157	377.12
458.377	379.12
458.598	395.12
458.818	462.12
459.038	540.12
459.258	545.12
459.478	467.12
459.698	420.12
459.918	408.12
460.138	416.12
460.358	393.12
460.578	400.12
460.798	395.12
461.018	400.12
461.238	375.12
461.458	395.12
461.678	383.12
461.898	394.12
462.118	395.12
462.338	397.12
462.558	402.12
462.777	413.12
462.997	419.12
463.217	423.12
463.437	439.12
463.657	417.12
463.876	434.12
464.096	414.12
464.316	427.12
464.536	420.12
464.755	417.12
464.975	431.12
465.195	491.12
465.414	562.12
465.634	485.12
465.854	444.12
466.073	444.12
466.293	412.12
466.512	404.12
466.732	398.12
466.951	395.12
467.171	387.12
467.391	406.12
467.61	434.12
467.829	404.12
468.049	409.12
468.268	398.12
468.488	392.12
468.707	390.12
468.927	370.12
469.146	356.12
469.365	414.12
469.585	372.12
469.804	405.12
470.023	398.12
470.243	409.12
470.462	383.12
470.681	414.12
470.901	418.12
471.12	383.12
471.339	395.12
471.558	382.12
471.777	412.12
471.997	420.12
472.216	383.12
472.435	441.12
472.654	450.12
472.873	394.12
473.092	391.12
473.311	393.12
473.53	401.12
473.749	394.12
473.968	445.12
474.187	508.12
474.406	565.12
474.625	452.12
474.844	408.12
475.063	400.12
475.282	405.12
475.501	411.12
475.72	400.12
475.939	406.12
476.158	414.12
476.377	404.12
476.596	402.12
476.814	391.12
477.033	424.12
477.252	425.12
477.471	424.12
477.69	417.12
477.908	424.12
478.127	425.12
478.346	448.12
478.564	437.12
478.783	440.12
479.002	455.12
479.22	453.12
479.439	440.12
479.658	473.12
479.876	488.12
480.095	474.12
480.313	521.12
480.532	477.12
480.751	484.12
480.969	516.12
481.188	550.12
481.406	604.12
481.624	508.12
481.843	479.12
482.061	476.12
482.28	464.12
482.498	458.12
482.717	472.12
482.935	470.12
483.153	489.12
483.372	482.12
483.59	469.12
483.808	466.12
484.027	479.12
484.245	464.12
484.463	459.12
484.681	480.12
484.9	476.12
485.118	477.12
485.336	474.12
485.554	487.12
485.772	459.12
485.99	487.12
486.209	472.12
486.427	483.12
486.645	462.12
486.863	528.12
487.081	518.12
487.299	510.12
487.517	512.12
487.735	503.12
487.953	485.12
488.171	522.12
488.389	502.12
488.607	501.12
488.825	501.12
489.043	497.12
489.261	515.12
489.479	492.12
489.696	516.12
489.914	504.12
490.132	520.12
490.35	511.12
490.568	516.12
490.786	509.12
491.003	528.12
491.221	554.12
491.439	556.12
491.657	561.12
491.874	564.12
492.092	578.12
492.31	576.12
492.527	591.12
492.745	580.12
492.963	589.12
493.18	570.12
493.398	586.12
493.615	599.12
493.833	592.12
494.05	575.12
494.268	583.12
494.485	570.12
494.703	572.12
494.92	607.12
495.138	571.12
495.355	588.12
495.573	598.12
495.79	613.12
496.008	589.12
496.225	578.12
496.442	593.12
496.66	617.12
496.877	587.12
497.094	610.12
497.312	582.12
497.529	590.12
497.746	616.12
497.963	604.12
498.181	634.12
498.398	636.12
498.615	638.12
498.832	663.12
499.049	640.12
499.267	679.12
499.484	654.12
499.701	701.12
499.918	696.12
500.135	733.12
500.352	753.12
500.569	725.12
500.786	743.12
501.003	765.12
501.22	733.12
501.437	714.12
501.654	720.12
501.871	712.12
502.088	723.12
