Data from 1961.PennyLincolnUp.Lamp.En5.5.200Scan.071719.P1._HRD10591_13-46-37-057.txt Node
Date: Thu Jul 18 13:46:37 EDT 2019
User: cochatt
Spectrometer: HR+D1059
Trigger mode: 1
Integration Time (sec): 1.000000E-1
Scans to average: 1
Electric dark correction enabled: true
Nonlinearity correction enabled: false
Boxcar width: 0
XAxis mode: Wavelengths
Number of Pixels in Spectrum: 2048
>>>>>Begin Spectral Data<<<<<
223.165	-11.31
223.4	-11.31
223.635	-11.31
223.869	-15.31
224.104	-8.31
224.338	-20.31
224.573	-10.31
224.808	-26.31
225.042	-11.31
225.277	2.69
225.511	-14.31
225.746	-1.31
225.98	13.69
226.215	11.69
226.449	23.69
226.683	15.69
226.918	19.69
227.152	31.69
227.387	29.69
227.621	31.69
227.856	40.69
228.09	53.69
228.324	31.69
228.559	47.69
228.793	55.69
229.027	83.69
229.262	82.69
229.496	95.69
229.73	123.69
229.964	130.69
230.199	113.69
230.433	101.69
230.667	112.69
230.901	92.69
231.136	91.69
231.37	94.69
231.604	100.69
231.838	108.69
232.072	101.69
232.306	104.69
232.541	105.69
232.775	97.69
233.009	98.69
233.243	83.69
233.477	104.69
233.711	79.69
233.945	100.69
234.179	99.69
234.413	115.69
234.647	101.69
234.881	104.69
235.115	111.69
235.349	102.69
235.583	106.69
235.817	102.69
236.051	113.69
236.285	96.69
236.519	105.69
236.753	128.69
236.987	108.69
237.221	161.69
237.455	176.69
237.689	149.69
237.922	132.69
238.156	104.69
238.39	88.69
238.624	102.69
238.858	113.69
239.091	91.69
239.325	108.69
239.559	111.69
239.793	100.69
240.027	105.69
240.26	123.69
240.494	117.69
240.728	127.69
240.961	107.69
241.195	122.69
241.429	114.69
241.662	109.69
241.896	110.69
242.13	117.69
242.363	99.69
242.597	106.69
242.83	113.69
243.064	115.69
243.298	118.69
243.531	120.69
243.765	124.69
243.998	109.69
244.232	111.69
244.465	125.69
244.699	119.69
244.932	124.69
245.166	126.69
245.399	106.69
245.633	125.69
245.866	124.69
246.099	117.69
246.333	135.69
246.566	139.69
246.8	123.69
247.033	119.69
247.266	121.69
247.5	123.69
247.733	125.69
247.966	143.69
248.2	149.69
248.433	143.69
248.666	138.69
248.899	141.69
249.133	152.69
249.366	160.69
249.599	175.69
249.832	141.69
250.066	115.69
250.299	139.69
250.532	157.69
250.765	155.69
250.998	167.69
251.231	159.69
251.465	173.69
251.698	154.69
251.931	148.69
252.164	170.69
252.397	147.69
252.63	154.69
252.863	157.69
253.096	175.69
253.329	175.69
253.562	165.69
253.795	183.69
254.028	158.69
254.261	169.69
254.494	171.69
254.727	189.69
254.96	206.69
255.193	201.69
255.426	193.69
255.659	172.69
255.892	172.69
256.124	181.69
256.357	176.69
256.59	175.69
256.823	160.69
257.056	169.69
257.289	163.69
257.521	161.69
257.754	163.69
257.987	161.69
258.22	170.69
258.452	159.69
258.685	174.69
258.918	152.69
259.151	172.69
259.383	160.69
259.616	179.69
259.849	179.69
260.081	185.69
260.314	191.69
260.547	199.69
260.779	204.69
261.012	165.69
261.244	167.69
261.477	179.69
261.71	162.69
261.942	186.69
262.175	175.69
262.407	173.69
262.64	162.69
262.872	161.69
263.105	181.69
263.337	159.69
263.57	170.69
263.802	172.69
264.035	170.69
264.267	166.69
264.499	179.69
264.732	169.69
264.964	171.69
265.197	183.69
265.429	148.69
265.661	160.69
265.894	162.69
266.126	160.69
266.358	172.69
266.591	167.69
266.823	181.69
267.055	177.69
267.287	164.69
267.52	177.69
267.752	193.69
267.984	169.69
268.216	174.69
268.448	177.69
268.681	184.69
268.913	201.69
269.145	206.69
269.377	183.69
269.609	198.69
269.841	182.69
270.073	189.69
270.306	211.69
270.538	211.69
270.77	213.69
271.002	225.69
271.234	220.69
271.466	218.69
271.698	228.69
271.93	231.69
272.162	233.69
272.394	245.69
272.626	215.69
272.858	208.69
273.09	210.69
273.322	189.69
273.553	199.69
273.785	197.69
274.017	202.69
274.249	189.69
274.481	189.69
274.713	209.69
274.945	202.69
275.176	205.69
275.408	202.69
275.64	181.69
275.872	193.69
276.104	198.69
276.335	177.69
276.567	215.69
276.799	208.69
277.031	217.69
277.262	208.69
277.494	231.69
277.726	225.69
277.957	216.69
278.189	200.69
278.421	210.69
278.652	207.69
278.884	213.69
279.115	189.69
279.347	199.69
279.579	192.69
279.81	203.69
280.042	201.69
280.273	211.69
280.505	201.69
280.736	189.69
280.968	187.69
281.199	210.69
281.431	180.69
281.662	196.69
281.894	187.69
282.125	206.69
282.356	225.69
282.588	229.69
282.819	216.69
283.051	210.69
283.282	205.69
283.513	223.69
283.745	192.69
283.976	201.69
284.207	204.69
284.439	201.69
284.67	198.69
284.901	192.69
285.132	221.69
285.364	202.69
285.595	207.69
285.826	205.69
286.057	198.69
286.288	208.69
286.52	208.69
286.751	194.69
286.982	205.69
287.213	207.69
287.444	212.69
287.675	204.69
287.906	207.69
288.138	213.69
288.369	203.69
288.6	204.69
288.831	217.69
289.062	220.69
289.293	205.69
289.524	228.69
289.755	214.69
289.986	199.69
290.217	197.69
290.448	218.69
290.679	196.69
290.91	230.69
291.141	209.69
291.371	208.69
291.602	213.69
291.833	221.69
292.064	222.69
292.295	200.69
292.526	214.69
292.757	209.69
292.987	199.69
293.218	208.69
293.449	224.69
293.68	212.69
293.91	212.69
294.141	220.69
294.372	208.69
294.603	224.69
294.833	216.69
295.064	217.69
295.295	211.69
295.525	196.69
295.756	205.69
295.987	224.69
296.217	252.69
296.448	250.69
296.679	208.69
296.909	209.69
297.14	212.69
297.37	214.69
297.601	220.69
297.831	211.69
298.062	221.69
298.292	220.69
298.523	225.69
298.753	228.69
298.984	229.69
299.214	223.69
299.445	217.69
299.675	237.69
299.905	242.69
300.136	232.69
300.366	223.69
300.597	229.69
300.827	244.69
301.057	241.69
301.288	247.69
301.518	230.69
301.748	245.69
301.979	230.69
302.209	221.69
302.439	232.69
302.669	251.69
302.9	224.69
303.13	259.69
303.36	220.69
303.59	257.69
303.82	247.69
304.051	252.69
304.281	241.69
304.511	230.69
304.741	234.69
304.971	223.69
305.201	218.69
305.431	232.69
305.661	243.69
305.891	241.69
306.121	235.69
306.352	245.69
306.582	243.69
306.812	221.69
307.042	239.69
307.272	234.69
307.502	243.69
307.731	256.69
307.961	245.69
308.191	243.69
308.421	267.69
308.651	240.69
308.881	259.69
309.111	256.69
309.341	267.69
309.571	266.69
309.8	268.69
310.03	261.69
310.26	260.69
310.49	269.69
310.72	303.69
310.949	301.69
311.179	298.69
311.409	260.69
311.639	258.69
311.868	279.69
312.098	273.69
312.328	294.69
312.557	276.69
312.787	307.69
313.017	305.69
313.246	280.69
313.476	271.69
313.706	274.69
313.935	283.69
314.165	287.69
314.394	298.69
314.624	303.69
314.853	292.69
315.083	287.69
315.312	270.69
315.542	269.69
315.771	277.69
316.001	290.69
316.23	276.69
316.46	263.69
316.689	273.69
316.919	290.69
317.148	294.69
317.377	287.69
317.607	306.69
317.836	283.69
318.065	295.69
318.295	278.69
318.524	288.69
318.753	274.69
318.983	273.69
319.212	278.69
319.441	294.69
319.67	275.69
319.9	263.69
320.129	296.69
320.358	294.69
320.587	288.69
320.816	304.69
321.046	279.69
321.275	313.69
321.504	298.69
321.733	281.69
321.962	295.69
322.191	307.69
322.42	307.69
322.649	320.69
322.878	331.69
323.108	328.69
323.337	342.69
323.566	377.69
323.795	392.69
324.024	421.69
324.253	518.69
324.482	754.69
324.71	1126.69
324.939	1586.69
325.168	1356.69
325.397	704.69
325.626	503.69
325.855	409.69
326.084	377.69
326.313	376.69
326.542	384.69
326.77	401.69
326.999	477.69
327.228	666.69
327.457	1020.69
327.686	1214.69
327.914	793.69
328.143	533.69
328.372	480.69
328.6	455.69
328.829	422.69
329.058	416.69
329.287	430.69
329.515	407.69
329.744	388.69
329.972	379.69
330.201	398.69
330.43	441.69
330.658	451.69
330.887	445.69
331.115	445.69
331.344	372.69
331.572	369.69
331.801	363.69
332.03	352.69
332.258	345.69
332.486	333.69
332.715	327.69
332.943	335.69
333.172	319.69
333.4	325.69
333.629	330.69
333.857	339.69
334.085	345.69
334.314	354.69
334.542	388.69
334.771	411.69
334.999	344.69
335.227	348.69
335.455	347.69
335.684	331.69
335.912	329.69
336.14	310.69
336.369	300.69
336.597	321.69
336.825	329.69
337.053	324.69
337.281	330.69
337.51	311.69
337.738	307.69
337.966	327.69
338.194	316.69
338.422	319.69
338.65	316.69
338.878	323.69
339.106	300.69
339.334	325.69
339.562	317.69
339.79	323.69
340.018	314.69
340.246	326.69
340.474	321.69
340.702	308.69
340.93	324.69
341.158	312.69
341.386	312.69
341.614	322.69
341.842	323.69
342.07	297.69
342.298	320.69
342.526	301.69
342.754	297.69
342.981	302.69
343.209	303.69
343.437	299.69
343.665	291.69
343.893	308.69
344.12	311.69
344.348	303.69
344.576	319.69
344.804	323.69
345.031	318.69
345.259	348.69
345.487	312.69
345.714	327.69
345.942	310.69
346.17	297.69
346.397	305.69
346.625	311.69
346.853	296.69
347.08	302.69
347.308	319.69
347.535	330.69
347.763	328.69
347.99	307.69
348.218	316.69
348.445	317.69
348.673	296.69
348.9	309.69
349.128	313.69
349.355	300.69
349.583	289.69
349.81	308.69
350.037	307.69
350.265	290.69
350.492	301.69
350.72	281.69
350.947	304.69
351.174	300.69
351.402	327.69
351.629	331.69
351.856	307.69
352.083	311.69
352.311	305.69
352.538	320.69
352.765	327.69
352.992	320.69
353.22	321.69
353.447	305.69
353.674	277.69
353.901	295.69
354.128	295.69
354.355	293.69
354.583	292.69
354.81	316.69
355.037	295.69
355.264	278.69
355.491	288.69
355.718	270.69
355.945	292.69
356.172	295.69
356.399	276.69
356.626	295.69
356.853	273.69
357.08	288.69
357.307	287.69
357.534	287.69
357.761	277.69
357.988	280.69
358.215	283.69
358.441	291.69
358.668	292.69
358.895	291.69
359.122	290.69
359.349	305.69
359.576	309.69
359.802	327.69
360.029	338.69
360.256	357.69
360.483	338.69
360.709	280.69
360.936	316.69
361.163	312.69
361.39	294.69
361.616	312.69
361.843	311.69
362.07	320.69
362.296	315.69
362.523	316.69
362.749	304.69
362.976	292.69
363.203	297.69
363.429	285.69
363.656	296.69
363.882	291.69
364.109	274.69
364.335	282.69
364.562	293.69
364.788	301.69
365.015	292.69
365.241	277.69
365.468	300.69
365.694	313.69
365.92	303.69
366.147	310.69
366.373	292.69
366.599	319.69
366.826	320.69
367.052	312.69
367.278	301.69
367.505	279.69
367.731	300.69
367.957	305.69
368.184	286.69
368.41	281.69
368.636	309.69
368.862	319.69
369.089	287.69
369.315	304.69
369.541	292.69
369.767	307.69
369.993	295.69
370.219	287.69
370.445	293.69
370.672	314.69
370.898	310.69
371.124	287.69
371.35	289.69
371.576	306.69
371.802	301.69
372.028	306.69
372.254	300.69
372.48	305.69
372.706	314.69
372.932	305.69
373.158	291.69
373.384	285.69
373.61	313.69
373.835	298.69
374.061	307.69
374.287	309.69
374.513	306.69
374.739	319.69
374.965	305.69
375.191	292.69
375.416	311.69
375.642	291.69
375.868	307.69
376.094	284.69
376.319	291.69
376.545	287.69
376.771	292.69
376.997	284.69
377.222	293.69
377.448	294.69
377.674	303.69
377.899	303.69
378.125	297.69
378.35	293.69
378.576	306.69
378.802	283.69
379.027	271.69
379.253	284.69
379.478	287.69
379.704	299.69
379.929	293.69
380.155	318.69
380.38	292.69
380.606	304.69
380.831	295.69
381.057	298.69
381.282	296.69
381.507	304.69
381.733	296.69
381.958	299.69
382.184	323.69
382.409	315.69
382.634	309.69
382.86	291.69
383.085	309.69
383.31	315.69
383.535	286.69
383.761	301.69
383.986	328.69
384.211	306.69
384.436	296.69
384.662	315.69
384.887	316.69
385.112	313.69
385.337	314.69
385.562	320.69
385.787	320.69
386.013	323.69
386.238	321.69
386.463	327.69
386.688	328.69
386.913	306.69
387.138	316.69
387.363	314.69
387.588	336.69
387.813	316.69
388.038	320.69
388.263	317.69
388.488	315.69
388.713	324.69
388.938	307.69
389.163	327.69
389.387	319.69
389.612	323.69
389.837	317.69
390.062	319.69
390.287	335.69
390.512	319.69
390.736	327.69
390.961	332.69
391.186	337.69
391.411	319.69
391.636	318.69
391.86	323.69
392.085	346.69
392.31	328.69
392.534	331.69
392.759	321.69
392.984	316.69
393.208	329.69
393.433	344.69
393.658	356.69
393.882	332.69
394.107	312.69
394.331	313.69
394.556	340.69
394.78	339.69
395.005	336.69
395.229	334.69
395.454	323.69
395.678	334.69
395.903	343.69
396.127	349.69
396.352	349.69
396.576	347.69
396.801	333.69
397.025	356.69
397.249	353.69
397.474	351.69
397.698	346.69
397.922	361.69
398.147	362.69
398.371	358.69
398.595	351.69
398.82	369.69
399.044	360.69
399.268	369.69
399.492	367.69
399.717	384.69
399.941	405.69
400.165	429.69
400.389	444.69
400.613	395.69
400.837	391.69
401.062	395.69
401.286	365.69
401.51	370.69
401.734	373.69
401.958	361.69
402.182	360.69
402.406	369.69
402.63	379.69
402.854	368.69
403.078	359.69
403.302	348.69
403.526	372.69
403.75	372.69
403.974	384.69
404.198	383.69
404.422	379.69
404.645	381.69
404.869	398.69
405.093	387.69
405.317	434.69
405.541	445.69
405.765	424.69
405.988	425.69
406.212	387.69
406.436	425.69
406.66	421.69
406.883	399.69
407.107	429.69
407.331	463.69
407.555	475.69
407.778	489.69
408.002	457.69
408.226	432.69
408.449	422.69
408.673	423.69
408.896	442.69
409.12	475.69
409.344	435.69
409.567	388.69
409.791	403.69
410.014	395.69
410.238	395.69
410.461	388.69
410.685	405.69
410.908	409.69
411.132	409.69
411.355	414.69
411.578	418.69
411.802	397.69
412.025	373.69
412.249	384.69
412.472	403.69
412.695	444.69
412.919	426.69
413.142	392.69
413.365	377.69
413.589	388.69
413.812	359.69
414.035	352.69
414.258	359.69
414.482	351.69
414.705	346.69
414.928	361.69
415.151	362.69
415.374	343.69
415.597	348.69
415.821	340.69
416.044	359.69
416.267	352.69
416.49	374.69
416.713	347.69
416.936	372.69
417.159	342.69
417.382	358.69
417.605	377.69
417.828	375.69
418.051	387.69
418.274	379.69
418.497	339.69
418.72	356.69
418.943	348.69
419.166	361.69
419.389	359.69
419.611	376.69
419.834	377.69
420.057	399.69
420.28	381.69
420.503	362.69
420.726	383.69
420.948	374.69
421.171	427.69
421.394	405.69
421.617	389.69
421.839	371.69
422.062	395.69
422.285	380.69
422.507	397.69
422.73	487.69
422.953	469.69
423.175	428.69
423.398	368.69
423.621	401.69
423.843	406.69
424.066	413.69
424.288	395.69
424.511	416.69
424.733	444.69
424.956	509.69
425.178	531.69
425.401	491.69
425.623	499.69
425.846	437.69
426.068	405.69
426.291	397.69
426.513	396.69
426.735	438.69
426.958	427.69
427.18	488.69
427.402	577.69
427.625	666.69
427.847	560.69
428.069	482.69
428.292	462.69
428.514	399.69
428.736	382.69
428.958	392.69
429.181	382.69
429.403	362.69
429.625	385.69
429.847	409.69
430.069	461.69
430.292	467.69
430.514	403.69
430.736	376.69
430.958	381.69
431.18	382.69
431.402	343.69
431.624	361.69
431.846	361.69
432.068	365.69
432.29	338.69
432.512	355.69
432.734	364.69
432.956	360.69
433.178	375.69
433.4	379.69
433.622	365.69
433.844	361.69
434.066	364.69
434.287	373.69
434.509	367.69
434.731	356.69
434.953	362.69
435.175	385.69
435.397	415.69
435.618	404.69
435.84	423.69
436.062	474.69
436.284	541.69
436.505	465.69
436.727	424.69
436.949	396.69
437.17	403.69
437.392	364.69
437.614	381.69
437.835	396.69
438.057	500.69
438.278	567.69
438.5	539.69
438.721	618.69
438.943	571.69
439.165	481.69
439.386	413.69
439.608	412.69
439.829	438.69
440.05	439.69
440.272	459.69
440.493	435.69
440.715	416.69
440.936	394.69
441.158	392.69
441.379	384.69
441.6	392.69
441.822	399.69
442.043	432.69
442.264	504.69
442.486	529.69
442.707	457.69
442.928	439.69
443.149	435.69
443.371	460.69
443.592	488.69
443.813	538.69
444.034	551.69
444.255	465.69
444.476	419.69
444.698	393.69
444.919	399.69
445.14	547.69
445.361	473.69
445.582	439.69
445.803	488.69
446.024	571.69
446.245	565.69
446.466	514.69
446.687	430.69
446.908	403.69
447.129	373.69
447.35	381.69
447.571	390.69
447.792	370.69
448.013	401.69
448.234	416.69
448.455	448.69
448.675	525.69
448.896	591.69
449.117	525.69
449.338	492.69
449.559	554.69
449.779	626.69
450	509.69
450.221	421.69
450.442	416.69
450.662	394.69
450.883	385.69
451.104	392.69
451.324	373.69
451.545	379.69
451.766	354.69
451.986	358.69
452.207	356.69
452.428	317.69
452.648	340.69
452.869	350.69
453.089	350.69
453.31	376.69
453.53	353.69
453.751	345.69
453.971	370.69
454.192	353.69
454.412	353.69
454.633	365.69
454.853	348.69
455.073	343.69
455.294	370.69
455.514	408.69
455.734	410.69
455.955	353.69
456.175	323.69
456.395	328.69
456.616	323.69
456.836	315.69
457.056	332.69
457.276	321.69
457.497	329.69
457.717	340.69
457.937	344.69
458.157	341.69
458.377	354.69
458.598	333.69
458.818	405.69
459.038	453.69
459.258	470.69
459.478	411.69
459.698	379.69
459.918	352.69
460.138	347.69
460.358	381.69
460.578	365.69
460.798	375.69
461.018	370.69
461.238	372.69
461.458	372.69
461.678	355.69
461.898	362.69
462.118	374.69
462.338	361.69
462.558	362.69
462.777	377.69
462.997	379.69
463.217	386.69
463.437	387.69
463.657	390.69
463.876	381.69
464.096	391.69
464.316	383.69
464.536	377.69
464.755	380.69
464.975	380.69
465.195	425.69
465.414	463.69
465.634	415.69
465.854	394.69
466.073	380.69
466.293	352.69
466.512	373.69
466.732	371.69
466.951	364.69
467.171	373.69
467.391	352.69
467.61	370.69
467.829	375.69
468.049	372.69
468.268	359.69
468.488	348.69
468.707	356.69
468.927	350.69
469.146	369.69
469.365	356.69
469.585	340.69
469.804	356.69
470.023	343.69
470.243	341.69
470.462	386.69
470.681	386.69
470.901	384.69
471.12	361.69
471.339	360.69
471.558	369.69
471.777	355.69
471.997	358.69
472.216	367.69
472.435	401.69
472.654	385.69
472.873	368.69
473.092	360.69
473.311	367.69
473.53	369.69
473.749	371.69
473.968	392.69
474.187	480.69
474.406	468.69
474.625	400.69
474.844	359.69
475.063	357.69
475.282	361.69
475.501	356.69
475.72	370.69
475.939	383.69
476.158	383.69
476.377	373.69
476.596	389.69
476.814	375.69
477.033	388.69
477.252	383.69
477.471	389.69
477.69	384.69
477.908	397.69
478.127	394.69
478.346	394.69
478.564	393.69
478.783	392.69
479.002	402.69
479.22	408.69
479.439	411.69
479.658	413.69
479.876	447.69
480.095	428.69
480.313	437.69
480.532	416.69
480.751	439.69
480.969	441.69
481.188	483.69
481.406	517.69
481.624	466.69
481.843	445.69
482.061	444.69
482.28	455.69
482.498	440.69
482.717	418.69
482.935	435.69
483.153	421.69
483.372	422.69
483.59	429.69
483.808	428.69
484.027	417.69
484.245	428.69
484.463	411.69
484.681	410.69
484.9	430.69
485.118	429.69
485.336	439.69
485.554	443.69
485.772	433.69
485.99	428.69
486.209	436.69
486.427	432.69
486.645	448.69
486.863	446.69
487.081	449.69
487.299	451.69
487.517	439.69
487.735	426.69
487.953	437.69
488.171	467.69
488.389	451.69
488.607	476.69
488.825	453.69
489.043	453.69
489.261	458.69
489.479	464.69
489.696	467.69
489.914	441.69
490.132	469.69
490.35	453.69
490.568	474.69
490.786	477.69
491.003	460.69
491.221	494.69
491.439	495.69
491.657	503.69
491.874	513.69
492.092	527.69
492.31	521.69
492.527	503.69
492.745	508.69
492.963	521.69
493.18	529.69
493.398	522.69
493.615	519.69
493.833	524.69
494.05	520.69
494.268	522.69
494.485	516.69
494.703	508.69
494.92	516.69
495.138	525.69
495.355	521.69
495.573	540.69
495.79	515.69
496.008	555.69
496.225	522.69
496.442	521.69
496.66	531.69
496.877	540.69
497.094	533.69
497.312	528.69
497.529	542.69
497.746	567.69
497.963	575.69
498.181	572.69
498.398	567.69
498.615	591.69
498.832	601.69
499.049	604.69
499.267	597.69
499.484	618.69
499.701	641.69
499.918	661.69
500.135	661.69
500.352	669.69
500.569	695.69
500.786	683.69
501.003	686.69
501.22	664.69
501.437	652.69
501.654	679.69
501.871	651.69
502.088	629.69
