Data from 1961.PennyLincolnUp.Lamp.En5.5.200Scan.071719.P1._HRD10591_13-46-48-058.txt Node
Date: Thu Jul 18 13:46:48 EDT 2019
User: cochatt
Spectrometer: HR+D1059
Trigger mode: 1
Integration Time (sec): 1.000000E-1
Scans to average: 1
Electric dark correction enabled: true
Nonlinearity correction enabled: false
Boxcar width: 0
XAxis mode: Wavelengths
Number of Pixels in Spectrum: 2048
>>>>>Begin Spectral Data<<<<<
223.165	-10.12
223.4	-10.12
223.635	-10.12
223.869	-28.12
224.104	-15.12
224.338	-8.12
224.573	-20.12
224.808	-16.12
225.042	-6.12
225.277	-10.12
225.511	6.88
225.746	3.88
225.98	5.88
226.215	3.88
226.449	13.88
226.683	26.88
226.918	24.88
227.152	27.88
227.387	41.88
227.621	45.88
227.856	43.88
228.09	50.88
228.324	38.88
228.559	41.88
228.793	53.88
229.027	90.88
229.262	111.88
229.496	108.88
229.73	111.88
229.964	137.88
230.199	107.88
230.433	106.88
230.667	118.88
230.901	99.88
231.136	93.88
231.37	103.88
231.604	107.88
231.838	115.88
232.072	100.88
232.306	93.88
232.541	106.88
232.775	120.88
233.009	116.88
233.243	99.88
233.477	121.88
233.711	93.88
233.945	109.88
234.179	96.88
234.413	106.88
234.647	98.88
234.881	110.88
235.115	103.88
235.349	106.88
235.583	115.88
235.817	98.88
236.051	112.88
236.285	112.88
236.519	104.88
236.753	121.88
236.987	128.88
237.221	150.88
237.455	199.88
237.689	156.88
237.922	123.88
238.156	109.88
238.39	113.88
238.624	102.88
238.858	123.88
239.091	103.88
239.325	116.88
239.559	124.88
239.793	111.88
240.027	120.88
240.26	141.88
240.494	113.88
240.728	131.88
240.961	136.88
241.195	122.88
241.429	129.88
241.662	106.88
241.896	121.88
242.13	121.88
242.363	124.88
242.597	107.88
242.83	125.88
243.064	130.88
243.298	117.88
243.531	119.88
243.765	122.88
243.998	119.88
244.232	121.88
244.465	127.88
244.699	122.88
244.932	127.88
245.166	116.88
245.399	126.88
245.633	132.88
245.866	132.88
246.099	118.88
246.333	122.88
246.566	130.88
246.8	141.88
247.033	127.88
247.266	152.88
247.5	155.88
247.733	146.88
247.966	151.88
248.2	151.88
248.433	133.88
248.666	135.88
248.899	157.88
249.133	152.88
249.366	186.88
249.599	163.88
249.832	147.88
250.066	150.88
250.299	153.88
250.532	150.88
250.765	170.88
250.998	170.88
251.231	179.88
251.465	163.88
251.698	159.88
251.931	146.88
252.164	155.88
252.397	153.88
252.63	159.88
252.863	158.88
253.096	196.88
253.329	215.88
253.562	182.88
253.795	170.88
254.028	170.88
254.261	180.88
254.494	177.88
254.727	195.88
254.96	218.88
255.193	216.88
255.426	178.88
255.659	178.88
255.892	173.88
256.124	183.88
256.357	195.88
256.59	183.88
256.823	199.88
257.056	179.88
257.289	192.88
257.521	157.88
257.754	153.88
257.987	169.88
258.22	155.88
258.452	166.88
258.685	163.88
258.918	175.88
259.151	167.88
259.383	185.88
259.616	163.88
259.849	173.88
260.081	187.88
260.314	195.88
260.547	188.88
260.779	169.88
261.012	186.88
261.244	189.88
261.477	187.88
261.71	181.88
261.942	186.88
262.175	187.88
262.407	181.88
262.64	178.88
262.872	173.88
263.105	171.88
263.337	176.88
263.57	176.88
263.802	183.88
264.035	170.88
264.267	170.88
264.499	161.88
264.732	170.88
264.964	156.88
265.197	166.88
265.429	183.88
265.661	173.88
265.894	175.88
266.126	162.88
266.358	160.88
266.591	188.88
266.823	181.88
267.055	178.88
267.287	182.88
267.52	157.88
267.752	180.88
267.984	186.88
268.216	176.88
268.448	181.88
268.681	187.88
268.913	202.88
269.145	204.88
269.377	183.88
269.609	181.88
269.841	196.88
270.073	189.88
270.306	213.88
270.538	230.88
270.77	239.88
271.002	212.88
271.234	207.88
271.466	226.88
271.698	240.88
271.93	231.88
272.162	212.88
272.394	230.88
272.626	244.88
272.858	211.88
273.09	210.88
273.322	201.88
273.553	201.88
273.785	211.88
274.017	198.88
274.249	201.88
274.481	198.88
274.713	202.88
274.945	208.88
275.176	198.88
275.408	207.88
275.64	221.88
275.872	206.88
276.104	201.88
276.335	204.88
276.567	192.88
276.799	214.88
277.031	226.88
277.262	236.88
277.494	237.88
277.726	235.88
277.957	207.88
278.189	207.88
278.421	204.88
278.652	226.88
278.884	210.88
279.115	201.88
279.347	195.88
279.579	196.88
279.81	198.88
280.042	220.88
280.273	202.88
280.505	202.88
280.736	186.88
280.968	210.88
281.199	203.88
281.431	202.88
281.662	199.88
281.894	208.88
282.125	201.88
282.356	213.88
282.588	246.88
282.819	259.88
283.051	213.88
283.282	202.88
283.513	208.88
283.745	218.88
283.976	204.88
284.207	212.88
284.439	203.88
284.67	213.88
284.901	226.88
285.132	220.88
285.364	216.88
285.595	207.88
285.826	205.88
286.057	216.88
286.288	203.88
286.52	199.88
286.751	213.88
286.982	205.88
287.213	219.88
287.444	219.88
287.675	233.88
287.906	200.88
288.138	215.88
288.369	230.88
288.6	216.88
288.831	218.88
289.062	213.88
289.293	218.88
289.524	210.88
289.755	221.88
289.986	220.88
290.217	222.88
290.448	200.88
290.679	218.88
290.91	216.88
291.141	223.88
291.371	212.88
291.602	208.88
291.833	209.88
292.064	208.88
292.295	221.88
292.526	232.88
292.757	213.88
292.987	215.88
293.218	231.88
293.449	220.88
293.68	211.88
293.91	207.88
294.141	229.88
294.372	223.88
294.603	233.88
294.833	220.88
295.064	215.88
295.295	202.88
295.525	233.88
295.756	224.88
295.987	224.88
296.217	251.88
296.448	247.88
296.679	233.88
296.909	226.88
297.14	227.88
297.37	223.88
297.601	209.88
297.831	202.88
298.062	212.88
298.292	222.88
298.523	230.88
298.753	220.88
298.984	217.88
299.214	230.88
299.445	223.88
299.675	232.88
299.905	245.88
300.136	231.88
300.366	234.88
300.597	243.88
300.827	257.88
301.057	251.88
301.288	247.88
301.518	249.88
301.748	230.88
301.979	243.88
302.209	245.88
302.439	235.88
302.669	246.88
302.9	243.88
303.13	245.88
303.36	243.88
303.59	261.88
303.82	236.88
304.051	248.88
304.281	246.88
304.511	247.88
304.741	238.88
304.971	254.88
305.201	238.88
305.431	261.88
305.661	252.88
305.891	243.88
306.121	250.88
306.352	258.88
306.582	243.88
306.812	266.88
307.042	245.88
307.272	257.88
307.502	241.88
307.731	260.88
307.961	244.88
308.191	264.88
308.421	256.88
308.651	250.88
308.881	245.88
309.111	257.88
309.341	266.88
309.571	273.88
309.8	285.88
310.03	257.88
310.26	284.88
310.49	292.88
310.72	290.88
310.949	287.88
311.179	290.88
311.409	277.88
311.639	285.88
311.868	274.88
312.098	286.88
312.328	283.88
312.557	294.88
312.787	311.88
313.017	309.88
313.246	296.88
313.476	266.88
313.706	284.88
313.935	284.88
314.165	307.88
314.394	317.88
314.624	300.88
314.853	299.88
315.083	298.88
315.312	283.88
315.542	276.88
315.771	274.88
316.001	285.88
316.23	279.88
316.46	257.88
316.689	292.88
316.919	283.88
317.148	291.88
317.377	294.88
317.607	283.88
317.836	291.88
318.065	276.88
318.295	291.88
318.524	292.88
318.753	266.88
318.983	273.88
319.212	301.88
319.441	289.88
319.67	297.88
319.9	270.88
320.129	274.88
320.358	287.88
320.587	301.88
320.816	308.88
321.046	285.88
321.275	298.88
321.504	315.88
321.733	305.88
321.962	303.88
322.191	326.88
322.42	333.88
322.649	342.88
322.878	330.88
323.108	346.88
323.337	373.88
323.566	397.88
323.795	429.88
324.024	478.88
324.253	566.88
324.482	812.88
324.71	1273.88
324.939	1777.88
325.168	1500.88
325.397	785.88
325.626	525.88
325.855	427.88
326.084	397.88
326.313	411.88
326.542	388.88
326.77	447.88
326.999	529.88
327.228	737.88
327.457	1096.88
327.686	1302.88
327.914	889.88
328.143	580.88
328.372	502.88
328.6	492.88
328.829	454.88
329.058	465.88
329.287	473.88
329.515	419.88
329.744	399.88
329.972	398.88
330.201	420.88
330.43	448.88
330.658	465.88
330.887	468.88
331.115	453.88
331.344	418.88
331.572	388.88
331.801	392.88
332.03	375.88
332.258	359.88
332.486	333.88
332.715	337.88
332.943	312.88
333.172	345.88
333.4	337.88
333.629	350.88
333.857	348.88
334.085	354.88
334.314	383.88
334.542	404.88
334.771	434.88
334.999	378.88
335.227	361.88
335.455	354.88
335.684	327.88
335.912	316.88
336.14	333.88
336.369	333.88
336.597	339.88
336.825	328.88
337.053	339.88
337.281	319.88
337.51	326.88
337.738	322.88
337.966	331.88
338.194	324.88
338.422	323.88
338.65	309.88
338.878	320.88
339.106	321.88
339.334	317.88
339.562	306.88
339.79	312.88
340.018	315.88
340.246	355.88
340.474	322.88
340.702	335.88
340.93	314.88
341.158	323.88
341.386	317.88
341.614	317.88
341.842	328.88
342.07	341.88
342.298	304.88
342.526	313.88
342.754	298.88
342.981	309.88
343.209	320.88
343.437	320.88
343.665	317.88
343.893	326.88
344.12	330.88
344.348	333.88
344.576	307.88
344.804	316.88
345.031	333.88
345.259	345.88
345.487	333.88
345.714	332.88
345.942	314.88
346.17	312.88
346.397	305.88
346.625	309.88
346.853	298.88
347.08	306.88
347.308	313.88
347.535	309.88
347.763	335.88
347.99	312.88
348.218	332.88
348.445	321.88
348.673	314.88
348.9	300.88
349.128	333.88
349.355	313.88
349.583	289.88
349.81	307.88
350.037	293.88
350.265	311.88
350.492	295.88
350.72	305.88
350.947	297.88
351.174	305.88
351.402	313.88
351.629	318.88
351.856	317.88
352.083	325.88
352.311	320.88
352.538	338.88
352.765	337.88
352.992	331.88
353.22	328.88
353.447	299.88
353.674	320.88
353.901	296.88
354.128	316.88
354.355	301.88
354.583	311.88
354.81	293.88
355.037	298.88
355.264	306.88
355.491	279.88
355.718	291.88
355.945	287.88
356.172	295.88
356.399	281.88
356.626	290.88
356.853	277.88
357.08	298.88
357.307	299.88
357.534	282.88
357.761	319.88
357.988	290.88
358.215	309.88
358.441	291.88
358.668	294.88
358.895	279.88
359.122	298.88
359.349	297.88
359.576	303.88
359.802	356.88
360.029	346.88
360.256	381.88
360.483	363.88
360.709	328.88
360.936	295.88
361.163	314.88
361.39	323.88
361.616	312.88
361.843	317.88
362.07	301.88
362.296	307.88
362.523	327.88
362.749	305.88
362.976	322.88
363.203	305.88
363.429	299.88
363.656	305.88
363.882	312.88
364.109	315.88
364.335	274.88
364.562	281.88
364.788	293.88
365.015	287.88
365.241	300.88
365.468	300.88
365.694	312.88
365.92	305.88
366.147	308.88
366.373	284.88
366.599	308.88
366.826	316.88
367.052	295.88
367.278	295.88
367.505	299.88
367.731	303.88
367.957	305.88
368.184	304.88
368.41	307.88
368.636	288.88
368.862	292.88
369.089	309.88
369.315	290.88
369.541	308.88
369.767	289.88
369.993	311.88
370.219	311.88
370.445	288.88
370.672	299.88
370.898	296.88
371.124	290.88
371.35	315.88
371.576	301.88
371.802	296.88
372.028	294.88
372.254	290.88
372.48	303.88
372.706	307.88
372.932	286.88
373.158	303.88
373.384	313.88
373.61	291.88
373.835	308.88
374.061	287.88
374.287	298.88
374.513	334.88
374.739	315.88
374.965	309.88
375.191	304.88
375.416	312.88
375.642	301.88
375.868	296.88
376.094	307.88
376.319	309.88
376.545	310.88
376.771	296.88
376.997	284.88
377.222	277.88
377.448	296.88
377.674	283.88
377.899	300.88
378.125	297.88
378.35	303.88
378.576	279.88
378.802	308.88
379.027	309.88
379.253	300.88
379.478	301.88
379.704	299.88
379.929	318.88
380.155	313.88
380.38	285.88
380.606	311.88
380.831	300.88
381.057	298.88
381.282	306.88
381.507	299.88
381.733	305.88
381.958	279.88
382.184	316.88
382.409	319.88
382.634	307.88
382.86	311.88
383.085	289.88
383.31	315.88
383.535	305.88
383.761	305.88
383.986	297.88
384.211	308.88
384.436	319.88
384.662	318.88
384.887	336.88
385.112	310.88
385.337	316.88
385.562	327.88
385.787	311.88
386.013	320.88
386.238	328.88
386.463	317.88
386.688	320.88
386.913	332.88
387.138	326.88
387.363	339.88
387.588	318.88
387.813	333.88
388.038	314.88
388.263	323.88
388.488	324.88
388.713	331.88
388.938	315.88
389.163	352.88
389.387	330.88
389.612	325.88
389.837	320.88
390.062	337.88
390.287	344.88
390.512	296.88
390.736	313.88
390.961	316.88
391.186	322.88
391.411	319.88
391.636	333.88
391.86	316.88
392.085	316.88
392.31	316.88
392.534	324.88
392.759	331.88
392.984	322.88
393.208	315.88
393.433	329.88
393.658	339.88
393.882	320.88
394.107	328.88
394.331	348.88
394.556	317.88
394.78	313.88
395.005	352.88
395.229	332.88
395.454	336.88
395.678	323.88
395.903	339.88
396.127	343.88
396.352	342.88
396.576	340.88
396.801	356.88
397.025	348.88
397.249	339.88
397.474	334.88
397.698	362.88
397.922	355.88
398.147	385.88
398.371	380.88
398.595	349.88
398.82	369.88
399.044	377.88
399.268	359.88
399.492	392.88
399.717	428.88
399.941	412.88
400.165	444.88
400.389	431.88
400.613	415.88
400.837	384.88
401.062	376.88
401.286	361.88
401.51	353.88
401.734	362.88
401.958	356.88
402.182	364.88
402.406	375.88
402.63	379.88
402.854	363.88
403.078	379.88
403.302	379.88
403.526	374.88
403.75	384.88
403.974	378.88
404.198	393.88
404.422	380.88
404.645	389.88
404.869	387.88
405.093	394.88
405.317	442.88
405.541	451.88
405.765	402.88
405.988	419.88
406.212	419.88
406.436	433.88
406.66	426.88
406.883	417.88
407.107	439.88
407.331	470.88
407.555	514.88
407.778	509.88
408.002	439.88
408.226	436.88
408.449	431.88
408.673	414.88
408.896	454.88
409.12	460.88
409.344	450.88
409.567	394.88
409.791	380.88
410.014	375.88
410.238	363.88
410.461	369.88
410.685	387.88
410.908	409.88
411.132	424.88
411.355	425.88
411.578	429.88
411.802	385.88
412.025	379.88
412.249	381.88
412.472	411.88
412.695	442.88
412.919	451.88
413.142	384.88
413.365	375.88
413.589	362.88
413.812	374.88
414.035	347.88
414.258	346.88
414.482	362.88
414.705	354.88
414.928	370.88
415.151	364.88
415.374	383.88
415.597	342.88
415.821	351.88
416.044	361.88
416.267	369.88
416.49	347.88
416.713	349.88
416.936	363.88
417.159	362.88
417.382	376.88
417.605	357.88
417.828	362.88
418.051	381.88
418.274	370.88
418.497	348.88
418.72	356.88
418.943	344.88
419.166	363.88
419.389	367.88
419.611	377.88
419.834	381.88
420.057	391.88
420.28	374.88
420.503	374.88
420.726	387.88
420.948	409.88
421.171	418.88
421.394	446.88
421.617	378.88
421.839	358.88
422.062	371.88
422.285	399.88
422.507	424.88
422.73	469.88
422.953	459.88
423.175	410.88
423.398	403.88
423.621	406.88
423.843	416.88
424.066	409.88
424.288	414.88
424.511	425.88
424.733	459.88
424.956	526.88
425.178	519.88
425.401	500.88
425.623	505.88
425.846	444.88
426.068	433.88
426.291	405.88
426.513	408.88
426.735	411.88
426.958	468.88
427.18	511.88
427.402	594.88
427.625	683.88
427.847	578.88
428.069	523.88
428.292	449.88
428.514	401.88
428.736	381.88
428.958	398.88
429.181	400.88
429.403	384.88
429.625	383.88
429.847	406.88
430.069	456.88
430.292	452.88
430.514	409.88
430.736	387.88
430.958	383.88
431.18	362.88
431.402	377.88
431.624	363.88
431.846	373.88
432.068	361.88
432.29	366.88
432.512	355.88
432.734	349.88
432.956	374.88
433.178	370.88
433.4	368.88
433.622	375.88
433.844	370.88
434.066	368.88
434.287	366.88
434.509	372.88
434.731	381.88
434.953	352.88
435.175	393.88
435.397	402.88
435.618	419.88
435.84	440.88
436.062	505.88
436.284	562.88
436.505	465.88
436.727	431.88
436.949	409.88
437.17	419.88
437.392	413.88
437.614	397.88
437.835	442.88
438.057	503.88
438.278	555.88
438.5	549.88
438.721	604.88
438.943	579.88
439.165	476.88
439.386	437.88
439.608	413.88
439.829	435.88
440.05	453.88
440.272	488.88
440.493	452.88
440.715	429.88
440.936	401.88
441.158	393.88
441.379	383.88
441.6	387.88
441.822	413.88
442.043	447.88
442.264	509.88
442.486	547.88
442.707	455.88
442.928	444.88
443.149	431.88
443.371	453.88
443.592	496.88
443.813	565.88
444.034	585.88
444.255	485.88
444.476	435.88
444.698	423.88
444.919	424.88
445.14	536.88
445.361	482.88
445.582	447.88
445.803	505.88
446.024	601.88
446.245	586.88
446.466	532.88
446.687	457.88
446.908	447.88
447.129	417.88
447.35	373.88
447.571	381.88
447.792	387.88
448.013	389.88
448.234	402.88
448.455	439.88
448.675	523.88
448.896	620.88
449.117	532.88
449.338	501.88
449.559	577.88
449.779	628.88
450	517.88
450.221	415.88
450.442	414.88
450.662	397.88
450.883	402.88
451.104	401.88
451.324	384.88
451.545	384.88
451.766	374.88
451.986	354.88
452.207	343.88
452.428	356.88
452.648	374.88
452.869	348.88
453.089	362.88
453.31	362.88
453.53	358.88
453.751	356.88
453.971	341.88
454.192	389.88
454.412	359.88
454.633	368.88
454.853	358.88
455.073	342.88
455.294	363.88
455.514	417.88
455.734	417.88
455.955	361.88
456.175	343.88
456.395	330.88
456.616	345.88
456.836	328.88
457.056	327.88
457.276	324.88
457.497	334.88
457.717	354.88
457.937	360.88
458.157	345.88
458.377	341.88
458.598	370.88
458.818	397.88
459.038	466.88
459.258	483.88
459.478	411.88
459.698	384.88
459.918	357.88
460.138	369.88
460.358	362.88
460.578	364.88
460.798	371.88
461.018	349.88
461.238	363.88
461.458	378.88
461.678	372.88
461.898	391.88
462.118	379.88
462.338	362.88
462.558	361.88
462.777	371.88
462.997	390.88
463.217	394.88
463.437	387.88
463.657	399.88
463.876	402.88
464.096	377.88
464.316	402.88
464.536	386.88
464.755	408.88
464.975	403.88
465.195	435.88
465.414	502.88
465.634	445.88
465.854	403.88
466.073	374.88
466.293	373.88
466.512	361.88
466.732	364.88
466.951	365.88
467.171	346.88
467.391	363.88
467.61	390.88
467.829	373.88
468.049	359.88
468.268	357.88
468.488	363.88
468.707	339.88
468.927	353.88
469.146	350.88
469.365	349.88
469.585	343.88
469.804	365.88
470.023	357.88
470.243	370.88
470.462	363.88
470.681	376.88
470.901	377.88
471.12	365.88
471.339	360.88
471.558	361.88
471.777	367.88
471.997	376.88
472.216	361.88
472.435	420.88
472.654	415.88
472.873	384.88
473.092	389.88
473.311	359.88
473.53	370.88
473.749	371.88
473.968	409.88
474.187	470.88
474.406	484.88
474.625	409.88
474.844	378.88
475.063	353.88
475.282	378.88
475.501	381.88
475.72	382.88
475.939	398.88
476.158	380.88
476.377	383.88
476.596	389.88
476.814	384.88
477.033	387.88
477.252	394.88
477.471	393.88
477.69	384.88
477.908	401.88
478.127	408.88
478.346	402.88
478.564	400.88
478.783	406.88
479.002	414.88
479.22	409.88
479.439	431.88
479.658	445.88
479.876	429.88
480.095	419.88
480.313	461.88
480.532	457.88
480.751	465.88
480.969	460.88
481.188	519.88
481.406	551.88
481.624	472.88
481.843	476.88
482.061	451.88
482.28	447.88
482.498	447.88
482.717	420.88
482.935	445.88
483.153	431.88
483.372	427.88
483.59	437.88
483.808	411.88
484.027	411.88
484.245	466.88
484.463	422.88
484.681	441.88
484.9	447.88
485.118	419.88
485.336	437.88
485.554	444.88
485.772	429.88
485.99	453.88
486.209	446.88
486.427	451.88
486.645	461.88
486.863	465.88
487.081	483.88
487.299	439.88
487.517	458.88
487.735	447.88
487.953	476.88
488.171	464.88
488.389	451.88
488.607	479.88
488.825	453.88
489.043	447.88
489.261	459.88
489.479	439.88
489.696	449.88
489.914	462.88
490.132	462.88
490.35	483.88
490.568	479.88
490.786	478.88
491.003	516.88
491.221	490.88
491.439	517.88
491.657	519.88
491.874	512.88
492.092	533.88
492.31	531.88
492.527	525.88
492.745	528.88
492.963	520.88
493.18	528.88
493.398	503.88
493.615	523.88
493.833	537.88
494.05	544.88
494.268	519.88
494.485	530.88
494.703	516.88
494.92	551.88
495.138	544.88
495.355	528.88
495.573	534.88
495.79	554.88
496.008	557.88
496.225	537.88
496.442	539.88
496.66	527.88
496.877	538.88
497.094	531.88
497.312	549.88
497.529	572.88
497.746	556.88
497.963	563.88
498.181	588.88
498.398	572.88
498.615	582.88
498.832	586.88
499.049	602.88
499.267	602.88
499.484	625.88
499.701	656.88
499.918	646.88
500.135	651.88
500.352	701.88
500.569	682.88
500.786	702.88
501.003	675.88
501.22	682.88
501.437	681.88
501.654	651.88
501.871	673.88
502.088	625.88
