Data from 1961.PennyLincolnUp.Lamp.En5.5.200Scan.071719.P1._HRD10591_13-47-14-056.txt Node
Date: Thu Jul 18 13:47:14 EDT 2019
User: cochatt
Spectrometer: HR+D1059
Trigger mode: 1
Integration Time (sec): 1.000000E-1
Scans to average: 1
Electric dark correction enabled: true
Nonlinearity correction enabled: false
Boxcar width: 0
XAxis mode: Wavelengths
Number of Pixels in Spectrum: 2048
>>>>>Begin Spectral Data<<<<<
223.165	-17.38
223.4	-17.38
223.635	-17.38
223.869	-8.38
224.104	-20.38
224.338	-16.38
224.573	-12.38
224.808	-17.38
225.042	4.62
225.277	-16.38
225.511	-2.38
225.746	-13.38
225.98	12.62
226.215	18.62
226.449	7.62
226.683	22.62
226.918	18.62
227.152	39.62
227.387	18.62
227.621	27.62
227.856	29.62
228.09	24.62
228.324	46.62
228.559	64.62
228.793	67.62
229.027	99.62
229.262	92.62
229.496	95.62
229.73	112.62
229.964	146.62
230.199	136.62
230.433	96.62
230.667	91.62
230.901	97.62
231.136	111.62
231.37	93.62
231.604	97.62
231.838	98.62
232.072	95.62
232.306	98.62
232.541	90.62
232.775	102.62
233.009	109.62
233.243	96.62
233.477	91.62
233.711	118.62
233.945	102.62
234.179	103.62
234.413	112.62
234.647	103.62
234.881	106.62
235.115	110.62
235.349	92.62
235.583	127.62
235.817	106.62
236.051	104.62
236.285	106.62
236.519	101.62
236.753	126.62
236.987	128.62
237.221	158.62
237.455	193.62
237.689	164.62
237.922	119.62
238.156	124.62
238.39	108.62
238.624	106.62
238.858	100.62
239.091	103.62
239.325	96.62
239.559	111.62
239.793	97.62
240.027	104.62
240.26	119.62
240.494	129.62
240.728	120.62
240.961	122.62
241.195	129.62
241.429	117.62
241.662	130.62
241.896	114.62
242.13	122.62
242.363	117.62
242.597	108.62
242.83	115.62
243.064	120.62
243.298	105.62
243.531	110.62
243.765	123.62
243.998	113.62
244.232	122.62
244.465	114.62
244.699	108.62
244.932	124.62
245.166	108.62
245.399	125.62
245.633	128.62
245.866	124.62
246.099	126.62
246.333	110.62
246.566	106.62
246.8	134.62
247.033	133.62
247.266	133.62
247.5	129.62
247.733	135.62
247.966	135.62
248.2	146.62
248.433	142.62
248.666	147.62
248.899	152.62
249.133	156.62
249.366	171.62
249.599	160.62
249.832	161.62
250.066	155.62
250.299	149.62
250.532	166.62
250.765	162.62
250.998	171.62
251.231	158.62
251.465	174.62
251.698	158.62
251.931	146.62
252.164	165.62
252.397	165.62
252.63	154.62
252.863	140.62
253.096	172.62
253.329	179.62
253.562	189.62
253.795	172.62
254.028	186.62
254.261	182.62
254.494	195.62
254.727	186.62
254.96	217.62
255.193	211.62
255.426	194.62
255.659	186.62
255.892	190.62
256.124	198.62
256.357	183.62
256.59	185.62
256.823	181.62
257.056	176.62
257.289	164.62
257.521	172.62
257.754	179.62
257.987	167.62
258.22	163.62
258.452	175.62
258.685	176.62
258.918	174.62
259.151	171.62
259.383	187.62
259.616	171.62
259.849	167.62
260.081	174.62
260.314	207.62
260.547	180.62
260.779	184.62
261.012	180.62
261.244	200.62
261.477	183.62
261.71	187.62
261.942	195.62
262.175	203.62
262.407	200.62
262.64	186.62
262.872	165.62
263.105	168.62
263.337	162.62
263.57	170.62
263.802	160.62
264.035	168.62
264.267	174.62
264.499	166.62
264.732	194.62
264.964	158.62
265.197	182.62
265.429	187.62
265.661	176.62
265.894	158.62
266.126	177.62
266.358	174.62
266.591	164.62
266.823	186.62
267.055	171.62
267.287	192.62
267.52	178.62
267.752	174.62
267.984	172.62
268.216	188.62
268.448	198.62
268.681	192.62
268.913	188.62
269.145	204.62
269.377	197.62
269.609	210.62
269.841	219.62
270.073	208.62
270.306	214.62
270.538	257.62
270.77	232.62
271.002	243.62
271.234	213.62
271.466	229.62
271.698	246.62
271.93	236.62
272.162	241.62
272.394	224.62
272.626	220.62
272.858	213.62
273.09	231.62
273.322	220.62
273.553	197.62
273.785	215.62
274.017	206.62
274.249	213.62
274.481	202.62
274.713	215.62
274.945	215.62
275.176	212.62
275.408	213.62
275.64	214.62
275.872	210.62
276.104	201.62
276.335	222.62
276.567	206.62
276.799	222.62
277.031	237.62
277.262	252.62
277.494	242.62
277.726	234.62
277.957	215.62
278.189	208.62
278.421	200.62
278.652	196.62
278.884	202.62
279.115	205.62
279.347	204.62
279.579	216.62
279.81	206.62
280.042	208.62
280.273	197.62
280.505	202.62
280.736	216.62
280.968	219.62
281.199	211.62
281.431	199.62
281.662	207.62
281.894	218.62
282.125	206.62
282.356	224.62
282.588	232.62
282.819	241.62
283.051	222.62
283.282	187.62
283.513	209.62
283.745	211.62
283.976	211.62
284.207	191.62
284.439	208.62
284.67	225.62
284.901	230.62
285.132	199.62
285.364	215.62
285.595	204.62
285.826	211.62
286.057	220.62
286.288	220.62
286.52	208.62
286.751	205.62
286.982	220.62
287.213	234.62
287.444	196.62
287.675	228.62
287.906	238.62
288.138	237.62
288.369	216.62
288.6	238.62
288.831	218.62
289.062	246.62
289.293	210.62
289.524	229.62
289.755	214.62
289.986	215.62
290.217	221.62
290.448	200.62
290.679	212.62
290.91	227.62
291.141	240.62
291.371	221.62
291.602	222.62
291.833	224.62
292.064	192.62
292.295	220.62
292.526	220.62
292.757	222.62
292.987	222.62
293.218	213.62
293.449	209.62
293.68	224.62
293.91	217.62
294.141	216.62
294.372	216.62
294.603	223.62
294.833	216.62
295.064	232.62
295.295	237.62
295.525	231.62
295.756	239.62
295.987	227.62
296.217	243.62
296.448	230.62
296.679	248.62
296.909	220.62
297.14	228.62
297.37	219.62
297.601	213.62
297.831	225.62
298.062	228.62
298.292	234.62
298.523	224.62
298.753	240.62
298.984	219.62
299.214	234.62
299.445	238.62
299.675	234.62
299.905	245.62
300.136	223.62
300.366	231.62
300.597	232.62
300.827	246.62
301.057	239.62
301.288	246.62
301.518	249.62
301.748	256.62
301.979	244.62
302.209	245.62
302.439	250.62
302.669	262.62
302.9	240.62
303.13	246.62
303.36	248.62
303.59	254.62
303.82	260.62
304.051	272.62
304.281	245.62
304.511	227.62
304.741	252.62
304.971	250.62
305.201	243.62
305.431	252.62
305.661	245.62
305.891	250.62
306.121	248.62
306.352	278.62
306.582	258.62
306.812	238.62
307.042	258.62
307.272	274.62
307.502	270.62
307.731	244.62
307.961	231.62
308.191	260.62
308.421	264.62
308.651	257.62
308.881	275.62
309.111	282.62
309.341	252.62
309.571	274.62
309.8	275.62
310.03	300.62
310.26	284.62
310.49	283.62
310.72	303.62
310.949	310.62
311.179	296.62
311.409	309.62
311.639	287.62
311.868	292.62
312.098	266.62
312.328	300.62
312.557	300.62
312.787	328.62
313.017	324.62
313.246	311.62
313.476	304.62
313.706	300.62
313.935	305.62
314.165	318.62
314.394	318.62
314.624	312.62
314.853	287.62
315.083	298.62
315.312	270.62
315.542	284.62
315.771	294.62
316.001	299.62
316.23	279.62
316.46	300.62
316.689	300.62
316.919	282.62
317.148	306.62
317.377	322.62
317.607	298.62
317.836	301.62
318.065	294.62
318.295	287.62
318.524	293.62
318.753	292.62
318.983	286.62
319.212	291.62
319.441	325.62
319.67	323.62
319.9	328.62
320.129	314.62
320.358	320.62
320.587	301.62
320.816	305.62
321.046	306.62
321.275	319.62
321.504	338.62
321.733	309.62
321.962	315.62
322.191	351.62
322.42	348.62
322.649	357.62
322.878	380.62
323.108	381.62
323.337	382.62
323.566	412.62
323.795	448.62
324.024	501.62
324.253	611.62
324.482	916.62
324.71	1417.62
324.939	1980.62
325.168	1634.62
325.397	881.62
325.626	576.62
325.855	466.62
326.084	422.62
326.313	417.62
326.542	406.62
326.77	471.62
326.999	566.62
327.228	779.62
327.457	1206.62
327.686	1440.62
327.914	967.62
328.143	640.62
328.372	566.62
328.6	538.62
328.829	486.62
329.058	465.62
329.287	506.62
329.515	454.62
329.744	426.62
329.972	441.62
330.201	453.62
330.43	500.62
330.658	511.62
330.887	506.62
331.115	469.62
331.344	440.62
331.572	416.62
331.801	383.62
332.03	400.62
332.258	384.62
332.486	378.62
332.715	368.62
332.943	349.62
333.172	364.62
333.4	366.62
333.629	368.62
333.857	371.62
334.085	397.62
334.314	416.62
334.542	439.62
334.771	454.62
334.999	379.62
335.227	362.62
335.455	382.62
335.684	356.62
335.912	338.62
336.14	340.62
336.369	343.62
336.597	344.62
336.825	352.62
337.053	309.62
337.281	334.62
337.51	355.62
337.738	360.62
337.966	339.62
338.194	339.62
338.422	333.62
338.65	352.62
338.878	337.62
339.106	335.62
339.334	314.62
339.562	337.62
339.79	329.62
340.018	355.62
340.246	325.62
340.474	316.62
340.702	334.62
340.93	312.62
341.158	333.62
341.386	328.62
341.614	327.62
341.842	331.62
342.07	332.62
342.298	317.62
342.526	328.62
342.754	335.62
342.981	330.62
343.209	320.62
343.437	317.62
343.665	300.62
343.893	322.62
344.12	329.62
344.348	324.62
344.576	339.62
344.804	347.62
345.031	338.62
345.259	371.62
345.487	348.62
345.714	346.62
345.942	325.62
346.17	343.62
346.397	334.62
346.625	322.62
346.853	323.62
347.08	328.62
347.308	329.62
347.535	329.62
347.763	347.62
347.99	346.62
348.218	326.62
348.445	333.62
348.673	337.62
348.9	334.62
349.128	315.62
349.355	319.62
349.583	315.62
349.81	334.62
350.037	305.62
350.265	310.62
350.492	300.62
350.72	323.62
350.947	313.62
351.174	331.62
351.402	314.62
351.629	352.62
351.856	311.62
352.083	341.62
352.311	342.62
352.538	348.62
352.765	327.62
352.992	315.62
353.22	315.62
353.447	306.62
353.674	325.62
353.901	307.62
354.128	316.62
354.355	305.62
354.583	303.62
354.81	294.62
355.037	311.62
355.264	306.62
355.491	287.62
355.718	289.62
355.945	312.62
356.172	307.62
356.399	291.62
356.626	306.62
356.853	301.62
357.08	295.62
357.307	314.62
357.534	294.62
357.761	298.62
357.988	308.62
358.215	296.62
358.441	311.62
358.668	291.62
358.895	306.62
359.122	311.62
359.349	304.62
359.576	341.62
359.802	355.62
360.029	366.62
360.256	376.62
360.483	366.62
360.709	341.62
360.936	329.62
361.163	330.62
361.39	336.62
361.616	319.62
361.843	328.62
362.07	341.62
362.296	330.62
362.523	308.62
362.749	321.62
362.976	328.62
363.203	316.62
363.429	314.62
363.656	303.62
363.882	316.62
364.109	317.62
364.335	302.62
364.562	327.62
364.788	321.62
365.015	310.62
365.241	314.62
365.468	315.62
365.694	305.62
365.92	312.62
366.147	311.62
366.373	313.62
366.599	282.62
366.826	300.62
367.052	310.62
367.278	316.62
367.505	298.62
367.731	309.62
367.957	289.62
368.184	278.62
368.41	316.62
368.636	317.62
368.862	321.62
369.089	321.62
369.315	314.62
369.541	319.62
369.767	306.62
369.993	306.62
370.219	309.62
370.445	296.62
370.672	308.62
370.898	303.62
371.124	300.62
371.35	304.62
371.576	303.62
371.802	328.62
372.028	314.62
372.254	290.62
372.48	295.62
372.706	308.62
372.932	305.62
373.158	303.62
373.384	298.62
373.61	303.62
373.835	310.62
374.061	311.62
374.287	303.62
374.513	315.62
374.739	310.62
374.965	303.62
375.191	293.62
375.416	316.62
375.642	331.62
375.868	300.62
376.094	311.62
376.319	307.62
376.545	317.62
376.771	300.62
376.997	310.62
377.222	314.62
377.448	306.62
377.674	295.62
377.899	295.62
378.125	302.62
378.35	308.62
378.576	304.62
378.802	312.62
379.027	297.62
379.253	315.62
379.478	305.62
379.704	307.62
379.929	291.62
380.155	279.62
380.38	282.62
380.606	289.62
380.831	291.62
381.057	299.62
381.282	319.62
381.507	323.62
381.733	312.62
381.958	293.62
382.184	300.62
382.409	308.62
382.634	304.62
382.86	332.62
383.085	323.62
383.31	306.62
383.535	327.62
383.761	322.62
383.986	322.62
384.211	328.62
384.436	341.62
384.662	330.62
384.887	327.62
385.112	334.62
385.337	329.62
385.562	319.62
385.787	341.62
386.013	340.62
386.238	326.62
386.463	327.62
386.688	322.62
386.913	318.62
387.138	335.62
387.363	320.62
387.588	341.62
387.813	328.62
388.038	313.62
388.263	309.62
388.488	326.62
388.713	328.62
388.938	337.62
389.163	343.62
389.387	327.62
389.612	322.62
389.837	330.62
390.062	324.62
390.287	323.62
390.512	330.62
390.736	324.62
390.961	319.62
391.186	328.62
391.411	334.62
391.636	340.62
391.86	328.62
392.085	324.62
392.31	348.62
392.534	337.62
392.759	327.62
392.984	321.62
393.208	329.62
393.433	334.62
393.658	321.62
393.882	350.62
394.107	310.62
394.331	327.62
394.556	332.62
394.78	320.62
395.005	323.62
395.229	321.62
395.454	328.62
395.678	337.62
395.903	347.62
396.127	364.62
396.352	374.62
396.576	349.62
396.801	359.62
397.025	356.62
397.249	369.62
397.474	332.62
397.698	343.62
397.922	355.62
398.147	359.62
398.371	376.62
398.595	380.62
398.82	391.62
399.044	380.62
399.268	384.62
399.492	398.62
399.717	399.62
399.941	419.62
400.165	462.62
400.389	463.62
400.613	428.62
400.837	398.62
401.062	392.62
401.286	393.62
401.51	388.62
401.734	374.62
401.958	360.62
402.182	390.62
402.406	386.62
402.63	386.62
402.854	394.62
403.078	384.62
403.302	396.62
403.526	394.62
403.75	403.62
403.974	384.62
404.198	383.62
404.422	421.62
404.645	388.62
404.869	406.62
405.093	428.62
405.317	441.62
405.541	497.62
405.765	420.62
405.988	429.62
406.212	424.62
406.436	440.62
406.66	455.62
406.883	429.62
407.107	463.62
407.331	463.62
407.555	516.62
407.778	516.62
408.002	456.62
408.226	444.62
408.449	444.62
408.673	422.62
408.896	439.62
409.12	451.62
409.344	442.62
409.567	418.62
409.791	393.62
410.014	383.62
410.238	419.62
410.461	414.62
410.685	393.62
410.908	400.62
411.132	451.62
411.355	456.62
411.578	417.62
411.802	395.62
412.025	381.62
412.249	386.62
412.472	421.62
412.695	442.62
412.919	450.62
413.142	398.62
413.365	380.62
413.589	386.62
413.812	376.62
414.035	388.62
414.258	377.62
414.482	380.62
414.705	364.62
414.928	370.62
415.151	358.62
415.374	357.62
415.597	383.62
415.821	367.62
416.044	361.62
416.267	373.62
416.49	380.62
416.713	371.62
416.936	376.62
417.159	388.62
417.382	359.62
417.605	380.62
417.828	396.62
418.051	388.62
418.274	381.62
418.497	373.62
418.72	367.62
418.943	372.62
419.166	394.62
419.389	398.62
419.611	401.62
419.834	387.62
420.057	385.62
420.28	390.62
420.503	364.62
420.726	388.62
420.948	408.62
421.171	432.62
421.394	487.62
421.617	415.62
421.839	386.62
422.062	406.62
422.285	412.62
422.507	456.62
422.73	502.62
422.953	478.62
423.175	408.62
423.398	408.62
423.621	415.62
423.843	423.62
424.066	415.62
424.288	430.62
424.511	444.62
424.733	488.62
424.956	543.62
425.178	523.62
425.401	528.62
425.623	532.62
425.846	449.62
426.068	434.62
426.291	410.62
426.513	456.62
426.735	429.62
426.958	486.62
427.18	543.62
427.402	629.62
427.625	700.62
427.847	623.62
428.069	542.62
428.292	492.62
428.514	436.62
428.736	421.62
428.958	425.62
429.181	402.62
429.403	396.62
429.625	404.62
429.847	452.62
430.069	475.62
430.292	478.62
430.514	420.62
430.736	395.62
430.958	411.62
431.18	374.62
431.402	372.62
431.624	370.62
431.846	370.62
432.068	356.62
432.29	380.62
432.512	389.62
432.734	350.62
432.956	374.62
433.178	392.62
433.4	396.62
433.622	395.62
433.844	391.62
434.066	390.62
434.287	391.62
434.509	362.62
434.731	392.62
434.953	386.62
435.175	405.62
435.397	401.62
435.618	420.62
435.84	460.62
436.062	533.62
436.284	574.62
436.505	487.62
436.727	439.62
436.949	429.62
437.17	435.62
437.392	424.62
437.614	402.62
437.835	447.62
438.057	544.62
438.278	598.62
438.5	622.62
438.721	660.62
438.943	636.62
439.165	485.62
439.386	436.62
439.608	457.62
439.829	437.62
440.05	477.62
440.272	493.62
440.493	466.62
440.715	436.62
440.936	397.62
441.158	422.62
441.379	408.62
441.6	413.62
441.822	432.62
442.043	470.62
442.264	534.62
442.486	556.62
442.707	493.62
442.928	465.62
443.149	455.62
443.371	468.62
443.592	498.62
443.813	588.62
444.034	596.62
444.255	514.62
444.476	438.62
444.698	424.62
444.919	436.62
445.14	546.62
445.361	494.62
445.582	448.62
445.803	532.62
446.024	600.62
446.245	596.62
446.466	558.62
446.687	487.62
446.908	433.62
447.129	394.62
447.35	401.62
447.571	428.62
447.792	411.62
448.013	401.62
448.234	428.62
448.455	472.62
448.675	560.62
448.896	632.62
449.117	538.62
449.338	491.62
449.559	602.62
449.779	652.62
450	547.62
450.221	451.62
450.442	426.62
450.662	384.62
450.883	399.62
451.104	422.62
451.324	399.62
451.545	382.62
451.766	384.62
451.986	386.62
452.207	377.62
452.428	372.62
452.648	374.62
452.869	368.62
453.089	352.62
453.31	383.62
453.53	366.62
453.751	360.62
453.971	343.62
454.192	387.62
454.412	374.62
454.633	380.62
454.853	374.62
455.073	348.62
455.294	400.62
455.514	434.62
455.734	413.62
455.955	374.62
456.175	367.62
456.395	357.62
456.616	355.62
456.836	338.62
457.056	330.62
457.276	343.62
457.497	351.62
457.717	335.62
457.937	343.62
458.157	349.62
458.377	342.62
458.598	351.62
458.818	443.62
459.038	493.62
459.258	501.62
459.478	426.62
459.698	391.62
459.918	368.62
460.138	384.62
460.358	395.62
460.578	377.62
460.798	387.62
461.018	383.62
461.238	359.62
461.458	374.62
461.678	372.62
461.898	374.62
462.118	363.62
462.338	382.62
462.558	399.62
462.777	379.62
462.997	406.62
463.217	403.62
463.437	410.62
463.657	393.62
463.876	401.62
464.096	390.62
464.316	386.62
464.536	393.62
464.755	414.62
464.975	413.62
465.195	460.62
465.414	528.62
465.634	468.62
465.854	422.62
466.073	394.62
466.293	375.62
466.512	385.62
466.732	386.62
466.951	399.62
467.171	364.62
467.391	382.62
467.61	392.62
467.829	385.62
468.049	386.62
468.268	412.62
468.488	386.62
468.707	364.62
468.927	365.62
469.146	369.62
469.365	369.62
469.585	353.62
469.804	369.62
470.023	389.62
470.243	383.62
470.462	380.62
470.681	389.62
470.901	398.62
471.12	371.62
471.339	394.62
471.558	376.62
471.777	383.62
471.997	365.62
472.216	386.62
472.435	407.62
472.654	406.62
472.873	388.62
473.092	391.62
473.311	385.62
473.53	389.62
473.749	401.62
473.968	434.62
474.187	499.62
474.406	520.62
474.625	418.62
474.844	418.62
475.063	390.62
475.282	378.62
475.501	370.62
475.72	380.62
475.939	378.62
476.158	390.62
476.377	384.62
476.596	393.62
476.814	395.62
477.033	391.62
477.252	404.62
477.471	387.62
477.69	421.62
477.908	431.62
478.127	395.62
478.346	391.62
478.564	417.62
478.783	413.62
479.002	416.62
479.22	436.62
479.439	444.62
479.658	454.62
479.876	476.62
480.095	439.62
480.313	462.62
480.532	471.62
480.751	470.62
480.969	494.62
481.188	542.62
481.406	576.62
481.624	514.62
481.843	460.62
482.061	448.62
482.28	473.62
482.498	446.62
482.717	455.62
482.935	453.62
483.153	441.62
483.372	434.62
483.59	445.62
483.808	453.62
484.027	448.62
484.245	474.62
484.463	435.62
484.681	463.62
484.9	453.62
485.118	447.62
485.336	475.62
485.554	446.62
485.772	470.62
485.99	446.62
486.209	477.62
486.427	462.62
486.645	456.62
486.863	483.62
487.081	492.62
487.299	462.62
487.517	495.62
487.735	469.62
487.953	464.62
488.171	475.62
488.389	450.62
488.607	464.62
488.825	473.62
489.043	491.62
489.261	478.62
489.479	492.62
489.696	486.62
489.914	501.62
490.132	484.62
490.35	504.62
490.568	501.62
490.786	494.62
491.003	522.62
491.221	506.62
491.439	534.62
491.657	534.62
491.874	551.62
492.092	531.62
492.31	538.62
492.527	544.62
492.745	543.62
492.963	564.62
493.18	559.62
493.398	554.62
493.615	573.62
493.833	546.62
494.05	547.62
494.268	560.62
494.485	544.62
494.703	560.62
494.92	554.62
495.138	579.62
495.355	526.62
495.573	579.62
495.79	574.62
496.008	574.62
496.225	568.62
496.442	559.62
496.66	574.62
496.877	562.62
497.094	550.62
497.312	569.62
497.529	568.62
497.746	592.62
497.963	579.62
498.181	607.62
498.398	602.62
498.615	612.62
498.832	606.62
499.049	629.62
499.267	633.62
499.484	622.62
499.701	661.62
499.918	690.62
500.135	686.62
500.352	683.62
500.569	713.62
500.786	713.62
501.003	712.62
501.22	694.62
501.437	682.62
501.654	672.62
501.871	688.62
502.088	658.62
