Data from 1961.PennyLincolnUp.Lamp.En5.5.200Scan.071719.P1._HRD10591_13-48-05-057.txt Node
Date: Thu Jul 18 13:48:05 EDT 2019
User: cochatt
Spectrometer: HR+D1059
Trigger mode: 1
Integration Time (sec): 1.000000E-1
Scans to average: 1
Electric dark correction enabled: true
Nonlinearity correction enabled: false
Boxcar width: 0
XAxis mode: Wavelengths
Number of Pixels in Spectrum: 2048
>>>>>Begin Spectral Data<<<<<
223.165	-19.81
223.4	-19.81
223.635	-19.81
223.869	-16.81
224.104	-14.81
224.338	-13.81
224.573	-21.81
224.808	-15.81
225.042	-2.81
225.277	-2.81
225.511	1.19
225.746	1.19
225.98	8.19
226.215	8.19
226.449	2.19
226.683	12.19
226.918	31.19
227.152	44.19
227.387	40.19
227.621	36.19
227.856	38.19
228.09	38.19
228.324	38.19
228.559	41.19
228.793	70.19
229.027	95.19
229.262	104.19
229.496	115.19
229.73	117.19
229.964	141.19
230.199	127.19
230.433	93.19
230.667	121.19
230.901	106.19
231.136	110.19
231.37	115.19
231.604	100.19
231.838	107.19
232.072	97.19
232.306	101.19
232.541	119.19
232.775	103.19
233.009	120.19
233.243	120.19
233.477	107.19
233.711	116.19
233.945	127.19
234.179	112.19
234.413	109.19
234.647	98.19
234.881	104.19
235.115	119.19
235.349	106.19
235.583	116.19
235.817	117.19
236.051	104.19
236.285	116.19
236.519	103.19
236.753	134.19
236.987	151.19
237.221	170.19
237.455	207.19
237.689	179.19
237.922	128.19
238.156	112.19
238.39	114.19
238.624	100.19
238.858	104.19
239.091	119.19
239.325	116.19
239.559	123.19
239.793	116.19
240.027	114.19
240.26	123.19
240.494	133.19
240.728	130.19
240.961	148.19
241.195	125.19
241.429	126.19
241.662	127.19
241.896	103.19
242.13	123.19
242.363	109.19
242.597	124.19
242.83	132.19
243.064	119.19
243.298	127.19
243.531	135.19
243.765	128.19
243.998	117.19
244.232	112.19
244.465	135.19
244.699	112.19
244.932	124.19
245.166	118.19
245.399	135.19
245.633	117.19
245.866	123.19
246.099	132.19
246.333	128.19
246.566	114.19
246.8	139.19
247.033	140.19
247.266	148.19
247.5	137.19
247.733	145.19
247.966	140.19
248.2	155.19
248.433	157.19
248.666	139.19
248.899	157.19
249.133	174.19
249.366	184.19
249.599	182.19
249.832	169.19
250.066	171.19
250.299	154.19
250.532	167.19
250.765	176.19
250.998	213.19
251.231	204.19
251.465	191.19
251.698	191.19
251.931	168.19
252.164	166.19
252.397	185.19
252.63	163.19
252.863	181.19
253.096	183.19
253.329	179.19
253.562	196.19
253.795	194.19
254.028	183.19
254.261	196.19
254.494	185.19
254.727	229.19
254.96	244.19
255.193	210.19
255.426	210.19
255.659	199.19
255.892	191.19
256.124	219.19
256.357	207.19
256.59	194.19
256.823	196.19
257.056	189.19
257.289	182.19
257.521	185.19
257.754	176.19
257.987	185.19
258.22	176.19
258.452	184.19
258.685	187.19
258.918	175.19
259.151	191.19
259.383	182.19
259.616	189.19
259.849	198.19
260.081	201.19
260.314	226.19
260.547	225.19
260.779	216.19
261.012	210.19
261.244	183.19
261.477	186.19
261.71	195.19
261.942	205.19
262.175	204.19
262.407	197.19
262.64	176.19
262.872	187.19
263.105	195.19
263.337	183.19
263.57	180.19
263.802	184.19
264.035	180.19
264.267	184.19
264.499	186.19
264.732	186.19
264.964	190.19
265.197	183.19
265.429	189.19
265.661	183.19
265.894	172.19
266.126	188.19
266.358	185.19
266.591	176.19
266.823	189.19
267.055	193.19
267.287	209.19
267.52	200.19
267.752	200.19
267.984	193.19
268.216	172.19
268.448	206.19
268.681	179.19
268.913	199.19
269.145	205.19
269.377	241.19
269.609	236.19
269.841	219.19
270.073	222.19
270.306	249.19
270.538	269.19
270.77	265.19
271.002	263.19
271.234	252.19
271.466	249.19
271.698	280.19
271.93	277.19
272.162	272.19
272.394	262.19
272.626	257.19
272.858	249.19
273.09	250.19
273.322	244.19
273.553	216.19
273.785	221.19
274.017	231.19
274.249	227.19
274.481	233.19
274.713	213.19
274.945	224.19
275.176	222.19
275.408	219.19
275.64	242.19
275.872	224.19
276.104	224.19
276.335	231.19
276.567	230.19
276.799	221.19
277.031	271.19
277.262	276.19
277.494	255.19
277.726	239.19
277.957	219.19
278.189	245.19
278.421	240.19
278.652	223.19
278.884	216.19
279.115	216.19
279.347	204.19
279.579	210.19
279.81	219.19
280.042	223.19
280.273	235.19
280.505	230.19
280.736	236.19
280.968	237.19
281.199	217.19
281.431	207.19
281.662	224.19
281.894	215.19
282.125	230.19
282.356	225.19
282.588	263.19
282.819	239.19
283.051	228.19
283.282	219.19
283.513	219.19
283.745	203.19
283.976	213.19
284.207	220.19
284.439	231.19
284.67	240.19
284.901	219.19
285.132	220.19
285.364	221.19
285.595	232.19
285.826	230.19
286.057	234.19
286.288	225.19
286.52	220.19
286.751	229.19
286.982	232.19
287.213	218.19
287.444	225.19
287.675	217.19
287.906	239.19
288.138	250.19
288.369	239.19
288.6	244.19
288.831	220.19
289.062	245.19
289.293	233.19
289.524	237.19
289.755	228.19
289.986	221.19
290.217	216.19
290.448	226.19
290.679	234.19
290.91	245.19
291.141	238.19
291.371	230.19
291.602	252.19
291.833	234.19
292.064	236.19
292.295	214.19
292.526	229.19
292.757	233.19
292.987	244.19
293.218	246.19
293.449	224.19
293.68	213.19
293.91	230.19
294.141	227.19
294.372	230.19
294.603	245.19
294.833	239.19
295.064	234.19
295.295	226.19
295.525	231.19
295.756	254.19
295.987	252.19
296.217	285.19
296.448	276.19
296.679	251.19
296.909	248.19
297.14	233.19
297.37	250.19
297.601	244.19
297.831	240.19
298.062	240.19
298.292	253.19
298.523	249.19
298.753	252.19
298.984	249.19
299.214	245.19
299.445	261.19
299.675	259.19
299.905	241.19
300.136	249.19
300.366	257.19
300.597	265.19
300.827	271.19
301.057	275.19
301.288	277.19
301.518	251.19
301.748	274.19
301.979	276.19
302.209	267.19
302.439	277.19
302.669	269.19
302.9	270.19
303.13	268.19
303.36	241.19
303.59	280.19
303.82	287.19
304.051	274.19
304.281	275.19
304.511	264.19
304.741	265.19
304.971	273.19
305.201	257.19
305.431	255.19
305.661	270.19
305.891	269.19
306.121	271.19
306.352	276.19
306.582	283.19
306.812	283.19
307.042	275.19
307.272	275.19
307.502	277.19
307.731	265.19
307.961	280.19
308.191	279.19
308.421	267.19
308.651	282.19
308.881	270.19
309.111	293.19
309.341	292.19
309.571	283.19
309.8	305.19
310.03	317.19
310.26	317.19
310.49	327.19
310.72	321.19
310.949	342.19
311.179	343.19
311.409	334.19
311.639	310.19
311.868	306.19
312.098	330.19
312.328	324.19
312.557	348.19
312.787	344.19
313.017	348.19
313.246	330.19
313.476	313.19
313.706	314.19
313.935	339.19
314.165	360.19
314.394	324.19
314.624	329.19
314.853	339.19
315.083	310.19
315.312	307.19
315.542	311.19
315.771	301.19
316.001	311.19
316.23	315.19
316.46	299.19
316.689	299.19
316.919	310.19
317.148	333.19
317.377	321.19
317.607	341.19
317.836	333.19
318.065	333.19
318.295	321.19
318.524	304.19
318.753	314.19
318.983	330.19
319.212	315.19
319.441	308.19
319.67	313.19
319.9	317.19
320.129	324.19
320.358	330.19
320.587	327.19
320.816	337.19
321.046	334.19
321.275	340.19
321.504	348.19
321.733	360.19
321.962	343.19
322.191	363.19
322.42	359.19
322.649	377.19
322.878	387.19
323.108	401.19
323.337	439.19
323.566	448.19
323.795	497.19
324.024	547.19
324.253	701.19
324.482	1027.19
324.71	1595.19
324.939	2223.19
325.168	1806.19
325.397	957.19
325.626	663.19
325.855	519.19
326.084	464.19
326.313	441.19
326.542	484.19
326.77	523.19
326.999	635.19
327.228	909.19
327.457	1412.19
327.686	1644.19
327.914	1073.19
328.143	718.19
328.372	615.19
328.6	561.19
328.829	517.19
329.058	549.19
329.287	548.19
329.515	491.19
329.744	473.19
329.972	466.19
330.201	484.19
330.43	525.19
330.658	557.19
330.887	587.19
331.115	533.19
331.344	477.19
331.572	432.19
331.801	410.19
332.03	403.19
332.258	410.19
332.486	379.19
332.715	384.19
332.943	371.19
333.172	365.19
333.4	395.19
333.629	373.19
333.857	409.19
334.085	408.19
334.314	418.19
334.542	472.19
334.771	495.19
334.999	437.19
335.227	393.19
335.455	397.19
335.684	387.19
335.912	373.19
336.14	360.19
336.369	358.19
336.597	369.19
336.825	375.19
337.053	377.19
337.281	367.19
337.51	354.19
337.738	371.19
337.966	375.19
338.194	361.19
338.422	371.19
338.65	361.19
338.878	361.19
339.106	353.19
339.334	362.19
339.562	348.19
339.79	348.19
340.018	365.19
340.246	364.19
340.474	342.19
340.702	342.19
340.93	338.19
341.158	344.19
341.386	337.19
341.614	364.19
341.842	364.19
342.07	350.19
342.298	340.19
342.526	351.19
342.754	350.19
342.981	329.19
343.209	348.19
343.437	324.19
343.665	341.19
343.893	338.19
344.12	341.19
344.348	359.19
344.576	339.19
344.804	355.19
345.031	377.19
345.259	364.19
345.487	367.19
345.714	358.19
345.942	359.19
346.17	360.19
346.397	357.19
346.625	335.19
346.853	347.19
347.08	344.19
347.308	364.19
347.535	373.19
347.763	354.19
347.99	366.19
348.218	347.19
348.445	361.19
348.673	343.19
348.9	351.19
349.128	359.19
349.355	336.19
349.583	334.19
349.81	355.19
350.037	338.19
350.265	327.19
350.492	350.19
350.72	338.19
350.947	347.19
351.174	364.19
351.402	371.19
351.629	362.19
351.856	344.19
352.083	370.19
352.311	368.19
352.538	350.19
352.765	379.19
352.992	375.19
353.22	361.19
353.447	344.19
353.674	331.19
353.901	321.19
354.128	338.19
354.355	337.19
354.583	317.19
354.81	331.19
355.037	328.19
355.264	317.19
355.491	314.19
355.718	307.19
355.945	333.19
356.172	315.19
356.399	299.19
356.626	315.19
356.853	306.19
357.08	295.19
357.307	311.19
357.534	329.19
357.761	310.19
357.988	303.19
358.215	323.19
358.441	328.19
358.668	321.19
358.895	325.19
359.122	321.19
359.349	332.19
359.576	351.19
359.802	363.19
360.029	398.19
360.256	416.19
360.483	400.19
360.709	356.19
360.936	350.19
361.163	357.19
361.39	346.19
361.616	363.19
361.843	378.19
362.07	349.19
362.296	357.19
362.523	349.19
362.749	331.19
362.976	335.19
363.203	321.19
363.429	328.19
363.656	341.19
363.882	347.19
364.109	336.19
364.335	306.19
364.562	326.19
364.788	332.19
365.015	327.19
365.241	324.19
365.468	340.19
365.694	329.19
365.92	339.19
366.147	311.19
366.373	332.19
366.599	332.19
366.826	329.19
367.052	349.19
367.278	307.19
367.505	315.19
367.731	339.19
367.957	339.19
368.184	317.19
368.41	337.19
368.636	363.19
368.862	338.19
369.089	343.19
369.315	318.19
369.541	321.19
369.767	313.19
369.993	344.19
370.219	323.19
370.445	315.19
370.672	323.19
370.898	326.19
371.124	324.19
371.35	314.19
371.576	320.19
371.802	305.19
372.028	327.19
372.254	330.19
372.48	301.19
372.706	324.19
372.932	337.19
373.158	304.19
373.384	326.19
373.61	329.19
373.835	340.19
374.061	305.19
374.287	322.19
374.513	345.19
374.739	343.19
374.965	326.19
375.191	335.19
375.416	337.19
375.642	307.19
375.868	320.19
376.094	335.19
376.319	327.19
376.545	322.19
376.771	328.19
376.997	311.19
377.222	316.19
377.448	314.19
377.674	324.19
377.899	335.19
378.125	321.19
378.35	323.19
378.576	337.19
378.802	314.19
379.027	316.19
379.253	334.19
379.478	325.19
379.704	315.19
379.929	322.19
380.155	324.19
380.38	331.19
380.606	324.19
380.831	320.19
381.057	322.19
381.282	328.19
381.507	317.19
381.733	326.19
381.958	327.19
382.184	306.19
382.409	351.19
382.634	315.19
382.86	323.19
383.085	345.19
383.31	315.19
383.535	352.19
383.761	326.19
383.986	342.19
384.211	338.19
384.436	320.19
384.662	338.19
384.887	341.19
385.112	331.19
385.337	343.19
385.562	329.19
385.787	330.19
386.013	337.19
386.238	325.19
386.463	322.19
386.688	351.19
386.913	330.19
387.138	351.19
387.363	343.19
387.588	336.19
387.813	348.19
388.038	333.19
388.263	339.19
388.488	342.19
388.713	341.19
388.938	335.19
389.163	336.19
389.387	349.19
389.612	346.19
389.837	333.19
390.062	337.19
390.287	356.19
390.512	349.19
390.736	333.19
390.961	333.19
391.186	328.19
391.411	348.19
391.636	340.19
391.86	352.19
392.085	334.19
392.31	344.19
392.534	348.19
392.759	364.19
392.984	351.19
393.208	359.19
393.433	353.19
393.658	370.19
393.882	345.19
394.107	335.19
394.331	329.19
394.556	348.19
394.78	351.19
395.005	347.19
395.229	329.19
395.454	353.19
395.678	356.19
395.903	387.19
396.127	383.19
396.352	405.19
396.576	367.19
396.801	373.19
397.025	378.19
397.249	366.19
397.474	354.19
397.698	377.19
397.922	381.19
398.147	384.19
398.371	406.19
398.595	373.19
398.82	371.19
399.044	395.19
399.268	406.19
399.492	399.19
399.717	383.19
399.941	462.19
400.165	461.19
400.389	500.19
400.613	445.19
400.837	423.19
401.062	403.19
401.286	406.19
401.51	417.19
401.734	390.19
401.958	370.19
402.182	390.19
402.406	420.19
402.63	415.19
402.854	433.19
403.078	399.19
403.302	402.19
403.526	413.19
403.75	403.19
403.974	406.19
404.198	385.19
404.422	414.19
404.645	424.19
404.869	402.19
405.093	451.19
405.317	487.19
405.541	512.19
405.765	469.19
405.988	446.19
406.212	445.19
406.436	472.19
406.66	473.19
406.883	440.19
407.107	461.19
407.331	514.19
407.555	539.19
407.778	552.19
408.002	488.19
408.226	451.19
408.449	459.19
408.673	468.19
408.896	472.19
409.12	514.19
409.344	479.19
409.567	447.19
409.791	412.19
410.014	428.19
410.238	417.19
410.461	401.19
410.685	420.19
410.908	423.19
411.132	449.19
411.355	478.19
411.578	458.19
411.802	423.19
412.025	398.19
412.249	439.19
412.472	437.19
412.695	465.19
412.919	474.19
413.142	447.19
413.365	393.19
413.589	388.19
413.812	399.19
414.035	398.19
414.258	388.19
414.482	414.19
414.705	408.19
414.928	395.19
415.151	396.19
415.374	356.19
415.597	388.19
415.821	399.19
416.044	389.19
416.267	388.19
416.49	370.19
416.713	409.19
416.936	407.19
417.159	379.19
417.382	382.19
417.605	393.19
417.828	403.19
418.051	419.19
418.274	393.19
418.497	387.19
418.72	392.19
418.943	389.19
419.166	401.19
419.389	431.19
419.611	401.19
419.834	414.19
420.057	413.19
420.28	417.19
420.503	427.19
420.726	394.19
420.948	425.19
421.171	469.19
421.394	481.19
421.617	428.19
421.839	416.19
422.062	424.19
422.285	433.19
422.507	471.19
422.73	548.19
422.953	523.19
423.175	460.19
423.398	440.19
423.621	435.19
423.843	444.19
424.066	443.19
424.288	435.19
424.511	471.19
424.733	513.19
424.956	579.19
425.178	553.19
425.401	565.19
425.623	566.19
425.846	488.19
426.068	439.19
426.291	435.19
426.513	473.19
426.735	448.19
426.958	500.19
427.18	577.19
427.402	687.19
427.625	769.19
427.847	676.19
428.069	570.19
428.292	518.19
428.514	465.19
428.736	457.19
428.958	428.19
429.181	401.19
429.403	420.19
429.625	443.19
429.847	472.19
430.069	511.19
430.292	504.19
430.514	434.19
430.736	423.19
430.958	417.19
431.18	389.19
431.402	389.19
431.624	365.19
431.846	387.19
432.068	396.19
432.29	399.19
432.512	407.19
432.734	420.19
432.956	402.19
433.178	407.19
433.4	434.19
433.622	422.19
433.844	415.19
434.066	403.19
434.287	380.19
434.509	399.19
434.731	399.19
434.953	425.19
435.175	429.19
435.397	448.19
435.618	459.19
435.84	496.19
436.062	565.19
436.284	633.19
436.505	525.19
436.727	473.19
436.949	459.19
437.17	449.19
437.392	434.19
437.614	458.19
437.835	488.19
438.057	574.19
438.278	643.19
438.5	639.19
438.721	693.19
438.943	655.19
439.165	528.19
439.386	519.19
439.608	461.19
439.829	470.19
440.05	523.19
440.272	552.19
440.493	522.19
440.715	466.19
440.936	441.19
441.158	457.19
441.379	433.19
441.6	443.19
441.822	461.19
442.043	508.19
442.264	571.19
442.486	595.19
442.707	505.19
442.928	465.19
443.149	463.19
443.371	487.19
443.592	534.19
443.813	600.19
444.034	652.19
444.255	523.19
444.476	471.19
444.698	441.19
444.919	449.19
445.14	548.19
445.361	505.19
445.582	493.19
445.803	572.19
446.024	647.19
446.245	675.19
446.466	599.19
446.687	517.19
446.908	460.19
447.129	450.19
447.35	435.19
447.571	443.19
447.792	426.19
448.013	443.19
448.234	443.19
448.455	489.19
448.675	575.19
448.896	686.19
449.117	575.19
449.338	530.19
449.559	627.19
449.779	723.19
450	575.19
450.221	498.19
450.442	440.19
450.662	412.19
450.883	428.19
451.104	466.19
451.324	435.19
451.545	419.19
451.766	412.19
451.986	400.19
452.207	380.19
452.428	373.19
452.648	377.19
452.869	396.19
453.089	399.19
453.31	427.19
453.53	393.19
453.751	421.19
453.971	395.19
454.192	410.19
454.412	390.19
454.633	397.19
454.853	385.19
455.073	384.19
455.294	419.19
455.514	463.19
455.734	483.19
455.955	382.19
456.175	372.19
456.395	358.19
456.616	363.19
456.836	361.19
457.056	359.19
457.276	364.19
457.497	370.19
457.717	338.19
457.937	369.19
458.157	353.19
458.377	389.19
458.598	399.19
458.818	451.19
459.038	555.19
459.258	548.19
459.478	464.19
459.698	433.19
459.918	408.19
460.138	409.19
460.358	393.19
460.578	393.19
460.798	419.19
461.018	410.19
461.238	389.19
461.458	383.19
461.678	405.19
461.898	380.19
462.118	401.19
462.338	392.19
462.558	392.19
462.777	413.19
462.997	414.19
463.217	412.19
463.437	418.19
463.657	439.19
463.876	405.19
464.096	427.19
464.316	441.19
464.536	424.19
464.755	425.19
464.975	438.19
465.195	495.19
465.414	571.19
465.634	497.19
465.854	446.19
466.073	441.19
466.293	413.19
466.512	410.19
466.732	393.19
466.951	396.19
467.171	390.19
467.391	396.19
467.61	414.19
467.829	418.19
468.049	394.19
468.268	442.19
468.488	398.19
468.707	410.19
468.927	372.19
469.146	381.19
469.365	384.19
469.585	386.19
469.804	400.19
470.023	418.19
470.243	413.19
470.462	422.19
470.681	414.19
470.901	425.19
471.12	390.19
471.339	406.19
471.558	397.19
471.777	405.19
471.997	408.19
472.216	407.19
472.435	458.19
472.654	433.19
472.873	393.19
473.092	406.19
473.311	411.19
473.53	402.19
473.749	397.19
473.968	440.19
474.187	552.19
474.406	546.19
474.625	451.19
474.844	436.19
475.063	399.19
475.282	395.19
475.501	393.19
475.72	409.19
475.939	392.19
476.158	412.19
476.377	407.19
476.596	431.19
476.814	419.19
477.033	428.19
477.252	429.19
477.471	439.19
477.69	429.19
477.908	425.19
478.127	429.19
478.346	434.19
478.564	431.19
478.783	436.19
479.002	440.19
479.22	445.19
479.439	446.19
479.658	473.19
479.876	492.19
480.095	484.19
480.313	500.19
480.532	491.19
480.751	472.19
480.969	504.19
481.188	557.19
481.406	613.19
481.624	541.19
481.843	496.19
482.061	481.19
482.28	498.19
482.498	482.19
482.717	465.19
482.935	459.19
483.153	471.19
483.372	473.19
483.59	467.19
483.808	468.19
484.027	448.19
484.245	494.19
484.463	475.19
484.681	456.19
484.9	462.19
485.118	482.19
485.336	479.19
485.554	475.19
485.772	474.19
485.99	488.19
486.209	500.19
486.427	491.19
486.645	497.19
486.863	523.19
487.081	517.19
487.299	507.19
487.517	500.19
487.735	505.19
487.953	509.19
488.171	514.19
488.389	497.19
488.607	488.19
488.825	499.19
489.043	502.19
489.261	525.19
489.479	526.19
489.696	515.19
489.914	515.19
490.132	528.19
490.35	525.19
490.568	538.19
490.786	538.19
491.003	528.19
491.221	543.19
491.439	528.19
491.657	565.19
491.874	576.19
492.092	588.19
492.31	582.19
492.527	564.19
492.745	569.19
492.963	595.19
493.18	586.19
493.398	577.19
493.615	587.19
493.833	594.19
494.05	580.19
494.268	587.19
494.485	595.19
494.703	582.19
494.92	567.19
495.138	588.19
495.355	565.19
495.573	601.19
495.79	588.19
496.008	584.19
496.225	580.19
496.442	613.19
496.66	584.19
496.877	575.19
497.094	595.19
497.312	604.19
497.529	627.19
497.746	617.19
497.963	633.19
498.181	633.19
498.398	637.19
498.615	661.19
498.832	664.19
499.049	662.19
499.267	675.19
499.484	685.19
499.701	666.19
499.918	720.19
500.135	722.19
500.352	728.19
500.569	728.19
500.786	746.19
501.003	715.19
501.22	722.19
501.437	735.19
501.654	726.19
501.871	718.19
502.088	707.19
