Data from 1961.PennyLincolnUp.Lamp.En5.5.200Scan.071719.P1._HRD10591_13-48-01-057.txt Node
Date: Thu Jul 18 13:48:01 EDT 2019
User: cochatt
Spectrometer: HR+D1059
Trigger mode: 1
Integration Time (sec): 1.000000E-1
Scans to average: 1
Electric dark correction enabled: true
Nonlinearity correction enabled: false
Boxcar width: 0
XAxis mode: Wavelengths
Number of Pixels in Spectrum: 2048
>>>>>Begin Spectral Data<<<<<
223.165	-1.38
223.4	-1.38
223.635	-1.38
223.869	-16.38
224.104	-16.38
224.338	-3.38
224.573	-14.38
224.808	-25.38
225.042	-0.38
225.277	-11.38
225.511	0.62
225.746	-11.38
225.98	12.62
226.215	10.62
226.449	17.62
226.683	7.62
226.918	22.62
227.152	28.62
227.387	32.62
227.621	20.62
227.856	32.62
228.09	33.62
228.324	35.62
228.559	53.62
228.793	70.62
229.027	90.62
229.262	80.62
229.496	104.62
229.73	126.62
229.964	143.62
230.199	120.62
230.433	104.62
230.667	100.62
230.901	109.62
231.136	113.62
231.37	98.62
231.604	110.62
231.838	91.62
232.072	98.62
232.306	104.62
232.541	116.62
232.775	117.62
233.009	112.62
233.243	100.62
233.477	114.62
233.711	117.62
233.945	96.62
234.179	104.62
234.413	117.62
234.647	103.62
234.881	104.62
235.115	92.62
235.349	99.62
235.583	111.62
235.817	100.62
236.051	105.62
236.285	116.62
236.519	97.62
236.753	141.62
236.987	139.62
237.221	168.62
237.455	196.62
237.689	158.62
237.922	129.62
238.156	123.62
238.39	119.62
238.624	119.62
238.858	108.62
239.091	114.62
239.325	83.62
239.559	109.62
239.793	129.62
240.027	100.62
240.26	135.62
240.494	123.62
240.728	135.62
240.961	110.62
241.195	114.62
241.429	123.62
241.662	119.62
241.896	116.62
242.13	112.62
242.363	120.62
242.597	107.62
242.83	110.62
243.064	129.62
243.298	117.62
243.531	116.62
243.765	131.62
243.998	121.62
244.232	115.62
244.465	119.62
244.699	111.62
244.932	131.62
245.166	128.62
245.399	118.62
245.633	123.62
245.866	136.62
246.099	118.62
246.333	116.62
246.566	135.62
246.8	123.62
247.033	143.62
247.266	123.62
247.5	146.62
247.733	153.62
247.966	142.62
248.2	129.62
248.433	147.62
248.666	145.62
248.899	155.62
249.133	162.62
249.366	171.62
249.599	176.62
249.832	145.62
250.066	149.62
250.299	147.62
250.532	152.62
250.765	187.62
250.998	184.62
251.231	184.62
251.465	189.62
251.698	180.62
251.931	186.62
252.164	166.62
252.397	168.62
252.63	167.62
252.863	175.62
253.096	173.62
253.329	181.62
253.562	187.62
253.795	175.62
254.028	193.62
254.261	193.62
254.494	192.62
254.727	216.62
254.96	224.62
255.193	223.62
255.426	210.62
255.659	207.62
255.892	176.62
256.124	193.62
256.357	210.62
256.59	205.62
256.823	178.62
257.056	179.62
257.289	184.62
257.521	178.62
257.754	177.62
257.987	163.62
258.22	181.62
258.452	179.62
258.685	184.62
258.918	168.62
259.151	179.62
259.383	182.62
259.616	167.62
259.849	195.62
260.081	183.62
260.314	214.62
260.547	201.62
260.779	200.62
261.012	178.62
261.244	177.62
261.477	185.62
261.71	201.62
261.942	185.62
262.175	206.62
262.407	190.62
262.64	177.62
262.872	172.62
263.105	196.62
263.337	182.62
263.57	178.62
263.802	165.62
264.035	179.62
264.267	167.62
264.499	173.62
264.732	169.62
264.964	175.62
265.197	179.62
265.429	177.62
265.661	168.62
265.894	185.62
266.126	163.62
266.358	171.62
266.591	182.62
266.823	192.62
267.055	187.62
267.287	181.62
267.52	180.62
267.752	190.62
267.984	193.62
268.216	185.62
268.448	181.62
268.681	194.62
268.913	193.62
269.145	214.62
269.377	220.62
269.609	213.62
269.841	221.62
270.073	236.62
270.306	220.62
270.538	240.62
270.77	252.62
271.002	246.62
271.234	231.62
271.466	233.62
271.698	240.62
271.93	260.62
272.162	253.62
272.394	267.62
272.626	243.62
272.858	232.62
273.09	221.62
273.322	228.62
273.553	209.62
273.785	210.62
274.017	201.62
274.249	204.62
274.481	212.62
274.713	208.62
274.945	196.62
275.176	218.62
275.408	217.62
275.64	215.62
275.872	219.62
276.104	202.62
276.335	215.62
276.567	222.62
276.799	250.62
277.031	251.62
277.262	250.62
277.494	264.62
277.726	259.62
277.957	236.62
278.189	219.62
278.421	228.62
278.652	204.62
278.884	224.62
279.115	224.62
279.347	220.62
279.579	221.62
279.81	219.62
280.042	200.62
280.273	221.62
280.505	212.62
280.736	213.62
280.968	225.62
281.199	203.62
281.431	226.62
281.662	218.62
281.894	212.62
282.125	216.62
282.356	228.62
282.588	255.62
282.819	244.62
283.051	218.62
283.282	213.62
283.513	219.62
283.745	217.62
283.976	228.62
284.207	228.62
284.439	221.62
284.67	211.62
284.901	203.62
285.132	227.62
285.364	209.62
285.595	214.62
285.826	223.62
286.057	206.62
286.288	226.62
286.52	223.62
286.751	212.62
286.982	209.62
287.213	215.62
287.444	229.62
287.675	247.62
287.906	225.62
288.138	239.62
288.369	251.62
288.6	255.62
288.831	247.62
289.062	237.62
289.293	230.62
289.524	227.62
289.755	227.62
289.986	232.62
290.217	227.62
290.448	231.62
290.679	219.62
290.91	211.62
291.141	233.62
291.371	224.62
291.602	233.62
291.833	245.62
292.064	216.62
292.295	219.62
292.526	233.62
292.757	242.62
292.987	240.62
293.218	235.62
293.449	237.62
293.68	216.62
293.91	218.62
294.141	235.62
294.372	219.62
294.603	239.62
294.833	224.62
295.064	237.62
295.295	225.62
295.525	231.62
295.756	229.62
295.987	243.62
296.217	269.62
296.448	253.62
296.679	227.62
296.909	242.62
297.14	271.62
297.37	246.62
297.601	228.62
297.831	239.62
298.062	233.62
298.292	253.62
298.523	235.62
298.753	229.62
298.984	252.62
299.214	226.62
299.445	229.62
299.675	261.62
299.905	250.62
300.136	258.62
300.366	243.62
300.597	245.62
300.827	253.62
301.057	265.62
301.288	268.62
301.518	272.62
301.748	255.62
301.979	248.62
302.209	252.62
302.439	236.62
302.669	252.62
302.9	271.62
303.13	255.62
303.36	274.62
303.59	263.62
303.82	277.62
304.051	260.62
304.281	270.62
304.511	267.62
304.741	263.62
304.971	258.62
305.201	237.62
305.431	259.62
305.661	262.62
305.891	269.62
306.121	255.62
306.352	264.62
306.582	272.62
306.812	265.62
307.042	259.62
307.272	246.62
307.502	279.62
307.731	276.62
307.961	273.62
308.191	273.62
308.421	254.62
308.651	275.62
308.881	265.62
309.111	295.62
309.341	309.62
309.571	263.62
309.8	271.62
310.03	294.62
310.26	297.62
310.49	316.62
310.72	313.62
310.949	340.62
311.179	343.62
311.409	313.62
311.639	297.62
311.868	299.62
312.098	301.62
312.328	317.62
312.557	309.62
312.787	334.62
313.017	337.62
313.246	328.62
313.476	312.62
313.706	304.62
313.935	302.62
314.165	313.62
314.394	322.62
314.624	314.62
314.853	328.62
315.083	312.62
315.312	292.62
315.542	313.62
315.771	305.62
316.001	297.62
316.23	304.62
316.46	291.62
316.689	295.62
316.919	301.62
317.148	316.62
317.377	297.62
317.607	331.62
317.836	318.62
318.065	296.62
318.295	307.62
318.524	297.62
318.753	298.62
318.983	299.62
319.212	311.62
319.441	317.62
319.67	324.62
319.9	306.62
320.129	313.62
320.358	307.62
320.587	316.62
320.816	326.62
321.046	321.62
321.275	363.62
321.504	340.62
321.733	351.62
321.962	345.62
322.191	348.62
322.42	355.62
322.649	391.62
322.878	383.62
323.108	418.62
323.337	390.62
323.566	421.62
323.795	469.62
324.024	526.62
324.253	632.62
324.482	960.62
324.71	1519.62
324.939	2125.62
325.168	1734.62
325.397	933.62
325.626	612.62
325.855	526.62
326.084	480.62
326.313	435.62
326.542	469.62
326.77	499.62
326.999	622.62
327.228	861.62
327.457	1295.62
327.686	1515.62
327.914	1029.62
328.143	668.62
328.372	585.62
328.6	558.62
328.829	514.62
329.058	508.62
329.287	523.62
329.515	493.62
329.744	449.62
329.972	443.62
330.201	479.62
330.43	517.62
330.658	555.62
330.887	539.62
331.115	527.62
331.344	467.62
331.572	424.62
331.801	391.62
332.03	412.62
332.258	389.62
332.486	371.62
332.715	381.62
332.943	360.62
333.172	363.62
333.4	379.62
333.629	399.62
333.857	377.62
334.085	408.62
334.314	408.62
334.542	451.62
334.771	447.62
334.999	427.62
335.227	391.62
335.455	369.62
335.684	364.62
335.912	364.62
336.14	365.62
336.369	365.62
336.597	367.62
336.825	375.62
337.053	356.62
337.281	358.62
337.51	349.62
337.738	332.62
337.966	345.62
338.194	369.62
338.422	354.62
338.65	333.62
338.878	341.62
339.106	339.62
339.334	357.62
339.562	350.62
339.79	347.62
340.018	323.62
340.246	346.62
340.474	367.62
340.702	346.62
340.93	335.62
341.158	341.62
341.386	341.62
341.614	352.62
341.842	353.62
342.07	346.62
342.298	328.62
342.526	332.62
342.754	325.62
342.981	340.62
343.209	333.62
343.437	324.62
343.665	329.62
343.893	348.62
344.12	324.62
344.348	327.62
344.576	348.62
344.804	342.62
345.031	360.62
345.259	361.62
345.487	353.62
345.714	345.62
345.942	337.62
346.17	317.62
346.397	355.62
346.625	336.62
346.853	333.62
347.08	331.62
347.308	356.62
347.535	339.62
347.763	350.62
347.99	370.62
348.218	350.62
348.445	370.62
348.673	344.62
348.9	344.62
349.128	345.62
349.355	304.62
349.583	327.62
349.81	322.62
350.037	306.62
350.265	334.62
350.492	325.62
350.72	348.62
350.947	334.62
351.174	352.62
351.402	345.62
351.629	342.62
351.856	354.62
352.083	370.62
352.311	366.62
352.538	344.62
352.765	359.62
352.992	360.62
353.22	354.62
353.447	321.62
353.674	327.62
353.901	337.62
354.128	319.62
354.355	318.62
354.583	307.62
354.81	304.62
355.037	313.62
355.264	325.62
355.491	304.62
355.718	307.62
355.945	297.62
356.172	309.62
356.399	290.62
356.626	307.62
356.853	310.62
357.08	315.62
357.307	312.62
357.534	305.62
357.761	309.62
357.988	306.62
358.215	308.62
358.441	303.62
358.668	310.62
358.895	329.62
359.122	337.62
359.349	340.62
359.576	369.62
359.802	382.62
360.029	403.62
360.256	389.62
360.483	374.62
360.709	366.62
360.936	355.62
361.163	337.62
361.39	344.62
361.616	336.62
361.843	353.62
362.07	343.62
362.296	347.62
362.523	343.62
362.749	328.62
362.976	324.62
363.203	328.62
363.429	322.62
363.656	323.62
363.882	321.62
364.109	320.62
364.335	321.62
364.562	326.62
364.788	325.62
365.015	323.62
365.241	318.62
365.468	325.62
365.694	329.62
365.92	320.62
366.147	332.62
366.373	304.62
366.599	330.62
366.826	310.62
367.052	334.62
367.278	315.62
367.505	332.62
367.731	328.62
367.957	326.62
368.184	309.62
368.41	324.62
368.636	320.62
368.862	333.62
369.089	321.62
369.315	337.62
369.541	305.62
369.767	313.62
369.993	328.62
370.219	309.62
370.445	324.62
370.672	328.62
370.898	301.62
371.124	329.62
371.35	303.62
371.576	324.62
371.802	306.62
372.028	319.62
372.254	310.62
372.48	301.62
372.706	301.62
372.932	313.62
373.158	314.62
373.384	322.62
373.61	315.62
373.835	316.62
374.061	329.62
374.287	307.62
374.513	337.62
374.739	310.62
374.965	296.62
375.191	316.62
375.416	306.62
375.642	322.62
375.868	312.62
376.094	321.62
376.319	312.62
376.545	311.62
376.771	320.62
376.997	325.62
377.222	328.62
377.448	309.62
377.674	330.62
377.899	317.62
378.125	288.62
378.35	307.62
378.576	301.62
378.802	286.62
379.027	312.62
379.253	323.62
379.478	318.62
379.704	305.62
379.929	307.62
380.155	317.62
380.38	328.62
380.606	327.62
380.831	324.62
381.057	329.62
381.282	318.62
381.507	312.62
381.733	318.62
381.958	311.62
382.184	312.62
382.409	332.62
382.634	316.62
382.86	324.62
383.085	324.62
383.31	294.62
383.535	296.62
383.761	319.62
383.986	332.62
384.211	326.62
384.436	340.62
384.662	329.62
384.887	312.62
385.112	337.62
385.337	349.62
385.562	340.62
385.787	321.62
386.013	345.62
386.238	351.62
386.463	342.62
386.688	340.62
386.913	336.62
387.138	347.62
387.363	347.62
387.588	326.62
387.813	311.62
388.038	317.62
388.263	320.62
388.488	316.62
388.713	330.62
388.938	340.62
389.163	338.62
389.387	323.62
389.612	336.62
389.837	347.62
390.062	321.62
390.287	343.62
390.512	339.62
390.736	321.62
390.961	351.62
391.186	333.62
391.411	351.62
391.636	338.62
391.86	333.62
392.085	341.62
392.31	332.62
392.534	333.62
392.759	342.62
392.984	344.62
393.208	356.62
393.433	336.62
393.658	350.62
393.882	328.62
394.107	342.62
394.331	332.62
394.556	336.62
394.78	334.62
395.005	357.62
395.229	343.62
395.454	353.62
395.678	347.62
395.903	336.62
396.127	376.62
396.352	393.62
396.576	342.62
396.801	339.62
397.025	322.62
397.249	353.62
397.474	349.62
397.698	375.62
397.922	385.62
398.147	374.62
398.371	387.62
398.595	371.62
398.82	382.62
399.044	358.62
399.268	403.62
399.492	399.62
399.717	431.62
399.941	439.62
400.165	468.62
400.389	463.62
400.613	419.62
400.837	418.62
401.062	410.62
401.286	409.62
401.51	393.62
401.734	392.62
401.958	399.62
402.182	387.62
402.406	382.62
402.63	400.62
402.854	410.62
403.078	404.62
403.302	400.62
403.526	415.62
403.75	393.62
403.974	386.62
404.198	403.62
404.422	409.62
404.645	392.62
404.869	418.62
405.093	438.62
405.317	452.62
405.541	493.62
405.765	441.62
405.988	418.62
406.212	445.62
406.436	460.62
406.66	461.62
406.883	451.62
407.107	472.62
407.331	488.62
407.555	544.62
407.778	535.62
408.002	515.62
408.226	461.62
408.449	461.62
408.673	451.62
408.896	464.62
409.12	507.62
409.344	481.62
409.567	420.62
409.791	408.62
410.014	397.62
410.238	416.62
410.461	403.62
410.685	413.62
410.908	418.62
411.132	464.62
411.355	466.62
411.578	469.62
411.802	387.62
412.025	398.62
412.249	411.62
412.472	432.62
412.695	477.62
412.919	476.62
413.142	441.62
413.365	405.62
413.589	394.62
413.812	376.62
414.035	372.62
414.258	383.62
414.482	395.62
414.705	373.62
414.928	383.62
415.151	398.62
415.374	377.62
415.597	381.62
415.821	379.62
416.044	375.62
416.267	385.62
416.49	381.62
416.713	353.62
416.936	392.62
417.159	381.62
417.382	375.62
417.605	380.62
417.828	393.62
418.051	406.62
418.274	389.62
418.497	375.62
418.72	393.62
418.943	369.62
419.166	391.62
419.389	413.62
419.611	400.62
419.834	396.62
420.057	421.62
420.28	406.62
420.503	407.62
420.726	390.62
420.948	415.62
421.171	471.62
421.394	468.62
421.617	448.62
421.839	421.62
422.062	418.62
422.285	429.62
422.507	467.62
422.73	512.62
422.953	487.62
423.175	421.62
423.398	419.62
423.621	415.62
423.843	416.62
424.066	447.62
424.288	434.62
424.511	443.62
424.733	506.62
424.956	580.62
425.178	556.62
425.401	534.62
425.623	582.62
425.846	491.62
426.068	456.62
426.291	433.62
426.513	415.62
426.735	447.62
426.958	464.62
427.18	561.62
427.402	653.62
427.625	734.62
427.847	644.62
428.069	554.62
428.292	491.62
428.514	451.62
428.736	443.62
428.958	453.62
429.181	419.62
429.403	403.62
429.625	411.62
429.847	456.62
430.069	515.62
430.292	479.62
430.514	424.62
430.736	424.62
430.958	408.62
431.18	399.62
431.402	393.62
431.624	402.62
431.846	370.62
432.068	375.62
432.29	411.62
432.512	385.62
432.734	398.62
432.956	390.62
433.178	393.62
433.4	407.62
433.622	393.62
433.844	389.62
434.066	389.62
434.287	382.62
434.509	390.62
434.731	408.62
434.953	406.62
435.175	423.62
435.397	419.62
435.618	432.62
435.84	485.62
436.062	555.62
436.284	602.62
436.505	500.62
436.727	479.62
436.949	431.62
437.17	417.62
437.392	400.62
437.614	432.62
437.835	463.62
438.057	547.62
438.278	596.62
438.5	601.62
438.721	683.62
438.943	635.62
439.165	502.62
439.386	487.62
439.608	467.62
439.829	461.62
440.05	476.62
440.272	534.62
440.493	478.62
440.715	437.62
440.936	424.62
441.158	401.62
441.379	423.62
441.6	421.62
441.822	436.62
442.043	466.62
442.264	556.62
442.486	579.62
442.707	489.62
442.928	464.62
443.149	483.62
443.371	470.62
443.592	512.62
443.813	576.62
444.034	640.62
444.255	534.62
444.476	463.62
444.698	448.62
444.919	441.62
445.14	544.62
445.361	487.62
445.582	493.62
445.803	546.62
446.024	658.62
446.245	631.62
446.466	574.62
446.687	498.62
446.908	460.62
447.129	435.62
447.35	427.62
447.571	436.62
447.792	419.62
448.013	425.62
448.234	434.62
448.455	484.62
448.675	587.62
448.896	659.62
449.117	568.62
449.338	533.62
449.559	613.62
449.779	669.62
450	565.62
450.221	447.62
450.442	431.62
450.662	416.62
450.883	432.62
451.104	416.62
451.324	437.62
451.545	421.62
451.766	382.62
451.986	374.62
452.207	376.62
452.428	381.62
452.648	371.62
452.869	359.62
453.089	402.62
453.31	401.62
453.53	369.62
453.751	381.62
453.971	363.62
454.192	399.62
454.412	377.62
454.633	382.62
454.853	375.62
455.073	374.62
455.294	387.62
455.514	447.62
455.734	423.62
455.955	396.62
456.175	353.62
456.395	357.62
456.616	354.62
456.836	352.62
457.056	352.62
457.276	339.62
457.497	372.62
457.717	363.62
457.937	376.62
458.157	363.62
458.377	352.62
458.598	383.62
458.818	428.62
459.038	515.62
459.258	528.62
459.478	450.62
459.698	403.62
459.918	398.62
460.138	398.62
460.358	385.62
460.578	369.62
460.798	396.62
461.018	411.62
461.238	374.62
461.458	379.62
461.678	392.62
461.898	384.62
462.118	381.62
462.338	384.62
462.558	392.62
462.777	407.62
462.997	407.62
463.217	417.62
463.437	408.62
463.657	411.62
463.876	412.62
464.096	422.62
464.316	403.62
464.536	423.62
464.755	402.62
464.975	419.62
465.195	469.62
465.414	525.62
465.634	471.62
465.854	445.62
466.073	409.62
466.293	396.62
466.512	389.62
466.732	393.62
466.951	384.62
467.171	381.62
467.391	383.62
467.61	417.62
467.829	395.62
468.049	413.62
468.268	403.62
468.488	369.62
468.707	381.62
468.927	382.62
469.146	374.62
469.365	400.62
469.585	365.62
469.804	391.62
470.023	403.62
470.243	398.62
470.462	402.62
470.681	403.62
470.901	389.62
471.12	377.62
471.339	393.62
471.558	392.62
471.777	387.62
471.997	378.62
472.216	416.62
472.435	446.62
472.654	429.62
472.873	410.62
473.092	413.62
473.311	389.62
473.53	399.62
473.749	393.62
473.968	446.62
474.187	529.62
474.406	549.62
474.625	471.62
474.844	413.62
475.063	415.62
475.282	386.62
475.501	408.62
475.72	407.62
475.939	397.62
476.158	412.62
476.377	412.62
476.596	413.62
476.814	427.62
477.033	423.62
477.252	424.62
477.471	401.62
477.69	395.62
477.908	415.62
478.127	421.62
478.346	405.62
478.564	408.62
478.783	425.62
479.002	438.62
479.22	453.62
479.439	449.62
479.658	456.62
479.876	459.62
480.095	487.62
480.313	491.62
480.532	476.62
480.751	480.62
480.969	496.62
481.188	567.62
481.406	586.62
481.624	520.62
481.843	486.62
482.061	471.62
482.28	485.62
482.498	477.62
482.717	464.62
482.935	467.62
483.153	454.62
483.372	450.62
483.59	448.62
483.808	466.62
484.027	466.62
484.245	444.62
484.463	463.62
484.681	461.62
484.9	468.62
485.118	476.62
485.336	473.62
485.554	474.62
485.772	467.62
485.99	442.62
486.209	471.62
486.427	467.62
486.645	493.62
486.863	519.62
487.081	503.62
487.299	478.62
487.517	469.62
487.735	480.62
487.953	500.62
488.171	474.62
488.389	460.62
488.607	504.62
488.825	491.62
489.043	497.62
489.261	492.62
489.479	507.62
489.696	495.62
489.914	490.62
490.132	512.62
490.35	504.62
490.568	519.62
490.786	532.62
491.003	517.62
491.221	559.62
491.439	537.62
491.657	542.62
491.874	540.62
492.092	549.62
492.31	558.62
492.527	575.62
492.745	568.62
492.963	552.62
493.18	571.62
493.398	580.62
493.615	561.62
493.833	568.62
494.05	572.62
494.268	606.62
494.485	568.62
494.703	559.62
494.92	563.62
495.138	581.62
495.355	578.62
495.573	574.62
495.79	586.62
496.008	588.62
496.225	584.62
496.442	579.62
496.66	582.62
496.877	573.62
497.094	599.62
497.312	605.62
497.529	595.62
497.746	612.62
497.963	595.62
498.181	620.62
498.398	608.62
498.615	645.62
498.832	645.62
499.049	636.62
499.267	656.62
499.484	646.62
499.701	679.62
499.918	693.62
500.135	736.62
500.352	720.62
500.569	724.62
500.786	729.62
501.003	705.62
501.22	724.62
501.437	705.62
501.654	668.62
501.871	721.62
502.088	667.62
