Data from 1961.PennyLincolnUp.Lamp.En5.5.200Scan.071719.P1._HRD10591_13-48-46-058.txt Node
Date: Thu Jul 18 13:48:46 EDT 2019
User: cochatt
Spectrometer: HR+D1059
Trigger mode: 1
Integration Time (sec): 1.000000E-1
Scans to average: 1
Electric dark correction enabled: true
Nonlinearity correction enabled: false
Boxcar width: 0
XAxis mode: Wavelengths
Number of Pixels in Spectrum: 2048
>>>>>Begin Spectral Data<<<<<
223.165	-20.62
223.4	-20.62
223.635	-20.62
223.869	-24.62
224.104	-11.62
224.338	-18.62
224.573	-9.62
224.808	-6.62
225.042	4.38
225.277	-3.62
225.511	-8.62
225.746	0.38
225.98	8.38
226.215	12.38
226.449	11.38
226.683	15.38
226.918	25.38
227.152	26.38
227.387	26.38
227.621	32.38
227.856	28.38
228.09	48.38
228.324	44.38
228.559	65.38
228.793	65.38
229.027	78.38
229.262	101.38
229.496	112.38
229.73	142.38
229.964	154.38
230.199	115.38
230.433	127.38
230.667	101.38
230.901	94.38
231.136	114.38
231.37	120.38
231.604	103.38
231.838	110.38
232.072	101.38
232.306	97.38
232.541	101.38
232.775	97.38
233.009	84.38
233.243	102.38
233.477	97.38
233.711	110.38
233.945	111.38
234.179	112.38
234.413	103.38
234.647	102.38
234.881	108.38
235.115	101.38
235.349	119.38
235.583	121.38
235.817	122.38
236.051	120.38
236.285	121.38
236.519	123.38
236.753	117.38
236.987	138.38
237.221	163.38
237.455	224.38
237.689	174.38
237.922	130.38
238.156	119.38
238.39	108.38
238.624	115.38
238.858	111.38
239.091	101.38
239.325	120.38
239.559	110.38
239.793	130.38
240.027	123.38
240.26	121.38
240.494	149.38
240.728	129.38
240.961	139.38
241.195	124.38
241.429	121.38
241.662	118.38
241.896	122.38
242.13	128.38
242.363	113.38
242.597	126.38
242.83	121.38
243.064	134.38
243.298	128.38
243.531	126.38
243.765	111.38
243.998	120.38
244.232	125.38
244.465	127.38
244.699	128.38
244.932	128.38
245.166	129.38
245.399	121.38
245.633	125.38
245.866	114.38
246.099	116.38
246.333	147.38
246.566	130.38
246.8	134.38
247.033	125.38
247.266	133.38
247.5	149.38
247.733	154.38
247.966	160.38
248.2	162.38
248.433	150.38
248.666	145.38
248.899	163.38
249.133	188.38
249.366	189.38
249.599	162.38
249.832	182.38
250.066	158.38
250.299	173.38
250.532	161.38
250.765	177.38
250.998	178.38
251.231	191.38
251.465	188.38
251.698	176.38
251.931	162.38
252.164	157.38
252.397	169.38
252.63	167.38
252.863	178.38
253.096	194.38
253.329	186.38
253.562	194.38
253.795	192.38
254.028	169.38
254.261	189.38
254.494	186.38
254.727	239.38
254.96	264.38
255.193	228.38
255.426	217.38
255.659	208.38
255.892	206.38
256.124	213.38
256.357	216.38
256.59	199.38
256.823	192.38
257.056	200.38
257.289	185.38
257.521	179.38
257.754	199.38
257.987	190.38
258.22	186.38
258.452	182.38
258.685	179.38
258.918	184.38
259.151	194.38
259.383	192.38
259.616	191.38
259.849	200.38
260.081	206.38
260.314	215.38
260.547	223.38
260.779	222.38
261.012	202.38
261.244	202.38
261.477	205.38
261.71	188.38
261.942	189.38
262.175	211.38
262.407	198.38
262.64	198.38
262.872	176.38
263.105	176.38
263.337	188.38
263.57	179.38
263.802	189.38
264.035	175.38
264.267	172.38
264.499	179.38
264.732	181.38
264.964	179.38
265.197	176.38
265.429	185.38
265.661	184.38
265.894	182.38
266.126	178.38
266.358	193.38
266.591	182.38
266.823	174.38
267.055	196.38
267.287	193.38
267.52	182.38
267.752	184.38
267.984	191.38
268.216	192.38
268.448	198.38
268.681	217.38
268.913	200.38
269.145	236.38
269.377	234.38
269.609	232.38
269.841	217.38
270.073	229.38
270.306	225.38
270.538	264.38
270.77	249.38
271.002	256.38
271.234	255.38
271.466	242.38
271.698	258.38
271.93	256.38
272.162	260.38
272.394	282.38
272.626	253.38
272.858	258.38
273.09	247.38
273.322	224.38
273.553	230.38
273.785	215.38
274.017	204.38
274.249	227.38
274.481	204.38
274.713	230.38
274.945	231.38
275.176	218.38
275.408	231.38
275.64	217.38
275.872	234.38
276.104	209.38
276.335	229.38
276.567	222.38
276.799	263.38
277.031	260.38
277.262	265.38
277.494	262.38
277.726	265.38
277.957	256.38
278.189	242.38
278.421	235.38
278.652	230.38
278.884	214.38
279.115	219.38
279.347	229.38
279.579	220.38
279.81	222.38
280.042	230.38
280.273	221.38
280.505	204.38
280.736	207.38
280.968	222.38
281.199	218.38
281.431	207.38
281.662	220.38
281.894	217.38
282.125	241.38
282.356	236.38
282.588	255.38
282.819	261.38
283.051	238.38
283.282	222.38
283.513	241.38
283.745	231.38
283.976	212.38
284.207	233.38
284.439	228.38
284.67	243.38
284.901	244.38
285.132	230.38
285.364	220.38
285.595	225.38
285.826	238.38
286.057	224.38
286.288	228.38
286.52	222.38
286.751	234.38
286.982	223.38
287.213	212.38
287.444	231.38
287.675	246.38
287.906	242.38
288.138	254.38
288.369	260.38
288.6	249.38
288.831	228.38
289.062	228.38
289.293	257.38
289.524	249.38
289.755	237.38
289.986	237.38
290.217	239.38
290.448	236.38
290.679	227.38
290.91	234.38
291.141	227.38
291.371	241.38
291.602	224.38
291.833	240.38
292.064	227.38
292.295	240.38
292.526	233.38
292.757	246.38
292.987	237.38
293.218	234.38
293.449	220.38
293.68	255.38
293.91	239.38
294.141	241.38
294.372	241.38
294.603	246.38
294.833	242.38
295.064	244.38
295.295	228.38
295.525	248.38
295.756	224.38
295.987	262.38
296.217	270.38
296.448	295.38
296.679	264.38
296.909	222.38
297.14	240.38
297.37	242.38
297.601	238.38
297.831	225.38
298.062	230.38
298.292	236.38
298.523	251.38
298.753	236.38
298.984	252.38
299.214	259.38
299.445	255.38
299.675	269.38
299.905	276.38
300.136	266.38
300.366	264.38
300.597	236.38
300.827	244.38
301.057	275.38
301.288	276.38
301.518	269.38
301.748	277.38
301.979	274.38
302.209	261.38
302.439	280.38
302.669	276.38
302.9	269.38
303.13	261.38
303.36	263.38
303.59	266.38
303.82	287.38
304.051	270.38
304.281	269.38
304.511	278.38
304.741	270.38
304.971	275.38
305.201	270.38
305.431	259.38
305.661	276.38
305.891	279.38
306.121	268.38
306.352	282.38
306.582	290.38
306.812	275.38
307.042	281.38
307.272	277.38
307.502	275.38
307.731	288.38
307.961	269.38
308.191	262.38
308.421	280.38
308.651	273.38
308.881	291.38
309.111	274.38
309.341	296.38
309.571	287.38
309.8	296.38
310.03	310.38
310.26	327.38
310.49	320.38
310.72	322.38
310.949	322.38
311.179	359.38
311.409	319.38
311.639	306.38
311.868	338.38
312.098	314.38
312.328	336.38
312.557	346.38
312.787	354.38
313.017	342.38
313.246	324.38
313.476	337.38
313.706	321.38
313.935	337.38
314.165	323.38
314.394	334.38
314.624	360.38
314.853	326.38
315.083	327.38
315.312	332.38
315.542	308.38
315.771	308.38
316.001	307.38
316.23	325.38
316.46	327.38
316.689	325.38
316.919	336.38
317.148	336.38
317.377	335.38
317.607	340.38
317.836	333.38
318.065	321.38
318.295	303.38
318.524	312.38
318.753	330.38
318.983	338.38
319.212	329.38
319.441	329.38
319.67	342.38
319.9	322.38
320.129	328.38
320.358	341.38
320.587	325.38
320.816	339.38
321.046	357.38
321.275	340.38
321.504	358.38
321.733	338.38
321.962	347.38
322.191	398.38
322.42	392.38
322.649	410.38
322.878	415.38
323.108	417.38
323.337	437.38
323.566	464.38
323.795	493.38
324.024	575.38
324.253	724.38
324.482	1094.38
324.71	1662.38
324.939	2312.38
325.168	1916.38
325.397	999.38
325.626	663.38
325.855	536.38
326.084	506.38
326.313	481.38
326.542	460.38
326.77	549.38
326.999	638.38
327.228	971.38
327.457	1445.38
327.686	1697.38
327.914	1102.38
328.143	725.38
328.372	648.38
328.6	563.38
328.829	538.38
329.058	534.38
329.287	568.38
329.515	538.38
329.744	486.38
329.972	479.38
330.201	500.38
330.43	564.38
330.658	568.38
330.887	589.38
331.115	559.38
331.344	495.38
331.572	447.38
331.801	447.38
332.03	446.38
332.258	418.38
332.486	402.38
332.715	414.38
332.943	379.38
333.172	393.38
333.4	390.38
333.629	406.38
333.857	405.38
334.085	426.38
334.314	449.38
334.542	485.38
334.771	500.38
334.999	416.38
335.227	405.38
335.455	377.38
335.684	361.38
335.912	393.38
336.14	386.38
336.369	376.38
336.597	380.38
336.825	390.38
337.053	362.38
337.281	371.38
337.51	373.38
337.738	352.38
337.966	359.38
338.194	360.38
338.422	380.38
338.65	378.38
338.878	356.38
339.106	362.38
339.334	375.38
339.562	361.38
339.79	343.38
340.018	377.38
340.246	350.38
340.474	388.38
340.702	373.38
340.93	362.38
341.158	364.38
341.386	345.38
341.614	359.38
341.842	349.38
342.07	352.38
342.298	359.38
342.526	348.38
342.754	348.38
342.981	338.38
343.209	325.38
343.437	372.38
343.665	350.38
343.893	353.38
344.12	360.38
344.348	354.38
344.576	371.38
344.804	380.38
345.031	376.38
345.259	391.38
345.487	385.38
345.714	371.38
345.942	359.38
346.17	359.38
346.397	339.38
346.625	351.38
346.853	339.38
347.08	343.38
347.308	365.38
347.535	345.38
347.763	376.38
347.99	376.38
348.218	366.38
348.445	360.38
348.673	362.38
348.9	377.38
349.128	354.38
349.355	352.38
349.583	339.38
349.81	337.38
350.037	345.38
350.265	336.38
350.492	346.38
350.72	337.38
350.947	366.38
351.174	358.38
351.402	367.38
351.629	362.38
351.856	352.38
352.083	372.38
352.311	376.38
352.538	376.38
352.765	376.38
352.992	376.38
353.22	347.38
353.447	357.38
353.674	336.38
353.901	354.38
354.128	325.38
354.355	306.38
354.583	320.38
354.81	322.38
355.037	321.38
355.264	307.38
355.491	334.38
355.718	318.38
355.945	320.38
356.172	321.38
356.399	320.38
356.626	310.38
356.853	320.38
357.08	341.38
357.307	331.38
357.534	334.38
357.761	329.38
357.988	320.38
358.215	321.38
358.441	320.38
358.668	326.38
358.895	350.38
359.122	349.38
359.349	328.38
359.576	352.38
359.802	369.38
360.029	412.38
360.256	434.38
360.483	396.38
360.709	366.38
360.936	372.38
361.163	372.38
361.39	377.38
361.616	355.38
361.843	348.38
362.07	361.38
362.296	372.38
362.523	362.38
362.749	362.38
362.976	348.38
363.203	340.38
363.429	338.38
363.656	342.38
363.882	340.38
364.109	315.38
364.335	349.38
364.562	338.38
364.788	335.38
365.015	325.38
365.241	344.38
365.468	358.38
365.694	333.38
365.92	350.38
366.147	337.38
366.373	340.38
366.599	331.38
366.826	328.38
367.052	312.38
367.278	340.38
367.505	314.38
367.731	326.38
367.957	350.38
368.184	321.38
368.41	336.38
368.636	337.38
368.862	351.38
369.089	341.38
369.315	327.38
369.541	340.38
369.767	344.38
369.993	332.38
370.219	341.38
370.445	327.38
370.672	327.38
370.898	327.38
371.124	332.38
371.35	328.38
371.576	333.38
371.802	330.38
372.028	325.38
372.254	330.38
372.48	317.38
372.706	340.38
372.932	318.38
373.158	320.38
373.384	316.38
373.61	337.38
373.835	322.38
374.061	322.38
374.287	339.38
374.513	318.38
374.739	333.38
374.965	339.38
375.191	338.38
375.416	345.38
375.642	318.38
375.868	325.38
376.094	330.38
376.319	305.38
376.545	340.38
376.771	341.38
376.997	322.38
377.222	326.38
377.448	325.38
377.674	333.38
377.899	319.38
378.125	321.38
378.35	309.38
378.576	322.38
378.802	316.38
379.027	324.38
379.253	320.38
379.478	315.38
379.704	308.38
379.929	343.38
380.155	333.38
380.38	333.38
380.606	335.38
380.831	330.38
381.057	323.38
381.282	342.38
381.507	322.38
381.733	354.38
381.958	330.38
382.184	333.38
382.409	329.38
382.634	327.38
382.86	332.38
383.085	329.38
383.31	344.38
383.535	345.38
383.761	325.38
383.986	321.38
384.211	341.38
384.436	347.38
384.662	337.38
384.887	343.38
385.112	334.38
385.337	338.38
385.562	331.38
385.787	345.38
386.013	337.38
386.238	351.38
386.463	334.38
386.688	368.38
386.913	351.38
387.138	334.38
387.363	329.38
387.588	347.38
387.813	340.38
388.038	348.38
388.263	365.38
388.488	353.38
388.713	334.38
388.938	356.38
389.163	349.38
389.387	347.38
389.612	341.38
389.837	349.38
390.062	335.38
390.287	354.38
390.512	351.38
390.736	335.38
390.961	359.38
391.186	337.38
391.411	345.38
391.636	343.38
391.86	346.38
392.085	366.38
392.31	346.38
392.534	360.38
392.759	352.38
392.984	350.38
393.208	368.38
393.433	336.38
393.658	374.38
393.882	345.38
394.107	334.38
394.331	356.38
394.556	354.38
394.78	355.38
395.005	335.38
395.229	366.38
395.454	367.38
395.678	346.38
395.903	378.38
396.127	388.38
396.352	379.38
396.576	359.38
396.801	364.38
397.025	350.38
397.249	364.38
397.474	354.38
397.698	357.38
397.922	385.38
398.147	395.38
398.371	406.38
398.595	384.38
398.82	385.38
399.044	390.38
399.268	404.38
399.492	391.38
399.717	416.38
399.941	445.38
400.165	468.38
400.389	491.38
400.613	432.38
400.837	415.38
401.062	421.38
401.286	420.38
401.51	405.38
401.734	376.38
401.958	392.38
402.182	399.38
402.406	420.38
402.63	417.38
402.854	413.38
403.078	420.38
403.302	416.38
403.526	411.38
403.75	424.38
403.974	412.38
404.198	411.38
404.422	435.38
404.645	416.38
404.869	432.38
405.093	439.38
405.317	487.38
405.541	509.38
405.765	480.38
405.988	437.38
406.212	465.38
406.436	491.38
406.66	482.38
406.883	452.38
407.107	479.38
407.331	509.38
407.555	544.38
407.778	561.38
408.002	512.38
408.226	477.38
408.449	461.38
408.673	460.38
408.896	488.38
409.12	525.38
409.344	471.38
409.567	431.38
409.791	404.38
410.014	414.38
410.238	431.38
410.461	400.38
410.685	418.38
410.908	426.38
411.132	439.38
411.355	486.38
411.578	469.38
411.802	423.38
412.025	416.38
412.249	438.38
412.472	462.38
412.695	485.38
412.919	470.38
413.142	436.38
413.365	439.38
413.589	418.38
413.812	428.38
414.035	403.38
414.258	386.38
414.482	375.38
414.705	388.38
414.928	385.38
415.151	393.38
415.374	392.38
415.597	389.38
415.821	400.38
416.044	381.38
416.267	382.38
416.49	403.38
416.713	400.38
416.936	387.38
417.159	400.38
417.382	389.38
417.605	412.38
417.828	416.38
418.051	404.38
418.274	418.38
418.497	402.38
418.72	399.38
418.943	396.38
419.166	402.38
419.389	416.38
419.611	403.38
419.834	410.38
420.057	419.38
420.28	426.38
420.503	424.38
420.726	413.38
420.948	433.38
421.171	453.38
421.394	508.38
421.617	436.38
421.839	391.38
422.062	428.38
422.285	437.38
422.507	466.38
422.73	550.38
422.953	519.38
423.175	469.38
423.398	407.38
423.621	453.38
423.843	440.38
424.066	440.38
424.288	440.38
424.511	476.38
424.733	511.38
424.956	587.38
425.178	560.38
425.401	575.38
425.623	584.38
425.846	484.38
426.068	450.38
426.291	427.38
426.513	452.38
426.735	481.38
426.958	490.38
427.18	583.38
427.402	653.38
427.625	769.38
427.847	684.38
428.069	599.38
428.292	543.38
428.514	476.38
428.736	452.38
428.958	422.38
429.181	423.38
429.403	418.38
429.625	451.38
429.847	462.38
430.069	530.38
430.292	505.38
430.514	455.38
430.736	433.38
430.958	387.38
431.18	408.38
431.402	405.38
431.624	388.38
431.846	391.38
432.068	401.38
432.29	396.38
432.512	383.38
432.734	405.38
432.956	390.38
433.178	416.38
433.4	416.38
433.622	428.38
433.844	406.38
434.066	387.38
434.287	396.38
434.509	397.38
434.731	383.38
434.953	400.38
435.175	416.38
435.397	442.38
435.618	471.38
435.84	497.38
436.062	601.38
436.284	638.38
436.505	532.38
436.727	487.38
436.949	440.38
437.17	469.38
437.392	445.38
437.614	436.38
437.835	501.38
438.057	570.38
438.278	662.38
438.5	642.38
438.721	711.38
438.943	665.38
439.165	523.38
439.386	502.38
439.608	490.38
439.829	473.38
440.05	523.38
440.272	562.38
440.493	530.38
440.715	485.38
440.936	447.38
441.158	440.38
441.379	429.38
441.6	420.38
441.822	462.38
442.043	505.38
442.264	575.38
442.486	601.38
442.707	520.38
442.928	489.38
443.149	483.38
443.371	516.38
443.592	534.38
443.813	624.38
444.034	654.38
444.255	544.38
444.476	486.38
444.698	467.38
444.919	448.38
445.14	547.38
445.361	502.38
445.582	527.38
445.803	605.38
446.024	654.38
446.245	687.38
446.466	614.38
446.687	544.38
446.908	485.38
447.129	463.38
447.35	455.38
447.571	438.38
447.792	425.38
448.013	428.38
448.234	450.38
448.455	513.38
448.675	602.38
448.896	675.38
449.117	592.38
449.338	559.38
449.559	662.38
449.779	722.38
450	599.38
450.221	499.38
450.442	444.38
450.662	452.38
450.883	429.38
451.104	466.38
451.324	451.38
451.545	410.38
451.766	404.38
451.986	401.38
452.207	394.38
452.428	380.38
452.648	402.38
452.869	400.38
453.089	395.38
453.31	404.38
453.53	403.38
453.751	387.38
453.971	393.38
454.192	437.38
454.412	401.38
454.633	386.38
454.853	384.38
455.073	388.38
455.294	417.38
455.514	488.38
455.734	487.38
455.955	394.38
456.175	371.38
456.395	366.38
456.616	346.38
456.836	361.38
457.056	374.38
457.276	375.38
457.497	353.38
457.717	370.38
457.937	356.38
458.157	372.38
458.377	370.38
458.598	399.38
458.818	463.38
459.038	552.38
459.258	549.38
459.478	458.38
459.698	434.38
459.918	385.38
460.138	388.38
460.358	412.38
460.578	384.38
460.798	395.38
461.018	411.38
461.238	429.38
461.458	413.38
461.678	395.38
461.898	406.38
462.118	401.38
462.338	417.38
462.558	405.38
462.777	401.38
462.997	402.38
463.217	424.38
463.437	421.38
463.657	416.38
463.876	446.38
464.096	421.38
464.316	407.38
464.536	401.38
464.755	424.38
464.975	431.38
465.195	479.38
465.414	580.38
465.634	516.38
465.854	464.38
466.073	442.38
466.293	414.38
466.512	402.38
466.732	389.38
466.951	392.38
467.171	390.38
467.391	409.38
467.61	415.38
467.829	408.38
468.049	404.38
468.268	402.38
468.488	399.38
468.707	399.38
468.927	383.38
469.146	392.38
469.365	401.38
469.585	383.38
469.804	396.38
470.023	398.38
470.243	395.38
470.462	404.38
470.681	437.38
470.901	425.38
471.12	411.38
471.339	414.38
471.558	406.38
471.777	413.38
471.997	393.38
472.216	393.38
472.435	444.38
472.654	456.38
472.873	411.38
473.092	419.38
473.311	408.38
473.53	420.38
473.749	420.38
473.968	477.38
474.187	558.38
474.406	552.38
474.625	454.38
474.844	411.38
475.063	398.38
475.282	401.38
475.501	406.38
475.72	412.38
475.939	430.38
476.158	420.38
476.377	397.38
476.596	389.38
476.814	441.38
477.033	443.38
477.252	408.38
477.471	420.38
477.69	421.38
477.908	445.38
478.127	436.38
478.346	424.38
478.564	435.38
478.783	433.38
479.002	449.38
479.22	448.38
479.439	481.38
479.658	493.38
479.876	510.38
480.095	490.38
480.313	510.38
480.532	501.38
480.751	477.38
480.969	502.38
481.188	575.38
481.406	621.38
481.624	554.38
481.843	515.38
482.061	496.38
482.28	486.38
482.498	494.38
482.717	468.38
482.935	461.38
483.153	479.38
483.372	466.38
483.59	471.38
483.808	482.38
484.027	468.38
484.245	484.38
484.463	478.38
484.681	484.38
484.9	475.38
485.118	474.38
485.336	485.38
485.554	488.38
485.772	481.38
485.99	473.38
486.209	496.38
486.427	474.38
486.645	518.38
486.863	538.38
487.081	513.38
487.299	496.38
487.517	496.38
487.735	516.38
487.953	499.38
488.171	526.38
488.389	493.38
488.607	515.38
488.825	512.38
489.043	526.38
489.261	518.38
489.479	511.38
489.696	528.38
489.914	538.38
490.132	514.38
490.35	522.38
490.568	525.38
490.786	530.38
491.003	570.38
491.221	578.38
491.439	575.38
491.657	580.38
491.874	592.38
492.092	560.38
492.31	590.38
492.527	588.38
492.745	587.38
492.963	600.38
493.18	573.38
493.398	599.38
493.615	619.38
493.833	598.38
494.05	594.38
494.268	612.38
494.485	564.38
494.703	583.38
494.92	592.38
495.138	612.38
495.355	603.38
495.573	608.38
495.79	601.38
496.008	611.38
496.225	593.38
496.442	600.38
496.66	628.38
496.877	622.38
497.094	608.38
497.312	611.38
497.529	622.38
497.746	607.38
497.963	615.38
498.181	632.38
498.398	649.38
498.615	676.38
498.832	664.38
499.049	653.38
499.267	684.38
499.484	696.38
499.701	689.38
499.918	694.38
500.135	726.38
500.352	754.38
500.569	719.38
500.786	771.38
501.003	766.38
501.22	777.38
501.437	718.38
501.654	714.38
501.871	724.38
502.088	708.38
