Data from 1961.PennyLincolnUp.Lamp.En5.5.200Scan.071719.P1._HRD10591_13-48-35-057.txt Node
Date: Thu Jul 18 13:48:35 EDT 2019
User: cochatt
Spectrometer: HR+D1059
Trigger mode: 1
Integration Time (sec): 1.000000E-1
Scans to average: 1
Electric dark correction enabled: true
Nonlinearity correction enabled: false
Boxcar width: 0
XAxis mode: Wavelengths
Number of Pixels in Spectrum: 2048
>>>>>Begin Spectral Data<<<<<
223.165	-16.25
223.4	-16.25
223.635	-16.25
223.869	-21.25
224.104	-19.25
224.338	-26.25
224.573	-14.25
224.808	-9.25
225.042	1.75
225.277	-7.25
225.511	-5.25
225.746	9.75
225.98	-8.25
226.215	21.75
226.449	13.75
226.683	22.75
226.918	25.75
227.152	31.75
227.387	37.75
227.621	34.75
227.856	44.75
228.09	26.75
228.324	50.75
228.559	48.75
228.793	67.75
229.027	92.75
229.262	107.75
229.496	120.75
229.73	121.75
229.964	138.75
230.199	128.75
230.433	102.75
230.667	116.75
230.901	111.75
231.136	130.75
231.37	100.75
231.604	112.75
231.838	115.75
232.072	116.75
232.306	101.75
232.541	95.75
232.775	105.75
233.009	117.75
233.243	107.75
233.477	105.75
233.711	105.75
233.945	108.75
234.179	99.75
234.413	104.75
234.647	108.75
234.881	117.75
235.115	120.75
235.349	103.75
235.583	106.75
235.817	117.75
236.051	109.75
236.285	120.75
236.519	117.75
236.753	128.75
236.987	137.75
237.221	178.75
237.455	227.75
237.689	175.75
237.922	136.75
238.156	122.75
238.39	124.75
238.624	125.75
238.858	114.75
239.091	106.75
239.325	111.75
239.559	119.75
239.793	121.75
240.027	131.75
240.26	141.75
240.494	152.75
240.728	133.75
240.961	135.75
241.195	133.75
241.429	130.75
241.662	112.75
241.896	112.75
242.13	121.75
242.363	111.75
242.597	120.75
242.83	128.75
243.064	123.75
243.298	117.75
243.531	124.75
243.765	129.75
243.998	126.75
244.232	113.75
244.465	119.75
244.699	131.75
244.932	126.75
245.166	135.75
245.399	134.75
245.633	131.75
245.866	134.75
246.099	117.75
246.333	129.75
246.566	140.75
246.8	135.75
247.033	145.75
247.266	138.75
247.5	142.75
247.733	155.75
247.966	144.75
248.2	150.75
248.433	140.75
248.666	153.75
248.899	169.75
249.133	165.75
249.366	188.75
249.599	185.75
249.832	173.75
250.066	164.75
250.299	166.75
250.532	179.75
250.765	182.75
250.998	183.75
251.231	202.75
251.465	191.75
251.698	175.75
251.931	195.75
252.164	165.75
252.397	177.75
252.63	175.75
252.863	171.75
253.096	185.75
253.329	203.75
253.562	184.75
253.795	191.75
254.028	192.75
254.261	179.75
254.494	192.75
254.727	221.75
254.96	233.75
255.193	241.75
255.426	220.75
255.659	223.75
255.892	202.75
256.124	208.75
256.357	201.75
256.59	205.75
256.823	176.75
257.056	203.75
257.289	192.75
257.521	186.75
257.754	203.75
257.987	184.75
258.22	169.75
258.452	198.75
258.685	185.75
258.918	186.75
259.151	196.75
259.383	202.75
259.616	183.75
259.849	202.75
260.081	200.75
260.314	215.75
260.547	225.75
260.779	221.75
261.012	196.75
261.244	195.75
261.477	200.75
261.71	195.75
261.942	209.75
262.175	201.75
262.407	201.75
262.64	191.75
262.872	188.75
263.105	172.75
263.337	192.75
263.57	177.75
263.802	191.75
264.035	186.75
264.267	185.75
264.499	195.75
264.732	181.75
264.964	194.75
265.197	190.75
265.429	173.75
265.661	187.75
265.894	178.75
266.126	182.75
266.358	200.75
266.591	195.75
266.823	201.75
267.055	193.75
267.287	197.75
267.52	192.75
267.752	208.75
267.984	194.75
268.216	186.75
268.448	210.75
268.681	199.75
268.913	215.75
269.145	225.75
269.377	231.75
269.609	242.75
269.841	245.75
270.073	254.75
270.306	245.75
270.538	275.75
270.77	280.75
271.002	291.75
271.234	253.75
271.466	260.75
271.698	261.75
271.93	279.75
272.162	276.75
272.394	257.75
272.626	263.75
272.858	241.75
273.09	240.75
273.322	232.75
273.553	235.75
273.785	259.75
274.017	223.75
274.249	239.75
274.481	221.75
274.713	215.75
274.945	239.75
275.176	233.75
275.408	208.75
275.64	219.75
275.872	217.75
276.104	225.75
276.335	226.75
276.567	229.75
276.799	246.75
277.031	266.75
277.262	283.75
277.494	286.75
277.726	261.75
277.957	247.75
278.189	224.75
278.421	233.75
278.652	221.75
278.884	224.75
279.115	244.75
279.347	233.75
279.579	208.75
279.81	226.75
280.042	233.75
280.273	228.75
280.505	232.75
280.736	228.75
280.968	229.75
281.199	214.75
281.431	208.75
281.662	232.75
281.894	224.75
282.125	226.75
282.356	246.75
282.588	279.75
282.819	263.75
283.051	241.75
283.282	230.75
283.513	225.75
283.745	230.75
283.976	252.75
284.207	244.75
284.439	248.75
284.67	224.75
284.901	217.75
285.132	233.75
285.364	224.75
285.595	248.75
285.826	239.75
286.057	226.75
286.288	242.75
286.52	231.75
286.751	224.75
286.982	235.75
287.213	229.75
287.444	240.75
287.675	232.75
287.906	236.75
288.138	260.75
288.369	250.75
288.6	261.75
288.831	257.75
289.062	251.75
289.293	240.75
289.524	256.75
289.755	257.75
289.986	248.75
290.217	259.75
290.448	240.75
290.679	226.75
290.91	240.75
291.141	236.75
291.371	255.75
291.602	222.75
291.833	241.75
292.064	240.75
292.295	245.75
292.526	251.75
292.757	249.75
292.987	244.75
293.218	232.75
293.449	235.75
293.68	230.75
293.91	248.75
294.141	243.75
294.372	243.75
294.603	247.75
294.833	240.75
295.064	239.75
295.295	237.75
295.525	251.75
295.756	258.75
295.987	260.75
296.217	279.75
296.448	283.75
296.679	248.75
296.909	232.75
297.14	253.75
297.37	233.75
297.601	245.75
297.831	252.75
298.062	254.75
298.292	256.75
298.523	265.75
298.753	261.75
298.984	249.75
299.214	243.75
299.445	246.75
299.675	257.75
299.905	251.75
300.136	262.75
300.366	255.75
300.597	257.75
300.827	255.75
301.057	242.75
301.288	278.75
301.518	264.75
301.748	266.75
301.979	255.75
302.209	255.75
302.439	264.75
302.669	287.75
302.9	264.75
303.13	269.75
303.36	253.75
303.59	278.75
303.82	287.75
304.051	285.75
304.281	277.75
304.511	283.75
304.741	276.75
304.971	269.75
305.201	275.75
305.431	264.75
305.661	278.75
305.891	291.75
306.121	281.75
306.352	282.75
306.582	297.75
306.812	296.75
307.042	273.75
307.272	265.75
307.502	268.75
307.731	290.75
307.961	274.75
308.191	289.75
308.421	266.75
308.651	289.75
308.881	291.75
309.111	288.75
309.341	292.75
309.571	306.75
309.8	316.75
310.03	316.75
310.26	321.75
310.49	323.75
310.72	319.75
310.949	335.75
311.179	344.75
311.409	327.75
311.639	327.75
311.868	332.75
312.098	334.75
312.328	339.75
312.557	340.75
312.787	353.75
313.017	379.75
313.246	330.75
313.476	328.75
313.706	332.75
313.935	333.75
314.165	340.75
314.394	362.75
314.624	336.75
314.853	324.75
315.083	344.75
315.312	321.75
315.542	328.75
315.771	323.75
316.001	317.75
316.23	310.75
316.46	315.75
316.689	301.75
316.919	330.75
317.148	332.75
317.377	345.75
317.607	321.75
317.836	325.75
318.065	327.75
318.295	320.75
318.524	298.75
318.753	317.75
318.983	327.75
319.212	311.75
319.441	330.75
319.67	342.75
319.9	316.75
320.129	321.75
320.358	319.75
320.587	328.75
320.816	337.75
321.046	344.75
321.275	329.75
321.504	345.75
321.733	331.75
321.962	356.75
322.191	384.75
322.42	386.75
322.649	408.75
322.878	391.75
323.108	433.75
323.337	439.75
323.566	465.75
323.795	491.75
324.024	567.75
324.253	725.75
324.482	1068.75
324.71	1634.75
324.939	2286.75
325.168	1904.75
325.397	987.75
325.626	643.75
325.855	524.75
326.084	490.75
326.313	479.75
326.542	488.75
326.77	523.75
326.999	655.75
327.228	931.75
327.457	1436.75
327.686	1669.75
327.914	1094.75
328.143	718.75
328.372	613.75
328.6	594.75
328.829	543.75
329.058	561.75
329.287	572.75
329.515	512.75
329.744	482.75
329.972	474.75
330.201	490.75
330.43	540.75
330.658	577.75
330.887	563.75
331.115	541.75
331.344	465.75
331.572	445.75
331.801	439.75
332.03	445.75
332.258	418.75
332.486	386.75
332.715	408.75
332.943	391.75
333.172	407.75
333.4	389.75
333.629	378.75
333.857	402.75
334.085	408.75
334.314	465.75
334.542	472.75
334.771	483.75
334.999	444.75
335.227	409.75
335.455	395.75
335.684	371.75
335.912	374.75
336.14	385.75
336.369	375.75
336.597	381.75
336.825	379.75
337.053	373.75
337.281	361.75
337.51	371.75
337.738	379.75
337.966	363.75
338.194	389.75
338.422	383.75
338.65	376.75
338.878	354.75
339.106	343.75
339.334	367.75
339.562	380.75
339.79	352.75
340.018	363.75
340.246	368.75
340.474	381.75
340.702	365.75
340.93	363.75
341.158	343.75
341.386	362.75
341.614	342.75
341.842	382.75
342.07	347.75
342.298	356.75
342.526	370.75
342.754	339.75
342.981	347.75
343.209	345.75
343.437	348.75
343.665	341.75
343.893	354.75
344.12	360.75
344.348	378.75
344.576	369.75
344.804	359.75
345.031	373.75
345.259	379.75
345.487	371.75
345.714	360.75
345.942	338.75
346.17	351.75
346.397	356.75
346.625	363.75
346.853	349.75
347.08	349.75
347.308	347.75
347.535	383.75
347.763	369.75
347.99	354.75
348.218	384.75
348.445	369.75
348.673	370.75
348.9	351.75
349.128	353.75
349.355	340.75
349.583	358.75
349.81	327.75
350.037	324.75
350.265	340.75
350.492	331.75
350.72	347.75
350.947	333.75
351.174	368.75
351.402	359.75
351.629	373.75
351.856	380.75
352.083	364.75
352.311	374.75
352.538	381.75
352.765	379.75
352.992	355.75
353.22	370.75
353.447	357.75
353.674	363.75
353.901	342.75
354.128	313.75
354.355	324.75
354.583	323.75
354.81	320.75
355.037	330.75
355.264	323.75
355.491	315.75
355.718	318.75
355.945	324.75
356.172	325.75
356.399	318.75
356.626	332.75
356.853	333.75
357.08	321.75
357.307	322.75
357.534	322.75
357.761	339.75
357.988	329.75
358.215	321.75
358.441	330.75
358.668	328.75
358.895	331.75
359.122	321.75
359.349	354.75
359.576	387.75
359.802	382.75
360.029	395.75
360.256	425.75
360.483	395.75
360.709	388.75
360.936	350.75
361.163	342.75
361.39	342.75
361.616	353.75
361.843	377.75
362.07	371.75
362.296	357.75
362.523	355.75
362.749	353.75
362.976	343.75
363.203	372.75
363.429	334.75
363.656	332.75
363.882	340.75
364.109	329.75
364.335	327.75
364.562	325.75
364.788	354.75
365.015	344.75
365.241	328.75
365.468	327.75
365.694	340.75
365.92	360.75
366.147	332.75
366.373	338.75
366.599	330.75
366.826	334.75
367.052	320.75
367.278	333.75
367.505	327.75
367.731	332.75
367.957	336.75
368.184	337.75
368.41	348.75
368.636	346.75
368.862	347.75
369.089	346.75
369.315	335.75
369.541	330.75
369.767	313.75
369.993	330.75
370.219	322.75
370.445	338.75
370.672	324.75
370.898	333.75
371.124	320.75
371.35	329.75
371.576	331.75
371.802	324.75
372.028	313.75
372.254	321.75
372.48	319.75
372.706	340.75
372.932	316.75
373.158	332.75
373.384	336.75
373.61	328.75
373.835	333.75
374.061	333.75
374.287	317.75
374.513	325.75
374.739	330.75
374.965	339.75
375.191	328.75
375.416	323.75
375.642	327.75
375.868	321.75
376.094	314.75
376.319	315.75
376.545	328.75
376.771	322.75
376.997	323.75
377.222	323.75
377.448	320.75
377.674	326.75
377.899	324.75
378.125	318.75
378.35	320.75
378.576	342.75
378.802	330.75
379.027	335.75
379.253	328.75
379.478	313.75
379.704	321.75
379.929	328.75
380.155	321.75
380.38	343.75
380.606	321.75
380.831	313.75
381.057	334.75
381.282	336.75
381.507	322.75
381.733	315.75
381.958	317.75
382.184	332.75
382.409	326.75
382.634	344.75
382.86	335.75
383.085	329.75
383.31	349.75
383.535	329.75
383.761	327.75
383.986	336.75
384.211	348.75
384.436	339.75
384.662	349.75
384.887	343.75
385.112	332.75
385.337	326.75
385.562	311.75
385.787	342.75
386.013	355.75
386.238	372.75
386.463	353.75
386.688	366.75
386.913	347.75
387.138	347.75
387.363	337.75
387.588	346.75
387.813	345.75
388.038	355.75
388.263	364.75
388.488	349.75
388.713	340.75
388.938	333.75
389.163	351.75
389.387	339.75
389.612	346.75
389.837	350.75
390.062	361.75
390.287	340.75
390.512	362.75
390.736	352.75
390.961	345.75
391.186	324.75
391.411	350.75
391.636	357.75
391.86	343.75
392.085	361.75
392.31	353.75
392.534	355.75
392.759	360.75
392.984	351.75
393.208	338.75
393.433	353.75
393.658	346.75
393.882	357.75
394.107	345.75
394.331	352.75
394.556	347.75
394.78	350.75
395.005	340.75
395.229	341.75
395.454	359.75
395.678	362.75
395.903	392.75
396.127	396.75
396.352	385.75
396.576	365.75
396.801	357.75
397.025	376.75
397.249	369.75
397.474	381.75
397.698	403.75
397.922	376.75
398.147	411.75
398.371	395.75
398.595	390.75
398.82	397.75
399.044	377.75
399.268	396.75
399.492	412.75
399.717	436.75
399.941	454.75
400.165	483.75
400.389	484.75
400.613	452.75
400.837	425.75
401.062	424.75
401.286	410.75
401.51	391.75
401.734	398.75
401.958	392.75
402.182	410.75
402.406	440.75
402.63	416.75
402.854	407.75
403.078	401.75
403.302	412.75
403.526	394.75
403.75	431.75
403.974	407.75
404.198	402.75
404.422	413.75
404.645	433.75
404.869	434.75
405.093	435.75
405.317	475.75
405.541	526.75
405.765	465.75
405.988	449.75
406.212	489.75
406.436	458.75
406.66	483.75
406.883	480.75
407.107	457.75
407.331	496.75
407.555	554.75
407.778	547.75
408.002	508.75
408.226	465.75
408.449	450.75
408.673	458.75
408.896	499.75
409.12	514.75
409.344	496.75
409.567	464.75
409.791	421.75
410.014	448.75
410.238	416.75
410.461	417.75
410.685	442.75
410.908	437.75
411.132	450.75
411.355	492.75
411.578	475.75
411.802	419.75
412.025	432.75
412.249	428.75
412.472	447.75
412.695	473.75
412.919	479.75
413.142	457.75
413.365	402.75
413.589	419.75
413.812	404.75
414.035	401.75
414.258	404.75
414.482	380.75
414.705	396.75
414.928	393.75
415.151	387.75
415.374	378.75
415.597	409.75
415.821	409.75
416.044	416.75
416.267	405.75
416.49	393.75
416.713	408.75
416.936	376.75
417.159	370.75
417.382	397.75
417.605	419.75
417.828	408.75
418.051	407.75
418.274	433.75
418.497	419.75
418.72	407.75
418.943	389.75
419.166	417.75
419.389	440.75
419.611	409.75
419.834	411.75
420.057	422.75
420.28	412.75
420.503	414.75
420.726	396.75
420.948	431.75
421.171	475.75
421.394	496.75
421.617	434.75
421.839	407.75
422.062	428.75
422.285	441.75
422.507	489.75
422.73	541.75
422.953	528.75
423.175	453.75
423.398	442.75
423.621	444.75
423.843	437.75
424.066	445.75
424.288	464.75
424.511	454.75
424.733	521.75
424.956	579.75
425.178	583.75
425.401	574.75
425.623	583.75
425.846	474.75
426.068	466.75
426.291	460.75
426.513	466.75
426.735	456.75
426.958	499.75
427.18	591.75
427.402	692.75
427.625	754.75
427.847	673.75
428.069	627.75
428.292	503.75
428.514	466.75
428.736	452.75
428.958	445.75
429.181	460.75
429.403	439.75
429.625	436.75
429.847	473.75
430.069	532.75
430.292	546.75
430.514	436.75
430.736	447.75
430.958	431.75
431.18	400.75
431.402	416.75
431.624	421.75
431.846	411.75
432.068	402.75
432.29	387.75
432.512	394.75
432.734	408.75
432.956	382.75
433.178	429.75
433.4	418.75
433.622	397.75
433.844	409.75
434.066	409.75
434.287	408.75
434.509	420.75
434.731	413.75
434.953	401.75
435.175	424.75
435.397	457.75
435.618	491.75
435.84	515.75
436.062	563.75
436.284	635.75
436.505	542.75
436.727	475.75
436.949	459.75
437.17	441.75
437.392	448.75
437.614	459.75
437.835	490.75
438.057	597.75
438.278	656.75
438.5	649.75
438.721	692.75
438.943	661.75
439.165	541.75
439.386	490.75
439.608	481.75
439.829	485.75
440.05	514.75
440.272	558.75
440.493	531.75
440.715	479.75
440.936	459.75
441.158	427.75
441.379	446.75
441.6	440.75
441.822	479.75
442.043	511.75
442.264	563.75
442.486	619.75
442.707	545.75
442.928	499.75
443.149	480.75
443.371	537.75
443.592	531.75
443.813	616.75
444.034	663.75
444.255	546.75
444.476	489.75
444.698	454.75
444.919	451.75
445.14	553.75
445.361	524.75
445.582	516.75
445.803	574.75
446.024	664.75
446.245	683.75
446.466	617.75
446.687	519.75
446.908	469.75
447.129	455.75
447.35	451.75
447.571	445.75
447.792	433.75
448.013	441.75
448.234	468.75
448.455	515.75
448.675	595.75
448.896	706.75
449.117	620.75
449.338	572.75
449.559	681.75
449.779	737.75
450	580.75
450.221	482.75
450.442	445.75
450.662	436.75
450.883	455.75
451.104	469.75
451.324	453.75
451.545	439.75
451.766	427.75
451.986	394.75
452.207	389.75
452.428	399.75
452.648	415.75
452.869	392.75
453.089	389.75
453.31	419.75
453.53	388.75
453.751	403.75
453.971	395.75
454.192	417.75
454.412	407.75
454.633	404.75
454.853	372.75
455.073	396.75
455.294	430.75
455.514	478.75
455.734	466.75
455.955	417.75
456.175	390.75
456.395	386.75
456.616	358.75
456.836	357.75
457.056	363.75
457.276	350.75
457.497	373.75
457.717	373.75
457.937	388.75
458.157	372.75
458.377	392.75
458.598	387.75
458.818	459.75
459.038	550.75
459.258	560.75
459.478	472.75
459.698	426.75
459.918	395.75
460.138	442.75
460.358	410.75
460.578	405.75
460.798	412.75
461.018	415.75
461.238	415.75
461.458	404.75
461.678	404.75
461.898	417.75
462.118	405.75
462.338	415.75
462.558	398.75
462.777	397.75
462.997	423.75
463.217	412.75
463.437	441.75
463.657	428.75
463.876	415.75
464.096	417.75
464.316	423.75
464.536	433.75
464.755	430.75
464.975	431.75
465.195	484.75
465.414	572.75
465.634	482.75
465.854	449.75
466.073	420.75
466.293	412.75
466.512	402.75
466.732	417.75
466.951	385.75
467.171	374.75
467.391	389.75
467.61	422.75
467.829	417.75
468.049	429.75
468.268	434.75
468.488	407.75
468.707	396.75
468.927	385.75
469.146	400.75
469.365	382.75
469.585	381.75
469.804	397.75
470.023	399.75
470.243	416.75
470.462	395.75
470.681	403.75
470.901	428.75
471.12	409.75
471.339	394.75
471.558	411.75
471.777	419.75
471.997	404.75
472.216	404.75
472.435	443.75
472.654	435.75
472.873	407.75
473.092	395.75
473.311	396.75
473.53	391.75
473.749	402.75
473.968	460.75
474.187	531.75
474.406	567.75
474.625	485.75
474.844	426.75
475.063	413.75
475.282	415.75
475.501	418.75
475.72	405.75
475.939	422.75
476.158	417.75
476.377	425.75
476.596	431.75
476.814	422.75
477.033	439.75
477.252	433.75
477.471	444.75
477.69	420.75
477.908	421.75
478.127	439.75
478.346	433.75
478.564	450.75
478.783	434.75
479.002	452.75
479.22	443.75
479.439	502.75
479.658	473.75
479.876	492.75
480.095	503.75
480.313	506.75
480.532	514.75
480.751	485.75
480.969	505.75
481.188	598.75
481.406	646.75
481.624	539.75
481.843	501.75
482.061	500.75
482.28	475.75
482.498	503.75
482.717	478.75
482.935	471.75
483.153	486.75
483.372	456.75
483.59	454.75
483.808	475.75
484.027	480.75
484.245	506.75
484.463	485.75
484.681	507.75
484.9	485.75
485.118	487.75
485.336	480.75
485.554	485.75
485.772	510.75
485.99	495.75
486.209	472.75
486.427	511.75
486.645	501.75
486.863	525.75
487.081	536.75
487.299	507.75
487.517	521.75
487.735	470.75
487.953	511.75
488.171	516.75
488.389	526.75
488.607	501.75
488.825	535.75
489.043	510.75
489.261	519.75
489.479	500.75
489.696	524.75
489.914	513.75
490.132	531.75
490.35	526.75
490.568	526.75
490.786	544.75
491.003	551.75
491.221	565.75
491.439	572.75
491.657	581.75
491.874	586.75
492.092	590.75
492.31	595.75
492.527	584.75
492.745	606.75
492.963	588.75
493.18	592.75
493.398	593.75
493.615	603.75
493.833	614.75
494.05	609.75
494.268	624.75
494.485	604.75
494.703	610.75
494.92	583.75
495.138	578.75
495.355	602.75
495.573	605.75
495.79	610.75
496.008	634.75
496.225	601.75
496.442	596.75
496.66	620.75
496.877	625.75
497.094	623.75
497.312	615.75
497.529	609.75
497.746	620.75
497.963	653.75
498.181	650.75
498.398	648.75
498.615	633.75
498.832	685.75
499.049	688.75
499.267	668.75
499.484	685.75
499.701	700.75
499.918	717.75
500.135	760.75
500.352	777.75
500.569	727.75
500.786	740.75
501.003	757.75
501.22	759.75
501.437	727.75
501.654	723.75
501.871	704.75
