Data from 1961.PennyLincolnUp.Lamp.En5.5.200Scan.071719.P1._HRD10591_13-46-43-057.txt Node
Date: Thu Jul 18 13:46:43 EDT 2019
User: cochatt
Spectrometer: HR+D1059
Trigger mode: 1
Integration Time (sec): 1.000000E-1
Scans to average: 1
Electric dark correction enabled: true
Nonlinearity correction enabled: false
Boxcar width: 0
XAxis mode: Wavelengths
Number of Pixels in Spectrum: 2048
>>>>>Begin Spectral Data<<<<<
223.165	-10.75
223.4	-10.75
223.635	-10.75
223.869	-16.75
224.104	-23.75
224.338	-20.75
224.573	-10.75
224.808	-5.75
225.042	-1.75
225.277	-7.75
225.511	-0.75
225.746	11.25
225.98	8.25
226.215	6.25
226.449	11.25
226.683	19.25
226.918	11.25
227.152	31.25
227.387	27.25
227.621	24.25
227.856	50.25
228.09	46.25
228.324	54.25
228.559	42.25
228.793	52.25
229.027	90.25
229.262	85.25
229.496	101.25
229.73	121.25
229.964	117.25
230.199	112.25
230.433	118.25
230.667	93.25
230.901	98.25
231.136	92.25
231.37	110.25
231.604	93.25
231.838	119.25
232.072	111.25
232.306	102.25
232.541	105.25
232.775	104.25
233.009	99.25
233.243	96.25
233.477	114.25
233.711	97.25
233.945	105.25
234.179	102.25
234.413	110.25
234.647	115.25
234.881	94.25
235.115	104.25
235.349	113.25
235.583	96.25
235.817	111.25
236.051	109.25
236.285	114.25
236.519	121.25
236.753	109.25
236.987	112.25
237.221	145.25
237.455	186.25
237.689	158.25
237.922	112.25
238.156	117.25
238.39	106.25
238.624	114.25
238.858	111.25
239.091	103.25
239.325	97.25
239.559	93.25
239.793	114.25
240.027	122.25
240.26	129.25
240.494	135.25
240.728	125.25
240.961	127.25
241.195	134.25
241.429	110.25
241.662	103.25
241.896	115.25
242.13	112.25
242.363	113.25
242.597	106.25
242.83	119.25
243.064	103.25
243.298	105.25
243.531	131.25
243.765	125.25
243.998	138.25
244.232	132.25
244.465	123.25
244.699	123.25
244.932	122.25
245.166	119.25
245.399	121.25
245.633	122.25
245.866	124.25
246.099	122.25
246.333	113.25
246.566	125.25
246.8	119.25
247.033	120.25
247.266	122.25
247.5	131.25
247.733	142.25
247.966	143.25
248.2	131.25
248.433	134.25
248.666	140.25
248.899	146.25
249.133	153.25
249.366	175.25
249.599	144.25
249.832	146.25
250.066	159.25
250.299	161.25
250.532	161.25
250.765	158.25
250.998	159.25
251.231	176.25
251.465	161.25
251.698	147.25
251.931	152.25
252.164	135.25
252.397	153.25
252.63	159.25
252.863	171.25
253.096	152.25
253.329	168.25
253.562	159.25
253.795	177.25
254.028	173.25
254.261	181.25
254.494	180.25
254.727	194.25
254.96	210.25
255.193	199.25
255.426	194.25
255.659	174.25
255.892	178.25
256.124	191.25
256.357	171.25
256.59	167.25
256.823	170.25
257.056	161.25
257.289	161.25
257.521	157.25
257.754	162.25
257.987	152.25
258.22	173.25
258.452	152.25
258.685	167.25
258.918	146.25
259.151	158.25
259.383	169.25
259.616	183.25
259.849	196.25
260.081	181.25
260.314	206.25
260.547	182.25
260.779	174.25
261.012	177.25
261.244	175.25
261.477	167.25
261.71	160.25
261.942	167.25
262.175	193.25
262.407	170.25
262.64	171.25
262.872	171.25
263.105	151.25
263.337	171.25
263.57	159.25
263.802	163.25
264.035	145.25
264.267	167.25
264.499	161.25
264.732	179.25
264.964	160.25
265.197	169.25
265.429	170.25
265.661	164.25
265.894	185.25
266.126	149.25
266.358	170.25
266.591	184.25
266.823	170.25
267.055	172.25
267.287	185.25
267.52	177.25
267.752	175.25
267.984	179.25
268.216	168.25
268.448	178.25
268.681	169.25
268.913	175.25
269.145	183.25
269.377	204.25
269.609	200.25
269.841	198.25
270.073	192.25
270.306	213.25
270.538	222.25
270.77	227.25
271.002	219.25
271.234	221.25
271.466	207.25
271.698	219.25
271.93	229.25
272.162	240.25
272.394	217.25
272.626	215.25
272.858	218.25
273.09	197.25
273.322	203.25
273.553	190.25
273.785	203.25
274.017	196.25
274.249	194.25
274.481	194.25
274.713	198.25
274.945	201.25
275.176	188.25
275.408	194.25
275.64	201.25
275.872	196.25
276.104	208.25
276.335	198.25
276.567	197.25
276.799	218.25
277.031	236.25
277.262	219.25
277.494	241.25
277.726	216.25
277.957	214.25
278.189	198.25
278.421	187.25
278.652	197.25
278.884	199.25
279.115	200.25
279.347	207.25
279.579	193.25
279.81	197.25
280.042	190.25
280.273	195.25
280.505	193.25
280.736	200.25
280.968	192.25
281.199	198.25
281.431	199.25
281.662	195.25
281.894	187.25
282.125	209.25
282.356	212.25
282.588	237.25
282.819	224.25
283.051	198.25
283.282	191.25
283.513	198.25
283.745	206.25
283.976	188.25
284.207	199.25
284.439	203.25
284.67	197.25
284.901	190.25
285.132	194.25
285.364	206.25
285.595	200.25
285.826	196.25
286.057	214.25
286.288	211.25
286.52	205.25
286.751	205.25
286.982	211.25
287.213	212.25
287.444	202.25
287.675	205.25
287.906	209.25
288.138	220.25
288.369	222.25
288.6	221.25
288.831	217.25
289.062	200.25
289.293	233.25
289.524	199.25
289.755	202.25
289.986	202.25
290.217	207.25
290.448	207.25
290.679	221.25
290.91	216.25
291.141	197.25
291.371	200.25
291.602	209.25
291.833	203.25
292.064	209.25
292.295	220.25
292.526	222.25
292.757	212.25
292.987	209.25
293.218	200.25
293.449	199.25
293.68	231.25
293.91	204.25
294.141	211.25
294.372	223.25
294.603	216.25
294.833	228.25
295.064	205.25
295.295	201.25
295.525	219.25
295.756	218.25
295.987	219.25
296.217	233.25
296.448	252.25
296.679	210.25
296.909	210.25
297.14	202.25
297.37	227.25
297.601	217.25
297.831	201.25
298.062	219.25
298.292	205.25
298.523	220.25
298.753	212.25
298.984	217.25
299.214	232.25
299.445	214.25
299.675	210.25
299.905	238.25
300.136	226.25
300.366	221.25
300.597	226.25
300.827	221.25
301.057	221.25
301.288	233.25
301.518	244.25
301.748	218.25
301.979	228.25
302.209	240.25
302.439	251.25
302.669	241.25
302.9	244.25
303.13	215.25
303.36	232.25
303.59	245.25
303.82	261.25
304.051	233.25
304.281	229.25
304.511	239.25
304.741	240.25
304.971	237.25
305.201	224.25
305.431	231.25
305.661	231.25
305.891	228.25
306.121	221.25
306.352	241.25
306.582	255.25
306.812	253.25
307.042	227.25
307.272	231.25
307.502	240.25
307.731	237.25
307.961	252.25
308.191	223.25
308.421	247.25
308.651	243.25
308.881	255.25
309.111	266.25
309.341	259.25
309.571	248.25
309.8	265.25
310.03	270.25
310.26	266.25
310.49	275.25
310.72	260.25
310.949	289.25
311.179	299.25
311.409	279.25
311.639	278.25
311.868	269.25
312.098	281.25
312.328	267.25
312.557	294.25
312.787	291.25
313.017	294.25
313.246	289.25
313.476	266.25
313.706	267.25
313.935	270.25
314.165	281.25
314.394	283.25
314.624	280.25
314.853	289.25
315.083	283.25
315.312	279.25
315.542	256.25
315.771	273.25
316.001	259.25
316.23	269.25
316.46	266.25
316.689	288.25
316.919	276.25
317.148	278.25
317.377	281.25
317.607	290.25
317.836	281.25
318.065	281.25
318.295	267.25
318.524	275.25
318.753	278.25
318.983	281.25
319.212	297.25
319.441	307.25
319.67	294.25
319.9	274.25
320.129	285.25
320.358	283.25
320.587	289.25
320.816	299.25
321.046	272.25
321.275	313.25
321.504	288.25
321.733	305.25
321.962	293.25
322.191	317.25
322.42	331.25
322.649	328.25
322.878	331.25
323.108	319.25
323.337	352.25
323.566	377.25
323.795	405.25
324.024	453.25
324.253	540.25
324.482	746.25
324.71	1202.25
324.939	1639.25
325.168	1396.25
325.397	721.25
325.626	499.25
325.855	431.25
326.084	383.25
326.313	378.25
326.542	383.25
326.77	429.25
326.999	480.25
327.228	706.25
327.457	1014.25
327.686	1201.25
327.914	791.25
328.143	507.25
328.372	454.25
328.6	421.25
328.829	417.25
329.058	438.25
329.287	426.25
329.515	406.25
329.744	373.25
329.972	379.25
330.201	399.25
330.43	416.25
330.658	440.25
330.887	467.25
331.115	434.25
331.344	390.25
331.572	356.25
331.801	367.25
332.03	353.25
332.258	335.25
332.486	337.25
332.715	311.25
332.943	326.25
333.172	331.25
333.4	321.25
333.629	323.25
333.857	345.25
334.085	336.25
334.314	358.25
334.542	401.25
334.771	374.25
334.999	371.25
335.227	360.25
335.455	351.25
335.684	323.25
335.912	344.25
336.14	314.25
336.369	310.25
336.597	335.25
336.825	341.25
337.053	329.25
337.281	319.25
337.51	316.25
337.738	326.25
337.966	329.25
338.194	338.25
338.422	317.25
338.65	305.25
338.878	299.25
339.106	299.25
339.334	319.25
339.562	324.25
339.79	311.25
340.018	308.25
340.246	322.25
340.474	308.25
340.702	296.25
340.93	303.25
341.158	313.25
341.386	298.25
341.614	307.25
341.842	311.25
342.07	313.25
342.298	303.25
342.526	295.25
342.754	303.25
342.981	286.25
343.209	329.25
343.437	307.25
343.665	296.25
343.893	317.25
344.12	321.25
344.348	289.25
344.576	311.25
344.804	321.25
345.031	325.25
345.259	320.25
345.487	321.25
345.714	318.25
345.942	312.25
346.17	327.25
346.397	301.25
346.625	299.25
346.853	297.25
347.08	317.25
347.308	320.25
347.535	319.25
347.763	327.25
347.99	322.25
348.218	315.25
348.445	328.25
348.673	314.25
348.9	305.25
349.128	299.25
349.355	303.25
349.583	299.25
349.81	289.25
350.037	286.25
350.265	297.25
350.492	292.25
350.72	297.25
350.947	296.25
351.174	303.25
351.402	299.25
351.629	303.25
351.856	313.25
352.083	312.25
352.311	318.25
352.538	323.25
352.765	298.25
352.992	323.25
353.22	309.25
353.447	314.25
353.674	298.25
353.901	279.25
354.128	282.25
354.355	278.25
354.583	312.25
354.81	299.25
355.037	273.25
355.264	285.25
355.491	287.25
355.718	278.25
355.945	282.25
356.172	283.25
356.399	287.25
356.626	261.25
356.853	281.25
357.08	280.25
357.307	281.25
357.534	267.25
357.761	278.25
357.988	296.25
358.215	277.25
358.441	305.25
358.668	288.25
358.895	277.25
359.122	289.25
359.349	300.25
359.576	288.25
359.802	308.25
360.029	345.25
360.256	349.25
360.483	315.25
360.709	322.25
360.936	314.25
361.163	285.25
361.39	312.25
361.616	300.25
361.843	294.25
362.07	296.25
362.296	324.25
362.523	299.25
362.749	310.25
362.976	306.25
363.203	299.25
363.429	305.25
363.656	299.25
363.882	295.25
364.109	288.25
364.335	288.25
364.562	277.25
364.788	270.25
365.015	280.25
365.241	291.25
365.468	295.25
365.694	285.25
365.92	297.25
366.147	289.25
366.373	281.25
366.599	284.25
366.826	302.25
367.052	273.25
367.278	293.25
367.505	282.25
367.731	306.25
367.957	293.25
368.184	305.25
368.41	301.25
368.636	302.25
368.862	311.25
369.089	298.25
369.315	285.25
369.541	303.25
369.767	296.25
369.993	279.25
370.219	287.25
370.445	267.25
370.672	311.25
370.898	294.25
371.124	292.25
371.35	295.25
371.576	290.25
371.802	295.25
372.028	309.25
372.254	296.25
372.48	309.25
372.706	287.25
372.932	279.25
373.158	271.25
373.384	289.25
373.61	302.25
373.835	273.25
374.061	286.25
374.287	303.25
374.513	298.25
374.739	281.25
374.965	309.25
375.191	286.25
375.416	310.25
375.642	279.25
375.868	297.25
376.094	277.25
376.319	289.25
376.545	293.25
376.771	293.25
376.997	284.25
377.222	295.25
377.448	301.25
377.674	311.25
377.899	296.25
378.125	297.25
378.35	283.25
378.576	297.25
378.802	303.25
379.027	285.25
379.253	290.25
379.478	290.25
379.704	311.25
379.929	305.25
380.155	288.25
380.38	305.25
380.606	287.25
380.831	284.25
381.057	297.25
381.282	273.25
381.507	294.25
381.733	286.25
381.958	294.25
382.184	298.25
382.409	296.25
382.634	280.25
382.86	281.25
383.085	304.25
383.31	304.25
383.535	292.25
383.761	312.25
383.986	313.25
384.211	309.25
384.436	311.25
384.662	322.25
384.887	318.25
385.112	296.25
385.337	309.25
385.562	310.25
385.787	315.25
386.013	322.25
386.238	317.25
386.463	317.25
386.688	326.25
386.913	323.25
387.138	321.25
387.363	308.25
387.588	303.25
387.813	317.25
388.038	308.25
388.263	318.25
388.488	307.25
388.713	330.25
388.938	295.25
389.163	309.25
389.387	330.25
389.612	314.25
389.837	327.25
390.062	308.25
390.287	311.25
390.512	319.25
390.736	319.25
390.961	308.25
391.186	316.25
391.411	306.25
391.636	304.25
391.86	325.25
392.085	320.25
392.31	314.25
392.534	325.25
392.759	316.25
392.984	317.25
393.208	325.25
393.433	334.25
393.658	318.25
393.882	336.25
394.107	325.25
394.331	326.25
394.556	324.25
394.78	314.25
395.005	315.25
395.229	329.25
395.454	327.25
395.678	328.25
395.903	333.25
396.127	349.25
396.352	337.25
396.576	330.25
396.801	321.25
397.025	329.25
397.249	341.25
397.474	348.25
397.698	343.25
397.922	340.25
398.147	363.25
398.371	356.25
398.595	341.25
398.82	365.25
399.044	358.25
399.268	371.25
399.492	375.25
399.717	406.25
399.941	418.25
400.165	424.25
400.389	447.25
400.613	406.25
400.837	375.25
401.062	358.25
401.286	359.25
401.51	380.25
401.734	362.25
401.958	361.25
402.182	359.25
402.406	378.25
402.63	375.25
402.854	361.25
403.078	392.25
403.302	373.25
403.526	367.25
403.75	344.25
403.974	375.25
404.198	375.25
404.422	360.25
404.645	369.25
404.869	393.25
405.093	391.25
405.317	441.25
405.541	463.25
405.765	397.25
405.988	399.25
406.212	403.25
406.436	414.25
406.66	447.25
406.883	419.25
407.107	423.25
407.331	441.25
407.555	489.25
407.778	493.25
408.002	447.25
408.226	422.25
408.449	389.25
408.673	406.25
408.896	438.25
409.12	431.25
409.344	435.25
409.567	382.25
409.791	387.25
410.014	379.25
410.238	372.25
410.461	370.25
410.685	386.25
410.908	372.25
411.132	402.25
411.355	405.25
411.578	416.25
411.802	401.25
412.025	368.25
412.249	381.25
412.472	402.25
412.695	399.25
412.919	426.25
413.142	385.25
413.365	390.25
413.589	365.25
413.812	357.25
414.035	359.25
414.258	345.25
414.482	323.25
414.705	358.25
414.928	364.25
415.151	349.25
415.374	345.25
415.597	331.25
415.821	355.25
416.044	376.25
416.267	365.25
416.49	355.25
416.713	347.25
416.936	339.25
417.159	367.25
417.382	363.25
417.605	364.25
417.828	376.25
418.051	369.25
418.274	358.25
418.497	373.25
418.72	341.25
418.943	342.25
419.166	369.25
419.389	367.25
419.611	395.25
419.834	375.25
420.057	369.25
420.28	353.25
420.503	362.25
420.726	375.25
420.948	387.25
421.171	395.25
421.394	424.25
421.617	390.25
421.839	364.25
422.062	377.25
422.285	390.25
422.507	438.25
422.73	500.25
422.953	464.25
423.175	401.25
423.398	383.25
423.621	375.25
423.843	382.25
424.066	395.25
424.288	381.25
424.511	410.25
424.733	444.25
424.956	518.25
425.178	503.25
425.401	475.25
425.623	509.25
425.846	417.25
426.068	405.25
426.291	406.25
426.513	406.25
426.735	403.25
426.958	435.25
427.18	516.25
427.402	587.25
427.625	645.25
427.847	584.25
428.069	518.25
428.292	447.25
428.514	407.25
428.736	397.25
428.958	379.25
429.181	363.25
429.403	375.25
429.625	376.25
429.847	411.25
430.069	474.25
430.292	442.25
430.514	409.25
430.736	362.25
430.958	381.25
431.18	361.25
431.402	341.25
431.624	361.25
431.846	363.25
432.068	345.25
432.29	362.25
432.512	351.25
432.734	381.25
432.956	369.25
433.178	375.25
433.4	362.25
433.622	352.25
433.844	350.25
434.066	341.25
434.287	356.25
434.509	350.25
434.731	371.25
434.953	373.25
435.175	383.25
435.397	401.25
435.618	400.25
435.84	438.25
436.062	497.25
436.284	554.25
436.505	480.25
436.727	420.25
436.949	384.25
437.17	370.25
437.392	379.25
437.614	393.25
437.835	420.25
438.057	503.25
438.278	551.25
438.5	561.25
438.721	619.25
438.943	562.25
439.165	467.25
439.386	429.25
439.608	404.25
439.829	408.25
440.05	434.25
440.272	463.25
440.493	454.25
440.715	409.25
440.936	386.25
441.158	395.25
441.379	383.25
441.6	387.25
441.822	406.25
442.043	406.25
442.264	504.25
442.486	531.25
442.707	451.25
442.928	426.25
443.149	412.25
443.371	450.25
443.592	470.25
443.813	544.25
444.034	559.25
444.255	462.25
444.476	416.25
444.698	402.25
444.919	391.25
445.14	519.25
445.361	456.25
445.582	443.25
445.803	469.25
446.024	550.25
446.245	586.25
446.466	529.25
446.687	450.25
446.908	422.25
447.129	407.25
447.35	381.25
447.571	393.25
447.792	380.25
448.013	394.25
448.234	394.25
448.455	430.25
448.675	510.25
448.896	588.25
449.117	495.25
449.338	470.25
449.559	554.25
449.779	611.25
450	515.25
450.221	426.25
450.442	407.25
450.662	356.25
450.883	377.25
451.104	381.25
451.324	377.25
451.545	354.25
451.766	365.25
451.986	354.25
452.207	361.25
452.428	357.25
452.648	343.25
452.869	354.25
453.089	333.25
453.31	349.25
453.53	344.25
453.751	322.25
453.971	336.25
454.192	353.25
454.412	365.25
454.633	358.25
454.853	336.25
455.073	343.25
455.294	373.25
455.514	423.25
455.734	411.25
455.955	362.25
456.175	319.25
456.395	330.25
456.616	329.25
456.836	320.25
457.056	331.25
457.276	306.25
457.497	322.25
457.717	340.25
457.937	315.25
458.157	319.25
458.377	333.25
458.598	344.25
458.818	413.25
459.038	465.25
459.258	465.25
459.478	408.25
459.698	381.25
459.918	363.25
460.138	365.25
460.358	353.25
460.578	344.25
460.798	385.25
461.018	354.25
461.238	369.25
461.458	377.25
461.678	356.25
461.898	375.25
462.118	381.25
462.338	358.25
462.558	341.25
462.777	380.25
462.997	385.25
463.217	391.25
463.437	383.25
463.657	388.25
463.876	381.25
464.096	385.25
464.316	384.25
464.536	386.25
464.755	400.25
464.975	376.25
465.195	425.25
465.414	459.25
465.634	425.25
465.854	392.25
466.073	381.25
466.293	366.25
466.512	373.25
466.732	354.25
466.951	362.25
467.171	373.25
467.391	353.25
467.61	351.25
467.829	394.25
468.049	373.25
468.268	370.25
468.488	371.25
468.707	345.25
468.927	355.25
469.146	343.25
469.365	331.25
469.585	334.25
469.804	352.25
470.023	339.25
470.243	344.25
470.462	370.25
470.681	380.25
470.901	388.25
471.12	344.25
471.339	367.25
471.558	365.25
471.777	354.25
471.997	341.25
472.216	367.25
472.435	394.25
472.654	375.25
472.873	369.25
473.092	346.25
473.311	349.25
473.53	353.25
473.749	375.25
473.968	397.25
474.187	483.25
474.406	495.25
474.625	395.25
474.844	369.25
475.063	365.25
475.282	354.25
475.501	368.25
475.72	365.25
475.939	356.25
476.158	358.25
476.377	366.25
476.596	358.25
476.814	368.25
477.033	371.25
477.252	391.25
477.471	376.25
477.69	403.25
477.908	381.25
478.127	377.25
478.346	399.25
478.564	378.25
478.783	408.25
479.002	398.25
479.22	406.25
479.439	396.25
479.658	415.25
479.876	445.25
480.095	424.25
480.313	431.25
480.532	433.25
480.751	423.25
480.969	437.25
481.188	490.25
481.406	523.25
481.624	472.25
481.843	437.25
482.061	421.25
482.28	439.25
482.498	416.25
482.717	413.25
482.935	401.25
483.153	415.25
483.372	429.25
483.59	401.25
483.808	417.25
484.027	395.25
484.245	429.25
484.463	436.25
484.681	443.25
484.9	414.25
485.118	415.25
485.336	424.25
485.554	447.25
485.772	448.25
485.99	433.25
486.209	447.25
486.427	435.25
486.645	445.25
486.863	459.25
487.081	446.25
487.299	441.25
487.517	457.25
487.735	458.25
487.953	442.25
488.171	447.25
488.389	451.25
488.607	459.25
488.825	441.25
489.043	439.25
489.261	456.25
489.479	476.25
489.696	462.25
489.914	446.25
490.132	457.25
490.35	476.25
490.568	465.25
490.786	459.25
491.003	473.25
491.221	501.25
491.439	478.25
491.657	495.25
491.874	499.25
492.092	501.25
492.31	506.25
492.527	511.25
492.745	505.25
492.963	495.25
493.18	495.25
493.398	499.25
493.615	527.25
493.833	509.25
494.05	541.25
494.268	514.25
494.485	536.25
494.703	515.25
494.92	520.25
495.138	515.25
495.355	526.25
495.573	522.25
495.79	523.25
496.008	542.25
496.225	519.25
496.442	523.25
496.66	550.25
496.877	539.25
497.094	542.25
497.312	557.25
497.529	528.25
497.746	549.25
497.963	559.25
498.181	559.25
498.398	601.25
498.615	569.25
498.832	598.25
499.049	594.25
499.267	597.25
499.484	623.25
499.701	641.25
499.918	616.25
500.135	637.25
500.352	671.25
500.569	691.25
500.786	689.25
501.003	687.25
501.22	682.25
501.437	655.25
501.654	651.25
501.871	636.25
502.088	631.25
