Data from 1961.PennyLincolnUp.Lamp.En5.5.200Scan.071719.P1._HRD10591_13-46-35-056.txt Node
Date: Thu Jul 18 13:46:35 EDT 2019
User: cochatt
Spectrometer: HR+D1059
Trigger mode: 1
Integration Time (sec): 1.000000E-1
Scans to average: 1
Electric dark correction enabled: true
Nonlinearity correction enabled: false
Boxcar width: 0
XAxis mode: Wavelengths
Number of Pixels in Spectrum: 2048
>>>>>Begin Spectral Data<<<<<
223.165	-9.81
223.4	-9.81
223.635	-9.81
223.869	-21.81
224.104	-18.81
224.338	-23.81
224.573	-12.81
224.808	-8.81
225.042	-18.81
225.277	1.19
225.511	10.19
225.746	-6.81
225.98	12.19
226.215	17.19
226.449	4.19
226.683	18.19
226.918	27.19
227.152	31.19
227.387	27.19
227.621	39.19
227.856	56.19
228.09	54.19
228.324	59.19
228.559	53.19
228.793	56.19
229.027	85.19
229.262	90.19
229.496	87.19
229.73	104.19
229.964	126.19
230.199	102.19
230.433	86.19
230.667	94.19
230.901	91.19
231.136	94.19
231.37	92.19
231.604	98.19
231.838	101.19
232.072	102.19
232.306	101.19
232.541	99.19
232.775	98.19
233.009	98.19
233.243	111.19
233.477	111.19
233.711	105.19
233.945	112.19
234.179	113.19
234.413	93.19
234.647	92.19
234.881	82.19
235.115	99.19
235.349	105.19
235.583	97.19
235.817	104.19
236.051	115.19
236.285	87.19
236.519	99.19
236.753	95.19
236.987	116.19
237.221	157.19
237.455	176.19
237.689	141.19
237.922	126.19
238.156	101.19
238.39	115.19
238.624	114.19
238.858	115.19
239.091	99.19
239.325	106.19
239.559	108.19
239.793	106.19
240.027	111.19
240.26	114.19
240.494	122.19
240.728	117.19
240.961	106.19
241.195	104.19
241.429	121.19
241.662	99.19
241.896	112.19
242.13	106.19
242.363	112.19
242.597	113.19
242.83	114.19
243.064	113.19
243.298	130.19
243.531	109.19
243.765	116.19
243.998	106.19
244.232	112.19
244.465	130.19
244.699	118.19
244.932	122.19
245.166	120.19
245.399	130.19
245.633	124.19
245.866	121.19
246.099	115.19
246.333	129.19
246.566	123.19
246.8	139.19
247.033	121.19
247.266	114.19
247.5	122.19
247.733	127.19
247.966	142.19
248.2	122.19
248.433	122.19
248.666	132.19
248.899	138.19
249.133	163.19
249.366	151.19
249.599	153.19
249.832	150.19
250.066	135.19
250.299	148.19
250.532	142.19
250.765	152.19
250.998	146.19
251.231	161.19
251.465	159.19
251.698	138.19
251.931	147.19
252.164	152.19
252.397	166.19
252.63	168.19
252.863	148.19
253.096	147.19
253.329	159.19
253.562	171.19
253.795	159.19
254.028	167.19
254.261	160.19
254.494	185.19
254.727	193.19
254.96	192.19
255.193	174.19
255.426	174.19
255.659	186.19
255.892	180.19
256.124	170.19
256.357	184.19
256.59	185.19
256.823	163.19
257.056	161.19
257.289	159.19
257.521	166.19
257.754	152.19
257.987	153.19
258.22	165.19
258.452	151.19
258.685	160.19
258.918	153.19
259.151	159.19
259.383	162.19
259.616	178.19
259.849	166.19
260.081	158.19
260.314	187.19
260.547	174.19
260.779	176.19
261.012	168.19
261.244	158.19
261.477	175.19
261.71	166.19
261.942	181.19
262.175	193.19
262.407	171.19
262.64	161.19
262.872	144.19
263.105	146.19
263.337	165.19
263.57	150.19
263.802	155.19
264.035	168.19
264.267	167.19
264.499	156.19
264.732	174.19
264.964	154.19
265.197	158.19
265.429	165.19
265.661	161.19
265.894	175.19
266.126	182.19
266.358	160.19
266.591	169.19
266.823	160.19
267.055	168.19
267.287	177.19
267.52	176.19
267.752	178.19
267.984	161.19
268.216	170.19
268.448	165.19
268.681	169.19
268.913	187.19
269.145	179.19
269.377	175.19
269.609	193.19
269.841	182.19
270.073	198.19
270.306	196.19
270.538	208.19
270.77	207.19
271.002	217.19
271.234	214.19
271.466	199.19
271.698	214.19
271.93	203.19
272.162	213.19
272.394	212.19
272.626	228.19
272.858	202.19
273.09	210.19
273.322	204.19
273.553	197.19
273.785	188.19
274.017	182.19
274.249	187.19
274.481	196.19
274.713	181.19
274.945	208.19
275.176	190.19
275.408	194.19
275.64	199.19
275.872	183.19
276.104	189.19
276.335	202.19
276.567	197.19
276.799	200.19
277.031	213.19
277.262	220.19
277.494	216.19
277.726	197.19
277.957	213.19
278.189	194.19
278.421	198.19
278.652	200.19
278.884	191.19
279.115	202.19
279.347	192.19
279.579	188.19
279.81	186.19
280.042	188.19
280.273	207.19
280.505	191.19
280.736	197.19
280.968	187.19
281.199	177.19
281.431	191.19
281.662	202.19
281.894	194.19
282.125	179.19
282.356	207.19
282.588	209.19
282.819	227.19
283.051	196.19
283.282	194.19
283.513	198.19
283.745	213.19
283.976	196.19
284.207	182.19
284.439	191.19
284.67	198.19
284.901	195.19
285.132	202.19
285.364	202.19
285.595	198.19
285.826	207.19
286.057	199.19
286.288	193.19
286.52	192.19
286.751	208.19
286.982	194.19
287.213	191.19
287.444	206.19
287.675	212.19
287.906	201.19
288.138	210.19
288.369	213.19
288.6	209.19
288.831	190.19
289.062	202.19
289.293	196.19
289.524	200.19
289.755	204.19
289.986	210.19
290.217	217.19
290.448	209.19
290.679	204.19
290.91	200.19
291.141	200.19
291.371	211.19
291.602	210.19
291.833	211.19
292.064	188.19
292.295	178.19
292.526	208.19
292.757	198.19
292.987	204.19
293.218	194.19
293.449	215.19
293.68	213.19
293.91	194.19
294.141	205.19
294.372	194.19
294.603	211.19
294.833	207.19
295.064	210.19
295.295	204.19
295.525	209.19
295.756	212.19
295.987	205.19
296.217	202.19
296.448	211.19
296.679	205.19
296.909	199.19
297.14	222.19
297.37	216.19
297.601	210.19
297.831	205.19
298.062	218.19
298.292	219.19
298.523	209.19
298.753	211.19
298.984	224.19
299.214	212.19
299.445	225.19
299.675	211.19
299.905	207.19
300.136	203.19
300.366	205.19
300.597	213.19
300.827	236.19
301.057	238.19
301.288	210.19
301.518	236.19
301.748	230.19
301.979	235.19
302.209	225.19
302.439	244.19
302.669	228.19
302.9	232.19
303.13	244.19
303.36	230.19
303.59	240.19
303.82	252.19
304.051	244.19
304.281	218.19
304.511	222.19
304.741	235.19
304.971	228.19
305.201	230.19
305.431	231.19
305.661	216.19
305.891	234.19
306.121	221.19
306.352	221.19
306.582	240.19
306.812	230.19
307.042	242.19
307.272	252.19
307.502	244.19
307.731	237.19
307.961	229.19
308.191	242.19
308.421	223.19
308.651	232.19
308.881	244.19
309.111	234.19
309.341	246.19
309.571	268.19
309.8	246.19
310.03	243.19
310.26	267.19
310.49	243.19
310.72	267.19
310.949	245.19
311.179	280.19
311.409	258.19
311.639	274.19
311.868	240.19
312.098	262.19
312.328	256.19
312.557	279.19
312.787	294.19
313.017	281.19
313.246	258.19
313.476	266.19
313.706	259.19
313.935	253.19
314.165	264.19
314.394	270.19
314.624	302.19
314.853	282.19
315.083	269.19
315.312	278.19
315.542	270.19
315.771	271.19
316.001	263.19
316.23	267.19
316.46	265.19
316.689	272.19
316.919	247.19
317.148	265.19
317.377	280.19
317.607	260.19
317.836	264.19
318.065	262.19
318.295	274.19
318.524	246.19
318.753	258.19
318.983	261.19
319.212	286.19
319.441	276.19
319.67	262.19
319.9	268.19
320.129	270.19
320.358	282.19
320.587	282.19
320.816	285.19
321.046	300.19
321.275	293.19
321.504	272.19
321.733	279.19
321.962	300.19
322.191	297.19
322.42	332.19
322.649	325.19
322.878	334.19
323.108	326.19
323.337	347.19
323.566	371.19
323.795	382.19
324.024	412.19
324.253	484.19
324.482	710.19
324.71	1099.19
324.939	1492.19
325.168	1256.19
325.397	637.19
325.626	488.19
325.855	396.19
326.084	361.19
326.313	358.19
326.542	359.19
326.77	383.19
326.999	482.19
327.228	634.19
327.457	961.19
327.686	1063.19
327.914	742.19
328.143	502.19
328.372	437.19
328.6	401.19
328.829	389.19
329.058	390.19
329.287	404.19
329.515	414.19
329.744	351.19
329.972	363.19
330.201	363.19
330.43	414.19
330.658	404.19
330.887	417.19
331.115	402.19
331.344	355.19
331.572	344.19
331.801	359.19
332.03	315.19
332.258	319.19
332.486	329.19
332.715	316.19
332.943	312.19
333.172	312.19
333.4	309.19
333.629	323.19
333.857	327.19
334.085	336.19
334.314	360.19
334.542	362.19
334.771	398.19
334.999	368.19
335.227	337.19
335.455	315.19
335.684	329.19
335.912	331.19
336.14	321.19
336.369	319.19
336.597	319.19
336.825	318.19
337.053	311.19
337.281	302.19
337.51	312.19
337.738	296.19
337.966	292.19
338.194	310.19
338.422	318.19
338.65	314.19
338.878	309.19
339.106	306.19
339.334	304.19
339.562	293.19
339.79	315.19
340.018	295.19
340.246	304.19
340.474	325.19
340.702	302.19
340.93	292.19
341.158	283.19
341.386	300.19
341.614	307.19
341.842	304.19
342.07	304.19
342.298	304.19
342.526	307.19
342.754	322.19
342.981	295.19
343.209	291.19
343.437	307.19
343.665	300.19
343.893	287.19
344.12	304.19
344.348	315.19
344.576	283.19
344.804	295.19
345.031	318.19
345.259	312.19
345.487	301.19
345.714	292.19
345.942	304.19
346.17	304.19
346.397	294.19
346.625	287.19
346.853	310.19
347.08	314.19
347.308	313.19
347.535	302.19
347.763	305.19
347.99	304.19
348.218	291.19
348.445	299.19
348.673	302.19
348.9	266.19
349.128	289.19
349.355	282.19
349.583	280.19
349.81	282.19
350.037	268.19
350.265	285.19
350.492	278.19
350.72	283.19
350.947	290.19
351.174	289.19
351.402	299.19
351.629	300.19
351.856	292.19
352.083	296.19
352.311	310.19
352.538	308.19
352.765	309.19
352.992	294.19
353.22	299.19
353.447	288.19
353.674	302.19
353.901	291.19
354.128	282.19
354.355	268.19
354.583	290.19
354.81	293.19
355.037	274.19
355.264	257.19
355.491	275.19
355.718	275.19
355.945	269.19
356.172	274.19
356.399	284.19
356.626	271.19
356.853	279.19
357.08	271.19
357.307	280.19
357.534	277.19
357.761	286.19
357.988	292.19
358.215	278.19
358.441	276.19
358.668	268.19
358.895	275.19
359.122	276.19
359.349	290.19
359.576	298.19
359.802	317.19
360.029	305.19
360.256	328.19
360.483	312.19
360.709	283.19
360.936	312.19
361.163	286.19
361.39	281.19
361.616	291.19
361.843	309.19
362.07	306.19
362.296	282.19
362.523	279.19
362.749	291.19
362.976	288.19
363.203	306.19
363.429	282.19
363.656	295.19
363.882	281.19
364.109	285.19
364.335	268.19
364.562	303.19
364.788	275.19
365.015	266.19
365.241	291.19
365.468	283.19
365.694	300.19
365.92	292.19
366.147	274.19
366.373	292.19
366.599	293.19
366.826	271.19
367.052	277.19
367.278	288.19
367.505	278.19
367.731	278.19
367.957	282.19
368.184	305.19
368.41	295.19
368.636	302.19
368.862	293.19
369.089	294.19
369.315	277.19
369.541	286.19
369.767	289.19
369.993	279.19
370.219	286.19
370.445	267.19
370.672	280.19
370.898	279.19
371.124	283.19
371.35	264.19
371.576	280.19
371.802	279.19
372.028	266.19
372.254	266.19
372.48	269.19
372.706	283.19
372.932	296.19
373.158	267.19
373.384	296.19
373.61	290.19
373.835	286.19
374.061	297.19
374.287	296.19
374.513	293.19
374.739	293.19
374.965	291.19
375.191	298.19
375.416	274.19
375.642	276.19
375.868	272.19
376.094	282.19
376.319	282.19
376.545	282.19
376.771	271.19
376.997	275.19
377.222	306.19
377.448	294.19
377.674	273.19
377.899	284.19
378.125	280.19
378.35	273.19
378.576	268.19
378.802	287.19
379.027	307.19
379.253	289.19
379.478	260.19
379.704	282.19
379.929	285.19
380.155	292.19
380.38	280.19
380.606	281.19
380.831	286.19
381.057	263.19
381.282	300.19
381.507	283.19
381.733	296.19
381.958	293.19
382.184	280.19
382.409	291.19
382.634	290.19
382.86	292.19
383.085	312.19
383.31	297.19
383.535	284.19
383.761	279.19
383.986	289.19
384.211	306.19
384.436	281.19
384.662	294.19
384.887	283.19
385.112	297.19
385.337	302.19
385.562	294.19
385.787	303.19
386.013	314.19
386.238	323.19
386.463	308.19
386.688	305.19
386.913	286.19
387.138	295.19
387.363	317.19
387.588	314.19
387.813	302.19
388.038	300.19
388.263	307.19
388.488	291.19
388.713	318.19
388.938	329.19
389.163	308.19
389.387	314.19
389.612	323.19
389.837	297.19
390.062	299.19
390.287	326.19
390.512	314.19
390.736	299.19
390.961	299.19
391.186	302.19
391.411	309.19
391.636	317.19
391.86	304.19
392.085	312.19
392.31	298.19
392.534	325.19
392.759	312.19
392.984	318.19
393.208	329.19
393.433	318.19
393.658	342.19
393.882	320.19
394.107	320.19
394.331	317.19
394.556	327.19
394.78	317.19
395.005	318.19
395.229	315.19
395.454	327.19
395.678	328.19
395.903	324.19
396.127	326.19
396.352	339.19
396.576	322.19
396.801	321.19
397.025	318.19
397.249	327.19
397.474	334.19
397.698	353.19
397.922	352.19
398.147	358.19
398.371	352.19
398.595	342.19
398.82	334.19
399.044	364.19
399.268	369.19
399.492	374.19
399.717	388.19
399.941	384.19
400.165	407.19
400.389	437.19
400.613	416.19
400.837	384.19
401.062	361.19
401.286	350.19
401.51	364.19
401.734	375.19
401.958	353.19
402.182	340.19
402.406	350.19
402.63	364.19
402.854	359.19
403.078	350.19
403.302	352.19
403.526	372.19
403.75	354.19
403.974	363.19
404.198	354.19
404.422	341.19
404.645	371.19
404.869	376.19
405.093	402.19
405.317	419.19
405.541	441.19
405.765	409.19
405.988	398.19
406.212	384.19
406.436	394.19
406.66	400.19
406.883	398.19
407.107	425.19
407.331	438.19
407.555	460.19
407.778	459.19
408.002	433.19
408.226	407.19
408.449	396.19
408.673	390.19
408.896	409.19
409.12	440.19
409.344	418.19
409.567	380.19
409.791	390.19
410.014	390.19
410.238	386.19
410.461	353.19
410.685	358.19
410.908	394.19
411.132	425.19
411.355	427.19
411.578	396.19
411.802	368.19
412.025	366.19
412.249	394.19
412.472	372.19
412.695	418.19
412.919	387.19
413.142	366.19
413.365	372.19
413.589	368.19
413.812	347.19
414.035	351.19
414.258	353.19
414.482	346.19
414.705	346.19
414.928	363.19
415.151	342.19
415.374	335.19
415.597	344.19
415.821	345.19
416.044	357.19
416.267	360.19
416.49	347.19
416.713	360.19
416.936	350.19
417.159	340.19
417.382	330.19
417.605	347.19
417.828	347.19
418.051	369.19
418.274	354.19
418.497	366.19
418.72	351.19
418.943	340.19
419.166	366.19
419.389	385.19
419.611	378.19
419.834	361.19
420.057	364.19
420.28	368.19
420.503	360.19
420.726	366.19
420.948	385.19
421.171	392.19
421.394	409.19
421.617	354.19
421.839	331.19
422.062	373.19
422.285	380.19
422.507	408.19
422.73	452.19
422.953	444.19
423.175	389.19
423.398	362.19
423.621	343.19
423.843	388.19
424.066	392.19
424.288	373.19
424.511	410.19
424.733	425.19
424.956	498.19
425.178	460.19
425.401	471.19
425.623	488.19
425.846	411.19
426.068	416.19
426.291	401.19
426.513	379.19
426.735	402.19
426.958	436.19
427.18	470.19
427.402	574.19
427.625	612.19
427.847	538.19
428.069	482.19
428.292	439.19
428.514	416.19
428.736	364.19
428.958	382.19
429.181	366.19
429.403	371.19
429.625	362.19
429.847	397.19
430.069	435.19
430.292	427.19
430.514	384.19
430.736	374.19
430.958	356.19
431.18	346.19
431.402	347.19
431.624	352.19
431.846	325.19
432.068	339.19
432.29	341.19
432.512	351.19
432.734	352.19
432.956	341.19
433.178	353.19
433.4	359.19
433.622	352.19
433.844	378.19
434.066	350.19
434.287	345.19
434.509	339.19
434.731	359.19
434.953	354.19
435.175	374.19
435.397	400.19
435.618	392.19
435.84	416.19
436.062	491.19
436.284	527.19
436.505	438.19
436.727	390.19
436.949	378.19
437.17	361.19
437.392	382.19
437.614	371.19
437.835	406.19
438.057	446.19
438.278	522.19
438.5	502.19
438.721	596.19
438.943	574.19
439.165	446.19
439.386	418.19
439.608	380.19
439.829	399.19
440.05	427.19
440.272	446.19
440.493	418.19
440.715	376.19
440.936	378.19
441.158	366.19
441.379	369.19
441.6	371.19
441.822	387.19
442.043	423.19
442.264	472.19
442.486	498.19
442.707	444.19
442.928	416.19
443.149	417.19
443.371	427.19
443.592	458.19
443.813	510.19
444.034	549.19
444.255	464.19
444.476	402.19
444.698	394.19
444.919	378.19
445.14	539.19
445.361	473.19
445.582	434.19
445.803	487.19
446.024	532.19
446.245	512.19
446.466	482.19
446.687	430.19
446.908	410.19
447.129	379.19
447.35	362.19
447.571	363.19
447.792	347.19
448.013	381.19
448.234	386.19
448.455	418.19
448.675	497.19
448.896	571.19
449.117	484.19
449.338	468.19
449.559	551.19
449.779	602.19
450	495.19
450.221	403.19
450.442	365.19
450.662	355.19
450.883	360.19
451.104	368.19
451.324	370.19
451.545	346.19
451.766	355.19
451.986	337.19
452.207	319.19
452.428	303.19
452.648	336.19
452.869	325.19
453.089	346.19
453.31	355.19
453.53	333.19
453.751	330.19
453.971	346.19
454.192	357.19
454.412	337.19
454.633	331.19
454.853	323.19
455.073	326.19
455.294	342.19
455.514	395.19
455.734	386.19
455.955	343.19
456.175	307.19
456.395	305.19
456.616	320.19
456.836	320.19
457.056	327.19
457.276	311.19
457.497	328.19
457.717	313.19
457.937	328.19
458.157	334.19
458.377	337.19
458.598	345.19
458.818	390.19
459.038	439.19
459.258	449.19
459.478	377.19
459.698	348.19
459.918	320.19
460.138	355.19
460.358	351.19
460.578	362.19
460.798	332.19
461.018	359.19
461.238	350.19
461.458	343.19
461.678	354.19
461.898	368.19
462.118	338.19
462.338	341.19
462.558	356.19
462.777	374.19
462.997	376.19
463.217	370.19
463.437	390.19
463.657	380.19
463.876	374.19
464.096	371.19
464.316	374.19
464.536	374.19
464.755	383.19
464.975	370.19
465.195	421.19
465.414	463.19
465.634	410.19
465.854	390.19
466.073	378.19
466.293	355.19
466.512	362.19
466.732	355.19
466.951	340.19
467.171	345.19
467.391	336.19
467.61	352.19
467.829	345.19
468.049	350.19
468.268	350.19
468.488	351.19
468.707	339.19
468.927	336.19
469.146	335.19
469.365	340.19
469.585	338.19
469.804	331.19
470.023	336.19
470.243	351.19
470.462	327.19
470.681	357.19
470.901	372.19
471.12	348.19
471.339	350.19
471.558	328.19
471.777	353.19
471.997	347.19
472.216	358.19
472.435	372.19
472.654	361.19
472.873	364.19
473.092	356.19
473.311	352.19
473.53	344.19
473.749	349.19
473.968	384.19
474.187	455.19
474.406	457.19
474.625	374.19
474.844	354.19
475.063	334.19
475.282	363.19
475.501	368.19
475.72	357.19
475.939	366.19
476.158	360.19
476.377	349.19
476.596	335.19
476.814	357.19
477.033	361.19
477.252	371.19
477.471	368.19
477.69	370.19
477.908	380.19
478.127	370.19
478.346	372.19
478.564	389.19
478.783	379.19
479.002	390.19
479.22	404.19
479.439	394.19
479.658	405.19
479.876	408.19
480.095	414.19
480.313	435.19
480.532	443.19
480.751	436.19
480.969	438.19
481.188	486.19
481.406	490.19
481.624	418.19
481.843	412.19
482.061	403.19
482.28	402.19
482.498	390.19
482.717	401.19
482.935	406.19
483.153	418.19
483.372	409.19
483.59	408.19
483.808	404.19
484.027	410.19
484.245	411.19
484.463	419.19
484.681	390.19
484.9	426.19
485.118	415.19
485.336	395.19
485.554	430.19
485.772	406.19
485.99	422.19
486.209	434.19
486.427	415.19
486.645	430.19
486.863	450.19
487.081	426.19
487.299	429.19
487.517	413.19
487.735	442.19
487.953	417.19
488.171	417.19
488.389	428.19
488.607	421.19
488.825	451.19
489.043	447.19
489.261	437.19
489.479	439.19
489.696	436.19
489.914	452.19
490.132	444.19
490.35	427.19
490.568	467.19
490.786	468.19
491.003	465.19
491.221	459.19
491.439	443.19
491.657	482.19
491.874	482.19
492.092	495.19
492.31	492.19
492.527	484.19
492.745	496.19
492.963	483.19
493.18	501.19
493.398	504.19
493.615	510.19
493.833	512.19
494.05	487.19
494.268	484.19
494.485	515.19
494.703	489.19
494.92	510.19
495.138	488.19
495.355	502.19
495.573	523.19
495.79	508.19
496.008	518.19
496.225	495.19
496.442	491.19
496.66	524.19
496.877	512.19
497.094	511.19
497.312	548.19
497.529	522.19
497.746	542.19
497.963	533.19
498.181	554.19
498.398	566.19
498.615	568.19
498.832	592.19
499.049	581.19
499.267	600.19
499.484	576.19
499.701	614.19
499.918	638.19
500.135	617.19
500.352	649.19
500.569	656.19
500.786	673.19
501.003	660.19
501.22	638.19
501.437	630.19
501.654	643.19
501.871	624.19
502.088	623.19
502.305	597.19
