Data from 1961.PennyLincolnUp.Lamp.En5.5.200Scan.071719.P1._HRD10591_13-47-30-057.txt Node
Date: Thu Jul 18 13:47:30 EDT 2019
User: cochatt
Spectrometer: HR+D1059
Trigger mode: 1
Integration Time (sec): 1.000000E-1
Scans to average: 1
Electric dark correction enabled: true
Nonlinearity correction enabled: false
Boxcar width: 0
XAxis mode: Wavelengths
Number of Pixels in Spectrum: 2048
>>>>>Begin Spectral Data<<<<<
223.165	-24.56
223.4	-24.56
223.635	-24.56
223.869	-1.56
224.104	-26.56
224.338	-12.56
224.573	-10.56
224.808	-24.56
225.042	-3.56
225.277	-5.56
225.511	3.44
225.746	-5.56
225.98	2.44
226.215	19.44
226.449	6.44
226.683	17.44
226.918	36.44
227.152	29.44
227.387	39.44
227.621	32.44
227.856	23.44
228.09	44.44
228.324	55.44
228.559	55.44
228.793	55.44
229.027	80.44
229.262	106.44
229.496	85.44
229.73	119.44
229.964	155.44
230.199	130.44
230.433	109.44
230.667	95.44
230.901	114.44
231.136	100.44
231.37	99.44
231.604	74.44
231.838	104.44
232.072	91.44
232.306	108.44
232.541	107.44
232.775	95.44
233.009	100.44
233.243	115.44
233.477	97.44
233.711	97.44
233.945	100.44
234.179	91.44
234.413	100.44
234.647	94.44
234.881	106.44
235.115	107.44
235.349	108.44
235.583	112.44
235.817	123.44
236.051	111.44
236.285	103.44
236.519	110.44
236.753	106.44
236.987	122.44
237.221	160.44
237.455	192.44
237.689	150.44
237.922	116.44
238.156	114.44
238.39	100.44
238.624	99.44
238.858	101.44
239.091	102.44
239.325	104.44
239.559	95.44
239.793	101.44
240.027	101.44
240.26	123.44
240.494	132.44
240.728	139.44
240.961	124.44
241.195	120.44
241.429	104.44
241.662	126.44
241.896	118.44
242.13	116.44
242.363	114.44
242.597	108.44
242.83	120.44
243.064	113.44
243.298	111.44
243.531	108.44
243.765	128.44
243.998	111.44
244.232	125.44
244.465	128.44
244.699	123.44
244.932	120.44
245.166	134.44
245.399	120.44
245.633	115.44
245.866	126.44
246.099	115.44
246.333	141.44
246.566	119.44
246.8	124.44
247.033	130.44
247.266	132.44
247.5	136.44
247.733	136.44
247.966	137.44
248.2	126.44
248.433	138.44
248.666	149.44
248.899	154.44
249.133	164.44
249.366	173.44
249.599	159.44
249.832	172.44
250.066	150.44
250.299	141.44
250.532	170.44
250.765	170.44
250.998	186.44
251.231	186.44
251.465	183.44
251.698	167.44
251.931	161.44
252.164	155.44
252.397	179.44
252.63	156.44
252.863	177.44
253.096	171.44
253.329	183.44
253.562	190.44
253.795	180.44
254.028	179.44
254.261	175.44
254.494	179.44
254.727	211.44
254.96	219.44
255.193	225.44
255.426	213.44
255.659	201.44
255.892	181.44
256.124	194.44
256.357	186.44
256.59	186.44
256.823	170.44
257.056	175.44
257.289	161.44
257.521	172.44
257.754	183.44
257.987	178.44
258.22	177.44
258.452	173.44
258.685	158.44
258.918	178.44
259.151	168.44
259.383	161.44
259.616	172.44
259.849	187.44
260.081	191.44
260.314	195.44
260.547	212.44
260.779	195.44
261.012	199.44
261.244	188.44
261.477	172.44
261.71	182.44
261.942	184.44
262.175	212.44
262.407	179.44
262.64	172.44
262.872	176.44
263.105	172.44
263.337	174.44
263.57	176.44
263.802	159.44
264.035	173.44
264.267	172.44
264.499	172.44
264.732	186.44
264.964	190.44
265.197	171.44
265.429	166.44
265.661	187.44
265.894	178.44
266.126	178.44
266.358	171.44
266.591	160.44
266.823	168.44
267.055	181.44
267.287	178.44
267.52	162.44
267.752	172.44
267.984	190.44
268.216	166.44
268.448	173.44
268.681	198.44
268.913	175.44
269.145	213.44
269.377	204.44
269.609	207.44
269.841	194.44
270.073	207.44
270.306	236.44
270.538	235.44
270.77	241.44
271.002	246.44
271.234	254.44
271.466	261.44
271.698	226.44
271.93	237.44
272.162	261.44
272.394	240.44
272.626	234.44
272.858	260.44
273.09	213.44
273.322	226.44
273.553	228.44
273.785	210.44
274.017	207.44
274.249	210.44
274.481	212.44
274.713	214.44
274.945	225.44
275.176	216.44
275.408	215.44
275.64	203.44
275.872	204.44
276.104	202.44
276.335	205.44
276.567	220.44
276.799	239.44
277.031	268.44
277.262	239.44
277.494	260.44
277.726	225.44
277.957	231.44
278.189	234.44
278.421	195.44
278.652	225.44
278.884	217.44
279.115	206.44
279.347	203.44
279.579	214.44
279.81	212.44
280.042	214.44
280.273	207.44
280.505	205.44
280.736	210.44
280.968	207.44
281.199	219.44
281.431	228.44
281.662	209.44
281.894	204.44
282.125	201.44
282.356	225.44
282.588	268.44
282.819	271.44
283.051	227.44
283.282	208.44
283.513	215.44
283.745	236.44
283.976	211.44
284.207	230.44
284.439	212.44
284.67	211.44
284.901	211.44
285.132	230.44
285.364	207.44
285.595	216.44
285.826	238.44
286.057	229.44
286.288	222.44
286.52	224.44
286.751	216.44
286.982	214.44
287.213	220.44
287.444	206.44
287.675	221.44
287.906	223.44
288.138	220.44
288.369	216.44
288.6	229.44
288.831	230.44
289.062	232.44
289.293	224.44
289.524	220.44
289.755	223.44
289.986	215.44
290.217	219.44
290.448	221.44
290.679	224.44
290.91	209.44
291.141	221.44
291.371	218.44
291.602	219.44
291.833	215.44
292.064	206.44
292.295	203.44
292.526	230.44
292.757	234.44
292.987	234.44
293.218	236.44
293.449	219.44
293.68	214.44
293.91	226.44
294.141	208.44
294.372	218.44
294.603	221.44
294.833	238.44
295.064	219.44
295.295	252.44
295.525	225.44
295.756	238.44
295.987	243.44
296.217	236.44
296.448	259.44
296.679	249.44
296.909	229.44
297.14	226.44
297.37	237.44
297.601	230.44
297.831	235.44
298.062	238.44
298.292	242.44
298.523	238.44
298.753	247.44
298.984	236.44
299.214	247.44
299.445	239.44
299.675	250.44
299.905	232.44
300.136	239.44
300.366	234.44
300.597	240.44
300.827	244.44
301.057	256.44
301.288	258.44
301.518	252.44
301.748	246.44
301.979	246.44
302.209	256.44
302.439	264.44
302.669	246.44
302.9	240.44
303.13	252.44
303.36	260.44
303.59	252.44
303.82	273.44
304.051	274.44
304.281	251.44
304.511	259.44
304.741	255.44
304.971	237.44
305.201	256.44
305.431	242.44
305.661	258.44
305.891	263.44
306.121	246.44
306.352	275.44
306.582	267.44
306.812	262.44
307.042	260.44
307.272	251.44
307.502	243.44
307.731	254.44
307.961	254.44
308.191	256.44
308.421	257.44
308.651	271.44
308.881	273.44
309.111	274.44
309.341	262.44
309.571	281.44
309.8	283.44
310.03	297.44
310.26	306.44
310.49	310.44
310.72	321.44
310.949	328.44
311.179	318.44
311.409	317.44
311.639	308.44
311.868	302.44
312.098	298.44
312.328	303.44
312.557	315.44
312.787	339.44
313.017	321.44
313.246	325.44
313.476	310.44
313.706	298.44
313.935	307.44
314.165	311.44
314.394	319.44
314.624	327.44
314.853	303.44
315.083	295.44
315.312	284.44
315.542	292.44
315.771	282.44
316.001	286.44
316.23	296.44
316.46	303.44
316.689	283.44
316.919	297.44
317.148	298.44
317.377	307.44
317.607	318.44
317.836	318.44
318.065	302.44
318.295	296.44
318.524	309.44
318.753	296.44
318.983	302.44
319.212	308.44
319.441	334.44
319.67	306.44
319.9	308.44
320.129	303.44
320.358	316.44
320.587	320.44
320.816	321.44
321.046	343.44
321.275	334.44
321.504	325.44
321.733	327.44
321.962	340.44
322.191	364.44
322.42	374.44
322.649	379.44
322.878	394.44
323.108	405.44
323.337	408.44
323.566	463.44
323.795	479.44
324.024	542.44
324.253	664.44
324.482	989.44
324.71	1534.44
324.939	2185.44
325.168	1836.44
325.397	914.44
325.626	601.44
325.855	508.44
326.084	455.44
326.313	444.44
326.542	432.44
326.77	491.44
326.999	622.44
327.228	877.44
327.457	1329.44
327.686	1542.44
327.914	1042.44
328.143	675.44
328.372	576.44
328.6	560.44
328.829	505.44
329.058	530.44
329.287	528.44
329.515	475.44
329.744	443.44
329.972	445.44
330.201	483.44
330.43	498.44
330.658	513.44
330.887	556.44
331.115	522.44
331.344	442.44
331.572	403.44
331.801	422.44
332.03	413.44
332.258	395.44
332.486	365.44
332.715	332.44
332.943	354.44
333.172	371.44
333.4	359.44
333.629	376.44
333.857	388.44
334.085	386.44
334.314	437.44
334.542	440.44
334.771	478.44
334.999	411.44
335.227	388.44
335.455	354.44
335.684	372.44
335.912	356.44
336.14	357.44
336.369	353.44
336.597	370.44
336.825	364.44
337.053	350.44
337.281	368.44
337.51	356.44
337.738	348.44
337.966	351.44
338.194	344.44
338.422	359.44
338.65	343.44
338.878	345.44
339.106	345.44
339.334	337.44
339.562	325.44
339.79	336.44
340.018	349.44
340.246	338.44
340.474	365.44
340.702	332.44
340.93	341.44
341.158	355.44
341.386	338.44
341.614	342.44
341.842	357.44
342.07	350.44
342.298	331.44
342.526	340.44
342.754	315.44
342.981	323.44
343.209	334.44
343.437	333.44
343.665	340.44
343.893	338.44
344.12	349.44
344.348	330.44
344.576	344.44
344.804	344.44
345.031	356.44
345.259	370.44
345.487	356.44
345.714	334.44
345.942	344.44
346.17	334.44
346.397	341.44
346.625	337.44
346.853	322.44
347.08	322.44
347.308	336.44
347.535	359.44
347.763	347.44
347.99	345.44
348.218	322.44
348.445	344.44
348.673	357.44
348.9	325.44
349.128	318.44
349.355	312.44
349.583	335.44
349.81	334.44
350.037	320.44
350.265	324.44
350.492	328.44
350.72	337.44
350.947	339.44
351.174	342.44
351.402	358.44
351.629	333.44
351.856	364.44
352.083	348.44
352.311	363.44
352.538	346.44
352.765	368.44
352.992	350.44
353.22	348.44
353.447	342.44
353.674	328.44
353.901	334.44
354.128	328.44
354.355	318.44
354.583	306.44
354.81	309.44
355.037	313.44
355.264	308.44
355.491	307.44
355.718	304.44
355.945	299.44
356.172	285.44
356.399	307.44
356.626	308.44
356.853	311.44
357.08	305.44
357.307	319.44
357.534	301.44
357.761	302.44
357.988	284.44
358.215	309.44
358.441	315.44
358.668	299.44
358.895	302.44
359.122	324.44
359.349	310.44
359.576	328.44
359.802	350.44
360.029	383.44
360.256	392.44
360.483	381.44
360.709	346.44
360.936	334.44
361.163	340.44
361.39	343.44
361.616	335.44
361.843	326.44
362.07	350.44
362.296	357.44
362.523	321.44
362.749	338.44
362.976	307.44
363.203	342.44
363.429	312.44
363.656	312.44
363.882	299.44
364.109	309.44
364.335	337.44
364.562	321.44
364.788	334.44
365.015	322.44
365.241	308.44
365.468	338.44
365.694	310.44
365.92	308.44
366.147	321.44
366.373	320.44
366.599	327.44
366.826	304.44
367.052	320.44
367.278	331.44
367.505	321.44
367.731	311.44
367.957	305.44
368.184	323.44
368.41	339.44
368.636	322.44
368.862	328.44
369.089	320.44
369.315	319.44
369.541	328.44
369.767	323.44
369.993	335.44
370.219	320.44
370.445	312.44
370.672	303.44
370.898	302.44
371.124	290.44
371.35	305.44
371.576	308.44
371.802	308.44
372.028	326.44
372.254	305.44
372.48	308.44
372.706	319.44
372.932	301.44
373.158	310.44
373.384	293.44
373.61	311.44
373.835	297.44
374.061	294.44
374.287	310.44
374.513	308.44
374.739	316.44
374.965	323.44
375.191	331.44
375.416	316.44
375.642	315.44
375.868	322.44
376.094	316.44
376.319	313.44
376.545	316.44
376.771	310.44
376.997	308.44
377.222	305.44
377.448	299.44
377.674	311.44
377.899	307.44
378.125	304.44
378.35	310.44
378.576	306.44
378.802	309.44
379.027	308.44
379.253	300.44
379.478	310.44
379.704	317.44
379.929	302.44
380.155	299.44
380.38	310.44
380.606	314.44
380.831	319.44
381.057	331.44
381.282	303.44
381.507	311.44
381.733	315.44
381.958	304.44
382.184	313.44
382.409	309.44
382.634	306.44
382.86	331.44
383.085	326.44
383.31	310.44
383.535	304.44
383.761	306.44
383.986	325.44
384.211	295.44
384.436	345.44
384.662	315.44
384.887	324.44
385.112	343.44
385.337	335.44
385.562	328.44
385.787	326.44
386.013	336.44
386.238	362.44
386.463	320.44
386.688	339.44
386.913	311.44
387.138	333.44
387.363	340.44
387.588	348.44
387.813	338.44
388.038	325.44
388.263	318.44
388.488	318.44
388.713	341.44
388.938	340.44
389.163	334.44
389.387	351.44
389.612	336.44
389.837	318.44
390.062	319.44
390.287	331.44
390.512	326.44
390.736	327.44
390.961	329.44
391.186	338.44
391.411	353.44
391.636	334.44
391.86	359.44
392.085	358.44
392.31	366.44
392.534	329.44
392.759	354.44
392.984	343.44
393.208	345.44
393.433	348.44
393.658	336.44
393.882	343.44
394.107	337.44
394.331	338.44
394.556	315.44
394.78	349.44
395.005	337.44
395.229	343.44
395.454	351.44
395.678	347.44
395.903	367.44
396.127	365.44
396.352	378.44
396.576	358.44
396.801	339.44
397.025	349.44
397.249	346.44
397.474	362.44
397.698	374.44
397.922	373.44
398.147	375.44
398.371	392.44
398.595	376.44
398.82	369.44
399.044	381.44
399.268	382.44
399.492	408.44
399.717	402.44
399.941	438.44
400.165	454.44
400.389	493.44
400.613	437.44
400.837	400.44
401.062	375.44
401.286	397.44
401.51	374.44
401.734	363.44
401.958	377.44
402.182	384.44
402.406	396.44
402.63	391.44
402.854	398.44
403.078	403.44
403.302	390.44
403.526	380.44
403.75	402.44
403.974	391.44
404.198	380.44
404.422	388.44
404.645	422.44
404.869	408.44
405.093	439.44
405.317	455.44
405.541	474.44
405.765	451.44
405.988	414.44
406.212	436.44
406.436	433.44
406.66	442.44
406.883	449.44
407.107	455.44
407.331	480.44
407.555	554.44
407.778	529.44
408.002	480.44
408.226	449.44
408.449	432.44
408.673	447.44
408.896	462.44
409.12	510.44
409.344	469.44
409.567	420.44
409.791	411.44
410.014	391.44
410.238	396.44
410.461	387.44
410.685	417.44
410.908	428.44
411.132	454.44
411.355	479.44
411.578	466.44
411.802	422.44
412.025	398.44
412.249	416.44
412.472	432.44
412.695	446.44
412.919	442.44
413.142	388.44
413.365	407.44
413.589	376.44
413.812	388.44
414.035	376.44
414.258	379.44
414.482	372.44
414.705	381.44
414.928	377.44
415.151	374.44
415.374	367.44
415.597	367.44
415.821	363.44
416.044	364.44
416.267	368.44
416.49	367.44
416.713	368.44
416.936	367.44
417.159	367.44
417.382	378.44
417.605	391.44
417.828	372.44
418.051	396.44
418.274	392.44
418.497	406.44
418.72	376.44
418.943	374.44
419.166	379.44
419.389	388.44
419.611	415.44
419.834	388.44
420.057	410.44
420.28	407.44
420.503	407.44
420.726	389.44
420.948	399.44
421.171	430.44
421.394	471.44
421.617	435.44
421.839	411.44
422.062	386.44
422.285	413.44
422.507	459.44
422.73	498.44
422.953	496.44
423.175	453.44
423.398	426.44
423.621	420.44
423.843	425.44
424.066	446.44
424.288	427.44
424.511	451.44
424.733	488.44
424.956	556.44
425.178	549.44
425.401	521.44
425.623	551.44
425.846	468.44
426.068	446.44
426.291	443.44
426.513	442.44
426.735	456.44
426.958	471.44
427.18	566.44
427.402	637.44
427.625	706.44
427.847	658.44
428.069	562.44
428.292	502.44
428.514	452.44
428.736	422.44
428.958	419.44
429.181	403.44
429.403	398.44
429.625	415.44
429.847	438.44
430.069	495.44
430.292	476.44
430.514	411.44
430.736	406.44
430.958	404.44
431.18	383.44
431.402	390.44
431.624	383.44
431.846	385.44
432.068	383.44
432.29	376.44
432.512	384.44
432.734	396.44
432.956	391.44
433.178	395.44
433.4	408.44
433.622	377.44
433.844	372.44
434.066	406.44
434.287	362.44
434.509	375.44
434.731	419.44
434.953	388.44
435.175	392.44
435.397	428.44
435.618	412.44
435.84	499.44
436.062	555.44
436.284	596.44
436.505	524.44
436.727	444.44
436.949	451.44
437.17	406.44
437.392	384.44
437.614	407.44
437.835	466.44
438.057	549.44
438.278	627.44
438.5	619.44
438.721	673.44
438.943	618.44
439.165	518.44
439.386	453.44
439.608	445.44
439.829	466.44
440.05	509.44
440.272	517.44
440.493	474.44
440.715	449.44
440.936	422.44
441.158	419.44
441.379	402.44
441.6	430.44
441.822	455.44
442.043	485.44
442.264	539.44
442.486	576.44
442.707	493.44
442.928	476.44
443.149	456.44
443.371	477.44
443.592	540.44
443.813	578.44
444.034	626.44
444.255	523.44
444.476	448.44
444.698	438.44
444.919	437.44
445.14	524.44
445.361	492.44
445.582	479.44
445.803	545.44
446.024	638.44
446.245	659.44
446.466	564.44
446.687	462.44
446.908	461.44
447.129	432.44
447.35	426.44
447.571	418.44
447.792	413.44
448.013	395.44
448.234	439.44
448.455	504.44
448.675	589.44
448.896	686.44
449.117	546.44
449.338	519.44
449.559	623.44
449.779	692.44
450	559.44
450.221	470.44
450.442	430.44
450.662	416.44
450.883	404.44
451.104	426.44
451.324	409.44
451.545	421.44
451.766	390.44
451.986	379.44
452.207	382.44
452.428	371.44
452.648	382.44
452.869	379.44
453.089	364.44
453.31	393.44
453.53	375.44
453.751	375.44
453.971	372.44
454.192	413.44
454.412	387.44
454.633	370.44
454.853	364.44
455.073	349.44
455.294	390.44
455.514	439.44
455.734	448.44
455.955	368.44
456.175	335.44
456.395	308.44
456.616	345.44
456.836	349.44
457.056	343.44
457.276	358.44
457.497	362.44
457.717	339.44
457.937	352.44
458.157	352.44
458.377	343.44
458.598	372.44
458.818	443.44
459.038	512.44
459.258	527.44
459.478	411.44
459.698	395.44
459.918	395.44
460.138	380.44
460.358	377.44
460.578	382.44
460.798	410.44
461.018	390.44
461.238	385.44
461.458	379.44
461.678	401.44
461.898	378.44
462.118	400.44
462.338	382.44
462.558	373.44
462.777	383.44
462.997	390.44
463.217	410.44
463.437	412.44
463.657	392.44
463.876	401.44
464.096	407.44
464.316	404.44
464.536	411.44
464.755	403.44
464.975	411.44
465.195	490.44
465.414	549.44
465.634	460.44
465.854	444.44
466.073	392.44
466.293	389.44
466.512	389.44
466.732	379.44
466.951	387.44
467.171	372.44
467.391	397.44
467.61	390.44
467.829	415.44
468.049	389.44
468.268	403.44
468.488	384.44
468.707	368.44
468.927	374.44
469.146	364.44
469.365	372.44
469.585	384.44
469.804	376.44
470.023	374.44
470.243	374.44
470.462	387.44
470.681	439.44
470.901	408.44
471.12	398.44
471.339	396.44
471.558	402.44
471.777	369.44
471.997	375.44
472.216	399.44
472.435	441.44
472.654	414.44
472.873	403.44
473.092	378.44
473.311	394.44
473.53	388.44
473.749	379.44
473.968	430.44
474.187	524.44
474.406	531.44
474.625	448.44
474.844	406.44
475.063	394.44
475.282	364.44
475.501	380.44
475.72	386.44
475.939	382.44
476.158	403.44
476.377	400.44
476.596	386.44
476.814	421.44
477.033	391.44
477.252	416.44
477.471	403.44
477.69	429.44
477.908	394.44
478.127	410.44
478.346	406.44
478.564	422.44
478.783	433.44
479.002	436.44
479.22	412.44
479.439	458.44
479.658	452.44
479.876	461.44
480.095	461.44
480.313	487.44
480.532	467.44
480.751	460.44
480.969	511.44
481.188	541.44
481.406	594.44
481.624	513.44
481.843	477.44
482.061	462.44
482.28	463.44
482.498	449.44
482.717	428.44
482.935	448.44
483.153	453.44
483.372	457.44
483.59	470.44
483.808	439.44
484.027	418.44
484.245	453.44
484.463	464.44
484.681	462.44
484.9	455.44
485.118	451.44
485.336	444.44
485.554	447.44
485.772	475.44
485.99	471.44
486.209	461.44
486.427	463.44
486.645	475.44
486.863	484.44
487.081	484.44
487.299	484.44
487.517	471.44
487.735	461.44
487.953	472.44
488.171	472.44
488.389	465.44
488.607	502.44
488.825	482.44
489.043	494.44
489.261	494.44
489.479	502.44
489.696	495.44
489.914	472.44
490.132	486.44
490.35	487.44
490.568	513.44
490.786	547.44
491.003	508.44
491.221	518.44
491.439	563.44
491.657	542.44
491.874	547.44
492.092	563.44
492.31	549.44
492.527	566.44
492.745	551.44
492.963	550.44
493.18	571.44
493.398	550.44
493.615	567.44
493.833	580.44
494.05	557.44
494.268	584.44
494.485	564.44
494.703	562.44
494.92	563.44
495.138	572.44
495.355	592.44
495.573	582.44
495.79	569.44
496.008	607.44
496.225	560.44
496.442	600.44
496.66	575.44
496.877	590.44
497.094	578.44
497.312	589.44
497.529	586.44
497.746	607.44
497.963	590.44
498.181	623.44
498.398	604.44
498.615	600.44
498.832	637.44
499.049	667.44
499.267	646.44
499.484	658.44
499.701	640.44
499.918	682.44
500.135	674.44
500.352	728.44
500.569	704.44
500.786	716.44
501.003	738.44
501.22	702.44
501.437	728.44
501.654	702.44
501.871	711.44
502.088	693.44
