Data from 1961.PennyLincolnUp.Lamp.En5.5.200Scan.071719.P1._HRD10591_13-49-02-058.txt Node
Date: Thu Jul 18 13:49:02 EDT 2019
User: cochatt
Spectrometer: HR+D1059
Trigger mode: 1
Integration Time (sec): 1.000000E-1
Scans to average: 1
Electric dark correction enabled: true
Nonlinearity correction enabled: false
Boxcar width: 0
XAxis mode: Wavelengths
Number of Pixels in Spectrum: 2048
>>>>>Begin Spectral Data<<<<<
223.165	-9.44
223.4	-9.44
223.635	-9.44
223.869	0.56
224.104	-19.44
224.338	-19.44
224.573	-8.44
224.808	-21.44
225.042	-9.44
225.277	-9.44
225.511	-2.44
225.746	11.56
225.98	5.56
226.215	1.56
226.449	8.56
226.683	15.56
226.918	28.56
227.152	27.56
227.387	39.56
227.621	43.56
227.856	37.56
228.09	54.56
228.324	61.56
228.559	56.56
228.793	70.56
229.027	94.56
229.262	106.56
229.496	120.56
229.73	126.56
229.964	148.56
230.199	130.56
230.433	116.56
230.667	107.56
230.901	107.56
231.136	103.56
231.37	109.56
231.604	109.56
231.838	98.56
232.072	118.56
232.306	116.56
232.541	106.56
232.775	109.56
233.009	106.56
233.243	116.56
233.477	97.56
233.711	111.56
233.945	120.56
234.179	117.56
234.413	102.56
234.647	111.56
234.881	121.56
235.115	116.56
235.349	117.56
235.583	119.56
235.817	125.56
236.051	106.56
236.285	116.56
236.519	112.56
236.753	117.56
236.987	134.56
237.221	174.56
237.455	220.56
237.689	173.56
237.922	126.56
238.156	130.56
238.39	115.56
238.624	115.56
238.858	130.56
239.091	104.56
239.325	122.56
239.559	123.56
239.793	114.56
240.027	137.56
240.26	132.56
240.494	136.56
240.728	145.56
240.961	148.56
241.195	132.56
241.429	139.56
241.662	130.56
241.896	131.56
242.13	140.56
242.363	139.56
242.597	129.56
242.83	134.56
243.064	120.56
243.298	116.56
243.531	141.56
243.765	125.56
243.998	118.56
244.232	126.56
244.465	140.56
244.699	115.56
244.932	127.56
245.166	138.56
245.399	138.56
245.633	135.56
245.866	124.56
246.099	126.56
246.333	133.56
246.566	119.56
246.8	140.56
247.033	137.56
247.266	148.56
247.5	150.56
247.733	151.56
247.966	154.56
248.2	152.56
248.433	157.56
248.666	166.56
248.899	179.56
249.133	176.56
249.366	204.56
249.599	198.56
249.832	170.56
250.066	164.56
250.299	164.56
250.532	162.56
250.765	183.56
250.998	182.56
251.231	204.56
251.465	193.56
251.698	185.56
251.931	166.56
252.164	176.56
252.397	183.56
252.63	187.56
252.863	192.56
253.096	198.56
253.329	208.56
253.562	191.56
253.795	190.56
254.028	186.56
254.261	217.56
254.494	206.56
254.727	242.56
254.96	248.56
255.193	235.56
255.426	229.56
255.659	212.56
255.892	207.56
256.124	204.56
256.357	215.56
256.59	204.56
256.823	204.56
257.056	186.56
257.289	192.56
257.521	187.56
257.754	192.56
257.987	183.56
258.22	185.56
258.452	173.56
258.685	184.56
258.918	185.56
259.151	190.56
259.383	195.56
259.616	195.56
259.849	205.56
260.081	200.56
260.314	219.56
260.547	215.56
260.779	208.56
261.012	197.56
261.244	210.56
261.477	206.56
261.71	196.56
261.942	188.56
262.175	211.56
262.407	194.56
262.64	181.56
262.872	187.56
263.105	187.56
263.337	188.56
263.57	200.56
263.802	180.56
264.035	180.56
264.267	185.56
264.499	189.56
264.732	196.56
264.964	170.56
265.197	172.56
265.429	182.56
265.661	189.56
265.894	196.56
266.126	188.56
266.358	177.56
266.591	186.56
266.823	176.56
267.055	178.56
267.287	183.56
267.52	192.56
267.752	187.56
267.984	187.56
268.216	188.56
268.448	187.56
268.681	188.56
268.913	216.56
269.145	224.56
269.377	254.56
269.609	239.56
269.841	232.56
270.073	242.56
270.306	250.56
270.538	269.56
270.77	269.56
271.002	270.56
271.234	244.56
271.466	246.56
271.698	268.56
271.93	279.56
272.162	280.56
272.394	274.56
272.626	277.56
272.858	235.56
273.09	230.56
273.322	247.56
273.553	236.56
273.785	218.56
274.017	236.56
274.249	224.56
274.481	228.56
274.713	235.56
274.945	234.56
275.176	237.56
275.408	217.56
275.64	236.56
275.872	229.56
276.104	221.56
276.335	217.56
276.567	233.56
276.799	252.56
277.031	268.56
277.262	263.56
277.494	274.56
277.726	264.56
277.957	224.56
278.189	249.56
278.421	242.56
278.652	219.56
278.884	228.56
279.115	224.56
279.347	225.56
279.579	233.56
279.81	244.56
280.042	216.56
280.273	245.56
280.505	224.56
280.736	213.56
280.968	212.56
281.199	216.56
281.431	225.56
281.662	230.56
281.894	227.56
282.125	232.56
282.356	244.56
282.588	264.56
282.819	285.56
283.051	230.56
283.282	246.56
283.513	231.56
283.745	234.56
283.976	226.56
284.207	254.56
284.439	244.56
284.67	240.56
284.901	231.56
285.132	237.56
285.364	231.56
285.595	228.56
285.826	224.56
286.057	224.56
286.288	234.56
286.52	239.56
286.751	236.56
286.982	236.56
287.213	237.56
287.444	234.56
287.675	225.56
287.906	241.56
288.138	249.56
288.369	250.56
288.6	258.56
288.831	243.56
289.062	260.56
289.293	238.56
289.524	235.56
289.755	234.56
289.986	239.56
290.217	248.56
290.448	268.56
290.679	240.56
290.91	240.56
291.141	243.56
291.371	244.56
291.602	250.56
291.833	231.56
292.064	232.56
292.295	209.56
292.526	236.56
292.757	246.56
292.987	234.56
293.218	238.56
293.449	230.56
293.68	235.56
293.91	236.56
294.141	238.56
294.372	225.56
294.603	241.56
294.833	251.56
295.064	248.56
295.295	235.56
295.525	237.56
295.756	236.56
295.987	257.56
296.217	301.56
296.448	286.56
296.679	254.56
296.909	266.56
297.14	267.56
297.37	252.56
297.601	261.56
297.831	244.56
298.062	245.56
298.292	260.56
298.523	240.56
298.753	266.56
298.984	254.56
299.214	256.56
299.445	264.56
299.675	253.56
299.905	292.56
300.136	251.56
300.366	258.56
300.597	260.56
300.827	259.56
301.057	280.56
301.288	277.56
301.518	267.56
301.748	298.56
301.979	264.56
302.209	268.56
302.439	283.56
302.669	265.56
302.9	275.56
303.13	279.56
303.36	273.56
303.59	291.56
303.82	286.56
304.051	276.56
304.281	272.56
304.511	286.56
304.741	277.56
304.971	284.56
305.201	267.56
305.431	258.56
305.661	284.56
305.891	268.56
306.121	281.56
306.352	270.56
306.582	275.56
306.812	290.56
307.042	275.56
307.272	274.56
307.502	305.56
307.731	276.56
307.961	294.56
308.191	284.56
308.421	284.56
308.651	281.56
308.881	284.56
309.111	287.56
309.341	286.56
309.571	292.56
309.8	302.56
310.03	309.56
310.26	328.56
310.49	345.56
310.72	349.56
310.949	353.56
311.179	341.56
311.409	328.56
311.639	324.56
311.868	323.56
312.098	334.56
312.328	336.56
312.557	345.56
312.787	393.56
313.017	356.56
313.246	348.56
313.476	323.56
313.706	307.56
313.935	336.56
314.165	337.56
314.394	354.56
314.624	352.56
314.853	348.56
315.083	323.56
315.312	327.56
315.542	315.56
315.771	326.56
316.001	333.56
316.23	313.56
316.46	323.56
316.689	324.56
316.919	329.56
317.148	352.56
317.377	333.56
317.607	342.56
317.836	324.56
318.065	333.56
318.295	336.56
318.524	328.56
318.753	354.56
318.983	317.56
319.212	311.56
319.441	334.56
319.67	330.56
319.9	333.56
320.129	336.56
320.358	330.56
320.587	346.56
320.816	363.56
321.046	345.56
321.275	373.56
321.504	362.56
321.733	356.56
321.962	365.56
322.191	369.56
322.42	372.56
322.649	409.56
322.878	416.56
323.108	424.56
323.337	470.56
323.566	467.56
323.795	518.56
324.024	579.56
324.253	741.56
324.482	1104.56
324.71	1690.56
324.939	2336.56
325.168	1937.56
325.397	989.56
325.626	646.56
325.855	556.56
326.084	501.56
326.313	484.56
326.542	491.56
326.77	530.56
326.999	668.56
327.228	926.56
327.457	1443.56
327.686	1700.56
327.914	1156.56
328.143	728.56
328.372	631.56
328.6	570.56
328.829	563.56
329.058	580.56
329.287	582.56
329.515	547.56
329.744	496.56
329.972	504.56
330.201	501.56
330.43	567.56
330.658	580.56
330.887	596.56
331.115	586.56
331.344	502.56
331.572	464.56
331.801	454.56
332.03	453.56
332.258	422.56
332.486	420.56
332.715	380.56
332.943	399.56
333.172	376.56
333.4	406.56
333.629	392.56
333.857	429.56
334.085	434.56
334.314	455.56
334.542	497.56
334.771	496.56
334.999	438.56
335.227	409.56
335.455	423.56
335.684	391.56
335.912	397.56
336.14	357.56
336.369	384.56
336.597	382.56
336.825	386.56
337.053	385.56
337.281	372.56
337.51	356.56
337.738	378.56
337.966	374.56
338.194	374.56
338.422	371.56
338.65	384.56
338.878	360.56
339.106	358.56
339.334	374.56
339.562	369.56
339.79	335.56
340.018	362.56
340.246	358.56
340.474	361.56
340.702	363.56
340.93	366.56
341.158	370.56
341.386	352.56
341.614	374.56
341.842	371.56
342.07	357.56
342.298	346.56
342.526	364.56
342.754	334.56
342.981	344.56
343.209	356.56
343.437	355.56
343.665	333.56
343.893	341.56
344.12	358.56
344.348	356.56
344.576	359.56
344.804	373.56
345.031	384.56
345.259	396.56
345.487	382.56
345.714	364.56
345.942	364.56
346.17	369.56
346.397	374.56
346.625	346.56
346.853	354.56
347.08	357.56
347.308	357.56
347.535	371.56
347.763	386.56
347.99	356.56
348.218	376.56
348.445	390.56
348.673	388.56
348.9	365.56
349.128	360.56
349.355	350.56
349.583	353.56
349.81	364.56
350.037	327.56
350.265	352.56
350.492	325.56
350.72	329.56
350.947	334.56
351.174	363.56
351.402	368.56
351.629	374.56
351.856	382.56
352.083	380.56
352.311	379.56
352.538	370.56
352.765	389.56
352.992	361.56
353.22	376.56
353.447	363.56
353.674	338.56
353.901	338.56
354.128	335.56
354.355	328.56
354.583	334.56
354.81	337.56
355.037	318.56
355.264	324.56
355.491	323.56
355.718	324.56
355.945	316.56
356.172	308.56
356.399	322.56
356.626	330.56
356.853	325.56
357.08	330.56
357.307	342.56
357.534	322.56
357.761	328.56
357.988	312.56
358.215	329.56
358.441	321.56
358.668	336.56
358.895	347.56
359.122	344.56
359.349	364.56
359.576	358.56
359.802	388.56
360.029	406.56
360.256	421.56
360.483	370.56
360.709	374.56
360.936	357.56
361.163	365.56
361.39	350.56
361.616	392.56
361.843	358.56
362.07	368.56
362.296	377.56
362.523	343.56
362.749	356.56
362.976	340.56
363.203	355.56
363.429	353.56
363.656	351.56
363.882	350.56
364.109	342.56
364.335	335.56
364.562	341.56
364.788	340.56
365.015	353.56
365.241	334.56
365.468	356.56
365.694	340.56
365.92	348.56
366.147	331.56
366.373	360.56
366.599	317.56
366.826	324.56
367.052	344.56
367.278	337.56
367.505	348.56
367.731	334.56
367.957	330.56
368.184	339.56
368.41	347.56
368.636	363.56
368.862	346.56
369.089	337.56
369.315	357.56
369.541	330.56
369.767	334.56
369.993	325.56
370.219	336.56
370.445	320.56
370.672	328.56
370.898	320.56
371.124	337.56
371.35	320.56
371.576	318.56
371.802	333.56
372.028	333.56
372.254	333.56
372.48	346.56
372.706	331.56
372.932	330.56
373.158	334.56
373.384	343.56
373.61	333.56
373.835	331.56
374.061	310.56
374.287	334.56
374.513	357.56
374.739	331.56
374.965	335.56
375.191	334.56
375.416	325.56
375.642	334.56
375.868	324.56
376.094	334.56
376.319	333.56
376.545	316.56
376.771	337.56
376.997	340.56
377.222	328.56
377.448	323.56
377.674	318.56
377.899	323.56
378.125	334.56
378.35	321.56
378.576	307.56
378.802	312.56
379.027	312.56
379.253	314.56
379.478	326.56
379.704	337.56
379.929	314.56
380.155	346.56
380.38	321.56
380.606	309.56
380.831	334.56
381.057	323.56
381.282	339.56
381.507	321.56
381.733	324.56
381.958	321.56
382.184	330.56
382.409	336.56
382.634	332.56
382.86	338.56
383.085	331.56
383.31	344.56
383.535	316.56
383.761	332.56
383.986	326.56
384.211	332.56
384.436	336.56
384.662	324.56
384.887	355.56
385.112	328.56
385.337	341.56
385.562	331.56
385.787	344.56
386.013	368.56
386.238	353.56
386.463	357.56
386.688	352.56
386.913	356.56
387.138	354.56
387.363	334.56
387.588	348.56
387.813	344.56
388.038	336.56
388.263	336.56
388.488	348.56
388.713	350.56
388.938	322.56
389.163	342.56
389.387	341.56
389.612	350.56
389.837	350.56
390.062	348.56
390.287	349.56
390.512	352.56
390.736	344.56
390.961	360.56
391.186	373.56
391.411	368.56
391.636	355.56
391.86	330.56
392.085	352.56
392.31	359.56
392.534	359.56
392.759	357.56
392.984	382.56
393.208	368.56
393.433	351.56
393.658	356.56
393.882	328.56
394.107	364.56
394.331	373.56
394.556	356.56
394.78	369.56
395.005	353.56
395.229	378.56
395.454	373.56
395.678	379.56
395.903	376.56
396.127	380.56
396.352	388.56
396.576	374.56
396.801	363.56
397.025	368.56
397.249	356.56
397.474	380.56
397.698	352.56
397.922	368.56
398.147	411.56
398.371	410.56
398.595	387.56
398.82	384.56
399.044	411.56
399.268	393.56
399.492	427.56
399.717	431.56
399.941	450.56
400.165	483.56
400.389	488.56
400.613	457.56
400.837	418.56
401.062	414.56
401.286	406.56
401.51	393.56
401.734	399.56
401.958	408.56
402.182	404.56
402.406	420.56
402.63	433.56
402.854	422.56
403.078	396.56
403.302	402.56
403.526	398.56
403.75	417.56
403.974	427.56
404.198	396.56
404.422	416.56
404.645	425.56
404.869	442.56
405.093	473.56
405.317	491.56
405.541	513.56
405.765	480.56
405.988	453.56
406.212	462.56
406.436	479.56
406.66	492.56
406.883	461.56
407.107	469.56
407.331	507.56
407.555	557.56
407.778	550.56
408.002	491.56
408.226	475.56
408.449	449.56
408.673	482.56
408.896	501.56
409.12	547.56
409.344	485.56
409.567	435.56
409.791	451.56
410.014	405.56
410.238	428.56
410.461	408.56
410.685	425.56
410.908	434.56
411.132	477.56
411.355	493.56
411.578	461.56
411.802	440.56
412.025	424.56
412.249	451.56
412.472	439.56
412.695	476.56
412.919	491.56
413.142	433.56
413.365	432.56
413.589	411.56
413.812	388.56
414.035	407.56
414.258	377.56
414.482	391.56
414.705	403.56
414.928	396.56
415.151	385.56
415.374	384.56
415.597	389.56
415.821	399.56
416.044	382.56
416.267	405.56
416.49	394.56
416.713	392.56
416.936	378.56
417.159	393.56
417.382	399.56
417.605	413.56
417.828	397.56
418.051	424.56
418.274	417.56
418.497	414.56
418.72	399.56
418.943	391.56
419.166	396.56
419.389	409.56
419.611	406.56
419.834	405.56
420.057	424.56
420.28	424.56
420.503	413.56
420.726	409.56
420.948	430.56
421.171	465.56
421.394	512.56
421.617	422.56
421.839	423.56
422.062	422.56
422.285	436.56
422.507	507.56
422.73	555.56
422.953	525.56
423.175	473.56
423.398	449.56
423.621	428.56
423.843	446.56
424.066	448.56
424.288	452.56
424.511	453.56
424.733	516.56
424.956	602.56
425.178	572.56
425.401	593.56
425.623	587.56
425.846	525.56
426.068	482.56
426.291	473.56
426.513	480.56
426.735	469.56
426.958	487.56
427.18	586.56
427.402	688.56
427.625	749.56
427.847	705.56
428.069	586.56
428.292	532.56
428.514	468.56
428.736	441.56
428.958	453.56
429.181	427.56
429.403	425.56
429.625	426.56
429.847	467.56
430.069	512.56
430.292	526.56
430.514	471.56
430.736	423.56
430.958	427.56
431.18	417.56
431.402	409.56
431.624	410.56
431.846	402.56
432.068	398.56
432.29	401.56
432.512	398.56
432.734	412.56
432.956	417.56
433.178	405.56
433.4	419.56
433.622	425.56
433.844	405.56
434.066	415.56
434.287	407.56
434.509	406.56
434.731	426.56
434.953	416.56
435.175	420.56
435.397	467.56
435.618	456.56
435.84	500.56
436.062	588.56
436.284	635.56
436.505	549.56
436.727	494.56
436.949	484.56
437.17	455.56
437.392	439.56
437.614	459.56
437.835	501.56
438.057	596.56
438.278	668.56
438.5	641.56
438.721	686.56
438.943	650.56
439.165	536.56
439.386	490.56
439.608	488.56
439.829	487.56
440.05	517.56
440.272	564.56
440.493	552.56
440.715	469.56
440.936	460.56
441.158	437.56
441.379	426.56
441.6	438.56
441.822	460.56
442.043	485.56
442.264	581.56
442.486	624.56
442.707	538.56
442.928	480.56
443.149	518.56
443.371	509.56
443.592	535.56
443.813	638.56
444.034	653.56
444.255	556.56
444.476	483.56
444.698	468.56
444.919	458.56
445.14	540.56
445.361	506.56
445.582	533.56
445.803	589.56
446.024	666.56
446.245	676.56
446.466	619.56
446.687	524.56
446.908	479.56
447.129	448.56
447.35	459.56
447.571	450.56
447.792	432.56
448.013	436.56
448.234	484.56
448.455	512.56
448.675	638.56
448.896	718.56
449.117	588.56
449.338	574.56
449.559	663.56
449.779	726.56
450	601.56
450.221	490.56
450.442	450.56
450.662	440.56
450.883	451.56
451.104	459.56
451.324	470.56
451.545	426.56
451.766	397.56
451.986	402.56
452.207	376.56
452.428	384.56
452.648	389.56
452.869	401.56
453.089	402.56
453.31	418.56
453.53	404.56
453.751	401.56
453.971	404.56
454.192	414.56
454.412	412.56
454.633	393.56
454.853	389.56
455.073	390.56
455.294	416.56
455.514	494.56
455.734	471.56
455.955	411.56
456.175	392.56
456.395	371.56
456.616	357.56
456.836	373.56
457.056	372.56
457.276	355.56
457.497	357.56
457.717	369.56
457.937	358.56
458.157	369.56
458.377	377.56
458.598	413.56
458.818	451.56
459.038	560.56
459.258	557.56
459.478	475.56
459.698	429.56
459.918	406.56
460.138	399.56
460.358	409.56
460.578	398.56
460.798	411.56
461.018	413.56
461.238	418.56
461.458	394.56
461.678	385.56
461.898	396.56
462.118	394.56
462.338	406.56
462.558	419.56
462.777	401.56
462.997	413.56
463.217	427.56
463.437	438.56
463.657	421.56
463.876	407.56
464.096	436.56
464.316	409.56
464.536	435.56
464.755	438.56
464.975	441.56
465.195	482.56
465.414	626.56
465.634	512.56
465.854	442.56
466.073	427.56
466.293	435.56
466.512	415.56
466.732	396.56
466.951	400.56
467.171	384.56
467.391	402.56
467.61	402.56
467.829	424.56
468.049	394.56
468.268	422.56
468.488	400.56
468.707	386.56
468.927	376.56
469.146	364.56
469.365	392.56
469.585	388.56
469.804	411.56
470.023	394.56
470.243	420.56
470.462	416.56
470.681	429.56
470.901	446.56
471.12	412.56
471.339	397.56
471.558	412.56
471.777	396.56
471.997	405.56
472.216	405.56
472.435	467.56
472.654	465.56
472.873	421.56
473.092	402.56
473.311	418.56
473.53	409.56
473.749	419.56
473.968	462.56
474.187	551.56
474.406	573.56
474.625	464.56
474.844	421.56
475.063	410.56
475.282	400.56
475.501	418.56
475.72	426.56
475.939	452.56
476.158	410.56
476.377	426.56
476.596	428.56
476.814	444.56
477.033	417.56
477.252	453.56
477.471	418.56
477.69	433.56
477.908	441.56
478.127	442.56
478.346	438.56
478.564	420.56
478.783	436.56
479.002	446.56
479.22	453.56
479.439	481.56
479.658	489.56
479.876	477.56
480.095	485.56
480.313	523.56
480.532	495.56
480.751	496.56
480.969	518.56
481.188	576.56
481.406	648.56
481.624	544.56
481.843	501.56
482.061	471.56
482.28	498.56
482.498	498.56
482.717	489.56
482.935	484.56
483.153	479.56
483.372	493.56
483.59	474.56
483.808	467.56
484.027	462.56
484.245	487.56
484.463	492.56
484.681	477.56
484.9	497.56
485.118	475.56
485.336	498.56
485.554	483.56
485.772	496.56
485.99	487.56
486.209	506.56
486.427	480.56
486.645	524.56
486.863	534.56
487.081	523.56
487.299	506.56
487.517	527.56
487.735	532.56
487.953	492.56
488.171	526.56
488.389	499.56
488.607	526.56
488.825	522.56
489.043	515.56
489.261	529.56
489.479	513.56
489.696	510.56
489.914	525.56
490.132	532.56
490.35	535.56
490.568	554.56
490.786	553.56
491.003	564.56
491.221	564.56
491.439	581.56
491.657	579.56
491.874	600.56
492.092	585.56
492.31	584.56
492.527	581.56
492.745	594.56
492.963	586.56
493.18	590.56
493.398	606.56
493.615	613.56
493.833	582.56
494.05	627.56
494.268	596.56
494.485	609.56
494.703	594.56
494.92	607.56
495.138	596.56
495.355	603.56
495.573	642.56
495.79	608.56
496.008	615.56
496.225	629.56
496.442	610.56
496.66	609.56
496.877	622.56
497.094	606.56
497.312	630.56
497.529	615.56
497.746	640.56
497.963	644.56
498.181	653.56
498.398	649.56
498.615	662.56
498.832	696.56
499.049	660.56
499.267	682.56
499.484	675.56
499.701	684.56
499.918	718.56
500.135	716.56
500.352	755.56
500.569	759.56
500.786	732.56
501.003	747.56
501.22	744.56
501.437	747.56
501.654	715.56
501.871	752.56
502.088	722.56
