Data from 1961.PennyLincolnUp.Lamp.En5.5.200Scan.071719.P1._HRD10591_13-46-57-061.txt Node
Date: Thu Jul 18 13:46:57 EDT 2019
User: cochatt
Spectrometer: HR+D1059
Trigger mode: 1
Integration Time (sec): 1.000000E-1
Scans to average: 1
Electric dark correction enabled: true
Nonlinearity correction enabled: false
Boxcar width: 0
XAxis mode: Wavelengths
Number of Pixels in Spectrum: 2048
>>>>>Begin Spectral Data<<<<<
223.165	-24.62
223.4	-24.62
223.635	-24.62
223.869	-17.62
224.104	-16.62
224.338	-1.62
224.573	-22.62
224.808	-8.62
225.042	-18.62
225.277	-6.62
225.511	-1.62
225.746	2.38
225.98	-1.62
226.215	10.38
226.449	23.38
226.683	18.38
226.918	36.38
227.152	29.38
227.387	32.38
227.621	32.38
227.856	51.38
228.09	42.38
228.324	49.38
228.559	52.38
228.793	65.38
229.027	102.38
229.262	100.38
229.496	99.38
229.73	122.38
229.964	131.38
230.199	117.38
230.433	112.38
230.667	103.38
230.901	97.38
231.136	94.38
231.37	99.38
231.604	116.38
231.838	99.38
232.072	107.38
232.306	102.38
232.541	100.38
232.775	89.38
233.009	100.38
233.243	104.38
233.477	115.38
233.711	107.38
233.945	110.38
234.179	102.38
234.413	99.38
234.647	101.38
234.881	97.38
235.115	104.38
235.349	81.38
235.583	102.38
235.817	108.38
236.051	102.38
236.285	111.38
236.519	116.38
236.753	114.38
236.987	128.38
237.221	156.38
237.455	185.38
237.689	162.38
237.922	134.38
238.156	123.38
238.39	108.38
238.624	110.38
238.858	103.38
239.091	98.38
239.325	122.38
239.559	105.38
239.793	101.38
240.027	110.38
240.26	120.38
240.494	129.38
240.728	126.38
240.961	129.38
241.195	116.38
241.429	118.38
241.662	96.38
241.896	99.38
242.13	105.38
242.363	117.38
242.597	123.38
242.83	114.38
243.064	112.38
243.298	121.38
243.531	112.38
243.765	113.38
243.998	106.38
244.232	124.38
244.465	122.38
244.699	130.38
244.932	131.38
245.166	134.38
245.399	120.38
245.633	122.38
245.866	122.38
246.099	121.38
246.333	120.38
246.566	138.38
246.8	111.38
247.033	123.38
247.266	133.38
247.5	137.38
247.733	125.38
247.966	145.38
248.2	152.38
248.433	138.38
248.666	145.38
248.899	144.38
249.133	160.38
249.366	166.38
249.599	192.38
249.832	142.38
250.066	139.38
250.299	148.38
250.532	153.38
250.765	168.38
250.998	169.38
251.231	179.38
251.465	176.38
251.698	155.38
251.931	141.38
252.164	155.38
252.397	145.38
252.63	160.38
252.863	171.38
253.096	180.38
253.329	165.38
253.562	186.38
253.795	167.38
254.028	174.38
254.261	176.38
254.494	192.38
254.727	186.38
254.96	195.38
255.193	228.38
255.426	183.38
255.659	193.38
255.892	178.38
256.124	183.38
256.357	182.38
256.59	171.38
256.823	170.38
257.056	169.38
257.289	175.38
257.521	179.38
257.754	166.38
257.987	150.38
258.22	163.38
258.452	167.38
258.685	156.38
258.918	171.38
259.151	162.38
259.383	171.38
259.616	171.38
259.849	167.38
260.081	168.38
260.314	196.38
260.547	199.38
260.779	195.38
261.012	185.38
261.244	171.38
261.477	170.38
261.71	180.38
261.942	181.38
262.175	166.38
262.407	178.38
262.64	178.38
262.872	177.38
263.105	167.38
263.337	166.38
263.57	175.38
263.802	166.38
264.035	166.38
264.267	176.38
264.499	153.38
264.732	180.38
264.964	169.38
265.197	167.38
265.429	161.38
265.661	175.38
265.894	165.38
266.126	172.38
266.358	158.38
266.591	176.38
266.823	167.38
267.055	181.38
267.287	181.38
267.52	170.38
267.752	187.38
267.984	160.38
268.216	160.38
268.448	178.38
268.681	172.38
268.913	187.38
269.145	191.38
269.377	199.38
269.609	219.38
269.841	217.38
270.073	229.38
270.306	221.38
270.538	238.38
270.77	241.38
271.002	227.38
271.234	235.38
271.466	232.38
271.698	240.38
271.93	246.38
272.162	232.38
272.394	227.38
272.626	229.38
272.858	214.38
273.09	231.38
273.322	198.38
273.553	177.38
273.785	200.38
274.017	202.38
274.249	210.38
274.481	192.38
274.713	202.38
274.945	224.38
275.176	223.38
275.408	205.38
275.64	216.38
275.872	205.38
276.104	198.38
276.335	206.38
276.567	211.38
276.799	225.38
277.031	258.38
277.262	227.38
277.494	243.38
277.726	228.38
277.957	215.38
278.189	206.38
278.421	187.38
278.652	209.38
278.884	202.38
279.115	212.38
279.347	207.38
279.579	201.38
279.81	206.38
280.042	207.38
280.273	207.38
280.505	203.38
280.736	193.38
280.968	201.38
281.199	209.38
281.431	190.38
281.662	214.38
281.894	199.38
282.125	211.38
282.356	219.38
282.588	222.38
282.819	225.38
283.051	214.38
283.282	203.38
283.513	197.38
283.745	197.38
283.976	186.38
284.207	223.38
284.439	215.38
284.67	208.38
284.901	200.38
285.132	201.38
285.364	201.38
285.595	218.38
285.826	218.38
286.057	207.38
286.288	207.38
286.52	206.38
286.751	228.38
286.982	213.38
287.213	208.38
287.444	208.38
287.675	229.38
287.906	214.38
288.138	227.38
288.369	222.38
288.6	216.38
288.831	235.38
289.062	226.38
289.293	221.38
289.524	233.38
289.755	226.38
289.986	210.38
290.217	213.38
290.448	216.38
290.679	213.38
290.91	212.38
291.141	212.38
291.371	207.38
291.602	211.38
291.833	221.38
292.064	209.38
292.295	207.38
292.526	204.38
292.757	226.38
292.987	213.38
293.218	204.38
293.449	204.38
293.68	218.38
293.91	203.38
294.141	223.38
294.372	216.38
294.603	210.38
294.833	228.38
295.064	223.38
295.295	219.38
295.525	211.38
295.756	207.38
295.987	221.38
296.217	243.38
296.448	247.38
296.679	232.38
296.909	243.38
297.14	227.38
297.37	219.38
297.601	226.38
297.831	230.38
298.062	219.38
298.292	225.38
298.523	220.38
298.753	231.38
298.984	222.38
299.214	228.38
299.445	231.38
299.675	214.38
299.905	233.38
300.136	239.38
300.366	206.38
300.597	224.38
300.827	233.38
301.057	247.38
301.288	238.38
301.518	250.38
301.748	220.38
301.979	234.38
302.209	241.38
302.439	246.38
302.669	246.38
302.9	231.38
303.13	229.38
303.36	219.38
303.59	242.38
303.82	241.38
304.051	229.38
304.281	242.38
304.511	237.38
304.741	255.38
304.971	248.38
305.201	236.38
305.431	226.38
305.661	220.38
305.891	236.38
306.121	256.38
306.352	249.38
306.582	262.38
306.812	246.38
307.042	240.38
307.272	265.38
307.502	260.38
307.731	252.38
307.961	254.38
308.191	244.38
308.421	247.38
308.651	258.38
308.881	255.38
309.111	257.38
309.341	246.38
309.571	264.38
309.8	278.38
310.03	286.38
310.26	284.38
310.49	272.38
310.72	299.38
310.949	296.38
311.179	304.38
311.409	290.38
311.639	280.38
311.868	281.38
312.098	290.38
312.328	289.38
312.557	304.38
312.787	308.38
313.017	304.38
313.246	310.38
313.476	282.38
313.706	303.38
313.935	302.38
314.165	305.38
314.394	293.38
314.624	299.38
314.853	286.38
315.083	298.38
315.312	302.38
315.542	276.38
315.771	284.38
316.001	282.38
316.23	281.38
316.46	286.38
316.689	282.38
316.919	289.38
317.148	294.38
317.377	303.38
317.607	298.38
317.836	292.38
318.065	281.38
318.295	289.38
318.524	299.38
318.753	288.38
318.983	280.38
319.212	302.38
319.441	292.38
319.67	302.38
319.9	296.38
320.129	300.38
320.358	302.38
320.587	305.38
320.816	299.38
321.046	313.38
321.275	311.38
321.504	305.38
321.733	325.38
321.962	323.38
322.191	314.38
322.42	327.38
322.649	359.38
322.878	357.38
323.108	369.38
323.337	370.38
323.566	407.38
323.795	446.38
324.024	479.38
324.253	575.38
324.482	830.38
324.71	1260.38
324.939	1723.38
325.168	1466.38
325.397	817.38
325.626	533.38
325.855	448.38
326.084	418.38
326.313	386.38
326.542	383.38
326.77	452.38
326.999	543.38
327.228	731.38
327.457	1116.38
327.686	1279.38
327.914	872.38
328.143	575.38
328.372	484.38
328.6	471.38
328.829	458.38
329.058	467.38
329.287	472.38
329.515	435.38
329.744	392.38
329.972	415.38
330.201	402.38
330.43	452.38
330.658	462.38
330.887	468.38
331.115	479.38
331.344	425.38
331.572	392.38
331.801	379.38
332.03	383.38
332.258	365.38
332.486	337.38
332.715	317.38
332.943	350.38
333.172	348.38
333.4	342.38
333.629	352.38
333.857	382.38
334.085	361.38
334.314	375.38
334.542	404.38
334.771	420.38
334.999	373.38
335.227	371.38
335.455	360.38
335.684	332.38
335.912	331.38
336.14	333.38
336.369	326.38
336.597	337.38
336.825	328.38
337.053	336.38
337.281	309.38
337.51	338.38
337.738	334.38
337.966	326.38
338.194	322.38
338.422	347.38
338.65	324.38
338.878	311.38
339.106	309.38
339.334	323.38
339.562	309.38
339.79	289.38
340.018	323.38
340.246	319.38
340.474	340.38
340.702	331.38
340.93	318.38
341.158	310.38
341.386	340.38
341.614	332.38
341.842	335.38
342.07	327.38
342.298	327.38
342.526	330.38
342.754	338.38
342.981	308.38
343.209	323.38
343.437	332.38
343.665	323.38
343.893	286.38
344.12	325.38
344.348	306.38
344.576	328.38
344.804	350.38
345.031	314.38
345.259	342.38
345.487	332.38
345.714	327.38
345.942	350.38
346.17	320.38
346.397	304.38
346.625	310.38
346.853	324.38
347.08	315.38
347.308	299.38
347.535	305.38
347.763	306.38
347.99	339.38
348.218	320.38
348.445	319.38
348.673	318.38
348.9	318.38
349.128	307.38
349.355	314.38
349.583	318.38
349.81	307.38
350.037	290.38
350.265	310.38
350.492	305.38
350.72	305.38
350.947	328.38
351.174	298.38
351.402	343.38
351.629	325.38
351.856	316.38
352.083	335.38
352.311	328.38
352.538	330.38
352.765	338.38
352.992	320.38
353.22	316.38
353.447	319.38
353.674	317.38
353.901	293.38
354.128	297.38
354.355	307.38
354.583	298.38
354.81	288.38
355.037	292.38
355.264	288.38
355.491	298.38
355.718	286.38
355.945	294.38
356.172	292.38
356.399	297.38
356.626	295.38
356.853	279.38
357.08	278.38
357.307	300.38
357.534	290.38
357.761	285.38
357.988	280.38
358.215	306.38
358.441	288.38
358.668	279.38
358.895	294.38
359.122	308.38
359.349	315.38
359.576	314.38
359.802	336.38
360.029	346.38
360.256	359.38
360.483	343.38
360.709	314.38
360.936	327.38
361.163	323.38
361.39	311.38
361.616	313.38
361.843	336.38
362.07	322.38
362.296	310.38
362.523	304.38
362.749	298.38
362.976	314.38
363.203	304.38
363.429	322.38
363.656	290.38
363.882	281.38
364.109	294.38
364.335	316.38
364.562	289.38
364.788	313.38
365.015	304.38
365.241	305.38
365.468	306.38
365.694	291.38
365.92	306.38
366.147	300.38
366.373	294.38
366.599	290.38
366.826	290.38
367.052	292.38
367.278	300.38
367.505	280.38
367.731	310.38
367.957	327.38
368.184	312.38
368.41	310.38
368.636	319.38
368.862	318.38
369.089	294.38
369.315	311.38
369.541	302.38
369.767	283.38
369.993	306.38
370.219	307.38
370.445	300.38
370.672	296.38
370.898	317.38
371.124	300.38
371.35	278.38
371.576	277.38
371.802	299.38
372.028	303.38
372.254	293.38
372.48	304.38
372.706	314.38
372.932	292.38
373.158	304.38
373.384	292.38
373.61	314.38
373.835	297.38
374.061	296.38
374.287	307.38
374.513	289.38
374.739	284.38
374.965	285.38
375.191	294.38
375.416	298.38
375.642	324.38
375.868	308.38
376.094	307.38
376.319	307.38
376.545	308.38
376.771	298.38
376.997	302.38
377.222	290.38
377.448	292.38
377.674	297.38
377.899	290.38
378.125	303.38
378.35	294.38
378.576	293.38
378.802	298.38
379.027	297.38
379.253	305.38
379.478	308.38
379.704	295.38
379.929	305.38
380.155	297.38
380.38	304.38
380.606	280.38
380.831	306.38
381.057	296.38
381.282	310.38
381.507	317.38
381.733	296.38
381.958	296.38
382.184	287.38
382.409	300.38
382.634	313.38
382.86	316.38
383.085	304.38
383.31	309.38
383.535	310.38
383.761	322.38
383.986	327.38
384.211	302.38
384.436	319.38
384.662	315.38
384.887	299.38
385.112	302.38
385.337	310.38
385.562	318.38
385.787	324.38
386.013	328.38
386.238	329.38
386.463	319.38
386.688	326.38
386.913	324.38
387.138	333.38
387.363	312.38
387.588	332.38
387.813	338.38
388.038	329.38
388.263	321.38
388.488	295.38
388.713	314.38
388.938	320.38
389.163	324.38
389.387	325.38
389.612	329.38
389.837	293.38
390.062	331.38
390.287	323.38
390.512	322.38
390.736	328.38
390.961	308.38
391.186	314.38
391.411	346.38
391.636	328.38
391.86	320.38
392.085	331.38
392.31	319.38
392.534	329.38
392.759	317.38
392.984	331.38
393.208	333.38
393.433	336.38
393.658	339.38
393.882	316.38
394.107	321.38
394.331	315.38
394.556	333.38
394.78	320.38
395.005	330.38
395.229	329.38
395.454	345.38
395.678	339.38
395.903	353.38
396.127	349.38
396.352	358.38
396.576	347.38
396.801	324.38
397.025	338.38
397.249	338.38
397.474	335.38
397.698	342.38
397.922	350.38
398.147	368.38
398.371	378.38
398.595	375.38
398.82	352.38
399.044	366.38
399.268	384.38
399.492	391.38
399.717	417.38
399.941	437.38
400.165	458.38
400.389	434.38
400.613	405.38
400.837	384.38
401.062	377.38
401.286	350.38
401.51	392.38
401.734	364.38
401.958	368.38
402.182	384.38
402.406	373.38
402.63	373.38
402.854	357.38
403.078	368.38
403.302	382.38
403.526	396.38
403.75	375.38
403.974	367.38
404.198	381.38
404.422	376.38
404.645	395.38
404.869	391.38
405.093	434.38
405.317	445.38
405.541	452.38
405.765	427.38
405.988	406.38
406.212	399.38
406.436	419.38
406.66	421.38
406.883	424.38
407.107	441.38
407.331	467.38
407.555	508.38
407.778	500.38
408.002	485.38
408.226	446.38
408.449	416.38
408.673	390.38
408.896	432.38
409.12	473.38
409.344	454.38
409.567	388.38
409.791	392.38
410.014	399.38
410.238	396.38
410.461	375.38
410.685	404.38
410.908	383.38
411.132	419.38
411.355	444.38
411.578	444.38
411.802	408.38
412.025	370.38
412.249	382.38
412.472	416.38
412.695	439.38
412.919	442.38
413.142	400.38
413.365	386.38
413.589	387.38
413.812	367.38
414.035	382.38
414.258	378.38
414.482	386.38
414.705	370.38
414.928	348.38
415.151	369.38
415.374	358.38
415.597	360.38
415.821	372.38
416.044	367.38
416.267	375.38
416.49	366.38
416.713	357.38
416.936	359.38
417.159	353.38
417.382	374.38
417.605	369.38
417.828	347.38
418.051	373.38
418.274	388.38
418.497	366.38
418.72	346.38
418.943	358.38
419.166	356.38
419.389	376.38
419.611	396.38
419.834	368.38
420.057	371.38
420.28	388.38
420.503	371.38
420.726	376.38
420.948	410.38
421.171	416.38
421.394	449.38
421.617	408.38
421.839	382.38
422.062	402.38
422.285	399.38
422.507	421.38
422.73	474.38
422.953	457.38
423.175	386.38
423.398	402.38
423.621	393.38
423.843	414.38
424.066	409.38
424.288	415.38
424.511	418.38
424.733	455.38
424.956	518.38
425.178	486.38
425.401	497.38
425.623	534.38
425.846	460.38
426.068	436.38
426.291	423.38
426.513	406.38
426.735	425.38
426.958	466.38
427.18	520.38
427.402	611.38
427.625	656.38
427.847	618.38
428.069	525.38
428.292	471.38
428.514	429.38
428.736	403.38
428.958	418.38
429.181	393.38
429.403	393.38
429.625	411.38
429.847	430.38
430.069	491.38
430.292	487.38
430.514	401.38
430.736	386.38
430.958	380.38
431.18	370.38
431.402	361.38
431.624	369.38
431.846	379.38
432.068	369.38
432.29	372.38
432.512	357.38
432.734	351.38
432.956	380.38
433.178	377.38
433.4	388.38
433.622	368.38
433.844	343.38
434.066	380.38
434.287	382.38
434.509	375.38
434.731	387.38
434.953	379.38
435.175	370.38
435.397	415.38
435.618	412.38
435.84	446.38
436.062	529.38
436.284	578.38
436.505	475.38
436.727	418.38
436.949	403.38
437.17	383.38
437.392	383.38
437.614	395.38
437.835	433.38
438.057	496.38
438.278	575.38
438.5	598.38
438.721	629.38
438.943	585.38
439.165	460.38
439.386	448.38
439.608	431.38
439.829	412.38
440.05	462.38
440.272	497.38
440.493	448.38
440.715	432.38
440.936	393.38
441.158	400.38
441.379	399.38
441.6	420.38
441.822	391.38
442.043	446.38
442.264	530.38
442.486	523.38
442.707	453.38
442.928	443.38
443.149	445.38
443.371	434.38
443.592	483.38
443.813	563.38
444.034	564.38
444.255	489.38
444.476	421.38
444.698	401.38
444.919	416.38
445.14	519.38
445.361	455.38
445.582	455.38
445.803	518.38
446.024	576.38
446.245	601.38
446.466	534.38
446.687	461.38
446.908	430.38
447.129	412.38
447.35	392.38
447.571	400.38
447.792	385.38
448.013	388.38
448.234	424.38
448.455	448.38
448.675	535.38
448.896	614.38
449.117	546.38
449.338	492.38
449.559	582.38
449.779	644.38
450	522.38
450.221	431.38
450.442	394.38
450.662	380.38
450.883	400.38
451.104	392.38
451.324	402.38
451.545	384.38
451.766	355.38
451.986	349.38
452.207	374.38
452.428	344.38
452.648	357.38
452.869	364.38
453.089	336.38
453.31	356.38
453.53	363.38
453.751	366.38
453.971	386.38
454.192	371.38
454.412	356.38
454.633	360.38
454.853	358.38
455.073	353.38
455.294	384.38
455.514	434.38
455.734	419.38
455.955	361.38
456.175	329.38
456.395	330.38
456.616	347.38
456.836	331.38
457.056	326.38
457.276	324.38
457.497	318.38
457.717	332.38
457.937	343.38
458.157	340.38
458.377	328.38
458.598	360.38
458.818	416.38
459.038	474.38
459.258	467.38
459.478	402.38
459.698	389.38
459.918	377.38
460.138	396.38
460.358	378.38
460.578	363.38
460.798	385.38
461.018	378.38
461.238	370.38
461.458	377.38
461.678	353.38
461.898	368.38
462.118	361.38
462.338	391.38
462.558	373.38
462.777	392.38
462.997	403.38
463.217	396.38
463.437	378.38
463.657	383.38
463.876	402.38
464.096	400.38
464.316	380.38
464.536	396.38
464.755	401.38
464.975	399.38
465.195	440.38
465.414	488.38
465.634	450.38
465.854	402.38
466.073	392.38
466.293	380.38
466.512	375.38
466.732	370.38
466.951	368.38
467.171	388.38
467.391	375.38
467.61	371.38
467.829	387.38
468.049	370.38
468.268	374.38
468.488	359.38
468.707	355.38
468.927	350.38
469.146	340.38
469.365	343.38
469.585	345.38
469.804	353.38
470.023	361.38
470.243	373.38
470.462	356.38
470.681	388.38
470.901	396.38
471.12	373.38
471.339	383.38
471.558	366.38
471.777	369.38
471.997	381.38
472.216	379.38
472.435	416.38
472.654	414.38
472.873	359.38
473.092	349.38
473.311	365.38
473.53	378.38
473.749	391.38
473.968	410.38
474.187	480.38
474.406	482.38
474.625	392.38
474.844	386.38
475.063	374.38
475.282	389.38
475.501	379.38
475.72	363.38
475.939	388.38
476.158	378.38
476.377	388.38
476.596	386.38
476.814	370.38
477.033	387.38
477.252	395.38
477.471	386.38
477.69	397.38
477.908	397.38
478.127	404.38
478.346	390.38
478.564	390.38
478.783	396.38
479.002	416.38
479.22	414.38
479.439	420.38
479.658	436.38
479.876	430.38
480.095	438.38
480.313	434.38
480.532	457.38
480.751	423.38
480.969	460.38
481.188	516.38
481.406	558.38
481.624	491.38
481.843	464.38
482.061	456.38
482.28	419.38
482.498	434.38
482.717	408.38
482.935	440.38
483.153	443.38
483.372	427.38
483.59	434.38
483.808	452.38
484.027	444.38
484.245	449.38
484.463	447.38
484.681	436.38
484.9	449.38
485.118	450.38
485.336	451.38
485.554	444.38
485.772	427.38
485.99	461.38
486.209	441.38
486.427	443.38
486.645	456.38
486.863	453.38
487.081	469.38
487.299	463.38
487.517	481.38
487.735	446.38
487.953	452.38
488.171	445.38
488.389	450.38
488.607	442.38
488.825	478.38
489.043	456.38
489.261	470.38
489.479	447.38
489.696	484.38
489.914	467.38
490.132	487.38
490.35	482.38
490.568	465.38
490.786	481.38
491.003	496.38
491.221	500.38
491.439	494.38
491.657	506.38
491.874	500.38
492.092	486.38
492.31	515.38
492.527	548.38
492.745	530.38
492.963	530.38
493.18	509.38
493.398	522.38
493.615	522.38
493.833	516.38
494.05	526.38
494.268	526.38
494.485	534.38
494.703	516.38
494.92	525.38
495.138	546.38
495.355	554.38
495.573	552.38
495.79	558.38
496.008	545.38
496.225	556.38
496.442	558.38
496.66	571.38
496.877	550.38
497.094	550.38
497.312	570.38
497.529	564.38
497.746	565.38
497.963	580.38
498.181	599.38
498.398	598.38
498.615	595.38
498.832	612.38
499.049	605.38
499.267	638.38
499.484	648.38
499.701	647.38
499.918	644.38
500.135	688.38
500.352	707.38
500.569	692.38
500.786	690.38
501.003	704.38
501.22	700.38
501.437	680.38
501.654	662.38
501.871	666.38
502.088	639.38
