Data from 1961.PennyLincolnUp.Lamp.En5.5.200Scan.071719.P1._HRD10591_13-48-17-057.txt Node
Date: Thu Jul 18 13:48:17 EDT 2019
User: cochatt
Spectrometer: HR+D1059
Trigger mode: 1
Integration Time (sec): 1.000000E-1
Scans to average: 1
Electric dark correction enabled: true
Nonlinearity correction enabled: false
Boxcar width: 0
XAxis mode: Wavelengths
Number of Pixels in Spectrum: 2048
>>>>>Begin Spectral Data<<<<<
223.165	-14.44
223.4	-14.44
223.635	-14.44
223.869	-13.44
224.104	-18.44
224.338	-24.44
224.573	-13.44
224.808	-12.44
225.042	-10.44
225.277	2.56
225.511	-11.44
225.746	-4.44
225.98	13.56
226.215	8.56
226.449	18.56
226.683	24.56
226.918	15.56
227.152	39.56
227.387	30.56
227.621	40.56
227.856	43.56
228.09	43.56
228.324	47.56
228.559	55.56
228.793	59.56
229.027	84.56
229.262	100.56
229.496	100.56
229.73	133.56
229.964	140.56
230.199	124.56
230.433	103.56
230.667	106.56
230.901	106.56
231.136	103.56
231.37	98.56
231.604	106.56
231.838	108.56
232.072	101.56
232.306	113.56
232.541	94.56
232.775	102.56
233.009	103.56
233.243	97.56
233.477	116.56
233.711	112.56
233.945	110.56
234.179	112.56
234.413	111.56
234.647	98.56
234.881	104.56
235.115	108.56
235.349	114.56
235.583	101.56
235.817	108.56
236.051	111.56
236.285	110.56
236.519	108.56
236.753	114.56
236.987	145.56
237.221	166.56
237.455	223.56
237.689	184.56
237.922	128.56
238.156	118.56
238.39	116.56
238.624	107.56
238.858	113.56
239.091	115.56
239.325	115.56
239.559	116.56
239.793	112.56
240.027	126.56
240.26	132.56
240.494	148.56
240.728	126.56
240.961	131.56
241.195	135.56
241.429	117.56
241.662	119.56
241.896	113.56
242.13	123.56
242.363	115.56
242.597	119.56
242.83	111.56
243.064	122.56
243.298	134.56
243.531	102.56
243.765	120.56
243.998	128.56
244.232	121.56
244.465	115.56
244.699	112.56
244.932	123.56
245.166	129.56
245.399	120.56
245.633	116.56
245.866	130.56
246.099	122.56
246.333	144.56
246.566	120.56
246.8	140.56
247.033	123.56
247.266	139.56
247.5	131.56
247.733	142.56
247.966	135.56
248.2	149.56
248.433	146.56
248.666	152.56
248.899	155.56
249.133	169.56
249.366	183.56
249.599	164.56
249.832	164.56
250.066	170.56
250.299	166.56
250.532	174.56
250.765	194.56
250.998	202.56
251.231	199.56
251.465	179.56
251.698	175.56
251.931	183.56
252.164	174.56
252.397	177.56
252.63	161.56
252.863	170.56
253.096	172.56
253.329	182.56
253.562	190.56
253.795	192.56
254.028	189.56
254.261	188.56
254.494	190.56
254.727	215.56
254.96	246.56
255.193	217.56
255.426	226.56
255.659	190.56
255.892	197.56
256.124	192.56
256.357	189.56
256.59	189.56
256.823	181.56
257.056	184.56
257.289	178.56
257.521	189.56
257.754	175.56
257.987	180.56
258.22	180.56
258.452	181.56
258.685	178.56
258.918	178.56
259.151	177.56
259.383	189.56
259.616	201.56
259.849	189.56
260.081	197.56
260.314	215.56
260.547	209.56
260.779	190.56
261.012	184.56
261.244	184.56
261.477	195.56
261.71	190.56
261.942	211.56
262.175	207.56
262.407	216.56
262.64	189.56
262.872	177.56
263.105	175.56
263.337	183.56
263.57	193.56
263.802	174.56
264.035	178.56
264.267	169.56
264.499	169.56
264.732	174.56
264.964	176.56
265.197	194.56
265.429	168.56
265.661	186.56
265.894	185.56
266.126	184.56
266.358	178.56
266.591	183.56
266.823	184.56
267.055	186.56
267.287	202.56
267.52	183.56
267.752	181.56
267.984	176.56
268.216	182.56
268.448	182.56
268.681	201.56
268.913	198.56
269.145	223.56
269.377	232.56
269.609	228.56
269.841	204.56
270.073	221.56
270.306	227.56
270.538	267.56
270.77	256.56
271.002	251.56
271.234	252.56
271.466	251.56
271.698	282.56
271.93	281.56
272.162	257.56
272.394	267.56
272.626	244.56
272.858	250.56
273.09	222.56
273.322	230.56
273.553	219.56
273.785	222.56
274.017	216.56
274.249	219.56
274.481	224.56
274.713	207.56
274.945	233.56
275.176	219.56
275.408	231.56
275.64	221.56
275.872	213.56
276.104	217.56
276.335	222.56
276.567	228.56
276.799	220.56
277.031	258.56
277.262	269.56
277.494	274.56
277.726	245.56
277.957	231.56
278.189	230.56
278.421	219.56
278.652	219.56
278.884	227.56
279.115	212.56
279.347	222.56
279.579	210.56
279.81	219.56
280.042	226.56
280.273	228.56
280.505	227.56
280.736	229.56
280.968	220.56
281.199	225.56
281.431	218.56
281.662	211.56
281.894	225.56
282.125	224.56
282.356	236.56
282.588	259.56
282.819	274.56
283.051	242.56
283.282	219.56
283.513	218.56
283.745	230.56
283.976	226.56
284.207	217.56
284.439	231.56
284.67	223.56
284.901	220.56
285.132	226.56
285.364	234.56
285.595	220.56
285.826	243.56
286.057	209.56
286.288	219.56
286.52	220.56
286.751	215.56
286.982	218.56
287.213	209.56
287.444	229.56
287.675	227.56
287.906	243.56
288.138	235.56
288.369	238.56
288.6	242.56
288.831	239.56
289.062	229.56
289.293	251.56
289.524	242.56
289.755	243.56
289.986	233.56
290.217	228.56
290.448	246.56
290.679	262.56
290.91	235.56
291.141	249.56
291.371	225.56
291.602	238.56
291.833	242.56
292.064	231.56
292.295	231.56
292.526	238.56
292.757	230.56
292.987	231.56
293.218	240.56
293.449	239.56
293.68	231.56
293.91	240.56
294.141	234.56
294.372	223.56
294.603	243.56
294.833	231.56
295.064	222.56
295.295	230.56
295.525	243.56
295.756	258.56
295.987	263.56
296.217	290.56
296.448	278.56
296.679	256.56
296.909	256.56
297.14	242.56
297.37	224.56
297.601	231.56
297.831	256.56
298.062	227.56
298.292	247.56
298.523	238.56
298.753	256.56
298.984	241.56
299.214	232.56
299.445	237.56
299.675	233.56
299.905	241.56
300.136	243.56
300.366	231.56
300.597	243.56
300.827	259.56
301.057	275.56
301.288	255.56
301.518	255.56
301.748	273.56
301.979	259.56
302.209	281.56
302.439	260.56
302.669	262.56
302.9	266.56
303.13	238.56
303.36	262.56
303.59	267.56
303.82	278.56
304.051	248.56
304.281	265.56
304.511	256.56
304.741	258.56
304.971	255.56
305.201	271.56
305.431	262.56
305.661	274.56
305.891	262.56
306.121	278.56
306.352	254.56
306.582	278.56
306.812	270.56
307.042	252.56
307.272	235.56
307.502	274.56
307.731	285.56
307.961	268.56
308.191	265.56
308.421	262.56
308.651	267.56
308.881	270.56
309.111	276.56
309.341	272.56
309.571	289.56
309.8	314.56
310.03	304.56
310.26	319.56
310.49	326.56
310.72	317.56
310.949	336.56
311.179	322.56
311.409	310.56
311.639	306.56
311.868	318.56
312.098	329.56
312.328	313.56
312.557	354.56
312.787	339.56
313.017	343.56
313.246	335.56
313.476	322.56
313.706	312.56
313.935	320.56
314.165	319.56
314.394	329.56
314.624	323.56
314.853	322.56
315.083	312.56
315.312	300.56
315.542	308.56
315.771	309.56
316.001	286.56
316.23	308.56
316.46	312.56
316.689	320.56
316.919	310.56
317.148	324.56
317.377	318.56
317.607	319.56
317.836	294.56
318.065	327.56
318.295	312.56
318.524	319.56
318.753	304.56
318.983	310.56
319.212	314.56
319.441	321.56
319.67	326.56
319.9	315.56
320.129	312.56
320.358	317.56
320.587	310.56
320.816	343.56
321.046	323.56
321.275	346.56
321.504	343.56
321.733	342.56
321.962	359.56
322.191	360.56
322.42	385.56
322.649	390.56
322.878	417.56
323.108	408.56
323.337	434.56
323.566	448.56
323.795	492.56
324.024	555.56
324.253	670.56
324.482	1030.56
324.71	1632.56
324.939	2203.56
325.168	1868.56
325.397	951.56
325.626	632.56
325.855	531.56
326.084	486.56
326.313	454.56
326.542	467.56
326.77	523.56
326.999	612.56
327.228	908.56
327.457	1375.56
327.686	1635.56
327.914	1074.56
328.143	704.56
328.372	606.56
328.6	551.56
328.829	543.56
329.058	530.56
329.287	529.56
329.515	499.56
329.744	449.56
329.972	470.56
330.201	475.56
330.43	526.56
330.658	568.56
330.887	567.56
331.115	556.56
331.344	471.56
331.572	435.56
331.801	452.56
332.03	447.56
332.258	386.56
332.486	378.56
332.715	393.56
332.943	375.56
333.172	384.56
333.4	368.56
333.629	370.56
333.857	387.56
334.085	416.56
334.314	430.56
334.542	456.56
334.771	472.56
334.999	419.56
335.227	401.56
335.455	374.56
335.684	376.56
335.912	360.56
336.14	352.56
336.369	373.56
336.597	366.56
336.825	364.56
337.053	356.56
337.281	359.56
337.51	343.56
337.738	342.56
337.966	356.56
338.194	367.56
338.422	372.56
338.65	354.56
338.878	338.56
339.106	348.56
339.334	344.56
339.562	360.56
339.79	335.56
340.018	347.56
340.246	368.56
340.474	361.56
340.702	370.56
340.93	346.56
341.158	359.56
341.386	344.56
341.614	334.56
341.842	357.56
342.07	340.56
342.298	333.56
342.526	323.56
342.754	327.56
342.981	336.56
343.209	330.56
343.437	336.56
343.665	330.56
343.893	352.56
344.12	340.56
344.348	331.56
344.576	353.56
344.804	367.56
345.031	362.56
345.259	372.56
345.487	362.56
345.714	358.56
345.942	336.56
346.17	331.56
346.397	334.56
346.625	342.56
346.853	351.56
347.08	349.56
347.308	342.56
347.535	356.56
347.763	367.56
347.99	344.56
348.218	352.56
348.445	359.56
348.673	358.56
348.9	354.56
349.128	328.56
349.355	322.56
349.583	330.56
349.81	349.56
350.037	332.56
350.265	324.56
350.492	336.56
350.72	326.56
350.947	332.56
351.174	338.56
351.402	367.56
351.629	363.56
351.856	361.56
352.083	362.56
352.311	367.56
352.538	366.56
352.765	360.56
352.992	363.56
353.22	359.56
353.447	342.56
353.674	353.56
353.901	313.56
354.128	315.56
354.355	319.56
354.583	326.56
354.81	297.56
355.037	298.56
355.264	322.56
355.491	317.56
355.718	319.56
355.945	303.56
356.172	276.56
356.399	312.56
356.626	308.56
356.853	310.56
357.08	337.56
357.307	318.56
357.534	324.56
357.761	313.56
357.988	311.56
358.215	327.56
358.441	302.56
358.668	313.56
358.895	337.56
359.122	307.56
359.349	347.56
359.576	354.56
359.802	368.56
360.029	396.56
360.256	424.56
360.483	390.56
360.709	351.56
360.936	352.56
361.163	360.56
361.39	350.56
361.616	345.56
361.843	339.56
362.07	353.56
362.296	356.56
362.523	333.56
362.749	363.56
362.976	346.56
363.203	332.56
363.429	320.56
363.656	327.56
363.882	318.56
364.109	332.56
364.335	324.56
364.562	326.56
364.788	318.56
365.015	306.56
365.241	330.56
365.468	331.56
365.694	331.56
365.92	332.56
366.147	311.56
366.373	330.56
366.599	329.56
366.826	318.56
367.052	323.56
367.278	291.56
367.505	310.56
367.731	331.56
367.957	332.56
368.184	336.56
368.41	333.56
368.636	334.56
368.862	333.56
369.089	316.56
369.315	328.56
369.541	331.56
369.767	321.56
369.993	313.56
370.219	309.56
370.445	325.56
370.672	331.56
370.898	306.56
371.124	302.56
371.35	332.56
371.576	307.56
371.802	302.56
372.028	307.56
372.254	311.56
372.48	321.56
372.706	322.56
372.932	332.56
373.158	318.56
373.384	317.56
373.61	317.56
373.835	321.56
374.061	294.56
374.287	324.56
374.513	314.56
374.739	326.56
374.965	332.56
375.191	329.56
375.416	309.56
375.642	322.56
375.868	316.56
376.094	316.56
376.319	313.56
376.545	315.56
376.771	319.56
376.997	310.56
377.222	326.56
377.448	310.56
377.674	303.56
377.899	318.56
378.125	287.56
378.35	304.56
378.576	307.56
378.802	315.56
379.027	324.56
379.253	312.56
379.478	301.56
379.704	323.56
379.929	308.56
380.155	300.56
380.38	338.56
380.606	302.56
380.831	330.56
381.057	331.56
381.282	308.56
381.507	313.56
381.733	331.56
381.958	337.56
382.184	330.56
382.409	336.56
382.634	345.56
382.86	318.56
383.085	326.56
383.31	319.56
383.535	323.56
383.761	334.56
383.986	330.56
384.211	338.56
384.436	329.56
384.662	331.56
384.887	339.56
385.112	325.56
385.337	310.56
385.562	338.56
385.787	314.56
386.013	334.56
386.238	348.56
386.463	343.56
386.688	335.56
386.913	342.56
387.138	327.56
387.363	341.56
387.588	363.56
387.813	337.56
388.038	350.56
388.263	342.56
388.488	339.56
388.713	351.56
388.938	342.56
389.163	325.56
389.387	350.56
389.612	327.56
389.837	340.56
390.062	362.56
390.287	338.56
390.512	354.56
390.736	334.56
390.961	340.56
391.186	345.56
391.411	356.56
391.636	343.56
391.86	348.56
392.085	338.56
392.31	351.56
392.534	351.56
392.759	359.56
392.984	340.56
393.208	345.56
393.433	339.56
393.658	337.56
393.882	345.56
394.107	348.56
394.331	343.56
394.556	336.56
394.78	340.56
395.005	339.56
395.229	333.56
395.454	350.56
395.678	355.56
395.903	348.56
396.127	382.56
396.352	370.56
396.576	370.56
396.801	343.56
397.025	334.56
397.249	363.56
397.474	355.56
397.698	382.56
397.922	360.56
398.147	408.56
398.371	388.56
398.595	379.56
398.82	380.56
399.044	369.56
399.268	400.56
399.492	412.56
399.717	424.56
399.941	428.56
400.165	455.56
400.389	477.56
400.613	437.56
400.837	430.56
401.062	413.56
401.286	391.56
401.51	390.56
401.734	371.56
401.958	374.56
402.182	390.56
402.406	405.56
402.63	399.56
402.854	377.56
403.078	390.56
403.302	396.56
403.526	406.56
403.75	398.56
403.974	383.56
404.198	395.56
404.422	396.56
404.645	420.56
404.869	423.56
405.093	452.56
405.317	474.56
405.541	480.56
405.765	460.56
405.988	441.56
406.212	441.56
406.436	458.56
406.66	462.56
406.883	421.56
407.107	442.56
407.331	496.56
407.555	539.56
407.778	538.56
408.002	491.56
408.226	460.56
408.449	426.56
408.673	462.56
408.896	457.56
409.12	487.56
409.344	466.56
409.567	435.56
409.791	406.56
410.014	404.56
410.238	402.56
410.461	406.56
410.685	433.56
410.908	425.56
411.132	434.56
411.355	493.56
411.578	459.56
411.802	418.56
412.025	396.56
412.249	412.56
412.472	453.56
412.695	487.56
412.919	449.56
413.142	417.56
413.365	406.56
413.589	386.56
413.812	398.56
414.035	373.56
414.258	371.56
414.482	368.56
414.705	399.56
414.928	364.56
415.151	381.56
415.374	384.56
415.597	382.56
415.821	367.56
416.044	396.56
416.267	390.56
416.49	392.56
416.713	390.56
416.936	378.56
417.159	383.56
417.382	371.56
417.605	376.56
417.828	387.56
418.051	412.56
418.274	406.56
418.497	391.56
418.72	378.56
418.943	386.56
419.166	394.56
419.389	419.56
419.611	412.56
419.834	407.56
420.057	424.56
420.28	392.56
420.503	393.56
420.726	400.56
420.948	423.56
421.171	444.56
421.394	473.56
421.617	433.56
421.839	407.56
422.062	406.56
422.285	423.56
422.507	467.56
422.73	557.56
422.953	518.56
423.175	443.56
423.398	431.56
423.621	434.56
423.843	448.56
424.066	448.56
424.288	443.56
424.511	451.56
424.733	497.56
424.956	565.56
425.178	574.56
425.401	538.56
425.623	546.56
425.846	481.56
426.068	437.56
426.291	459.56
426.513	461.56
426.735	474.56
426.958	481.56
427.18	558.56
427.402	645.56
427.625	756.56
427.847	665.56
428.069	577.56
428.292	517.56
428.514	468.56
428.736	428.56
428.958	437.56
429.181	422.56
429.403	409.56
429.625	421.56
429.847	468.56
430.069	518.56
430.292	492.56
430.514	429.56
430.736	421.56
430.958	412.56
431.18	403.56
431.402	391.56
431.624	404.56
431.846	379.56
432.068	394.56
432.29	394.56
432.512	387.56
432.734	385.56
432.956	401.56
433.178	418.56
433.4	392.56
433.622	412.56
433.844	400.56
434.066	394.56
434.287	382.56
434.509	407.56
434.731	399.56
434.953	394.56
435.175	409.56
435.397	438.56
435.618	436.56
435.84	478.56
436.062	577.56
436.284	607.56
436.505	499.56
436.727	480.56
436.949	436.56
437.17	424.56
437.392	422.56
437.614	443.56
437.835	466.56
438.057	579.56
438.278	602.56
438.5	619.56
438.721	709.56
438.943	651.56
439.165	520.56
439.386	509.56
439.608	452.56
439.829	471.56
440.05	520.56
440.272	539.56
440.493	520.56
440.715	440.56
440.936	448.56
441.158	435.56
441.379	421.56
441.6	424.56
441.822	457.56
442.043	461.56
442.264	565.56
442.486	588.56
442.707	490.56
442.928	467.56
443.149	474.56
443.371	508.56
443.592	530.56
443.813	614.56
444.034	660.56
444.255	510.56
444.476	482.56
444.698	428.56
444.919	453.56
445.14	558.56
445.361	514.56
445.582	509.56
445.803	576.56
446.024	653.56
446.245	652.56
446.466	598.56
446.687	506.56
446.908	472.56
447.129	431.56
447.35	419.56
447.571	430.56
447.792	418.56
448.013	433.56
448.234	447.56
448.455	518.56
448.675	585.56
448.896	653.56
449.117	587.56
449.338	573.56
449.559	629.56
449.779	692.56
450	563.56
450.221	467.56
450.442	421.56
450.662	416.56
450.883	446.56
451.104	460.56
451.324	425.56
451.545	399.56
451.766	406.56
451.986	399.56
452.207	387.56
452.428	383.56
452.648	405.56
452.869	391.56
453.089	396.56
453.31	378.56
453.53	378.56
453.751	375.56
453.971	395.56
454.192	406.56
454.412	390.56
454.633	380.56
454.853	363.56
455.073	361.56
455.294	406.56
455.514	457.56
455.734	444.56
455.955	377.56
456.175	369.56
456.395	378.56
456.616	366.56
456.836	372.56
457.056	337.56
457.276	344.56
457.497	355.56
457.717	361.56
457.937	368.56
458.157	360.56
458.377	366.56
458.598	388.56
458.818	446.56
459.038	535.56
459.258	526.56
459.478	468.56
459.698	410.56
459.918	405.56
460.138	377.56
460.358	383.56
460.578	380.56
460.798	402.56
461.018	413.56
461.238	373.56
461.458	392.56
461.678	392.56
461.898	376.56
462.118	388.56
462.338	383.56
462.558	395.56
462.777	403.56
462.997	410.56
463.217	397.56
463.437	416.56
463.657	400.56
463.876	393.56
464.096	418.56
464.316	410.56
464.536	423.56
464.755	409.56
464.975	426.56
465.195	480.56
465.414	553.56
465.634	472.56
465.854	449.56
466.073	422.56
466.293	395.56
466.512	399.56
466.732	388.56
466.951	382.56
467.171	376.56
467.391	376.56
467.61	382.56
467.829	424.56
468.049	403.56
468.268	406.56
468.488	378.56
468.707	377.56
468.927	378.56
469.146	367.56
469.365	393.56
469.585	372.56
469.804	384.56
470.023	391.56
470.243	379.56
470.462	391.56
470.681	415.56
470.901	389.56
471.12	409.56
471.339	401.56
471.558	409.56
471.777	403.56
471.997	392.56
472.216	401.56
472.435	454.56
472.654	452.56
472.873	405.56
473.092	386.56
473.311	377.56
473.53	378.56
473.749	386.56
473.968	428.56
474.187	526.56
474.406	558.56
474.625	452.56
474.844	406.56
475.063	402.56
475.282	386.56
475.501	387.56
475.72	423.56
475.939	379.56
476.158	406.56
476.377	409.56
476.596	404.56
476.814	396.56
477.033	406.56
477.252	410.56
477.471	413.56
477.69	414.56
477.908	417.56
478.127	410.56
478.346	428.56
478.564	406.56
478.783	416.56
479.002	441.56
479.22	451.56
479.439	439.56
479.658	477.56
479.876	495.56
480.095	469.56
480.313	496.56
480.532	489.56
480.751	467.56
480.969	466.56
481.188	564.56
481.406	619.56
481.624	534.56
481.843	487.56
482.061	468.56
482.28	466.56
482.498	483.56
482.717	464.56
482.935	476.56
483.153	455.56
483.372	459.56
483.59	451.56
483.808	444.56
484.027	453.56
484.245	473.56
484.463	456.56
484.681	473.56
484.9	454.56
485.118	471.56
485.336	489.56
485.554	457.56
485.772	476.56
485.99	502.56
486.209	490.56
486.427	495.56
486.645	475.56
486.863	507.56
487.081	517.56
487.299	516.56
487.517	494.56
487.735	479.56
487.953	494.56
488.171	482.56
488.389	495.56
488.607	499.56
488.825	500.56
489.043	508.56
489.261	500.56
489.479	474.56
489.696	513.56
489.914	506.56
490.132	496.56
490.35	502.56
490.568	500.56
490.786	523.56
491.003	524.56
491.221	539.56
491.439	528.56
491.657	557.56
491.874	553.56
492.092	547.56
492.31	562.56
492.527	558.56
492.745	566.56
492.963	570.56
493.18	568.56
493.398	579.56
493.615	577.56
493.833	599.56
494.05	582.56
494.268	574.56
494.485	591.56
494.703	590.56
494.92	589.56
495.138	578.56
495.355	578.56
495.573	599.56
495.79	591.56
496.008	603.56
496.225	588.56
496.442	584.56
496.66	581.56
496.877	585.56
497.094	575.56
497.312	593.56
497.529	598.56
497.746	617.56
497.963	612.56
498.181	622.56
498.398	632.56
498.615	649.56
498.832	644.56
499.049	625.56
499.267	668.56
499.484	663.56
499.701	674.56
499.918	708.56
500.135	736.56
500.352	718.56
500.569	716.56
500.786	731.56
501.003	746.56
501.22	703.56
501.437	696.56
501.654	698.56
501.871	737.56
