Data from 1961.PennyLincolnUp.Lamp.En5.5.200Scan.071719.P1._HRD10591_13-48-34-057.txt Node
Date: Thu Jul 18 13:48:34 EDT 2019
User: cochatt
Spectrometer: HR+D1059
Trigger mode: 1
Integration Time (sec): 1.000000E-1
Scans to average: 1
Electric dark correction enabled: true
Nonlinearity correction enabled: false
Boxcar width: 0
XAxis mode: Wavelengths
Number of Pixels in Spectrum: 2048
>>>>>Begin Spectral Data<<<<<
223.165	-19.12
223.4	-19.12
223.635	-19.12
223.869	-10.12
224.104	-24.12
224.338	-6.12
224.573	-10.12
224.808	-10.12
225.042	-7.12
225.277	-5.12
225.511	-3.12
225.746	0.88
225.98	17.88
226.215	9.88
226.449	1.88
226.683	29.88
226.918	2.88
227.152	31.88
227.387	25.88
227.621	23.88
227.856	50.88
228.09	48.88
228.324	55.88
228.559	76.88
228.793	63.88
229.027	107.88
229.262	105.88
229.496	114.88
229.73	120.88
229.964	138.88
230.199	103.88
230.433	111.88
230.667	108.88
230.901	118.88
231.136	99.88
231.37	108.88
231.604	114.88
231.838	110.88
232.072	99.88
232.306	114.88
232.541	108.88
232.775	112.88
233.009	109.88
233.243	88.88
233.477	106.88
233.711	102.88
233.945	110.88
234.179	100.88
234.413	114.88
234.647	100.88
234.881	107.88
235.115	108.88
235.349	104.88
235.583	121.88
235.817	117.88
236.051	105.88
236.285	116.88
236.519	115.88
236.753	119.88
236.987	117.88
237.221	170.88
237.455	201.88
237.689	176.88
237.922	127.88
238.156	121.88
238.39	120.88
238.624	112.88
238.858	128.88
239.091	122.88
239.325	113.88
239.559	124.88
239.793	125.88
240.027	137.88
240.26	126.88
240.494	128.88
240.728	142.88
240.961	130.88
241.195	111.88
241.429	114.88
241.662	121.88
241.896	110.88
242.13	114.88
242.363	118.88
242.597	131.88
242.83	124.88
243.064	117.88
243.298	129.88
243.531	126.88
243.765	116.88
243.998	119.88
244.232	117.88
244.465	139.88
244.699	128.88
244.932	124.88
245.166	137.88
245.399	126.88
245.633	124.88
245.866	144.88
246.099	135.88
246.333	122.88
246.566	122.88
246.8	122.88
247.033	133.88
247.266	130.88
247.5	149.88
247.733	152.88
247.966	148.88
248.2	131.88
248.433	133.88
248.666	160.88
248.899	150.88
249.133	161.88
249.366	198.88
249.599	182.88
249.832	161.88
250.066	172.88
250.299	145.88
250.532	158.88
250.765	174.88
250.998	202.88
251.231	194.88
251.465	185.88
251.698	183.88
251.931	169.88
252.164	174.88
252.397	177.88
252.63	164.88
252.863	181.88
253.096	176.88
253.329	197.88
253.562	184.88
253.795	186.88
254.028	170.88
254.261	188.88
254.494	193.88
254.727	204.88
254.96	256.88
255.193	225.88
255.426	213.88
255.659	201.88
255.892	201.88
256.124	193.88
256.357	202.88
256.59	199.88
256.823	191.88
257.056	186.88
257.289	203.88
257.521	170.88
257.754	153.88
257.987	169.88
258.22	174.88
258.452	168.88
258.685	194.88
258.918	182.88
259.151	194.88
259.383	181.88
259.616	181.88
259.849	186.88
260.081	195.88
260.314	218.88
260.547	221.88
260.779	216.88
261.012	218.88
261.244	205.88
261.477	199.88
261.71	189.88
261.942	204.88
262.175	209.88
262.407	192.88
262.64	193.88
262.872	196.88
263.105	189.88
263.337	178.88
263.57	185.88
263.802	173.88
264.035	192.88
264.267	183.88
264.499	159.88
264.732	162.88
264.964	188.88
265.197	177.88
265.429	179.88
265.661	177.88
265.894	166.88
266.126	176.88
266.358	185.88
266.591	164.88
266.823	204.88
267.055	199.88
267.287	180.88
267.52	188.88
267.752	197.88
267.984	187.88
268.216	187.88
268.448	186.88
268.681	201.88
268.913	199.88
269.145	218.88
269.377	226.88
269.609	228.88
269.841	253.88
270.073	240.88
270.306	252.88
270.538	260.88
270.77	253.88
271.002	250.88
271.234	234.88
271.466	250.88
271.698	263.88
271.93	255.88
272.162	278.88
272.394	272.88
272.626	261.88
272.858	260.88
273.09	223.88
273.322	240.88
273.553	246.88
273.785	215.88
274.017	209.88
274.249	206.88
274.481	228.88
274.713	222.88
274.945	242.88
275.176	233.88
275.408	228.88
275.64	234.88
275.872	209.88
276.104	227.88
276.335	224.88
276.567	240.88
276.799	245.88
277.031	271.88
277.262	274.88
277.494	278.88
277.726	236.88
277.957	241.88
278.189	227.88
278.421	213.88
278.652	222.88
278.884	205.88
279.115	229.88
279.347	242.88
279.579	220.88
279.81	214.88
280.042	207.88
280.273	212.88
280.505	218.88
280.736	227.88
280.968	224.88
281.199	212.88
281.431	229.88
281.662	237.88
281.894	220.88
282.125	222.88
282.356	230.88
282.588	258.88
282.819	286.88
283.051	236.88
283.282	217.88
283.513	242.88
283.745	225.88
283.976	228.88
284.207	243.88
284.439	237.88
284.67	231.88
284.901	221.88
285.132	222.88
285.364	235.88
285.595	218.88
285.826	229.88
286.057	230.88
286.288	229.88
286.52	214.88
286.751	232.88
286.982	236.88
287.213	227.88
287.444	224.88
287.675	236.88
287.906	233.88
288.138	230.88
288.369	255.88
288.6	244.88
288.831	250.88
289.062	233.88
289.293	236.88
289.524	236.88
289.755	253.88
289.986	248.88
290.217	238.88
290.448	231.88
290.679	235.88
290.91	247.88
291.141	236.88
291.371	245.88
291.602	227.88
291.833	218.88
292.064	237.88
292.295	243.88
292.526	228.88
292.757	236.88
292.987	232.88
293.218	236.88
293.449	242.88
293.68	223.88
293.91	221.88
294.141	245.88
294.372	233.88
294.603	224.88
294.833	240.88
295.064	252.88
295.295	249.88
295.525	252.88
295.756	257.88
295.987	243.88
296.217	255.88
296.448	281.88
296.679	272.88
296.909	238.88
297.14	260.88
297.37	242.88
297.601	246.88
297.831	245.88
298.062	241.88
298.292	254.88
298.523	232.88
298.753	247.88
298.984	236.88
299.214	250.88
299.445	267.88
299.675	256.88
299.905	256.88
300.136	260.88
300.366	254.88
300.597	245.88
300.827	241.88
301.057	256.88
301.288	262.88
301.518	263.88
301.748	259.88
301.979	263.88
302.209	261.88
302.439	287.88
302.669	278.88
302.9	268.88
303.13	245.88
303.36	263.88
303.59	274.88
303.82	285.88
304.051	283.88
304.281	265.88
304.511	268.88
304.741	274.88
304.971	278.88
305.201	277.88
305.431	255.88
305.661	270.88
305.891	276.88
306.121	266.88
306.352	287.88
306.582	269.88
306.812	267.88
307.042	255.88
307.272	263.88
307.502	271.88
307.731	269.88
307.961	271.88
308.191	282.88
308.421	286.88
308.651	265.88
308.881	282.88
309.111	287.88
309.341	272.88
309.571	302.88
309.8	292.88
310.03	307.88
310.26	310.88
310.49	319.88
310.72	331.88
310.949	333.88
311.179	345.88
311.409	325.88
311.639	306.88
311.868	324.88
312.098	328.88
312.328	325.88
312.557	338.88
312.787	366.88
313.017	361.88
313.246	330.88
313.476	331.88
313.706	311.88
313.935	331.88
314.165	327.88
314.394	340.88
314.624	330.88
314.853	346.88
315.083	334.88
315.312	313.88
315.542	301.88
315.771	313.88
316.001	304.88
316.23	287.88
316.46	318.88
316.689	304.88
316.919	315.88
317.148	334.88
317.377	326.88
317.607	334.88
317.836	336.88
318.065	324.88
318.295	322.88
318.524	319.88
318.753	342.88
318.983	340.88
319.212	313.88
319.441	330.88
319.67	323.88
319.9	317.88
320.129	314.88
320.358	326.88
320.587	316.88
320.816	327.88
321.046	345.88
321.275	351.88
321.504	341.88
321.733	346.88
321.962	359.88
322.191	353.88
322.42	368.88
322.649	388.88
322.878	392.88
323.108	417.88
323.337	447.88
323.566	452.88
323.795	510.88
324.024	577.88
324.253	702.88
324.482	1053.88
324.71	1664.88
324.939	2258.88
325.168	1868.88
325.397	978.88
325.626	654.88
325.855	563.88
326.084	485.88
326.313	506.88
326.542	472.88
326.77	529.88
326.999	652.88
327.228	907.88
327.457	1420.88
327.686	1654.88
327.914	1075.88
328.143	734.88
328.372	629.88
328.6	563.88
328.829	531.88
329.058	549.88
329.287	565.88
329.515	514.88
329.744	458.88
329.972	471.88
330.201	477.88
330.43	537.88
330.658	527.88
330.887	577.88
331.115	570.88
331.344	484.88
331.572	454.88
331.801	468.88
332.03	411.88
332.258	421.88
332.486	385.88
332.715	382.88
332.943	385.88
333.172	389.88
333.4	394.88
333.629	401.88
333.857	390.88
334.085	410.88
334.314	454.88
334.542	484.88
334.771	501.88
334.999	434.88
335.227	416.88
335.455	394.88
335.684	382.88
335.912	374.88
336.14	383.88
336.369	376.88
336.597	375.88
336.825	386.88
337.053	372.88
337.281	353.88
337.51	355.88
337.738	373.88
337.966	346.88
338.194	372.88
338.422	384.88
338.65	365.88
338.878	367.88
339.106	351.88
339.334	338.88
339.562	358.88
339.79	358.88
340.018	350.88
340.246	356.88
340.474	358.88
340.702	365.88
340.93	369.88
341.158	360.88
341.386	348.88
341.614	376.88
341.842	356.88
342.07	356.88
342.298	349.88
342.526	351.88
342.754	329.88
342.981	339.88
343.209	336.88
343.437	348.88
343.665	335.88
343.893	346.88
344.12	338.88
344.348	346.88
344.576	368.88
344.804	356.88
345.031	366.88
345.259	391.88
345.487	393.88
345.714	359.88
345.942	374.88
346.17	359.88
346.397	352.88
346.625	361.88
346.853	342.88
347.08	361.88
347.308	356.88
347.535	388.88
347.763	383.88
347.99	363.88
348.218	349.88
348.445	353.88
348.673	378.88
348.9	354.88
349.128	350.88
349.355	339.88
349.583	344.88
349.81	342.88
350.037	327.88
350.265	332.88
350.492	335.88
350.72	323.88
350.947	340.88
351.174	357.88
351.402	354.88
351.629	373.88
351.856	382.88
352.083	364.88
352.311	360.88
352.538	361.88
352.765	353.88
352.992	366.88
353.22	366.88
353.447	362.88
353.674	332.88
353.901	342.88
354.128	337.88
354.355	334.88
354.583	336.88
354.81	341.88
355.037	318.88
355.264	324.88
355.491	306.88
355.718	321.88
355.945	307.88
356.172	327.88
356.399	316.88
356.626	309.88
356.853	325.88
357.08	310.88
357.307	313.88
357.534	312.88
357.761	317.88
357.988	305.88
358.215	329.88
358.441	323.88
358.668	343.88
358.895	313.88
359.122	333.88
359.349	360.88
359.576	366.88
359.802	346.88
360.029	396.88
360.256	405.88
360.483	386.88
360.709	360.88
360.936	354.88
361.163	361.88
361.39	355.88
361.616	364.88
361.843	336.88
362.07	368.88
362.296	352.88
362.523	358.88
362.749	341.88
362.976	353.88
363.203	333.88
363.429	343.88
363.656	332.88
363.882	356.88
364.109	323.88
364.335	341.88
364.562	337.88
364.788	330.88
365.015	355.88
365.241	340.88
365.468	341.88
365.694	348.88
365.92	337.88
366.147	324.88
366.373	350.88
366.599	318.88
366.826	327.88
367.052	318.88
367.278	338.88
367.505	324.88
367.731	324.88
367.957	330.88
368.184	335.88
368.41	329.88
368.636	338.88
368.862	318.88
369.089	318.88
369.315	339.88
369.541	341.88
369.767	337.88
369.993	325.88
370.219	335.88
370.445	330.88
370.672	319.88
370.898	311.88
371.124	288.88
371.35	318.88
371.576	316.88
371.802	330.88
372.028	324.88
372.254	327.88
372.48	331.88
372.706	317.88
372.932	322.88
373.158	300.88
373.384	340.88
373.61	339.88
373.835	310.88
374.061	320.88
374.287	342.88
374.513	337.88
374.739	325.88
374.965	346.88
375.191	333.88
375.416	312.88
375.642	336.88
375.868	312.88
376.094	328.88
376.319	314.88
376.545	328.88
376.771	335.88
376.997	316.88
377.222	319.88
377.448	330.88
377.674	325.88
377.899	316.88
378.125	327.88
378.35	336.88
378.576	326.88
378.802	318.88
379.027	319.88
379.253	322.88
379.478	305.88
379.704	323.88
379.929	310.88
380.155	323.88
380.38	303.88
380.606	328.88
380.831	311.88
381.057	333.88
381.282	329.88
381.507	316.88
381.733	329.88
381.958	326.88
382.184	320.88
382.409	320.88
382.634	334.88
382.86	330.88
383.085	319.88
383.31	337.88
383.535	331.88
383.761	330.88
383.986	334.88
384.211	316.88
384.436	335.88
384.662	327.88
384.887	342.88
385.112	327.88
385.337	339.88
385.562	348.88
385.787	339.88
386.013	343.88
386.238	361.88
386.463	348.88
386.688	329.88
386.913	334.88
387.138	346.88
387.363	340.88
387.588	352.88
387.813	352.88
388.038	349.88
388.263	350.88
388.488	336.88
388.713	346.88
388.938	343.88
389.163	348.88
389.387	367.88
389.612	342.88
389.837	336.88
390.062	349.88
390.287	342.88
390.512	337.88
390.736	357.88
390.961	341.88
391.186	354.88
391.411	340.88
391.636	341.88
391.86	346.88
392.085	374.88
392.31	349.88
392.534	346.88
392.759	343.88
392.984	339.88
393.208	325.88
393.433	362.88
393.658	361.88
393.882	332.88
394.107	342.88
394.331	338.88
394.556	334.88
394.78	336.88
395.005	360.88
395.229	351.88
395.454	368.88
395.678	356.88
395.903	376.88
396.127	372.88
396.352	406.88
396.576	361.88
396.801	364.88
397.025	348.88
397.249	346.88
397.474	364.88
397.698	368.88
397.922	383.88
398.147	401.88
398.371	381.88
398.595	360.88
398.82	374.88
399.044	388.88
399.268	395.88
399.492	409.88
399.717	418.88
399.941	431.88
400.165	468.88
400.389	485.88
400.613	461.88
400.837	414.88
401.062	416.88
401.286	388.88
401.51	374.88
401.734	391.88
401.958	392.88
402.182	368.88
402.406	404.88
402.63	411.88
402.854	420.88
403.078	406.88
403.302	425.88
403.526	432.88
403.75	419.88
403.974	417.88
404.198	392.88
404.422	411.88
404.645	451.88
404.869	445.88
405.093	452.88
405.317	476.88
405.541	513.88
405.765	466.88
405.988	430.88
406.212	465.88
406.436	484.88
406.66	478.88
406.883	444.88
407.107	467.88
407.331	508.88
407.555	529.88
407.778	568.88
408.002	497.88
408.226	456.88
408.449	450.88
408.673	471.88
408.896	479.88
409.12	517.88
409.344	466.88
409.567	446.88
409.791	408.88
410.014	405.88
410.238	432.88
410.461	430.88
410.685	417.88
410.908	436.88
411.132	464.88
411.355	491.88
411.578	445.88
411.802	433.88
412.025	432.88
412.249	459.88
412.472	447.88
412.695	484.88
412.919	471.88
413.142	450.88
413.365	417.88
413.589	408.88
413.812	423.88
414.035	403.88
414.258	377.88
414.482	374.88
414.705	410.88
414.928	365.88
415.151	368.88
415.374	386.88
415.597	394.88
415.821	391.88
416.044	397.88
416.267	398.88
416.49	403.88
416.713	373.88
416.936	382.88
417.159	392.88
417.382	384.88
417.605	383.88
417.828	402.88
418.051	397.88
418.274	420.88
418.497	409.88
418.72	393.88
418.943	393.88
419.166	413.88
419.389	423.88
419.611	400.88
419.834	401.88
420.057	424.88
420.28	412.88
420.503	399.88
420.726	415.88
420.948	419.88
421.171	477.88
421.394	490.88
421.617	438.88
421.839	438.88
422.062	401.88
422.285	441.88
422.507	477.88
422.73	561.88
422.953	530.88
423.175	473.88
423.398	421.88
423.621	412.88
423.843	436.88
424.066	432.88
424.288	467.88
424.511	469.88
424.733	503.88
424.956	589.88
425.178	569.88
425.401	549.88
425.623	580.88
425.846	492.88
426.068	462.88
426.291	457.88
426.513	463.88
426.735	458.88
426.958	516.88
427.18	566.88
427.402	684.88
427.625	760.88
427.847	679.88
428.069	588.88
428.292	528.88
428.514	447.88
428.736	449.88
428.958	447.88
429.181	423.88
429.403	441.88
429.625	432.88
429.847	462.88
430.069	508.88
430.292	499.88
430.514	449.88
430.736	450.88
430.958	402.88
431.18	400.88
431.402	408.88
431.624	389.88
431.846	408.88
432.068	403.88
432.29	415.88
432.512	429.88
432.734	404.88
432.956	372.88
433.178	423.88
433.4	407.88
433.622	414.88
433.844	380.88
434.066	397.88
434.287	412.88
434.509	399.88
434.731	387.88
434.953	408.88
435.175	432.88
435.397	421.88
435.618	459.88
435.84	512.88
436.062	582.88
436.284	633.88
436.505	533.88
436.727	487.88
436.949	450.88
437.17	434.88
437.392	439.88
437.614	444.88
437.835	493.88
438.057	587.88
438.278	634.88
438.5	636.88
438.721	686.88
438.943	656.88
439.165	542.88
439.386	478.88
439.608	500.88
439.829	472.88
440.05	524.88
440.272	547.88
440.493	508.88
440.715	466.88
440.936	425.88
441.158	423.88
441.379	421.88
441.6	423.88
441.822	465.88
442.043	497.88
442.264	562.88
442.486	609.88
442.707	494.88
442.928	479.88
443.149	485.88
443.371	503.88
443.592	528.88
443.813	646.88
444.034	639.88
444.255	543.88
444.476	485.88
444.698	462.88
444.919	444.88
445.14	545.88
445.361	520.88
445.582	499.88
445.803	586.88
446.024	664.88
446.245	673.88
446.466	626.88
446.687	505.88
446.908	448.88
447.129	438.88
447.35	432.88
447.571	451.88
447.792	412.88
448.013	424.88
448.234	453.88
448.455	500.88
448.675	597.88
448.896	682.88
449.117	591.88
449.338	560.88
449.559	635.88
449.779	729.88
450	588.88
450.221	462.88
450.442	447.88
450.662	431.88
450.883	428.88
451.104	461.88
451.324	452.88
451.545	428.88
451.766	400.88
451.986	406.88
452.207	390.88
452.428	405.88
452.648	394.88
452.869	398.88
453.089	409.88
453.31	397.88
453.53	408.88
453.751	380.88
453.971	390.88
454.192	414.88
454.412	416.88
454.633	418.88
454.853	402.88
455.073	386.88
455.294	415.88
455.514	471.88
455.734	455.88
455.955	389.88
456.175	346.88
456.395	359.88
456.616	375.88
456.836	364.88
457.056	360.88
457.276	353.88
457.497	378.88
457.717	352.88
457.937	349.88
458.157	374.88
458.377	384.88
458.598	412.88
458.818	468.88
459.038	540.88
459.258	538.88
459.478	476.88
459.698	422.88
459.918	388.88
460.138	402.88
460.358	406.88
460.578	387.88
460.798	405.88
461.018	403.88
461.238	394.88
461.458	404.88
461.678	402.88
461.898	398.88
462.118	403.88
462.338	412.88
462.558	405.88
462.777	414.88
462.997	400.88
463.217	443.88
463.437	425.88
463.657	414.88
463.876	412.88
464.096	425.88
464.316	409.88
464.536	418.88
464.755	418.88
464.975	436.88
465.195	502.88
465.414	534.88
465.634	512.88
465.854	445.88
466.073	436.88
466.293	405.88
466.512	390.88
466.732	383.88
466.951	389.88
467.171	388.88
467.391	397.88
467.61	424.88
467.829	417.88
468.049	403.88
468.268	433.88
468.488	415.88
468.707	406.88
468.927	386.88
469.146	399.88
469.365	375.88
469.585	384.88
469.804	399.88
470.023	401.88
470.243	402.88
470.462	408.88
470.681	422.88
470.901	417.88
471.12	415.88
471.339	388.88
471.558	401.88
471.777	394.88
471.997	373.88
472.216	412.88
472.435	462.88
472.654	432.88
472.873	392.88
473.092	403.88
473.311	387.88
473.53	414.88
473.749	400.88
473.968	449.88
474.187	548.88
474.406	558.88
474.625	469.88
474.844	436.88
475.063	396.88
475.282	412.88
475.501	390.88
475.72	414.88
475.939	411.88
476.158	411.88
476.377	419.88
476.596	415.88
476.814	424.88
477.033	413.88
477.252	427.88
477.471	420.88
477.69	423.88
477.908	426.88
478.127	400.88
478.346	456.88
478.564	429.88
478.783	416.88
479.002	452.88
479.22	470.88
479.439	483.88
479.658	472.88
479.876	476.88
480.095	487.88
480.313	514.88
480.532	489.88
480.751	478.88
480.969	509.88
481.188	580.88
481.406	623.88
481.624	542.88
481.843	478.88
482.061	469.88
482.28	489.88
482.498	481.88
482.717	450.88
482.935	470.88
483.153	447.88
483.372	477.88
483.59	477.88
483.808	489.88
484.027	469.88
484.245	466.88
484.463	469.88
484.681	464.88
484.9	458.88
485.118	492.88
485.336	484.88
485.554	481.88
485.772	468.88
485.99	464.88
486.209	488.88
486.427	488.88
486.645	515.88
486.863	506.88
487.081	516.88
487.299	534.88
487.517	522.88
487.735	510.88
487.953	508.88
488.171	510.88
488.389	509.88
488.607	511.88
488.825	501.88
489.043	510.88
489.261	503.88
489.479	536.88
489.696	512.88
489.914	493.88
490.132	512.88
490.35	530.88
490.568	523.88
490.786	542.88
491.003	544.88
491.221	549.88
491.439	566.88
491.657	558.88
491.874	576.88
492.092	571.88
492.31	567.88
492.527	589.88
492.745	584.88
492.963	584.88
493.18	608.88
493.398	598.88
493.615	585.88
493.833	586.88
494.05	599.88
494.268	614.88
494.485	600.88
494.703	570.88
494.92	589.88
495.138	611.88
495.355	610.88
495.573	587.88
495.79	602.88
496.008	596.88
496.225	599.88
496.442	591.88
496.66	609.88
496.877	597.88
497.094	607.88
497.312	596.88
497.529	605.88
497.746	625.88
497.963	629.88
498.181	637.88
498.398	639.88
498.615	648.88
498.832	644.88
499.049	657.88
499.267	688.88
499.484	708.88
499.701	699.88
499.918	700.88
500.135	721.88
500.352	725.88
500.569	749.88
500.786	736.88
501.003	745.88
501.22	730.88
501.437	731.88
501.654	727.88
501.871	726.88
