Data from 1961.PennyLincolnUp.Lamp.En5.5.200Scan.071719.P1._HRD10591_13-47-11-057.txt Node
Date: Thu Jul 18 13:47:11 EDT 2019
User: cochatt
Spectrometer: HR+D1059
Trigger mode: 1
Integration Time (sec): 1.000000E-1
Scans to average: 1
Electric dark correction enabled: true
Nonlinearity correction enabled: false
Boxcar width: 0
XAxis mode: Wavelengths
Number of Pixels in Spectrum: 2048
>>>>>Begin Spectral Data<<<<<
223.165	-12.25
223.4	-12.25
223.635	-12.25
223.869	-14.25
224.104	-13.25
224.338	-11.25
224.573	-1.25
224.808	-11.25
225.042	-9.25
225.277	-3.25
225.511	-8.25
225.746	11.75
225.98	20.75
226.215	1.75
226.449	4.75
226.683	10.75
226.918	6.75
227.152	27.75
227.387	27.75
227.621	43.75
227.856	53.75
228.09	58.75
228.324	57.75
228.559	41.75
228.793	70.75
229.027	82.75
229.262	81.75
229.496	110.75
229.73	114.75
229.964	144.75
230.199	125.75
230.433	94.75
230.667	114.75
230.901	112.75
231.136	108.75
231.37	98.75
231.604	101.75
231.838	102.75
232.072	96.75
232.306	100.75
232.541	110.75
232.775	123.75
233.009	109.75
233.243	95.75
233.477	110.75
233.711	102.75
233.945	102.75
234.179	96.75
234.413	108.75
234.647	125.75
234.881	111.75
235.115	93.75
235.349	100.75
235.583	124.75
235.817	103.75
236.051	107.75
236.285	106.75
236.519	104.75
236.753	112.75
236.987	120.75
237.221	157.75
237.455	203.75
237.689	170.75
237.922	114.75
238.156	120.75
238.39	116.75
238.624	104.75
238.858	108.75
239.091	121.75
239.325	113.75
239.559	121.75
239.793	113.75
240.027	127.75
240.26	132.75
240.494	148.75
240.728	124.75
240.961	135.75
241.195	117.75
241.429	130.75
241.662	123.75
241.896	106.75
242.13	112.75
242.363	118.75
242.597	122.75
242.83	111.75
243.064	128.75
243.298	122.75
243.531	132.75
243.765	143.75
243.998	123.75
244.232	114.75
244.465	123.75
244.699	130.75
244.932	136.75
245.166	113.75
245.399	118.75
245.633	133.75
245.866	124.75
246.099	130.75
246.333	141.75
246.566	124.75
246.8	142.75
247.033	125.75
247.266	124.75
247.5	131.75
247.733	157.75
247.966	155.75
248.2	148.75
248.433	156.75
248.666	155.75
248.899	133.75
249.133	174.75
249.366	170.75
249.599	175.75
249.832	150.75
250.066	150.75
250.299	163.75
250.532	170.75
250.765	172.75
250.998	188.75
251.231	176.75
251.465	181.75
251.698	171.75
251.931	180.75
252.164	159.75
252.397	164.75
252.63	156.75
252.863	185.75
253.096	181.75
253.329	183.75
253.562	193.75
253.795	192.75
254.028	187.75
254.261	168.75
254.494	182.75
254.727	210.75
254.96	219.75
255.193	221.75
255.426	226.75
255.659	200.75
255.892	195.75
256.124	192.75
256.357	199.75
256.59	199.75
256.823	176.75
257.056	189.75
257.289	187.75
257.521	171.75
257.754	157.75
257.987	164.75
258.22	179.75
258.452	170.75
258.685	178.75
258.918	165.75
259.151	172.75
259.383	178.75
259.616	176.75
259.849	188.75
260.081	187.75
260.314	202.75
260.547	209.75
260.779	195.75
261.012	205.75
261.244	199.75
261.477	196.75
261.71	184.75
261.942	167.75
262.175	189.75
262.407	190.75
262.64	160.75
262.872	171.75
263.105	178.75
263.337	198.75
263.57	180.75
263.802	170.75
264.035	184.75
264.267	188.75
264.499	170.75
264.732	187.75
264.964	165.75
265.197	171.75
265.429	164.75
265.661	166.75
265.894	177.75
266.126	191.75
266.358	170.75
266.591	170.75
266.823	185.75
267.055	172.75
267.287	195.75
267.52	184.75
267.752	180.75
267.984	177.75
268.216	187.75
268.448	173.75
268.681	195.75
268.913	188.75
269.145	185.75
269.377	215.75
269.609	231.75
269.841	200.75
270.073	232.75
270.306	227.75
270.538	232.75
270.77	233.75
271.002	237.75
271.234	218.75
271.466	228.75
271.698	246.75
271.93	248.75
272.162	237.75
272.394	245.75
272.626	241.75
272.858	232.75
273.09	210.75
273.322	210.75
273.553	199.75
273.785	205.75
274.017	221.75
274.249	229.75
274.481	227.75
274.713	221.75
274.945	225.75
275.176	230.75
275.408	223.75
275.64	215.75
275.872	197.75
276.104	242.75
276.335	215.75
276.567	231.75
276.799	217.75
277.031	247.75
277.262	244.75
277.494	252.75
277.726	237.75
277.957	224.75
278.189	234.75
278.421	212.75
278.652	225.75
278.884	210.75
279.115	215.75
279.347	211.75
279.579	214.75
279.81	226.75
280.042	211.75
280.273	210.75
280.505	213.75
280.736	211.75
280.968	224.75
281.199	203.75
281.431	226.75
281.662	214.75
281.894	218.75
282.125	198.75
282.356	226.75
282.588	237.75
282.819	235.75
283.051	220.75
283.282	204.75
283.513	226.75
283.745	222.75
283.976	209.75
284.207	213.75
284.439	206.75
284.67	232.75
284.901	224.75
285.132	228.75
285.364	212.75
285.595	217.75
285.826	208.75
286.057	218.75
286.288	218.75
286.52	194.75
286.751	205.75
286.982	232.75
287.213	213.75
287.444	212.75
287.675	233.75
287.906	230.75
288.138	225.75
288.369	236.75
288.6	231.75
288.831	243.75
289.062	214.75
289.293	230.75
289.524	198.75
289.755	238.75
289.986	224.75
290.217	210.75
290.448	230.75
290.679	224.75
290.91	222.75
291.141	218.75
291.371	227.75
291.602	216.75
291.833	219.75
292.064	228.75
292.295	216.75
292.526	222.75
292.757	231.75
292.987	211.75
293.218	203.75
293.449	209.75
293.68	224.75
293.91	228.75
294.141	218.75
294.372	235.75
294.603	210.75
294.833	237.75
295.064	230.75
295.295	225.75
295.525	235.75
295.756	235.75
295.987	231.75
296.217	249.75
296.448	257.75
296.679	243.75
296.909	240.75
297.14	227.75
297.37	231.75
297.601	233.75
297.831	220.75
298.062	219.75
298.292	235.75
298.523	228.75
298.753	242.75
298.984	256.75
299.214	235.75
299.445	249.75
299.675	234.75
299.905	240.75
300.136	244.75
300.366	267.75
300.597	247.75
300.827	242.75
301.057	245.75
301.288	261.75
301.518	241.75
301.748	248.75
301.979	241.75
302.209	252.75
302.439	251.75
302.669	260.75
302.9	244.75
303.13	257.75
303.36	245.75
303.59	267.75
303.82	265.75
304.051	259.75
304.281	257.75
304.511	256.75
304.741	269.75
304.971	274.75
305.201	272.75
305.431	261.75
305.661	248.75
305.891	256.75
306.121	242.75
306.352	274.75
306.582	276.75
306.812	254.75
307.042	263.75
307.272	248.75
307.502	269.75
307.731	289.75
307.961	242.75
308.191	254.75
308.421	248.75
308.651	269.75
308.881	271.75
309.111	280.75
309.341	268.75
309.571	284.75
309.8	284.75
310.03	283.75
310.26	296.75
310.49	297.75
310.72	310.75
310.949	330.75
311.179	322.75
311.409	312.75
311.639	298.75
311.868	298.75
312.098	322.75
312.328	307.75
312.557	321.75
312.787	325.75
313.017	319.75
313.246	327.75
313.476	309.75
313.706	301.75
313.935	304.75
314.165	312.75
314.394	322.75
314.624	324.75
314.853	308.75
315.083	321.75
315.312	312.75
315.542	293.75
315.771	308.75
316.001	305.75
316.23	296.75
316.46	293.75
316.689	308.75
316.919	294.75
317.148	286.75
317.377	329.75
317.607	318.75
317.836	291.75
318.065	302.75
318.295	286.75
318.524	285.75
318.753	294.75
318.983	295.75
319.212	288.75
319.441	309.75
319.67	310.75
319.9	309.75
320.129	304.75
320.358	314.75
320.587	328.75
320.816	329.75
321.046	321.75
321.275	344.75
321.504	342.75
321.733	312.75
321.962	324.75
322.191	322.75
322.42	359.75
322.649	359.75
322.878	357.75
323.108	376.75
323.337	408.75
323.566	423.75
323.795	443.75
324.024	496.75
324.253	635.75
324.482	917.75
324.71	1354.75
324.939	1896.75
325.168	1573.75
325.397	838.75
325.626	580.75
325.855	485.75
326.084	433.75
326.313	408.75
326.542	429.75
326.77	459.75
326.999	575.75
327.228	819.75
327.457	1224.75
327.686	1402.75
327.914	944.75
328.143	633.75
328.372	568.75
328.6	518.75
328.829	471.75
329.058	478.75
329.287	492.75
329.515	441.75
329.744	443.75
329.972	444.75
330.201	443.75
330.43	487.75
330.658	510.75
330.887	518.75
331.115	496.75
331.344	412.75
331.572	385.75
331.801	415.75
332.03	394.75
332.258	356.75
332.486	373.75
332.715	352.75
332.943	346.75
333.172	352.75
333.4	352.75
333.629	372.75
333.857	388.75
334.085	415.75
334.314	409.75
334.542	438.75
334.771	438.75
334.999	399.75
335.227	371.75
335.455	362.75
335.684	367.75
335.912	362.75
336.14	336.75
336.369	325.75
336.597	372.75
336.825	340.75
337.053	353.75
337.281	330.75
337.51	352.75
337.738	353.75
337.966	337.75
338.194	352.75
338.422	370.75
338.65	331.75
338.878	324.75
339.106	337.75
339.334	332.75
339.562	312.75
339.79	332.75
340.018	327.75
340.246	350.75
340.474	345.75
340.702	324.75
340.93	333.75
341.158	329.75
341.386	340.75
341.614	347.75
341.842	328.75
342.07	334.75
342.298	342.75
342.526	331.75
342.754	345.75
342.981	343.75
343.209	322.75
343.437	338.75
343.665	329.75
343.893	324.75
344.12	338.75
344.348	337.75
344.576	339.75
344.804	328.75
345.031	354.75
345.259	341.75
345.487	346.75
345.714	337.75
345.942	333.75
346.17	331.75
346.397	346.75
346.625	340.75
346.853	327.75
347.08	319.75
347.308	328.75
347.535	364.75
347.763	329.75
347.99	361.75
348.218	351.75
348.445	345.75
348.673	337.75
348.9	338.75
349.128	320.75
349.355	312.75
349.583	304.75
349.81	318.75
350.037	331.75
350.265	315.75
350.492	315.75
350.72	315.75
350.947	315.75
351.174	325.75
351.402	327.75
351.629	343.75
351.856	349.75
352.083	334.75
352.311	346.75
352.538	348.75
352.765	356.75
352.992	335.75
353.22	325.75
353.447	316.75
353.674	306.75
353.901	328.75
354.128	321.75
354.355	304.75
354.583	311.75
354.81	311.75
355.037	309.75
355.264	299.75
355.491	294.75
355.718	322.75
355.945	303.75
356.172	293.75
356.399	298.75
356.626	304.75
356.853	292.75
357.08	300.75
357.307	288.75
357.534	298.75
357.761	299.75
357.988	306.75
358.215	301.75
358.441	320.75
358.668	309.75
358.895	299.75
359.122	316.75
359.349	327.75
359.576	328.75
359.802	357.75
360.029	376.75
360.256	395.75
360.483	374.75
360.709	322.75
360.936	328.75
361.163	340.75
361.39	362.75
361.616	355.75
361.843	351.75
362.07	339.75
362.296	342.75
362.523	319.75
362.749	320.75
362.976	324.75
363.203	322.75
363.429	313.75
363.656	326.75
363.882	318.75
364.109	316.75
364.335	310.75
364.562	321.75
364.788	313.75
365.015	328.75
365.241	317.75
365.468	317.75
365.694	323.75
365.92	322.75
366.147	328.75
366.373	319.75
366.599	313.75
366.826	306.75
367.052	320.75
367.278	317.75
367.505	313.75
367.731	323.75
367.957	302.75
368.184	310.75
368.41	325.75
368.636	327.75
368.862	311.75
369.089	316.75
369.315	312.75
369.541	327.75
369.767	302.75
369.993	306.75
370.219	310.75
370.445	310.75
370.672	302.75
370.898	308.75
371.124	313.75
371.35	331.75
371.576	310.75
371.802	290.75
372.028	292.75
372.254	318.75
372.48	302.75
372.706	304.75
372.932	329.75
373.158	312.75
373.384	295.75
373.61	316.75
373.835	300.75
374.061	309.75
374.287	318.75
374.513	331.75
374.739	315.75
374.965	322.75
375.191	315.75
375.416	330.75
375.642	314.75
375.868	310.75
376.094	313.75
376.319	324.75
376.545	294.75
376.771	317.75
376.997	304.75
377.222	313.75
377.448	303.75
377.674	301.75
377.899	308.75
378.125	322.75
378.35	313.75
378.576	288.75
378.802	312.75
379.027	295.75
379.253	309.75
379.478	307.75
379.704	307.75
379.929	319.75
380.155	294.75
380.38	312.75
380.606	308.75
380.831	311.75
381.057	327.75
381.282	322.75
381.507	307.75
381.733	297.75
381.958	325.75
382.184	292.75
382.409	317.75
382.634	330.75
382.86	320.75
383.085	322.75
383.31	323.75
383.535	319.75
383.761	322.75
383.986	336.75
384.211	319.75
384.436	324.75
384.662	316.75
384.887	330.75
385.112	314.75
385.337	320.75
385.562	328.75
385.787	315.75
386.013	348.75
386.238	356.75
386.463	334.75
386.688	346.75
386.913	325.75
387.138	323.75
387.363	333.75
387.588	314.75
387.813	346.75
388.038	338.75
388.263	333.75
388.488	345.75
388.713	330.75
388.938	320.75
389.163	347.75
389.387	338.75
389.612	328.75
389.837	330.75
390.062	316.75
390.287	315.75
390.512	336.75
390.736	314.75
390.961	345.75
391.186	351.75
391.411	328.75
391.636	336.75
391.86	339.75
392.085	355.75
392.31	337.75
392.534	341.75
392.759	352.75
392.984	351.75
393.208	350.75
393.433	333.75
393.658	348.75
393.882	331.75
394.107	336.75
394.331	341.75
394.556	323.75
394.78	329.75
395.005	330.75
395.229	328.75
395.454	347.75
395.678	361.75
395.903	364.75
396.127	386.75
396.352	368.75
396.576	368.75
396.801	347.75
397.025	366.75
397.249	354.75
397.474	363.75
397.698	373.75
397.922	361.75
398.147	361.75
398.371	386.75
398.595	395.75
398.82	372.75
399.044	387.75
399.268	394.75
399.492	403.75
399.717	415.75
399.941	425.75
400.165	458.75
400.389	461.75
400.613	451.75
400.837	404.75
401.062	404.75
401.286	374.75
401.51	385.75
401.734	372.75
401.958	380.75
402.182	382.75
402.406	395.75
402.63	390.75
402.854	398.75
403.078	384.75
403.302	387.75
403.526	406.75
403.75	406.75
403.974	393.75
404.198	405.75
404.422	406.75
404.645	415.75
404.869	400.75
405.093	444.75
405.317	457.75
405.541	499.75
405.765	446.75
405.988	435.75
406.212	425.75
406.436	458.75
406.66	460.75
406.883	448.75
407.107	462.75
407.331	478.75
407.555	507.75
407.778	526.75
408.002	470.75
408.226	442.75
408.449	450.75
408.673	460.75
408.896	464.75
409.12	499.75
409.344	473.75
409.567	418.75
409.791	409.75
410.014	406.75
410.238	403.75
410.461	391.75
410.685	414.75
410.908	418.75
411.132	460.75
411.355	465.75
411.578	452.75
411.802	400.75
412.025	386.75
412.249	407.75
412.472	407.75
412.695	464.75
412.919	436.75
413.142	412.75
413.365	403.75
413.589	387.75
413.812	391.75
414.035	379.75
414.258	358.75
414.482	365.75
414.705	390.75
414.928	393.75
415.151	368.75
415.374	378.75
415.597	377.75
415.821	370.75
416.044	390.75
416.267	372.75
416.49	357.75
416.713	376.75
416.936	382.75
417.159	377.75
417.382	394.75
417.605	387.75
417.828	380.75
418.051	385.75
418.274	396.75
418.497	364.75
418.72	361.75
418.943	377.75
419.166	391.75
419.389	405.75
419.611	406.75
419.834	402.75
420.057	396.75
420.28	401.75
420.503	380.75
420.726	411.75
420.948	427.75
421.171	462.75
421.394	450.75
421.617	421.75
421.839	384.75
422.062	419.75
422.285	389.75
422.507	461.75
422.73	506.75
422.953	496.75
423.175	437.75
423.398	424.75
423.621	410.75
423.843	423.75
424.066	417.75
424.288	433.75
424.511	457.75
424.733	478.75
424.956	539.75
425.178	530.75
425.401	490.75
425.623	529.75
425.846	462.75
426.068	412.75
426.291	430.75
426.513	430.75
426.735	438.75
426.958	461.75
427.18	525.75
427.402	642.75
427.625	688.75
427.847	609.75
428.069	560.75
428.292	462.75
428.514	427.75
428.736	442.75
428.958	422.75
429.181	418.75
429.403	393.75
429.625	406.75
429.847	449.75
430.069	481.75
430.292	471.75
430.514	422.75
430.736	421.75
430.958	411.75
431.18	394.75
431.402	367.75
431.624	390.75
431.846	387.75
432.068	380.75
432.29	389.75
432.512	363.75
432.734	396.75
432.956	390.75
433.178	390.75
433.4	402.75
433.622	369.75
433.844	382.75
434.066	377.75
434.287	369.75
434.509	395.75
434.731	389.75
434.953	398.75
435.175	397.75
435.397	444.75
435.618	428.75
435.84	452.75
436.062	544.75
436.284	578.75
436.505	476.75
436.727	454.75
436.949	433.75
437.17	415.75
437.392	418.75
437.614	414.75
437.835	452.75
438.057	538.75
438.278	606.75
438.5	616.75
438.721	660.75
438.943	610.75
439.165	514.75
439.386	474.75
439.608	448.75
439.829	443.75
440.05	483.75
440.272	507.75
440.493	478.75
440.715	452.75
440.936	439.75
441.158	419.75
441.379	407.75
441.6	419.75
441.822	446.75
442.043	469.75
442.264	514.75
442.486	564.75
442.707	486.75
442.928	451.75
443.149	454.75
443.371	475.75
443.592	517.75
443.813	584.75
444.034	630.75
444.255	516.75
444.476	448.75
444.698	438.75
444.919	424.75
445.14	516.75
445.361	485.75
445.582	480.75
445.803	537.75
446.024	593.75
446.245	620.75
446.466	554.75
446.687	483.75
446.908	460.75
447.129	420.75
447.35	416.75
447.571	397.75
447.792	403.75
448.013	424.75
448.234	422.75
448.455	457.75
448.675	571.75
448.896	628.75
449.117	543.75
449.338	520.75
449.559	599.75
449.779	690.75
450	547.75
450.221	438.75
450.442	422.75
450.662	417.75
450.883	425.75
451.104	418.75
451.324	424.75
451.545	389.75
451.766	394.75
451.986	374.75
452.207	351.75
452.428	361.75
452.648	380.75
452.869	397.75
453.089	384.75
453.31	395.75
453.53	377.75
453.751	387.75
453.971	353.75
454.192	395.75
454.412	378.75
454.633	402.75
454.853	373.75
455.073	364.75
455.294	394.75
455.514	434.75
455.734	436.75
455.955	368.75
456.175	344.75
456.395	357.75
456.616	346.75
456.836	362.75
457.056	364.75
457.276	345.75
457.497	346.75
457.717	360.75
457.937	366.75
458.157	360.75
458.377	370.75
458.598	379.75
458.818	425.75
459.038	508.75
459.258	488.75
459.478	404.75
459.698	393.75
459.918	384.75
460.138	352.75
460.358	381.75
460.578	385.75
460.798	396.75
461.018	405.75
461.238	395.75
461.458	396.75
461.678	365.75
461.898	380.75
462.118	388.75
462.338	382.75
462.558	392.75
462.777	395.75
462.997	389.75
463.217	409.75
463.437	418.75
463.657	408.75
463.876	403.75
464.096	414.75
464.316	410.75
464.536	409.75
464.755	404.75
464.975	426.75
465.195	466.75
465.414	514.75
465.634	479.75
465.854	449.75
466.073	409.75
466.293	391.75
466.512	404.75
466.732	375.75
466.951	384.75
467.171	377.75
467.391	374.75
467.61	397.75
467.829	408.75
468.049	386.75
468.268	390.75
468.488	382.75
468.707	376.75
468.927	365.75
469.146	361.75
469.365	369.75
469.585	384.75
469.804	366.75
470.023	396.75
470.243	394.75
470.462	385.75
470.681	381.75
470.901	392.75
471.12	383.75
471.339	376.75
471.558	399.75
471.777	392.75
471.997	371.75
472.216	410.75
472.435	430.75
472.654	416.75
472.873	389.75
473.092	390.75
473.311	390.75
473.53	398.75
473.749	392.75
473.968	429.75
474.187	498.75
474.406	531.75
474.625	428.75
474.844	392.75
475.063	388.75
475.282	399.75
475.501	394.75
475.72	382.75
475.939	396.75
476.158	391.75
476.377	390.75
476.596	395.75
476.814	415.75
477.033	419.75
477.252	407.75
477.471	407.75
477.69	422.75
477.908	413.75
478.127	419.75
478.346	392.75
478.564	427.75
478.783	420.75
479.002	429.75
479.22	426.75
479.439	434.75
479.658	430.75
479.876	456.75
480.095	462.75
480.313	473.75
480.532	466.75
480.751	455.75
480.969	487.75
481.188	533.75
481.406	584.75
481.624	507.75
481.843	485.75
482.061	460.75
482.28	484.75
482.498	430.75
482.717	451.75
482.935	457.75
483.153	444.75
483.372	453.75
483.59	464.75
483.808	445.75
484.027	466.75
484.245	466.75
484.463	457.75
484.681	463.75
484.9	453.75
485.118	473.75
485.336	464.75
485.554	463.75
485.772	489.75
485.99	471.75
486.209	464.75
486.427	472.75
486.645	466.75
486.863	515.75
487.081	490.75
487.299	480.75
487.517	464.75
487.735	476.75
487.953	474.75
488.171	499.75
488.389	485.75
488.607	472.75
488.825	468.75
489.043	480.75
489.261	500.75
489.479	490.75
489.696	486.75
489.914	487.75
490.132	488.75
490.35	491.75
490.568	501.75
490.786	524.75
491.003	541.75
491.221	557.75
491.439	524.75
491.657	546.75
491.874	562.75
492.092	549.75
492.31	553.75
492.527	533.75
492.745	549.75
492.963	553.75
493.18	542.75
493.398	533.75
493.615	565.75
493.833	555.75
494.05	582.75
494.268	539.75
494.485	582.75
494.703	580.75
494.92	558.75
495.138	566.75
495.355	552.75
495.573	568.75
495.79	562.75
496.008	570.75
496.225	556.75
496.442	565.75
496.66	578.75
496.877	577.75
497.094	603.75
497.312	596.75
497.529	602.75
497.746	573.75
497.963	605.75
498.181	591.75
498.398	606.75
498.615	628.75
498.832	612.75
499.049	640.75
499.267	649.75
499.484	661.75
499.701	688.75
499.918	667.75
500.135	710.75
500.352	728.75
500.569	709.75
500.786	722.75
501.003	713.75
501.22	718.75
501.437	685.75
501.654	687.75
501.871	710.75
502.088	697.75
