Data from 1961.PennyLincolnUp.Lamp.En5.5.200Scan.071719.P1._HRD10591_13-46-17-057.txt Node
Date: Thu Jul 18 13:46:17 EDT 2019
User: cochatt
Spectrometer: HR+D1059
Trigger mode: 1
Integration Time (sec): 1.000000E-1
Scans to average: 1
Electric dark correction enabled: true
Nonlinearity correction enabled: false
Boxcar width: 0
XAxis mode: Wavelengths
Number of Pixels in Spectrum: 2048
>>>>>Begin Spectral Data<<<<<
223.165	-17.69
223.4	-17.69
223.635	-17.69
223.869	-13.69
224.104	-22.69
224.338	-7.69
224.573	-18.69
224.808	5.31
225.042	-9.69
225.277	-11.69
225.511	-2.69
225.746	9.31
225.98	14.31
226.215	4.31
226.449	3.31
226.683	20.31
226.918	20.31
227.152	27.31
227.387	37.31
227.621	31.31
227.856	32.31
228.09	39.31
228.324	54.31
228.559	38.31
228.793	52.31
229.027	81.31
229.262	89.31
229.496	93.31
229.73	98.31
229.964	118.31
230.199	89.31
230.433	95.31
230.667	87.31
230.901	84.31
231.136	88.31
231.37	85.31
231.604	100.31
231.838	89.31
232.072	101.31
232.306	113.31
232.541	80.31
232.775	93.31
233.009	101.31
233.243	79.31
233.477	91.31
233.711	85.31
233.945	96.31
234.179	111.31
234.413	112.31
234.647	115.31
234.881	94.31
235.115	108.31
235.349	108.31
235.583	90.31
235.817	98.31
236.051	116.31
236.285	95.31
236.519	110.31
236.753	104.31
236.987	115.31
237.221	124.31
237.455	164.31
237.689	113.31
237.922	104.31
238.156	114.31
238.39	91.31
238.624	105.31
238.858	96.31
239.091	109.31
239.325	93.31
239.559	89.31
239.793	101.31
240.027	104.31
240.26	99.31
240.494	108.31
240.728	116.31
240.961	103.31
241.195	120.31
241.429	114.31
241.662	102.31
241.896	117.31
242.13	106.31
242.363	106.31
242.597	118.31
242.83	104.31
243.064	114.31
243.298	108.31
243.531	125.31
243.765	116.31
243.998	117.31
244.232	117.31
244.465	98.31
244.699	110.31
244.932	104.31
245.166	114.31
245.399	122.31
245.633	121.31
245.866	107.31
246.099	136.31
246.333	107.31
246.566	118.31
246.8	118.31
247.033	130.31
247.266	124.31
247.5	115.31
247.733	138.31
247.966	140.31
248.2	118.31
248.433	120.31
248.666	145.31
248.899	138.31
249.133	141.31
249.366	142.31
249.599	149.31
249.832	139.31
250.066	136.31
250.299	137.31
250.532	142.31
250.765	145.31
250.998	151.31
251.231	157.31
251.465	144.31
251.698	145.31
251.931	137.31
252.164	142.31
252.397	136.31
252.63	146.31
252.863	149.31
253.096	139.31
253.329	159.31
253.562	146.31
253.795	153.31
254.028	148.31
254.261	154.31
254.494	153.31
254.727	164.31
254.96	173.31
255.193	170.31
255.426	178.31
255.659	156.31
255.892	160.31
256.124	160.31
256.357	150.31
256.59	150.31
256.823	149.31
257.056	155.31
257.289	144.31
257.521	158.31
257.754	134.31
257.987	135.31
258.22	151.31
258.452	158.31
258.685	141.31
258.918	152.31
259.151	146.31
259.383	153.31
259.616	151.31
259.849	161.31
260.081	156.31
260.314	175.31
260.547	152.31
260.779	164.31
261.012	165.31
261.244	151.31
261.477	158.31
261.71	145.31
261.942	166.31
262.175	159.31
262.407	157.31
262.64	156.31
262.872	151.31
263.105	140.31
263.337	143.31
263.57	151.31
263.802	162.31
264.035	140.31
264.267	148.31
264.499	166.31
264.732	158.31
264.964	133.31
265.197	141.31
265.429	160.31
265.661	154.31
265.894	151.31
266.126	142.31
266.358	154.31
266.591	145.31
266.823	159.31
267.055	162.31
267.287	157.31
267.52	149.31
267.752	152.31
267.984	169.31
268.216	160.31
268.448	162.31
268.681	161.31
268.913	159.31
269.145	167.31
269.377	166.31
269.609	172.31
269.841	180.31
270.073	177.31
270.306	179.31
270.538	181.31
270.77	198.31
271.002	169.31
271.234	184.31
271.466	175.31
271.698	207.31
271.93	193.31
272.162	178.31
272.394	188.31
272.626	197.31
272.858	176.31
273.09	179.31
273.322	174.31
273.553	182.31
273.785	180.31
274.017	166.31
274.249	173.31
274.481	169.31
274.713	170.31
274.945	188.31
275.176	177.31
275.408	176.31
275.64	180.31
275.872	166.31
276.104	179.31
276.335	182.31
276.567	174.31
276.799	201.31
277.031	196.31
277.262	182.31
277.494	198.31
277.726	188.31
277.957	178.31
278.189	194.31
278.421	189.31
278.652	151.31
278.884	176.31
279.115	165.31
279.347	188.31
279.579	190.31
279.81	195.31
280.042	174.31
280.273	192.31
280.505	180.31
280.736	165.31
280.968	166.31
281.199	170.31
281.431	177.31
281.662	178.31
281.894	186.31
282.125	183.31
282.356	191.31
282.588	184.31
282.819	195.31
283.051	199.31
283.282	185.31
283.513	173.31
283.745	186.31
283.976	195.31
284.207	187.31
284.439	196.31
284.67	181.31
284.901	191.31
285.132	187.31
285.364	170.31
285.595	170.31
285.826	180.31
286.057	179.31
286.288	174.31
286.52	194.31
286.751	175.31
286.982	188.31
287.213	193.31
287.444	190.31
287.675	193.31
287.906	195.31
288.138	198.31
288.369	194.31
288.6	203.31
288.831	203.31
289.062	195.31
289.293	200.31
289.524	192.31
289.755	193.31
289.986	208.31
290.217	204.31
290.448	184.31
290.679	188.31
290.91	187.31
291.141	184.31
291.371	203.31
291.602	191.31
291.833	185.31
292.064	198.31
292.295	189.31
292.526	159.31
292.757	190.31
292.987	190.31
293.218	190.31
293.449	195.31
293.68	194.31
293.91	180.31
294.141	186.31
294.372	205.31
294.603	193.31
294.833	188.31
295.064	177.31
295.295	182.31
295.525	188.31
295.756	192.31
295.987	194.31
296.217	223.31
296.448	210.31
296.679	200.31
296.909	182.31
297.14	207.31
297.37	211.31
297.601	218.31
297.831	194.31
298.062	204.31
298.292	197.31
298.523	197.31
298.753	177.31
298.984	206.31
299.214	192.31
299.445	196.31
299.675	200.31
299.905	196.31
300.136	208.31
300.366	215.31
300.597	193.31
300.827	211.31
301.057	213.31
301.288	201.31
301.518	206.31
301.748	195.31
301.979	208.31
302.209	205.31
302.439	220.31
302.669	230.31
302.9	226.31
303.13	202.31
303.36	216.31
303.59	224.31
303.82	217.31
304.051	219.31
304.281	212.31
304.511	217.31
304.741	219.31
304.971	202.31
305.201	220.31
305.431	207.31
305.661	223.31
305.891	205.31
306.121	216.31
306.352	209.31
306.582	236.31
306.812	232.31
307.042	221.31
307.272	209.31
307.502	215.31
307.731	216.31
307.961	220.31
308.191	204.31
308.421	189.31
308.651	207.31
308.881	217.31
309.111	224.31
309.341	235.31
309.571	229.31
309.8	220.31
310.03	212.31
310.26	233.31
310.49	224.31
310.72	237.31
310.949	255.31
311.179	245.31
311.409	236.31
311.639	242.31
311.868	253.31
312.098	246.31
312.328	244.31
312.557	258.31
312.787	265.31
313.017	250.31
313.246	257.31
313.476	247.31
313.706	247.31
313.935	236.31
314.165	243.31
314.394	252.31
314.624	256.31
314.853	240.31
315.083	244.31
315.312	248.31
315.542	239.31
315.771	232.31
316.001	243.31
316.23	243.31
316.46	238.31
316.689	256.31
316.919	253.31
317.148	243.31
317.377	274.31
317.607	239.31
317.836	265.31
318.065	249.31
318.295	229.31
318.524	242.31
318.753	260.31
318.983	228.31
319.212	243.31
319.441	243.31
319.67	242.31
319.9	247.31
320.129	244.31
320.358	248.31
320.587	241.31
320.816	256.31
321.046	270.31
321.275	262.31
321.504	253.31
321.733	255.31
321.962	264.31
322.191	252.31
322.42	261.31
322.649	278.31
322.878	281.31
323.108	263.31
323.337	293.31
323.566	308.31
323.795	325.31
324.024	331.31
324.253	400.31
324.482	579.31
324.71	864.31
324.939	1201.31
325.168	1000.31
325.397	524.31
325.626	389.31
325.855	344.31
326.084	320.31
326.313	309.31
326.542	323.31
326.77	311.31
326.999	376.31
327.228	517.31
327.457	750.31
327.686	892.31
327.914	572.31
328.143	430.31
328.372	375.31
328.6	356.31
328.829	330.31
329.058	320.31
329.287	350.31
329.515	320.31
329.744	310.31
329.972	321.31
330.201	326.31
330.43	348.31
330.658	353.31
330.887	336.31
331.115	337.31
331.344	304.31
331.572	305.31
331.801	316.31
332.03	296.31
332.258	272.31
332.486	293.31
332.715	284.31
332.943	279.31
333.172	300.31
333.4	279.31
333.629	285.31
333.857	310.31
334.085	306.31
334.314	302.31
334.542	334.31
334.771	333.31
334.999	311.31
335.227	285.31
335.455	298.31
335.684	292.31
335.912	284.31
336.14	281.31
336.369	290.31
336.597	278.31
336.825	284.31
337.053	296.31
337.281	294.31
337.51	287.31
337.738	294.31
337.966	279.31
338.194	282.31
338.422	295.31
338.65	293.31
338.878	296.31
339.106	277.31
339.334	285.31
339.562	268.31
339.79	231.31
340.018	266.31
340.246	274.31
340.474	279.31
340.702	282.31
340.93	274.31
341.158	270.31
341.386	274.31
341.614	261.31
341.842	273.31
342.07	276.31
342.298	273.31
342.526	270.31
342.754	283.31
342.981	267.31
343.209	274.31
343.437	277.31
343.665	291.31
343.893	264.31
344.12	272.31
344.348	297.31
344.576	272.31
344.804	288.31
345.031	291.31
345.259	295.31
345.487	276.31
345.714	278.31
345.942	277.31
346.17	259.31
346.397	284.31
346.625	262.31
346.853	274.31
347.08	269.31
347.308	273.31
347.535	266.31
347.763	256.31
347.99	254.31
348.218	264.31
348.445	278.31
348.673	264.31
348.9	284.31
349.128	252.31
349.355	260.31
349.583	246.31
349.81	263.31
350.037	280.31
350.265	266.31
350.492	264.31
350.72	249.31
350.947	273.31
351.174	270.31
351.402	274.31
351.629	289.31
351.856	280.31
352.083	278.31
352.311	264.31
352.538	268.31
352.765	286.31
352.992	269.31
353.22	271.31
353.447	260.31
353.674	240.31
353.901	262.31
354.128	260.31
354.355	265.31
354.583	273.31
354.81	285.31
355.037	253.31
355.264	265.31
355.491	262.31
355.718	250.31
355.945	261.31
356.172	243.31
356.399	257.31
356.626	248.31
356.853	260.31
357.08	246.31
357.307	256.31
357.534	261.31
357.761	254.31
357.988	252.31
358.215	261.31
358.441	247.31
358.668	273.31
358.895	278.31
359.122	260.31
359.349	296.31
359.576	268.31
359.802	282.31
360.029	286.31
360.256	303.31
360.483	295.31
360.709	279.31
360.936	270.31
361.163	290.31
361.39	272.31
361.616	277.31
361.843	280.31
362.07	288.31
362.296	265.31
362.523	275.31
362.749	277.31
362.976	266.31
363.203	274.31
363.429	268.31
363.656	263.31
363.882	242.31
364.109	285.31
364.335	264.31
364.562	277.31
364.788	268.31
365.015	266.31
365.241	286.31
365.468	269.31
365.694	260.31
365.92	258.31
366.147	265.31
366.373	257.31
366.599	263.31
366.826	269.31
367.052	258.31
367.278	270.31
367.505	262.31
367.731	252.31
367.957	278.31
368.184	258.31
368.41	248.31
368.636	272.31
368.862	286.31
369.089	258.31
369.315	257.31
369.541	249.31
369.767	264.31
369.993	276.31
370.219	260.31
370.445	262.31
370.672	258.31
370.898	261.31
371.124	268.31
371.35	256.31
371.576	257.31
371.802	261.31
372.028	278.31
372.254	257.31
372.48	253.31
372.706	270.31
372.932	277.31
373.158	265.31
373.384	269.31
373.61	266.31
373.835	260.31
374.061	261.31
374.287	269.31
374.513	277.31
374.739	271.31
374.965	269.31
375.191	264.31
375.416	281.31
375.642	278.31
375.868	255.31
376.094	284.31
376.319	280.31
376.545	278.31
376.771	281.31
376.997	289.31
377.222	270.31
377.448	255.31
377.674	279.31
377.899	280.31
378.125	272.31
378.35	254.31
378.576	262.31
378.802	265.31
379.027	266.31
379.253	275.31
379.478	274.31
379.704	268.31
379.929	259.31
380.155	283.31
380.38	266.31
380.606	280.31
380.831	274.31
381.057	288.31
381.282	290.31
381.507	279.31
381.733	283.31
381.958	266.31
382.184	274.31
382.409	274.31
382.634	294.31
382.86	263.31
383.085	276.31
383.31	282.31
383.535	277.31
383.761	286.31
383.986	283.31
384.211	284.31
384.436	284.31
384.662	287.31
384.887	293.31
385.112	273.31
385.337	303.31
385.562	288.31
385.787	290.31
386.013	319.31
386.238	306.31
386.463	319.31
386.688	293.31
386.913	294.31
387.138	289.31
387.363	290.31
387.588	294.31
387.813	288.31
388.038	309.31
388.263	294.31
388.488	304.31
388.713	296.31
388.938	304.31
389.163	301.31
389.387	290.31
389.612	288.31
389.837	289.31
390.062	295.31
390.287	312.31
390.512	288.31
390.736	270.31
390.961	296.31
391.186	276.31
391.411	305.31
391.636	300.31
391.86	297.31
392.085	297.31
392.31	280.31
392.534	302.31
392.759	297.31
392.984	302.31
393.208	293.31
393.433	317.31
393.658	324.31
393.882	300.31
394.107	294.31
394.331	285.31
394.556	294.31
394.78	295.31
395.005	296.31
395.229	306.31
395.454	297.31
395.678	306.31
395.903	312.31
396.127	311.31
396.352	344.31
396.576	302.31
396.801	292.31
397.025	319.31
397.249	340.31
397.474	318.31
397.698	312.31
397.922	328.31
398.147	327.31
398.371	342.31
398.595	326.31
398.82	328.31
399.044	335.31
399.268	334.31
399.492	355.31
399.717	372.31
399.941	380.31
400.165	397.31
400.389	405.31
400.613	383.31
400.837	345.31
401.062	362.31
401.286	344.31
401.51	336.31
401.734	325.31
401.958	314.31
402.182	321.31
402.406	348.31
402.63	336.31
402.854	347.31
403.078	343.31
403.302	339.31
403.526	351.31
403.75	350.31
403.974	341.31
404.198	326.31
404.422	329.31
404.645	333.31
404.869	337.31
405.093	369.31
405.317	399.31
405.541	412.31
405.765	379.31
405.988	365.31
406.212	360.31
406.436	374.31
406.66	382.31
406.883	371.31
407.107	377.31
407.331	418.31
407.555	422.31
407.778	439.31
408.002	407.31
408.226	399.31
408.449	391.31
408.673	368.31
408.896	383.31
409.12	408.31
409.344	380.31
409.567	370.31
409.791	373.31
410.014	362.31
410.238	345.31
410.461	345.31
410.685	365.31
410.908	379.31
411.132	369.31
411.355	388.31
411.578	381.31
411.802	357.31
412.025	348.31
412.249	360.31
412.472	367.31
412.695	382.31
412.919	380.31
413.142	364.31
413.365	352.31
413.589	350.31
413.812	338.31
414.035	326.31
414.258	337.31
414.482	341.31
414.705	324.31
414.928	340.31
415.151	340.31
415.374	331.31
415.597	325.31
415.821	317.31
416.044	327.31
416.267	325.31
416.49	325.31
416.713	328.31
416.936	325.31
417.159	323.31
417.382	323.31
417.605	336.31
417.828	330.31
418.051	337.31
418.274	346.31
418.497	318.31
418.72	332.31
418.943	323.31
419.166	351.31
419.389	366.31
419.611	348.31
419.834	345.31
420.057	321.31
420.28	344.31
420.503	352.31
420.726	337.31
420.948	358.31
421.171	372.31
421.394	386.31
421.617	354.31
421.839	336.31
422.062	327.31
422.285	336.31
422.507	385.31
422.73	414.31
422.953	401.31
423.175	368.31
423.398	359.31
423.621	376.31
423.843	363.31
424.066	369.31
424.288	346.31
424.511	366.31
424.733	393.31
424.956	454.31
425.178	436.31
425.401	446.31
425.623	439.31
425.846	378.31
426.068	376.31
426.291	346.31
426.513	371.31
426.735	384.31
426.958	402.31
427.18	444.31
427.402	500.31
427.625	558.31
427.847	458.31
428.069	421.31
428.292	360.31
428.514	359.31
428.736	351.31
428.958	349.31
429.181	361.31
429.403	331.31
429.625	341.31
429.847	375.31
430.069	398.31
430.292	388.31
430.514	358.31
430.736	334.31
430.958	325.31
431.18	321.31
431.402	325.31
431.624	336.31
431.846	318.31
432.068	328.31
432.29	334.31
432.512	319.31
432.734	322.31
432.956	321.31
433.178	321.31
433.4	327.31
433.622	349.31
433.844	334.31
434.066	356.31
434.287	323.31
434.509	339.31
434.731	329.31
434.953	323.31
435.175	330.31
435.397	367.31
435.618	356.31
435.84	385.31
436.062	444.31
436.284	488.31
436.505	407.31
436.727	377.31
436.949	344.31
437.17	346.31
437.392	336.31
437.614	347.31
437.835	370.31
438.057	429.31
438.278	472.31
438.5	497.31
438.721	534.31
438.943	508.31
439.165	404.31
439.386	380.31
439.608	384.31
439.829	378.31
440.05	402.31
440.272	433.31
440.493	397.31
440.715	366.31
440.936	352.31
441.158	340.31
441.379	356.31
441.6	352.31
441.822	364.31
442.043	396.31
442.264	421.31
442.486	457.31
442.707	399.31
442.928	366.31
443.149	382.31
443.371	375.31
443.592	432.31
443.813	490.31
444.034	487.31
444.255	414.31
444.476	368.31
444.698	361.31
444.919	370.31
445.14	482.31
445.361	428.31
445.582	390.31
445.803	433.31
446.024	460.31
446.245	497.31
446.466	434.31
446.687	382.31
446.908	383.31
447.129	345.31
447.35	348.31
447.571	354.31
447.792	346.31
448.013	330.31
448.234	378.31
448.455	386.31
448.675	471.31
448.896	508.31
449.117	449.31
449.338	425.31
449.559	500.31
449.779	560.31
450	452.31
450.221	365.31
450.442	364.31
450.662	325.31
450.883	332.31
451.104	336.31
451.324	343.31
451.545	333.31
451.766	300.31
451.986	327.31
452.207	294.31
452.428	278.31
452.648	326.31
452.869	312.31
453.089	318.31
453.31	323.31
453.53	302.31
453.751	294.31
453.971	316.31
454.192	304.31
454.412	301.31
454.633	311.31
454.853	309.31
455.073	306.31
455.294	322.31
455.514	337.31
455.734	343.31
455.955	326.31
456.175	304.31
456.395	311.31
456.616	291.31
456.836	300.31
457.056	306.31
457.276	288.31
457.497	270.31
457.717	302.31
457.937	302.31
458.157	309.31
458.377	308.31
458.598	317.31
458.818	346.31
459.038	381.31
459.258	408.31
459.478	361.31
459.698	329.31
459.918	330.31
460.138	340.31
460.358	330.31
460.578	344.31
460.798	355.31
461.018	337.31
461.238	341.31
461.458	338.31
461.678	345.31
461.898	348.31
462.118	341.31
462.338	336.31
462.558	346.31
462.777	338.31
462.997	337.31
463.217	347.31
463.437	376.31
463.657	360.31
463.876	366.31
464.096	365.31
464.316	343.31
464.536	366.31
464.755	356.31
464.975	354.31
465.195	396.31
465.414	403.31
465.634	366.31
465.854	353.31
466.073	331.31
466.293	333.31
466.512	342.31
466.732	317.31
466.951	324.31
467.171	326.31
467.391	327.31
467.61	322.31
467.829	316.31
468.049	332.31
468.268	332.31
468.488	316.31
468.707	316.31
468.927	316.31
469.146	326.31
469.365	304.31
469.585	301.31
469.804	321.31
470.023	339.31
470.243	321.31
470.462	322.31
470.681	332.31
470.901	345.31
471.12	329.31
471.339	336.31
471.558	318.31
471.777	323.31
471.997	324.31
472.216	329.31
472.435	332.31
472.654	352.31
472.873	336.31
473.092	315.31
473.311	315.31
473.53	325.31
473.749	321.31
473.968	361.31
474.187	406.31
474.406	406.31
474.625	360.31
474.844	337.31
475.063	310.31
475.282	358.31
475.501	329.31
475.72	326.31
475.939	332.31
476.158	335.31
476.377	351.31
476.596	339.31
476.814	342.31
477.033	333.31
477.252	334.31
477.471	361.31
477.69	354.31
477.908	365.31
478.127	359.31
478.346	367.31
478.564	352.31
478.783	376.31
479.002	358.31
479.22	355.31
479.439	380.31
479.658	400.31
479.876	389.31
480.095	377.31
480.313	400.31
480.532	372.31
480.751	373.31
480.969	408.31
481.188	422.31
481.406	438.31
481.624	394.31
481.843	394.31
482.061	377.31
482.28	404.31
482.498	389.31
482.717	377.31
482.935	376.31
483.153	406.31
483.372	368.31
483.59	396.31
483.808	377.31
484.027	378.31
484.245	380.31
484.463	381.31
484.681	377.31
484.9	380.31
485.118	386.31
485.336	391.31
485.554	400.31
485.772	404.31
485.99	388.31
486.209	406.31
486.427	390.31
486.645	403.31
486.863	401.31
487.081	400.31
487.299	406.31
487.517	415.31
487.735	406.31
487.953	407.31
488.171	402.31
488.389	423.31
488.607	408.31
488.825	415.31
489.043	434.31
489.261	422.31
489.479	406.31
489.696	404.31
489.914	419.31
490.132	407.31
490.35	430.31
490.568	437.31
490.786	436.31
491.003	418.31
491.221	436.31
491.439	426.31
491.657	451.31
491.874	449.31
492.092	450.31
492.31	440.31
492.527	453.31
492.745	446.31
492.963	458.31
493.18	454.31
493.398	466.31
493.615	464.31
493.833	460.31
494.05	461.31
494.268	465.31
494.485	465.31
494.703	465.31
494.92	469.31
495.138	455.31
495.355	483.31
495.573	471.31
495.79	468.31
496.008	488.31
496.225	476.31
496.442	460.31
496.66	488.31
496.877	485.31
497.094	482.31
497.312	479.31
497.529	505.31
497.746	489.31
497.963	517.31
498.181	530.31
498.398	514.31
498.615	537.31
498.832	523.31
499.049	541.31
499.267	551.31
499.484	580.31
499.701	586.31
499.918	605.31
500.135	621.31
500.352	632.31
500.569	629.31
500.786	636.31
501.003	656.31
501.22	634.31
501.437	592.31
501.654	590.31
501.871	602.31
502.088	593.31
502.305	574.31
