Data from 1961.PennyLincolnUp.Lamp.En5.5.200Scan.071719.P1._HRD10591_13-48-59-058.txt Node
Date: Thu Jul 18 13:48:59 EDT 2019
User: cochatt
Spectrometer: HR+D1059
Trigger mode: 1
Integration Time (sec): 1.000000E-1
Scans to average: 1
Electric dark correction enabled: true
Nonlinearity correction enabled: false
Boxcar width: 0
XAxis mode: Wavelengths
Number of Pixels in Spectrum: 2048
>>>>>Begin Spectral Data<<<<<
223.165	-22.38
223.4	-22.38
223.635	-22.38
223.869	-24.38
224.104	-9.38
224.338	-1.38
224.573	-14.38
224.808	-12.38
225.042	-7.38
225.277	10.62
225.511	3.62
225.746	-17.38
225.98	18.62
226.215	-1.38
226.449	12.62
226.683	24.62
226.918	21.62
227.152	18.62
227.387	24.62
227.621	27.62
227.856	35.62
228.09	41.62
228.324	44.62
228.559	57.62
228.793	64.62
229.027	90.62
229.262	94.62
229.496	112.62
229.73	130.62
229.964	142.62
230.199	122.62
230.433	107.62
230.667	108.62
230.901	105.62
231.136	108.62
231.37	92.62
231.604	86.62
231.838	122.62
232.072	120.62
232.306	100.62
232.541	94.62
232.775	113.62
233.009	112.62
233.243	100.62
233.477	104.62
233.711	108.62
233.945	91.62
234.179	105.62
234.413	103.62
234.647	111.62
234.881	117.62
235.115	110.62
235.349	106.62
235.583	121.62
235.817	126.62
236.051	105.62
236.285	118.62
236.519	101.62
236.753	111.62
236.987	130.62
237.221	175.62
237.455	212.62
237.689	182.62
237.922	133.62
238.156	128.62
238.39	117.62
238.624	136.62
238.858	119.62
239.091	119.62
239.325	111.62
239.559	115.62
239.793	130.62
240.027	130.62
240.26	136.62
240.494	145.62
240.728	144.62
240.961	143.62
241.195	128.62
241.429	136.62
241.662	127.62
241.896	128.62
242.13	132.62
242.363	131.62
242.597	106.62
242.83	136.62
243.064	118.62
243.298	126.62
243.531	124.62
243.765	121.62
243.998	125.62
244.232	136.62
244.465	129.62
244.699	139.62
244.932	128.62
245.166	135.62
245.399	129.62
245.633	130.62
245.866	127.62
246.099	133.62
246.333	130.62
246.566	137.62
246.8	154.62
247.033	128.62
247.266	138.62
247.5	151.62
247.733	137.62
247.966	153.62
248.2	162.62
248.433	144.62
248.666	147.62
248.899	169.62
249.133	168.62
249.366	193.62
249.599	176.62
249.832	150.62
250.066	171.62
250.299	159.62
250.532	175.62
250.765	189.62
250.998	203.62
251.231	194.62
251.465	179.62
251.698	160.62
251.931	171.62
252.164	185.62
252.397	173.62
252.63	179.62
252.863	188.62
253.096	191.62
253.329	182.62
253.562	190.62
253.795	204.62
254.028	199.62
254.261	193.62
254.494	193.62
254.727	223.62
254.96	236.62
255.193	241.62
255.426	216.62
255.659	214.62
255.892	196.62
256.124	214.62
256.357	194.62
256.59	204.62
256.823	188.62
257.056	190.62
257.289	202.62
257.521	191.62
257.754	193.62
257.987	199.62
258.22	188.62
258.452	181.62
258.685	178.62
258.918	183.62
259.151	170.62
259.383	177.62
259.616	186.62
259.849	200.62
260.081	212.62
260.314	202.62
260.547	199.62
260.779	218.62
261.012	196.62
261.244	197.62
261.477	187.62
261.71	192.62
261.942	215.62
262.175	204.62
262.407	196.62
262.64	194.62
262.872	166.62
263.105	179.62
263.337	174.62
263.57	178.62
263.802	182.62
264.035	190.62
264.267	198.62
264.499	178.62
264.732	167.62
264.964	154.62
265.197	198.62
265.429	190.62
265.661	178.62
265.894	165.62
266.126	184.62
266.358	184.62
266.591	179.62
266.823	188.62
267.055	184.62
267.287	206.62
267.52	186.62
267.752	185.62
267.984	179.62
268.216	196.62
268.448	206.62
268.681	202.62
268.913	193.62
269.145	218.62
269.377	233.62
269.609	231.62
269.841	232.62
270.073	234.62
270.306	261.62
270.538	295.62
270.77	261.62
271.002	261.62
271.234	268.62
271.466	259.62
271.698	267.62
271.93	268.62
272.162	269.62
272.394	268.62
272.626	258.62
272.858	262.62
273.09	225.62
273.322	233.62
273.553	226.62
273.785	236.62
274.017	227.62
274.249	222.62
274.481	218.62
274.713	228.62
274.945	225.62
275.176	229.62
275.408	209.62
275.64	230.62
275.872	228.62
276.104	223.62
276.335	226.62
276.567	233.62
276.799	267.62
277.031	270.62
277.262	288.62
277.494	274.62
277.726	252.62
277.957	254.62
278.189	252.62
278.421	227.62
278.652	216.62
278.884	232.62
279.115	225.62
279.347	227.62
279.579	234.62
279.81	235.62
280.042	228.62
280.273	215.62
280.505	228.62
280.736	228.62
280.968	215.62
281.199	212.62
281.431	219.62
281.662	232.62
281.894	229.62
282.125	227.62
282.356	235.62
282.588	255.62
282.819	262.62
283.051	231.62
283.282	226.62
283.513	223.62
283.745	242.62
283.976	244.62
284.207	229.62
284.439	231.62
284.67	227.62
284.901	219.62
285.132	244.62
285.364	230.62
285.595	231.62
285.826	225.62
286.057	241.62
286.288	230.62
286.52	220.62
286.751	223.62
286.982	230.62
287.213	219.62
287.444	239.62
287.675	246.62
287.906	232.62
288.138	240.62
288.369	258.62
288.6	233.62
288.831	258.62
289.062	240.62
289.293	249.62
289.524	263.62
289.755	254.62
289.986	227.62
290.217	236.62
290.448	218.62
290.679	234.62
290.91	248.62
291.141	239.62
291.371	240.62
291.602	238.62
291.833	231.62
292.064	241.62
292.295	233.62
292.526	246.62
292.757	227.62
292.987	247.62
293.218	243.62
293.449	240.62
293.68	250.62
293.91	217.62
294.141	241.62
294.372	255.62
294.603	231.62
294.833	233.62
295.064	241.62
295.295	236.62
295.525	233.62
295.756	258.62
295.987	264.62
296.217	274.62
296.448	296.62
296.679	259.62
296.909	246.62
297.14	242.62
297.37	262.62
297.601	237.62
297.831	247.62
298.062	243.62
298.292	240.62
298.523	260.62
298.753	244.62
298.984	270.62
299.214	244.62
299.445	260.62
299.675	248.62
299.905	267.62
300.136	274.62
300.366	275.62
300.597	263.62
300.827	274.62
301.057	267.62
301.288	280.62
301.518	288.62
301.748	268.62
301.979	270.62
302.209	279.62
302.439	262.62
302.669	291.62
302.9	289.62
303.13	250.62
303.36	274.62
303.59	280.62
303.82	279.62
304.051	282.62
304.281	266.62
304.511	266.62
304.741	262.62
304.971	272.62
305.201	272.62
305.431	283.62
305.661	298.62
305.891	278.62
306.121	251.62
306.352	272.62
306.582	304.62
306.812	282.62
307.042	277.62
307.272	272.62
307.502	277.62
307.731	272.62
307.961	294.62
308.191	274.62
308.421	281.62
308.651	281.62
308.881	299.62
309.111	300.62
309.341	275.62
309.571	298.62
309.8	287.62
310.03	310.62
310.26	300.62
310.49	319.62
310.72	319.62
310.949	351.62
311.179	346.62
311.409	326.62
311.639	323.62
311.868	337.62
312.098	328.62
312.328	326.62
312.557	320.62
312.787	360.62
313.017	351.62
313.246	336.62
313.476	334.62
313.706	307.62
313.935	326.62
314.165	355.62
314.394	336.62
314.624	338.62
314.853	316.62
315.083	324.62
315.312	322.62
315.542	312.62
315.771	321.62
316.001	326.62
316.23	337.62
316.46	304.62
316.689	314.62
316.919	316.62
317.148	338.62
317.377	333.62
317.607	338.62
317.836	328.62
318.065	320.62
318.295	325.62
318.524	319.62
318.753	329.62
318.983	316.62
319.212	322.62
319.441	321.62
319.67	345.62
319.9	331.62
320.129	327.62
320.358	318.62
320.587	335.62
320.816	330.62
321.046	366.62
321.275	341.62
321.504	360.62
321.733	348.62
321.962	366.62
322.191	361.62
322.42	378.62
322.649	418.62
322.878	410.62
323.108	419.62
323.337	440.62
323.566	459.62
323.795	508.62
324.024	583.62
324.253	704.62
324.482	1053.62
324.71	1663.62
324.939	2306.62
325.168	1918.62
325.397	978.62
325.626	636.62
325.855	529.62
326.084	474.62
326.313	481.62
326.542	495.62
326.77	548.62
326.999	646.62
327.228	944.62
327.457	1421.62
327.686	1694.62
327.914	1108.62
328.143	744.62
328.372	650.62
328.6	587.62
328.829	535.62
329.058	546.62
329.287	559.62
329.515	552.62
329.744	466.62
329.972	478.62
330.201	510.62
330.43	531.62
330.658	563.62
330.887	595.62
331.115	560.62
331.344	485.62
331.572	441.62
331.801	429.62
332.03	448.62
332.258	411.62
332.486	402.62
332.715	390.62
332.943	398.62
333.172	384.62
333.4	395.62
333.629	396.62
333.857	411.62
334.085	415.62
334.314	427.62
334.542	486.62
334.771	488.62
334.999	448.62
335.227	397.62
335.455	404.62
335.684	389.62
335.912	382.62
336.14	380.62
336.369	372.62
336.597	375.62
336.825	387.62
337.053	384.62
337.281	347.62
337.51	366.62
337.738	357.62
337.966	366.62
338.194	382.62
338.422	371.62
338.65	371.62
338.878	366.62
339.106	360.62
339.334	351.62
339.562	343.62
339.79	347.62
340.018	347.62
340.246	363.62
340.474	366.62
340.702	365.62
340.93	351.62
341.158	378.62
341.386	373.62
341.614	356.62
341.842	342.62
342.07	372.62
342.298	350.62
342.526	359.62
342.754	345.62
342.981	330.62
343.209	350.62
343.437	363.62
343.665	346.62
343.893	361.62
344.12	340.62
344.348	358.62
344.576	359.62
344.804	351.62
345.031	384.62
345.259	403.62
345.487	376.62
345.714	386.62
345.942	370.62
346.17	356.62
346.397	357.62
346.625	353.62
346.853	356.62
347.08	327.62
347.308	351.62
347.535	379.62
347.763	366.62
347.99	364.62
348.218	368.62
348.445	366.62
348.673	382.62
348.9	350.62
349.128	361.62
349.355	345.62
349.583	359.62
349.81	347.62
350.037	351.62
350.265	343.62
350.492	344.62
350.72	339.62
350.947	342.62
351.174	366.62
351.402	360.62
351.629	364.62
351.856	370.62
352.083	361.62
352.311	386.62
352.538	386.62
352.765	387.62
352.992	361.62
353.22	360.62
353.447	345.62
353.674	344.62
353.901	340.62
354.128	330.62
354.355	330.62
354.583	331.62
354.81	349.62
355.037	344.62
355.264	314.62
355.491	338.62
355.718	345.62
355.945	310.62
356.172	324.62
356.399	327.62
356.626	324.62
356.853	305.62
357.08	322.62
357.307	331.62
357.534	326.62
357.761	335.62
357.988	314.62
358.215	328.62
358.441	325.62
358.668	345.62
358.895	332.62
359.122	334.62
359.349	353.62
359.576	368.62
359.802	382.62
360.029	412.62
360.256	400.62
360.483	391.62
360.709	359.62
360.936	347.62
361.163	359.62
361.39	363.62
361.616	368.62
361.843	358.62
362.07	393.62
362.296	350.62
362.523	348.62
362.749	367.62
362.976	344.62
363.203	349.62
363.429	337.62
363.656	333.62
363.882	335.62
364.109	345.62
364.335	345.62
364.562	329.62
364.788	324.62
365.015	326.62
365.241	347.62
365.468	340.62
365.694	358.62
365.92	353.62
366.147	329.62
366.373	326.62
366.599	339.62
366.826	326.62
367.052	345.62
367.278	332.62
367.505	334.62
367.731	349.62
367.957	319.62
368.184	328.62
368.41	339.62
368.636	355.62
368.862	348.62
369.089	336.62
369.315	336.62
369.541	344.62
369.767	330.62
369.993	334.62
370.219	332.62
370.445	323.62
370.672	330.62
370.898	334.62
371.124	326.62
371.35	317.62
371.576	320.62
371.802	327.62
372.028	332.62
372.254	335.62
372.48	332.62
372.706	320.62
372.932	336.62
373.158	331.62
373.384	352.62
373.61	335.62
373.835	332.62
374.061	335.62
374.287	332.62
374.513	334.62
374.739	340.62
374.965	324.62
375.191	327.62
375.416	319.62
375.642	319.62
375.868	324.62
376.094	332.62
376.319	328.62
376.545	341.62
376.771	339.62
376.997	313.62
377.222	324.62
377.448	327.62
377.674	322.62
377.899	319.62
378.125	314.62
378.35	315.62
378.576	316.62
378.802	323.62
379.027	330.62
379.253	322.62
379.478	325.62
379.704	325.62
379.929	327.62
380.155	324.62
380.38	335.62
380.606	321.62
380.831	346.62
381.057	338.62
381.282	332.62
381.507	329.62
381.733	335.62
381.958	323.62
382.184	334.62
382.409	318.62
382.634	343.62
382.86	327.62
383.085	338.62
383.31	362.62
383.535	316.62
383.761	362.62
383.986	336.62
384.211	339.62
384.436	349.62
384.662	336.62
384.887	337.62
385.112	335.62
385.337	339.62
385.562	383.62
385.787	345.62
386.013	354.62
386.238	360.62
386.463	345.62
386.688	364.62
386.913	345.62
387.138	362.62
387.363	358.62
387.588	360.62
387.813	351.62
388.038	342.62
388.263	344.62
388.488	337.62
388.713	358.62
388.938	367.62
389.163	352.62
389.387	353.62
389.612	340.62
389.837	346.62
390.062	357.62
390.287	340.62
390.512	354.62
390.736	346.62
390.961	369.62
391.186	358.62
391.411	339.62
391.636	351.62
391.86	368.62
392.085	358.62
392.31	353.62
392.534	368.62
392.759	348.62
392.984	346.62
393.208	359.62
393.433	374.62
393.658	336.62
393.882	346.62
394.107	333.62
394.331	352.62
394.556	374.62
394.78	355.62
395.005	363.62
395.229	356.62
395.454	360.62
395.678	366.62
395.903	372.62
396.127	390.62
396.352	405.62
396.576	361.62
396.801	371.62
397.025	374.62
397.249	371.62
397.474	382.62
397.698	376.62
397.922	387.62
398.147	402.62
398.371	398.62
398.595	408.62
398.82	394.62
399.044	400.62
399.268	402.62
399.492	391.62
399.717	424.62
399.941	441.62
400.165	488.62
400.389	508.62
400.613	445.62
400.837	435.62
401.062	407.62
401.286	418.62
401.51	420.62
401.734	400.62
401.958	395.62
402.182	406.62
402.406	413.62
402.63	432.62
402.854	404.62
403.078	420.62
403.302	395.62
403.526	425.62
403.75	412.62
403.974	401.62
404.198	403.62
404.422	424.62
404.645	421.62
404.869	416.62
405.093	450.62
405.317	458.62
405.541	507.62
405.765	474.62
405.988	454.62
406.212	455.62
406.436	472.62
406.66	459.62
406.883	457.62
407.107	474.62
407.331	489.62
407.555	567.62
407.778	537.62
408.002	507.62
408.226	450.62
408.449	452.62
408.673	454.62
408.896	500.62
409.12	518.62
409.344	491.62
409.567	464.62
409.791	424.62
410.014	415.62
410.238	408.62
410.461	413.62
410.685	414.62
410.908	431.62
411.132	470.62
411.355	502.62
411.578	481.62
411.802	453.62
412.025	425.62
412.249	448.62
412.472	465.62
412.695	499.62
412.919	464.62
413.142	423.62
413.365	430.62
413.589	402.62
413.812	405.62
414.035	384.62
414.258	406.62
414.482	394.62
414.705	371.62
414.928	406.62
415.151	392.62
415.374	393.62
415.597	404.62
415.821	398.62
416.044	396.62
416.267	385.62
416.49	396.62
416.713	379.62
416.936	390.62
417.159	359.62
417.382	398.62
417.605	441.62
417.828	426.62
418.051	430.62
418.274	422.62
418.497	395.62
418.72	414.62
418.943	399.62
419.166	415.62
419.389	429.62
419.611	425.62
419.834	396.62
420.057	405.62
420.28	424.62
420.503	414.62
420.726	428.62
420.948	443.62
421.171	474.62
421.394	485.62
421.617	414.62
421.839	417.62
422.062	421.62
422.285	441.62
422.507	486.62
422.73	566.62
422.953	559.62
423.175	449.62
423.398	457.62
423.621	433.62
423.843	456.62
424.066	464.62
424.288	453.62
424.511	449.62
424.733	516.62
424.956	585.62
425.178	574.62
425.401	541.62
425.623	570.62
425.846	488.62
426.068	477.62
426.291	462.62
426.513	467.62
426.735	470.62
426.958	499.62
427.18	580.62
427.402	707.62
427.625	767.62
427.847	680.62
428.069	579.62
428.292	523.62
428.514	460.62
428.736	457.62
428.958	441.62
429.181	423.62
429.403	412.62
429.625	440.62
429.847	480.62
430.069	508.62
430.292	522.62
430.514	447.62
430.736	434.62
430.958	406.62
431.18	412.62
431.402	409.62
431.624	407.62
431.846	406.62
432.068	371.62
432.29	404.62
432.512	405.62
432.734	400.62
432.956	425.62
433.178	431.62
433.4	417.62
433.622	407.62
433.844	399.62
434.066	428.62
434.287	415.62
434.509	420.62
434.731	415.62
434.953	425.62
435.175	434.62
435.397	446.62
435.618	463.62
435.84	490.62
436.062	582.62
436.284	658.62
436.505	534.62
436.727	465.62
436.949	452.62
437.17	413.62
437.392	443.62
437.614	442.62
437.835	488.62
438.057	573.62
438.278	636.62
438.5	635.62
438.721	690.62
438.943	662.62
439.165	534.62
439.386	476.62
439.608	490.62
439.829	479.62
440.05	522.62
440.272	572.62
440.493	517.62
440.715	490.62
440.936	472.62
441.158	435.62
441.379	434.62
441.6	459.62
441.822	454.62
442.043	505.62
442.264	568.62
442.486	628.62
442.707	516.62
442.928	487.62
443.149	487.62
443.371	485.62
443.592	528.62
443.813	638.62
444.034	656.62
444.255	556.62
444.476	509.62
444.698	466.62
444.919	460.62
445.14	553.62
445.361	518.62
445.582	484.62
445.803	580.62
446.024	688.62
446.245	674.62
446.466	584.62
446.687	513.62
446.908	469.62
447.129	449.62
447.35	443.62
447.571	447.62
447.792	412.62
448.013	432.62
448.234	482.62
448.455	514.62
448.675	615.62
448.896	661.62
449.117	575.62
449.338	588.62
449.559	656.62
449.779	742.62
450	600.62
450.221	481.62
450.442	472.62
450.662	431.62
450.883	454.62
451.104	471.62
451.324	435.62
451.545	425.62
451.766	436.62
451.986	390.62
452.207	390.62
452.428	390.62
452.648	384.62
452.869	410.62
453.089	386.62
453.31	412.62
453.53	408.62
453.751	400.62
453.971	400.62
454.192	406.62
454.412	387.62
454.633	400.62
454.853	384.62
455.073	391.62
455.294	417.62
455.514	472.62
455.734	460.62
455.955	407.62
456.175	399.62
456.395	373.62
456.616	371.62
456.836	372.62
457.056	368.62
457.276	353.62
457.497	363.62
457.717	377.62
457.937	376.62
458.157	368.62
458.377	384.62
458.598	403.62
458.818	469.62
459.038	554.62
459.258	562.62
459.478	474.62
459.698	414.62
459.918	415.62
460.138	417.62
460.358	418.62
460.578	406.62
460.798	418.62
461.018	427.62
461.238	409.62
461.458	392.62
461.678	392.62
461.898	406.62
462.118	407.62
462.338	434.62
462.558	407.62
462.777	424.62
462.997	422.62
463.217	417.62
463.437	432.62
463.657	422.62
463.876	429.62
464.096	426.62
464.316	425.62
464.536	444.62
464.755	454.62
464.975	420.62
465.195	496.62
465.414	573.62
465.634	520.62
465.854	452.62
466.073	437.62
466.293	444.62
466.512	411.62
466.732	404.62
466.951	385.62
467.171	396.62
467.391	399.62
467.61	384.62
467.829	416.62
468.049	425.62
468.268	411.62
468.488	397.62
468.707	408.62
468.927	383.62
469.146	368.62
469.365	383.62
469.585	354.62
469.804	400.62
470.023	420.62
470.243	425.62
470.462	436.62
470.681	437.62
470.901	439.62
471.12	418.62
471.339	402.62
471.558	417.62
471.777	392.62
471.997	415.62
472.216	428.62
472.435	469.62
472.654	437.62
472.873	433.62
473.092	405.62
473.311	409.62
473.53	413.62
473.749	414.62
473.968	463.62
474.187	543.62
474.406	588.62
474.625	456.62
474.844	416.62
475.063	397.62
475.282	404.62
475.501	407.62
475.72	426.62
475.939	409.62
476.158	422.62
476.377	410.62
476.596	433.62
476.814	435.62
477.033	429.62
477.252	422.62
477.471	439.62
477.69	433.62
477.908	427.62
478.127	428.62
478.346	423.62
478.564	447.62
478.783	459.62
479.002	454.62
479.22	445.62
479.439	465.62
479.658	498.62
479.876	506.62
480.095	482.62
480.313	516.62
480.532	489.62
480.751	505.62
480.969	506.62
481.188	574.62
481.406	623.62
481.624	548.62
481.843	490.62
482.061	509.62
482.28	483.62
482.498	472.62
482.717	472.62
482.935	470.62
483.153	468.62
483.372	484.62
483.59	475.62
483.808	460.62
484.027	481.62
484.245	472.62
484.463	468.62
484.681	498.62
484.9	487.62
485.118	490.62
485.336	500.62
485.554	486.62
485.772	488.62
485.99	498.62
486.209	517.62
486.427	497.62
486.645	518.62
486.863	516.62
487.081	516.62
487.299	505.62
487.517	505.62
487.735	494.62
487.953	510.62
488.171	498.62
488.389	524.62
488.607	513.62
488.825	494.62
489.043	496.62
489.261	509.62
489.479	502.62
489.696	522.62
489.914	524.62
490.132	535.62
490.35	539.62
490.568	540.62
490.786	555.62
491.003	543.62
491.221	544.62
491.439	564.62
491.657	568.62
491.874	575.62
492.092	573.62
492.31	586.62
492.527	570.62
492.745	579.62
492.963	607.62
493.18	600.62
493.398	607.62
493.615	610.62
493.833	588.62
494.05	611.62
494.268	606.62
494.485	601.62
494.703	615.62
494.92	583.62
495.138	589.62
495.355	594.62
495.573	599.62
495.79	620.62
496.008	616.62
496.225	612.62
496.442	609.62
496.66	592.62
496.877	598.62
497.094	595.62
497.312	604.62
497.529	619.62
497.746	615.62
497.963	647.62
498.181	665.62
498.398	646.62
498.615	671.62
498.832	652.62
499.049	674.62
499.267	682.62
499.484	711.62
499.701	702.62
499.918	707.62
500.135	741.62
500.352	775.62
500.569	738.62
500.786	736.62
501.003	771.62
501.22	736.62
501.437	722.62
501.654	721.62
501.871	755.62
