Data from 1961.PennyLincolnUp.Lamp.En5.5.200Scan.071719.P1._HRD10591_13-49-21-058.txt Node
Date: Thu Jul 18 13:49:21 EDT 2019
User: cochatt
Spectrometer: HR+D1059
Trigger mode: 1
Integration Time (sec): 1.000000E-1
Scans to average: 1
Electric dark correction enabled: true
Nonlinearity correction enabled: false
Boxcar width: 0
XAxis mode: Wavelengths
Number of Pixels in Spectrum: 2048
>>>>>Begin Spectral Data<<<<<
223.165	-12.94
223.4	-12.94
223.635	-12.94
223.869	-13.94
224.104	-11.94
224.338	-29.94
224.573	-20.94
224.808	-16.94
225.042	-10.94
225.277	2.06
225.511	0.06
225.746	11.06
225.98	13.06
226.215	8.06
226.449	16.06
226.683	12.06
226.918	31.06
227.152	24.06
227.387	46.06
227.621	38.06
227.856	46.06
228.09	54.06
228.324	46.06
228.559	60.06
228.793	82.06
229.027	82.06
229.262	110.06
229.496	115.06
229.73	134.06
229.964	140.06
230.199	116.06
230.433	109.06
230.667	111.06
230.901	121.06
231.136	110.06
231.37	108.06
231.604	110.06
231.838	106.06
232.072	111.06
232.306	107.06
232.541	111.06
232.775	111.06
233.009	111.06
233.243	105.06
233.477	115.06
233.711	114.06
233.945	118.06
234.179	117.06
234.413	112.06
234.647	106.06
234.881	110.06
235.115	107.06
235.349	117.06
235.583	105.06
235.817	118.06
236.051	121.06
236.285	108.06
236.519	123.06
236.753	136.06
236.987	151.06
237.221	195.06
237.455	219.06
237.689	158.06
237.922	145.06
238.156	129.06
238.39	130.06
238.624	120.06
238.858	116.06
239.091	107.06
239.325	119.06
239.559	124.06
239.793	130.06
240.027	107.06
240.26	130.06
240.494	150.06
240.728	142.06
240.961	152.06
241.195	142.06
241.429	130.06
241.662	112.06
241.896	120.06
242.13	130.06
242.363	118.06
242.597	123.06
242.83	129.06
243.064	136.06
243.298	132.06
243.531	122.06
243.765	133.06
243.998	130.06
244.232	135.06
244.465	127.06
244.699	129.06
244.932	126.06
245.166	136.06
245.399	131.06
245.633	136.06
245.866	126.06
246.099	143.06
246.333	135.06
246.566	136.06
246.8	138.06
247.033	146.06
247.266	140.06
247.5	152.06
247.733	161.06
247.966	145.06
248.2	150.06
248.433	146.06
248.666	161.06
248.899	178.06
249.133	174.06
249.366	192.06
249.599	186.06
249.832	168.06
250.066	173.06
250.299	172.06
250.532	180.06
250.765	196.06
250.998	191.06
251.231	191.06
251.465	193.06
251.698	184.06
251.931	188.06
252.164	172.06
252.397	197.06
252.63	186.06
252.863	195.06
253.096	189.06
253.329	207.06
253.562	191.06
253.795	199.06
254.028	200.06
254.261	217.06
254.494	207.06
254.727	225.06
254.96	266.06
255.193	251.06
255.426	232.06
255.659	198.06
255.892	202.06
256.124	210.06
256.357	212.06
256.59	199.06
256.823	204.06
257.056	182.06
257.289	191.06
257.521	201.06
257.754	183.06
257.987	186.06
258.22	194.06
258.452	168.06
258.685	184.06
258.918	192.06
259.151	202.06
259.383	199.06
259.616	212.06
259.849	196.06
260.081	216.06
260.314	236.06
260.547	234.06
260.779	214.06
261.012	206.06
261.244	209.06
261.477	206.06
261.71	199.06
261.942	193.06
262.175	225.06
262.407	193.06
262.64	202.06
262.872	202.06
263.105	196.06
263.337	202.06
263.57	188.06
263.802	203.06
264.035	186.06
264.267	198.06
264.499	201.06
264.732	185.06
264.964	204.06
265.197	199.06
265.429	178.06
265.661	190.06
265.894	179.06
266.126	190.06
266.358	182.06
266.591	203.06
266.823	194.06
267.055	220.06
267.287	200.06
267.52	189.06
267.752	179.06
267.984	190.06
268.216	196.06
268.448	221.06
268.681	219.06
268.913	212.06
269.145	231.06
269.377	219.06
269.609	246.06
269.841	220.06
270.073	250.06
270.306	265.06
270.538	279.06
270.77	262.06
271.002	255.06
271.234	257.06
271.466	272.06
271.698	271.06
271.93	267.06
272.162	283.06
272.394	281.06
272.626	256.06
272.858	249.06
273.09	260.06
273.322	252.06
273.553	235.06
273.785	256.06
274.017	237.06
274.249	252.06
274.481	243.06
274.713	214.06
274.945	248.06
275.176	239.06
275.408	224.06
275.64	242.06
275.872	224.06
276.104	235.06
276.335	247.06
276.567	239.06
276.799	256.06
277.031	269.06
277.262	288.06
277.494	270.06
277.726	253.06
277.957	253.06
278.189	246.06
278.421	237.06
278.652	228.06
278.884	231.06
279.115	230.06
279.347	233.06
279.579	224.06
279.81	235.06
280.042	234.06
280.273	227.06
280.505	220.06
280.736	229.06
280.968	235.06
281.199	245.06
281.431	228.06
281.662	228.06
281.894	221.06
282.125	231.06
282.356	251.06
282.588	255.06
282.819	272.06
283.051	240.06
283.282	220.06
283.513	250.06
283.745	236.06
283.976	222.06
284.207	251.06
284.439	240.06
284.67	238.06
284.901	245.06
285.132	248.06
285.364	220.06
285.595	230.06
285.826	231.06
286.057	233.06
286.288	235.06
286.52	235.06
286.751	217.06
286.982	240.06
287.213	239.06
287.444	223.06
287.675	243.06
287.906	251.06
288.138	229.06
288.369	260.06
288.6	246.06
288.831	265.06
289.062	249.06
289.293	246.06
289.524	238.06
289.755	247.06
289.986	239.06
290.217	249.06
290.448	243.06
290.679	226.06
290.91	242.06
291.141	245.06
291.371	239.06
291.602	255.06
291.833	216.06
292.064	244.06
292.295	235.06
292.526	242.06
292.757	242.06
292.987	237.06
293.218	252.06
293.449	226.06
293.68	238.06
293.91	245.06
294.141	249.06
294.372	252.06
294.603	270.06
294.833	245.06
295.064	237.06
295.295	248.06
295.525	250.06
295.756	244.06
295.987	250.06
296.217	280.06
296.448	296.06
296.679	251.06
296.909	264.06
297.14	234.06
297.37	240.06
297.601	249.06
297.831	267.06
298.062	253.06
298.292	263.06
298.523	260.06
298.753	253.06
298.984	260.06
299.214	248.06
299.445	263.06
299.675	255.06
299.905	254.06
300.136	235.06
300.366	272.06
300.597	252.06
300.827	280.06
301.057	270.06
301.288	288.06
301.518	287.06
301.748	266.06
301.979	274.06
302.209	275.06
302.439	272.06
302.669	282.06
302.9	281.06
303.13	279.06
303.36	261.06
303.59	271.06
303.82	300.06
304.051	282.06
304.281	284.06
304.511	263.06
304.741	270.06
304.971	280.06
305.201	269.06
305.431	280.06
305.661	287.06
305.891	300.06
306.121	268.06
306.352	271.06
306.582	294.06
306.812	290.06
307.042	292.06
307.272	291.06
307.502	279.06
307.731	289.06
307.961	284.06
308.191	288.06
308.421	289.06
308.651	282.06
308.881	279.06
309.111	296.06
309.341	299.06
309.571	316.06
309.8	313.06
310.03	326.06
310.26	318.06
310.49	341.06
310.72	355.06
310.949	346.06
311.179	354.06
311.409	340.06
311.639	328.06
311.868	335.06
312.098	345.06
312.328	344.06
312.557	347.06
312.787	371.06
313.017	359.06
313.246	347.06
313.476	332.06
313.706	328.06
313.935	335.06
314.165	314.06
314.394	350.06
314.624	355.06
314.853	342.06
315.083	319.06
315.312	330.06
315.542	317.06
315.771	312.06
316.001	333.06
316.23	303.06
316.46	311.06
316.689	335.06
316.919	335.06
317.148	347.06
317.377	362.06
317.607	335.06
317.836	329.06
318.065	325.06
318.295	326.06
318.524	327.06
318.753	302.06
318.983	321.06
319.212	326.06
319.441	331.06
319.67	338.06
319.9	326.06
320.129	335.06
320.358	311.06
320.587	347.06
320.816	325.06
321.046	350.06
321.275	346.06
321.504	363.06
321.733	345.06
321.962	353.06
322.191	370.06
322.42	416.06
322.649	404.06
322.878	423.06
323.108	420.06
323.337	462.06
323.566	486.06
323.795	518.06
324.024	584.06
324.253	721.06
324.482	1090.06
324.71	1677.06
324.939	2386.06
325.168	1976.06
325.397	1012.06
325.626	658.06
325.855	550.06
326.084	527.06
326.313	479.06
326.542	518.06
326.77	538.06
326.999	663.06
327.228	957.06
327.457	1442.06
327.686	1720.06
327.914	1145.06
328.143	740.06
328.372	629.06
328.6	598.06
328.829	541.06
329.058	565.06
329.287	571.06
329.515	538.06
329.744	474.06
329.972	482.06
330.201	517.06
330.43	540.06
330.658	586.06
330.887	591.06
331.115	567.06
331.344	517.06
331.572	465.06
331.801	466.06
332.03	443.06
332.258	420.06
332.486	390.06
332.715	402.06
332.943	391.06
333.172	409.06
333.4	398.06
333.629	402.06
333.857	438.06
334.085	445.06
334.314	443.06
334.542	490.06
334.771	493.06
334.999	456.06
335.227	418.06
335.455	402.06
335.684	391.06
335.912	400.06
336.14	362.06
336.369	369.06
336.597	389.06
336.825	365.06
337.053	380.06
337.281	388.06
337.51	381.06
337.738	382.06
337.966	386.06
338.194	368.06
338.422	372.06
338.65	365.06
338.878	352.06
339.106	367.06
339.334	359.06
339.562	370.06
339.79	362.06
340.018	376.06
340.246	354.06
340.474	367.06
340.702	372.06
340.93	361.06
341.158	371.06
341.386	369.06
341.614	369.06
341.842	360.06
342.07	381.06
342.298	348.06
342.526	355.06
342.754	346.06
342.981	339.06
343.209	334.06
343.437	366.06
343.665	348.06
343.893	347.06
344.12	365.06
344.348	362.06
344.576	351.06
344.804	361.06
345.031	378.06
345.259	390.06
345.487	382.06
345.714	357.06
345.942	377.06
346.17	382.06
346.397	358.06
346.625	364.06
346.853	351.06
347.08	355.06
347.308	357.06
347.535	391.06
347.763	375.06
347.99	371.06
348.218	383.06
348.445	357.06
348.673	379.06
348.9	361.06
349.128	374.06
349.355	346.06
349.583	350.06
349.81	354.06
350.037	352.06
350.265	362.06
350.492	340.06
350.72	345.06
350.947	357.06
351.174	369.06
351.402	354.06
351.629	365.06
351.856	362.06
352.083	395.06
352.311	384.06
352.538	401.06
352.765	383.06
352.992	351.06
353.22	350.06
353.447	362.06
353.674	348.06
353.901	347.06
354.128	337.06
354.355	327.06
354.583	330.06
354.81	348.06
355.037	354.06
355.264	327.06
355.491	321.06
355.718	314.06
355.945	336.06
356.172	322.06
356.399	325.06
356.626	299.06
356.853	334.06
357.08	335.06
357.307	338.06
357.534	328.06
357.761	316.06
357.988	332.06
358.215	347.06
358.441	337.06
358.668	344.06
358.895	322.06
359.122	363.06
359.349	338.06
359.576	371.06
359.802	392.06
360.029	424.06
360.256	419.06
360.483	409.06
360.709	378.06
360.936	363.06
361.163	358.06
361.39	357.06
361.616	373.06
361.843	362.06
362.07	344.06
362.296	368.06
362.523	383.06
362.749	361.06
362.976	369.06
363.203	351.06
363.429	335.06
363.656	335.06
363.882	332.06
364.109	331.06
364.335	332.06
364.562	353.06
364.788	350.06
365.015	320.06
365.241	342.06
365.468	339.06
365.694	349.06
365.92	360.06
366.147	373.06
366.373	336.06
366.599	344.06
366.826	330.06
367.052	333.06
367.278	323.06
367.505	338.06
367.731	335.06
367.957	337.06
368.184	342.06
368.41	372.06
368.636	362.06
368.862	333.06
369.089	334.06
369.315	334.06
369.541	323.06
369.767	324.06
369.993	332.06
370.219	317.06
370.445	350.06
370.672	318.06
370.898	343.06
371.124	331.06
371.35	341.06
371.576	332.06
371.802	352.06
372.028	328.06
372.254	341.06
372.48	330.06
372.706	318.06
372.932	335.06
373.158	330.06
373.384	334.06
373.61	330.06
373.835	335.06
374.061	319.06
374.287	323.06
374.513	336.06
374.739	331.06
374.965	325.06
375.191	333.06
375.416	327.06
375.642	343.06
375.868	334.06
376.094	344.06
376.319	331.06
376.545	327.06
376.771	330.06
376.997	330.06
377.222	328.06
377.448	348.06
377.674	332.06
377.899	333.06
378.125	330.06
378.35	323.06
378.576	324.06
378.802	327.06
379.027	317.06
379.253	319.06
379.478	309.06
379.704	327.06
379.929	331.06
380.155	341.06
380.38	321.06
380.606	331.06
380.831	355.06
381.057	322.06
381.282	331.06
381.507	352.06
381.733	337.06
381.958	346.06
382.184	335.06
382.409	323.06
382.634	322.06
382.86	340.06
383.085	309.06
383.31	346.06
383.535	322.06
383.761	339.06
383.986	340.06
384.211	352.06
384.436	332.06
384.662	344.06
384.887	348.06
385.112	332.06
385.337	343.06
385.562	353.06
385.787	353.06
386.013	373.06
386.238	359.06
386.463	334.06
386.688	371.06
386.913	354.06
387.138	351.06
387.363	349.06
387.588	362.06
387.813	353.06
388.038	352.06
388.263	351.06
388.488	352.06
388.713	371.06
388.938	367.06
389.163	376.06
389.387	350.06
389.612	370.06
389.837	344.06
390.062	336.06
390.287	334.06
390.512	343.06
390.736	357.06
390.961	347.06
391.186	345.06
391.411	378.06
391.636	354.06
391.86	348.06
392.085	348.06
392.31	366.06
392.534	351.06
392.759	371.06
392.984	356.06
393.208	353.06
393.433	360.06
393.658	352.06
393.882	356.06
394.107	352.06
394.331	345.06
394.556	357.06
394.78	333.06
395.005	337.06
395.229	346.06
395.454	364.06
395.678	369.06
395.903	387.06
396.127	403.06
396.352	397.06
396.576	386.06
396.801	357.06
397.025	367.06
397.249	364.06
397.474	375.06
397.698	374.06
397.922	397.06
398.147	398.06
398.371	403.06
398.595	390.06
398.82	398.06
399.044	400.06
399.268	417.06
399.492	418.06
399.717	448.06
399.941	431.06
400.165	487.06
400.389	495.06
400.613	462.06
400.837	448.06
401.062	400.06
401.286	423.06
401.51	399.06
401.734	415.06
401.958	409.06
402.182	419.06
402.406	427.06
402.63	415.06
402.854	416.06
403.078	404.06
403.302	419.06
403.526	423.06
403.75	408.06
403.974	413.06
404.198	395.06
404.422	431.06
404.645	426.06
404.869	439.06
405.093	456.06
405.317	519.06
405.541	500.06
405.765	478.06
405.988	468.06
406.212	469.06
406.436	461.06
406.66	494.06
406.883	465.06
407.107	485.06
407.331	523.06
407.555	553.06
407.778	550.06
408.002	538.06
408.226	480.06
408.449	471.06
408.673	482.06
408.896	491.06
409.12	536.06
409.344	494.06
409.567	434.06
409.791	464.06
410.014	442.06
410.238	410.06
410.461	414.06
410.685	417.06
410.908	455.06
411.132	492.06
411.355	489.06
411.578	471.06
411.802	436.06
412.025	425.06
412.249	428.06
412.472	452.06
412.695	478.06
412.919	495.06
413.142	443.06
413.365	438.06
413.589	393.06
413.812	420.06
414.035	399.06
414.258	408.06
414.482	395.06
414.705	398.06
414.928	407.06
415.151	406.06
415.374	386.06
415.597	406.06
415.821	412.06
416.044	412.06
416.267	410.06
416.49	416.06
416.713	417.06
416.936	404.06
417.159	390.06
417.382	407.06
417.605	413.06
417.828	420.06
418.051	418.06
418.274	416.06
418.497	392.06
418.72	402.06
418.943	405.06
419.166	412.06
419.389	430.06
419.611	430.06
419.834	418.06
420.057	434.06
420.28	430.06
420.503	418.06
420.726	429.06
420.948	436.06
421.171	477.06
421.394	510.06
421.617	441.06
421.839	419.06
422.062	434.06
422.285	462.06
422.507	491.06
422.73	560.06
422.953	544.06
423.175	479.06
423.398	448.06
423.621	441.06
423.843	472.06
424.066	448.06
424.288	446.06
424.511	464.06
424.733	531.06
424.956	586.06
425.178	570.06
425.401	570.06
425.623	587.06
425.846	510.06
426.068	486.06
426.291	469.06
426.513	474.06
426.735	489.06
426.958	523.06
427.18	605.06
427.402	682.06
427.625	772.06
427.847	701.06
428.069	599.06
428.292	535.06
428.514	484.06
428.736	444.06
428.958	444.06
429.181	433.06
429.403	415.06
429.625	447.06
429.847	474.06
430.069	550.06
430.292	511.06
430.514	463.06
430.736	445.06
430.958	436.06
431.18	408.06
431.402	412.06
431.624	378.06
431.846	403.06
432.068	407.06
432.29	389.06
432.512	391.06
432.734	427.06
432.956	421.06
433.178	431.06
433.4	426.06
433.622	414.06
433.844	418.06
434.066	412.06
434.287	417.06
434.509	404.06
434.731	414.06
434.953	419.06
435.175	440.06
435.397	450.06
435.618	485.06
435.84	516.06
436.062	582.06
436.284	639.06
436.505	542.06
436.727	485.06
436.949	450.06
437.17	455.06
437.392	437.06
437.614	468.06
437.835	485.06
438.057	585.06
438.278	664.06
438.5	680.06
438.721	705.06
438.943	680.06
439.165	550.06
439.386	498.06
439.608	511.06
439.829	509.06
440.05	523.06
440.272	554.06
440.493	539.06
440.715	483.06
440.936	454.06
441.158	452.06
441.379	453.06
441.6	456.06
441.822	495.06
442.043	523.06
442.264	589.06
442.486	631.06
442.707	534.06
442.928	511.06
443.149	493.06
443.371	487.06
443.592	550.06
443.813	617.06
444.034	680.06
444.255	549.06
444.476	492.06
444.698	474.06
444.919	450.06
445.14	547.06
445.361	528.06
445.582	525.06
445.803	593.06
446.024	681.06
446.245	670.06
446.466	623.06
446.687	506.06
446.908	482.06
447.129	445.06
447.35	434.06
447.571	427.06
447.792	429.06
448.013	446.06
448.234	477.06
448.455	515.06
448.675	618.06
448.896	703.06
449.117	615.06
449.338	579.06
449.559	659.06
449.779	749.06
450	570.06
450.221	491.06
450.442	452.06
450.662	450.06
450.883	445.06
451.104	469.06
451.324	459.06
451.545	418.06
451.766	404.06
451.986	414.06
452.207	398.06
452.428	397.06
452.648	395.06
452.869	392.06
453.089	402.06
453.31	442.06
453.53	414.06
453.751	408.06
453.971	409.06
454.192	421.06
454.412	423.06
454.633	406.06
454.853	394.06
455.073	392.06
455.294	422.06
455.514	495.06
455.734	485.06
455.955	395.06
456.175	378.06
456.395	374.06
456.616	363.06
456.836	370.06
457.056	381.06
457.276	364.06
457.497	374.06
457.717	376.06
457.937	379.06
458.157	376.06
458.377	399.06
458.598	404.06
458.818	479.06
459.038	560.06
459.258	555.06
459.478	468.06
459.698	443.06
459.918	421.06
460.138	414.06
460.358	414.06
460.578	414.06
460.798	421.06
461.018	406.06
461.238	397.06
461.458	377.06
461.678	405.06
461.898	422.06
462.118	388.06
462.338	411.06
462.558	411.06
462.777	395.06
462.997	424.06
463.217	422.06
463.437	441.06
463.657	443.06
463.876	406.06
464.096	438.06
464.316	442.06
464.536	450.06
464.755	447.06
464.975	438.06
465.195	496.06
465.414	576.06
465.634	510.06
465.854	453.06
466.073	443.06
466.293	407.06
466.512	430.06
466.732	412.06
466.951	400.06
467.171	400.06
467.391	398.06
467.61	422.06
467.829	448.06
468.049	413.06
468.268	430.06
468.488	391.06
468.707	389.06
468.927	410.06
469.146	401.06
469.365	380.06
469.585	396.06
469.804	417.06
470.023	421.06
470.243	402.06
470.462	399.06
470.681	425.06
470.901	440.06
471.12	429.06
471.339	398.06
471.558	395.06
471.777	425.06
471.997	395.06
472.216	405.06
472.435	457.06
472.654	472.06
472.873	414.06
473.092	430.06
473.311	428.06
473.53	406.06
473.749	413.06
473.968	462.06
474.187	584.06
474.406	576.06
474.625	470.06
474.844	435.06
475.063	390.06
475.282	400.06
475.501	418.06
475.72	444.06
475.939	414.06
476.158	430.06
476.377	408.06
476.596	410.06
476.814	431.06
477.033	441.06
477.252	420.06
477.471	425.06
477.69	456.06
477.908	440.06
478.127	449.06
478.346	456.06
478.564	451.06
478.783	446.06
479.002	450.06
479.22	454.06
479.439	493.06
479.658	520.06
479.876	490.06
480.095	492.06
480.313	521.06
480.532	514.06
480.751	470.06
480.969	510.06
481.188	579.06
481.406	623.06
481.624	542.06
481.843	523.06
482.061	515.06
482.28	502.06
482.498	522.06
482.717	491.06
482.935	472.06
483.153	480.06
483.372	483.06
483.59	464.06
483.808	486.06
484.027	488.06
484.245	487.06
484.463	481.06
484.681	517.06
484.9	484.06
485.118	479.06
485.336	477.06
485.554	491.06
485.772	500.06
485.99	487.06
486.209	514.06
486.427	509.06
486.645	501.06
486.863	523.06
487.081	542.06
487.299	525.06
487.517	538.06
487.735	511.06
487.953	500.06
488.171	496.06
488.389	514.06
488.607	516.06
488.825	511.06
489.043	503.06
489.261	521.06
489.479	539.06
489.696	522.06
489.914	536.06
490.132	536.06
490.35	551.06
490.568	540.06
490.786	550.06
491.003	581.06
491.221	577.06
491.439	579.06
491.657	590.06
491.874	592.06
492.092	582.06
492.31	604.06
492.527	584.06
492.745	618.06
492.963	616.06
493.18	580.06
493.398	622.06
493.615	603.06
493.833	633.06
494.05	620.06
494.268	626.06
494.485	599.06
494.703	615.06
494.92	593.06
495.138	628.06
495.355	616.06
495.573	597.06
495.79	630.06
496.008	614.06
496.225	639.06
496.442	610.06
496.66	615.06
496.877	618.06
497.094	626.06
497.312	606.06
497.529	644.06
497.746	618.06
497.963	654.06
498.181	642.06
498.398	646.06
498.615	666.06
498.832	663.06
499.049	688.06
499.267	668.06
499.484	687.06
499.701	710.06
499.918	718.06
500.135	733.06
500.352	760.06
500.569	757.06
500.786	756.06
501.003	767.06
501.22	735.06
501.437	738.06
501.654	750.06
501.871	743.06
