Data from 1961.PennyLincolnUp.Lamp.En5.5.200Scan.071719.P1._HRD10591_13-47-26-057.txt Node
Date: Thu Jul 18 13:47:26 EDT 2019
User: cochatt
Spectrometer: HR+D1059
Trigger mode: 1
Integration Time (sec): 1.000000E-1
Scans to average: 1
Electric dark correction enabled: true
Nonlinearity correction enabled: false
Boxcar width: 0
XAxis mode: Wavelengths
Number of Pixels in Spectrum: 2048
>>>>>Begin Spectral Data<<<<<
223.165	-19.81
223.4	-19.81
223.635	-19.81
223.869	-22.81
224.104	-22.81
224.338	-14.81
224.573	-15.81
224.808	-13.81
225.042	-4.81
225.277	-3.81
225.511	-0.81
225.746	10.19
225.98	11.19
226.215	17.19
226.449	13.19
226.683	19.19
226.918	22.19
227.152	26.19
227.387	28.19
227.621	45.19
227.856	43.19
228.09	41.19
228.324	46.19
228.559	58.19
228.793	68.19
229.027	83.19
229.262	93.19
229.496	116.19
229.73	110.19
229.964	125.19
230.199	124.19
230.433	92.19
230.667	118.19
230.901	90.19
231.136	88.19
231.37	101.19
231.604	97.19
231.838	100.19
232.072	100.19
232.306	83.19
232.541	120.19
232.775	95.19
233.009	111.19
233.243	105.19
233.477	102.19
233.711	123.19
233.945	106.19
234.179	96.19
234.413	118.19
234.647	104.19
234.881	118.19
235.115	96.19
235.349	111.19
235.583	105.19
235.817	123.19
236.051	110.19
236.285	114.19
236.519	105.19
236.753	116.19
236.987	138.19
237.221	159.19
237.455	202.19
237.689	150.19
237.922	128.19
238.156	116.19
238.39	121.19
238.624	106.19
238.858	109.19
239.091	112.19
239.325	106.19
239.559	121.19
239.793	122.19
240.027	122.19
240.26	123.19
240.494	134.19
240.728	118.19
240.961	128.19
241.195	122.19
241.429	122.19
241.662	113.19
241.896	126.19
242.13	118.19
242.363	114.19
242.597	127.19
242.83	114.19
243.064	122.19
243.298	131.19
243.531	125.19
243.765	116.19
243.998	119.19
244.232	120.19
244.465	119.19
244.699	128.19
244.932	118.19
245.166	122.19
245.399	122.19
245.633	130.19
245.866	135.19
246.099	128.19
246.333	134.19
246.566	137.19
246.8	116.19
247.033	139.19
247.266	142.19
247.5	134.19
247.733	139.19
247.966	136.19
248.2	150.19
248.433	139.19
248.666	144.19
248.899	159.19
249.133	163.19
249.366	151.19
249.599	166.19
249.832	143.19
250.066	164.19
250.299	162.19
250.532	176.19
250.765	165.19
250.998	185.19
251.231	184.19
251.465	171.19
251.698	175.19
251.931	172.19
252.164	166.19
252.397	167.19
252.63	182.19
252.863	159.19
253.096	182.19
253.329	184.19
253.562	188.19
253.795	183.19
254.028	174.19
254.261	170.19
254.494	181.19
254.727	217.19
254.96	241.19
255.193	226.19
255.426	208.19
255.659	197.19
255.892	186.19
256.124	202.19
256.357	178.19
256.59	176.19
256.823	182.19
257.056	176.19
257.289	174.19
257.521	169.19
257.754	186.19
257.987	169.19
258.22	181.19
258.452	165.19
258.685	176.19
258.918	167.19
259.151	180.19
259.383	169.19
259.616	190.19
259.849	197.19
260.081	199.19
260.314	186.19
260.547	216.19
260.779	198.19
261.012	197.19
261.244	182.19
261.477	183.19
261.71	191.19
261.942	183.19
262.175	192.19
262.407	205.19
262.64	164.19
262.872	178.19
263.105	166.19
263.337	186.19
263.57	184.19
263.802	196.19
264.035	171.19
264.267	167.19
264.499	166.19
264.732	194.19
264.964	185.19
265.197	179.19
265.429	180.19
265.661	163.19
265.894	179.19
266.126	154.19
266.358	186.19
266.591	174.19
266.823	187.19
267.055	174.19
267.287	190.19
267.52	185.19
267.752	183.19
267.984	174.19
268.216	194.19
268.448	176.19
268.681	200.19
268.913	204.19
269.145	213.19
269.377	203.19
269.609	202.19
269.841	227.19
270.073	213.19
270.306	224.19
270.538	242.19
270.77	272.19
271.002	243.19
271.234	232.19
271.466	245.19
271.698	244.19
271.93	238.19
272.162	241.19
272.394	252.19
272.626	237.19
272.858	230.19
273.09	240.19
273.322	228.19
273.553	207.19
273.785	226.19
274.017	201.19
274.249	203.19
274.481	206.19
274.713	216.19
274.945	210.19
275.176	201.19
275.408	213.19
275.64	199.19
275.872	218.19
276.104	217.19
276.335	213.19
276.567	224.19
276.799	229.19
277.031	232.19
277.262	243.19
277.494	263.19
277.726	233.19
277.957	225.19
278.189	213.19
278.421	203.19
278.652	229.19
278.884	207.19
279.115	223.19
279.347	194.19
279.579	204.19
279.81	228.19
280.042	190.19
280.273	203.19
280.505	225.19
280.736	207.19
280.968	224.19
281.199	193.19
281.431	205.19
281.662	219.19
281.894	211.19
282.125	224.19
282.356	225.19
282.588	229.19
282.819	265.19
283.051	230.19
283.282	220.19
283.513	214.19
283.745	219.19
283.976	227.19
284.207	225.19
284.439	220.19
284.67	217.19
284.901	225.19
285.132	208.19
285.364	194.19
285.595	208.19
285.826	214.19
286.057	228.19
286.288	204.19
286.52	205.19
286.751	232.19
286.982	204.19
287.213	224.19
287.444	203.19
287.675	225.19
287.906	230.19
288.138	244.19
288.369	232.19
288.6	239.19
288.831	223.19
289.062	221.19
289.293	216.19
289.524	224.19
289.755	228.19
289.986	217.19
290.217	221.19
290.448	210.19
290.679	234.19
290.91	222.19
291.141	226.19
291.371	224.19
291.602	241.19
291.833	219.19
292.064	229.19
292.295	194.19
292.526	224.19
292.757	226.19
292.987	224.19
293.218	228.19
293.449	228.19
293.68	216.19
293.91	228.19
294.141	213.19
294.372	228.19
294.603	224.19
294.833	223.19
295.064	229.19
295.295	222.19
295.525	206.19
295.756	237.19
295.987	251.19
296.217	252.19
296.448	264.19
296.679	250.19
296.909	223.19
297.14	239.19
297.37	235.19
297.601	232.19
297.831	235.19
298.062	247.19
298.292	231.19
298.523	231.19
298.753	216.19
298.984	236.19
299.214	227.19
299.445	231.19
299.675	236.19
299.905	256.19
300.136	216.19
300.366	248.19
300.597	248.19
300.827	251.19
301.057	235.19
301.288	242.19
301.518	255.19
301.748	267.19
301.979	251.19
302.209	258.19
302.439	260.19
302.669	255.19
302.9	256.19
303.13	244.19
303.36	279.19
303.59	274.19
303.82	272.19
304.051	276.19
304.281	248.19
304.511	264.19
304.741	258.19
304.971	245.19
305.201	240.19
305.431	239.19
305.661	267.19
305.891	261.19
306.121	242.19
306.352	257.19
306.582	256.19
306.812	250.19
307.042	263.19
307.272	264.19
307.502	273.19
307.731	258.19
307.961	251.19
308.191	258.19
308.421	266.19
308.651	261.19
308.881	262.19
309.111	257.19
309.341	281.19
309.571	287.19
309.8	294.19
310.03	289.19
310.26	310.19
310.49	318.19
310.72	299.19
310.949	310.19
311.179	320.19
311.409	297.19
311.639	310.19
311.868	305.19
312.098	299.19
312.328	324.19
312.557	322.19
312.787	334.19
313.017	329.19
313.246	318.19
313.476	295.19
313.706	305.19
313.935	307.19
314.165	300.19
314.394	324.19
314.624	323.19
314.853	312.19
315.083	307.19
315.312	299.19
315.542	279.19
315.771	286.19
316.001	277.19
316.23	283.19
316.46	288.19
316.689	291.19
316.919	306.19
317.148	306.19
317.377	295.19
317.607	294.19
317.836	299.19
318.065	276.19
318.295	305.19
318.524	312.19
318.753	288.19
318.983	320.19
319.212	306.19
319.441	318.19
319.67	318.19
319.9	293.19
320.129	315.19
320.358	303.19
320.587	307.19
320.816	312.19
321.046	318.19
321.275	302.19
321.504	305.19
321.733	329.19
321.962	320.19
322.191	356.19
322.42	346.19
322.649	366.19
322.878	384.19
323.108	384.19
323.337	398.19
323.566	428.19
323.795	457.19
324.024	510.19
324.253	618.19
324.482	931.19
324.71	1428.19
324.939	1972.19
325.168	1687.19
325.397	885.19
325.626	593.19
325.855	476.19
326.084	446.19
326.313	448.19
326.542	461.19
326.77	480.19
326.999	587.19
327.228	822.19
327.457	1254.19
327.686	1508.19
327.914	983.19
328.143	649.19
328.372	543.19
328.6	526.19
328.829	470.19
329.058	471.19
329.287	498.19
329.515	457.19
329.744	426.19
329.972	434.19
330.201	456.19
330.43	496.19
330.658	505.19
330.887	534.19
331.115	513.19
331.344	439.19
331.572	406.19
331.801	416.19
332.03	397.19
332.258	374.19
332.486	379.19
332.715	371.19
332.943	357.19
333.172	344.19
333.4	359.19
333.629	370.19
333.857	386.19
334.085	382.19
334.314	406.19
334.542	430.19
334.771	465.19
334.999	406.19
335.227	377.19
335.455	372.19
335.684	376.19
335.912	335.19
336.14	335.19
336.369	361.19
336.597	370.19
336.825	363.19
337.053	334.19
337.281	339.19
337.51	347.19
337.738	369.19
337.966	364.19
338.194	363.19
338.422	349.19
338.65	360.19
338.878	334.19
339.106	342.19
339.334	343.19
339.562	336.19
339.79	314.19
340.018	339.19
340.246	332.19
340.474	344.19
340.702	346.19
340.93	329.19
341.158	342.19
341.386	353.19
341.614	344.19
341.842	351.19
342.07	324.19
342.298	328.19
342.526	328.19
342.754	313.19
342.981	317.19
343.209	323.19
343.437	327.19
343.665	318.19
343.893	335.19
344.12	337.19
344.348	319.19
344.576	330.19
344.804	363.19
345.031	360.19
345.259	340.19
345.487	342.19
345.714	352.19
345.942	325.19
346.17	347.19
346.397	336.19
346.625	344.19
346.853	327.19
347.08	324.19
347.308	331.19
347.535	344.19
347.763	357.19
347.99	331.19
348.218	344.19
348.445	349.19
348.673	363.19
348.9	341.19
349.128	339.19
349.355	326.19
349.583	324.19
349.81	329.19
350.037	330.19
350.265	318.19
350.492	322.19
350.72	319.19
350.947	334.19
351.174	360.19
351.402	344.19
351.629	329.19
351.856	327.19
352.083	347.19
352.311	331.19
352.538	355.19
352.765	348.19
352.992	344.19
353.22	330.19
353.447	341.19
353.674	330.19
353.901	312.19
354.128	297.19
354.355	320.19
354.583	307.19
354.81	315.19
355.037	308.19
355.264	315.19
355.491	298.19
355.718	300.19
355.945	293.19
356.172	299.19
356.399	311.19
356.626	324.19
356.853	309.19
357.08	291.19
357.307	304.19
357.534	314.19
357.761	317.19
357.988	329.19
358.215	308.19
358.441	332.19
358.668	318.19
358.895	297.19
359.122	298.19
359.349	304.19
359.576	337.19
359.802	334.19
360.029	390.19
360.256	394.19
360.483	377.19
360.709	341.19
360.936	339.19
361.163	343.19
361.39	360.19
361.616	334.19
361.843	345.19
362.07	345.19
362.296	356.19
362.523	332.19
362.749	334.19
362.976	336.19
363.203	328.19
363.429	308.19
363.656	305.19
363.882	308.19
364.109	321.19
364.335	326.19
364.562	321.19
364.788	307.19
365.015	333.19
365.241	316.19
365.468	308.19
365.694	341.19
365.92	319.19
366.147	338.19
366.373	304.19
366.599	305.19
366.826	324.19
367.052	303.19
367.278	322.19
367.505	326.19
367.731	313.19
367.957	292.19
368.184	310.19
368.41	323.19
368.636	324.19
368.862	324.19
369.089	311.19
369.315	327.19
369.541	312.19
369.767	303.19
369.993	307.19
370.219	309.19
370.445	315.19
370.672	313.19
370.898	308.19
371.124	304.19
371.35	318.19
371.576	322.19
371.802	312.19
372.028	296.19
372.254	309.19
372.48	302.19
372.706	291.19
372.932	322.19
373.158	304.19
373.384	318.19
373.61	315.19
373.835	318.19
374.061	315.19
374.287	319.19
374.513	306.19
374.739	311.19
374.965	329.19
375.191	314.19
375.416	322.19
375.642	304.19
375.868	335.19
376.094	308.19
376.319	306.19
376.545	306.19
376.771	291.19
376.997	305.19
377.222	290.19
377.448	296.19
377.674	294.19
377.899	302.19
378.125	313.19
378.35	314.19
378.576	297.19
378.802	309.19
379.027	297.19
379.253	313.19
379.478	302.19
379.704	306.19
379.929	296.19
380.155	308.19
380.38	311.19
380.606	314.19
380.831	300.19
381.057	315.19
381.282	294.19
381.507	304.19
381.733	331.19
381.958	312.19
382.184	298.19
382.409	308.19
382.634	325.19
382.86	299.19
383.085	335.19
383.31	321.19
383.535	311.19
383.761	329.19
383.986	328.19
384.211	299.19
384.436	331.19
384.662	329.19
384.887	329.19
385.112	329.19
385.337	310.19
385.562	329.19
385.787	337.19
386.013	348.19
386.238	340.19
386.463	347.19
386.688	324.19
386.913	339.19
387.138	342.19
387.363	316.19
387.588	323.19
387.813	342.19
388.038	336.19
388.263	335.19
388.488	341.19
388.713	345.19
388.938	339.19
389.163	332.19
389.387	319.19
389.612	339.19
389.837	323.19
390.062	331.19
390.287	322.19
390.512	323.19
390.736	320.19
390.961	330.19
391.186	312.19
391.411	327.19
391.636	326.19
391.86	345.19
392.085	349.19
392.31	347.19
392.534	334.19
392.759	343.19
392.984	332.19
393.208	334.19
393.433	338.19
393.658	337.19
393.882	354.19
394.107	338.19
394.331	328.19
394.556	345.19
394.78	332.19
395.005	329.19
395.229	353.19
395.454	344.19
395.678	331.19
395.903	350.19
396.127	364.19
396.352	375.19
396.576	360.19
396.801	346.19
397.025	353.19
397.249	340.19
397.474	345.19
397.698	370.19
397.922	362.19
398.147	386.19
398.371	386.19
398.595	361.19
398.82	374.19
399.044	398.19
399.268	398.19
399.492	410.19
399.717	433.19
399.941	408.19
400.165	452.19
400.389	459.19
400.613	410.19
400.837	376.19
401.062	368.19
401.286	386.19
401.51	388.19
401.734	388.19
401.958	377.19
402.182	400.19
402.406	402.19
402.63	373.19
402.854	371.19
403.078	401.19
403.302	374.19
403.526	400.19
403.75	400.19
403.974	384.19
404.198	391.19
404.422	388.19
404.645	397.19
404.869	395.19
405.093	442.19
405.317	466.19
405.541	490.19
405.765	446.19
405.988	420.19
406.212	420.19
406.436	432.19
406.66	469.19
406.883	428.19
407.107	450.19
407.331	480.19
407.555	536.19
407.778	534.19
408.002	492.19
408.226	451.19
408.449	444.19
408.673	423.19
408.896	441.19
409.12	489.19
409.344	446.19
409.567	394.19
409.791	388.19
410.014	402.19
410.238	409.19
410.461	398.19
410.685	402.19
410.908	405.19
411.132	440.19
411.355	451.19
411.578	457.19
411.802	426.19
412.025	395.19
412.249	402.19
412.472	424.19
412.695	459.19
412.919	443.19
413.142	428.19
413.365	412.19
413.589	391.19
413.812	388.19
414.035	400.19
414.258	390.19
414.482	363.19
414.705	369.19
414.928	374.19
415.151	371.19
415.374	378.19
415.597	370.19
415.821	378.19
416.044	387.19
416.267	380.19
416.49	381.19
416.713	370.19
416.936	382.19
417.159	378.19
417.382	388.19
417.605	388.19
417.828	379.19
418.051	394.19
418.274	382.19
418.497	363.19
418.72	372.19
418.943	366.19
419.166	391.19
419.389	397.19
419.611	406.19
419.834	400.19
420.057	393.19
420.28	398.19
420.503	400.19
420.726	394.19
420.948	382.19
421.171	444.19
421.394	469.19
421.617	411.19
421.839	404.19
422.062	398.19
422.285	423.19
422.507	460.19
422.73	517.19
422.953	488.19
423.175	451.19
423.398	443.19
423.621	428.19
423.843	419.19
424.066	412.19
424.288	424.19
424.511	432.19
424.733	482.19
424.956	553.19
425.178	543.19
425.401	540.19
425.623	541.19
425.846	471.19
426.068	443.19
426.291	443.19
426.513	434.19
426.735	447.19
426.958	463.19
427.18	552.19
427.402	648.19
427.625	692.19
427.847	628.19
428.069	547.19
428.292	501.19
428.514	450.19
428.736	427.19
428.958	428.19
429.181	385.19
429.403	406.19
429.625	406.19
429.847	425.19
430.069	479.19
430.292	498.19
430.514	438.19
430.736	418.19
430.958	416.19
431.18	391.19
431.402	393.19
431.624	361.19
431.846	386.19
432.068	361.19
432.29	381.19
432.512	368.19
432.734	378.19
432.956	386.19
433.178	404.19
433.4	408.19
433.622	390.19
433.844	381.19
434.066	367.19
434.287	382.19
434.509	378.19
434.731	386.19
434.953	406.19
435.175	410.19
435.397	424.19
435.618	439.19
435.84	479.19
436.062	532.19
436.284	579.19
436.505	501.19
436.727	474.19
436.949	414.19
437.17	413.19
437.392	419.19
437.614	421.19
437.835	441.19
438.057	534.19
438.278	609.19
438.5	605.19
438.721	660.19
438.943	642.19
439.165	480.19
439.386	462.19
439.608	443.19
439.829	465.19
440.05	486.19
440.272	506.19
440.493	472.19
440.715	458.19
440.936	423.19
441.158	428.19
441.379	410.19
441.6	422.19
441.822	444.19
442.043	476.19
442.264	539.19
442.486	564.19
442.707	506.19
442.928	458.19
443.149	456.19
443.371	466.19
443.592	499.19
443.813	587.19
444.034	627.19
444.255	502.19
444.476	455.19
444.698	418.19
444.919	434.19
445.14	525.19
445.361	484.19
445.582	481.19
445.803	541.19
446.024	602.19
446.245	632.19
446.466	574.19
446.687	484.19
446.908	433.19
447.129	456.19
447.35	432.19
447.571	423.19
447.792	407.19
448.013	405.19
448.234	416.19
448.455	487.19
448.675	574.19
448.896	628.19
449.117	560.19
449.338	534.19
449.559	609.19
449.779	689.19
450	572.19
450.221	478.19
450.442	439.19
450.662	427.19
450.883	442.19
451.104	426.19
451.324	416.19
451.545	396.19
451.766	386.19
451.986	370.19
452.207	372.19
452.428	383.19
452.648	364.19
452.869	371.19
453.089	372.19
453.31	387.19
453.53	375.19
453.751	378.19
453.971	379.19
454.192	396.19
454.412	378.19
454.633	349.19
454.853	366.19
455.073	370.19
455.294	406.19
455.514	460.19
455.734	440.19
455.955	359.19
456.175	350.19
456.395	343.19
456.616	354.19
456.836	356.19
457.056	337.19
457.276	351.19
457.497	352.19
457.717	348.19
457.937	357.19
458.157	356.19
458.377	370.19
458.598	387.19
458.818	421.19
459.038	522.19
459.258	506.19
459.478	434.19
459.698	422.19
459.918	376.19
460.138	379.19
460.358	379.19
460.578	391.19
460.798	385.19
461.018	394.19
461.238	384.19
461.458	383.19
461.678	380.19
461.898	395.19
462.118	380.19
462.338	395.19
462.558	375.19
462.777	382.19
462.997	392.19
463.217	398.19
463.437	414.19
463.657	409.19
463.876	403.19
464.096	412.19
464.316	421.19
464.536	396.19
464.755	417.19
464.975	442.19
465.195	464.19
465.414	554.19
465.634	459.19
465.854	441.19
466.073	400.19
466.293	402.19
466.512	391.19
466.732	385.19
466.951	377.19
467.171	366.19
467.391	370.19
467.61	402.19
467.829	395.19
468.049	402.19
468.268	388.19
468.488	375.19
468.707	386.19
468.927	357.19
469.146	378.19
469.365	366.19
469.585	376.19
469.804	383.19
470.023	403.19
470.243	382.19
470.462	376.19
470.681	411.19
470.901	386.19
471.12	380.19
471.339	380.19
471.558	369.19
471.777	393.19
471.997	379.19
472.216	402.19
472.435	447.19
472.654	398.19
472.873	389.19
473.092	399.19
473.311	378.19
473.53	370.19
473.749	397.19
473.968	435.19
474.187	510.19
474.406	528.19
474.625	458.19
474.844	398.19
475.063	367.19
475.282	412.19
475.501	408.19
475.72	396.19
475.939	390.19
476.158	384.19
476.377	394.19
476.596	393.19
476.814	421.19
477.033	396.19
477.252	406.19
477.471	401.19
477.69	400.19
477.908	414.19
478.127	426.19
478.346	403.19
478.564	415.19
478.783	441.19
479.002	418.19
479.22	433.19
479.439	443.19
479.658	463.19
479.876	470.19
480.095	456.19
480.313	468.19
480.532	447.19
480.751	467.19
480.969	496.19
481.188	551.19
481.406	593.19
481.624	493.19
481.843	492.19
482.061	466.19
482.28	463.19
482.498	446.19
482.717	452.19
482.935	452.19
483.153	479.19
483.372	474.19
483.59	446.19
483.808	436.19
484.027	454.19
484.245	458.19
484.463	453.19
484.681	457.19
484.9	447.19
485.118	474.19
485.336	465.19
485.554	477.19
485.772	480.19
485.99	467.19
486.209	456.19
486.427	476.19
486.645	475.19
486.863	498.19
487.081	517.19
487.299	502.19
487.517	480.19
487.735	498.19
487.953	484.19
488.171	481.19
488.389	481.19
488.607	489.19
488.825	526.19
489.043	491.19
489.261	479.19
489.479	503.19
489.696	501.19
489.914	488.19
490.132	488.19
490.35	495.19
490.568	508.19
490.786	521.19
491.003	540.19
491.221	540.19
491.439	528.19
491.657	538.19
491.874	547.19
492.092	525.19
492.31	531.19
492.527	549.19
492.745	540.19
492.963	585.19
493.18	545.19
493.398	564.19
493.615	551.19
493.833	561.19
494.05	578.19
494.268	520.19
494.485	560.19
494.703	530.19
494.92	568.19
495.138	563.19
495.355	576.19
495.573	568.19
495.79	572.19
496.008	565.19
496.225	555.19
496.442	573.19
496.66	577.19
496.877	564.19
497.094	574.19
497.312	572.19
497.529	591.19
497.746	579.19
497.963	600.19
498.181	590.19
498.398	645.19
498.615	610.19
498.832	654.19
499.049	624.19
499.267	615.19
499.484	652.19
499.701	665.19
499.918	683.19
500.135	695.19
500.352	707.19
500.569	733.19
500.786	744.19
501.003	723.19
501.22	696.19
501.437	677.19
501.654	692.19
501.871	685.19
502.088	685.19
