Data from 1961.PennyLincolnUp.Lamp.En5.5.200Scan.071719.P1._HRD10591_13-47-33-057.txt Node
Date: Thu Jul 18 13:47:33 EDT 2019
User: cochatt
Spectrometer: HR+D1059
Trigger mode: 1
Integration Time (sec): 1.000000E-1
Scans to average: 1
Electric dark correction enabled: true
Nonlinearity correction enabled: false
Boxcar width: 0
XAxis mode: Wavelengths
Number of Pixels in Spectrum: 2048
>>>>>Begin Spectral Data<<<<<
223.165	-9.44
223.4	-9.44
223.635	-9.44
223.869	-28.44
224.104	-15.44
224.338	-22.44
224.573	-17.44
224.808	-12.44
225.042	-5.44
225.277	3.56
225.511	-5.44
225.746	-1.44
225.98	-9.44
226.215	15.56
226.449	10.56
226.683	35.56
226.918	26.56
227.152	35.56
227.387	41.56
227.621	51.56
227.856	43.56
228.09	53.56
228.324	51.56
228.559	41.56
228.793	77.56
229.027	105.56
229.262	87.56
229.496	121.56
229.73	124.56
229.964	149.56
230.199	127.56
230.433	103.56
230.667	98.56
230.901	108.56
231.136	92.56
231.37	88.56
231.604	121.56
231.838	101.56
232.072	116.56
232.306	106.56
232.541	106.56
232.775	105.56
233.009	97.56
233.243	97.56
233.477	114.56
233.711	111.56
233.945	120.56
234.179	105.56
234.413	122.56
234.647	107.56
234.881	117.56
235.115	110.56
235.349	117.56
235.583	122.56
235.817	109.56
236.051	118.56
236.285	124.56
236.519	103.56
236.753	123.56
236.987	138.56
237.221	150.56
237.455	174.56
237.689	155.56
237.922	147.56
238.156	131.56
238.39	130.56
238.624	122.56
238.858	134.56
239.091	123.56
239.325	99.56
239.559	126.56
239.793	111.56
240.027	127.56
240.26	128.56
240.494	153.56
240.728	156.56
240.961	130.56
241.195	122.56
241.429	133.56
241.662	117.56
241.896	107.56
242.13	108.56
242.363	114.56
242.597	128.56
242.83	123.56
243.064	132.56
243.298	128.56
243.531	126.56
243.765	126.56
243.998	135.56
244.232	130.56
244.465	121.56
244.699	118.56
244.932	123.56
245.166	126.56
245.399	130.56
245.633	126.56
245.866	138.56
246.099	125.56
246.333	130.56
246.566	128.56
246.8	131.56
247.033	138.56
247.266	137.56
247.5	138.56
247.733	156.56
247.966	156.56
248.2	166.56
248.433	154.56
248.666	158.56
248.899	154.56
249.133	176.56
249.366	167.56
249.599	158.56
249.832	162.56
250.066	178.56
250.299	160.56
250.532	162.56
250.765	172.56
250.998	180.56
251.231	186.56
251.465	173.56
251.698	189.56
251.931	171.56
252.164	165.56
252.397	170.56
252.63	168.56
252.863	196.56
253.096	175.56
253.329	198.56
253.562	192.56
253.795	184.56
254.028	191.56
254.261	183.56
254.494	189.56
254.727	215.56
254.96	238.56
255.193	212.56
255.426	206.56
255.659	185.56
255.892	196.56
256.124	199.56
256.357	211.56
256.59	178.56
256.823	180.56
257.056	171.56
257.289	180.56
257.521	173.56
257.754	192.56
257.987	195.56
258.22	176.56
258.452	170.56
258.685	181.56
258.918	171.56
259.151	187.56
259.383	192.56
259.616	195.56
259.849	187.56
260.081	189.56
260.314	199.56
260.547	208.56
260.779	205.56
261.012	196.56
261.244	194.56
261.477	175.56
261.71	170.56
261.942	203.56
262.175	195.56
262.407	216.56
262.64	189.56
262.872	187.56
263.105	189.56
263.337	184.56
263.57	187.56
263.802	174.56
264.035	164.56
264.267	171.56
264.499	176.56
264.732	148.56
264.964	170.56
265.197	182.56
265.429	185.56
265.661	199.56
265.894	178.56
266.126	177.56
266.358	181.56
266.591	174.56
266.823	168.56
267.055	190.56
267.287	191.56
267.52	198.56
267.752	185.56
267.984	205.56
268.216	192.56
268.448	196.56
268.681	180.56
268.913	202.56
269.145	221.56
269.377	229.56
269.609	219.56
269.841	211.56
270.073	233.56
270.306	231.56
270.538	246.56
270.77	234.56
271.002	249.56
271.234	248.56
271.466	236.56
271.698	244.56
271.93	245.56
272.162	257.56
272.394	246.56
272.626	258.56
272.858	244.56
273.09	239.56
273.322	228.56
273.553	215.56
273.785	222.56
274.017	198.56
274.249	208.56
274.481	224.56
274.713	209.56
274.945	216.56
275.176	205.56
275.408	228.56
275.64	203.56
275.872	192.56
276.104	210.56
276.335	213.56
276.567	209.56
276.799	222.56
277.031	257.56
277.262	249.56
277.494	247.56
277.726	238.56
277.957	242.56
278.189	227.56
278.421	230.56
278.652	206.56
278.884	214.56
279.115	204.56
279.347	219.56
279.579	216.56
279.81	222.56
280.042	219.56
280.273	198.56
280.505	226.56
280.736	193.56
280.968	214.56
281.199	242.56
281.431	214.56
281.662	214.56
281.894	223.56
282.125	224.56
282.356	236.56
282.588	245.56
282.819	252.56
283.051	227.56
283.282	219.56
283.513	233.56
283.745	233.56
283.976	219.56
284.207	207.56
284.439	232.56
284.67	233.56
284.901	208.56
285.132	225.56
285.364	214.56
285.595	234.56
285.826	203.56
286.057	218.56
286.288	225.56
286.52	232.56
286.751	221.56
286.982	214.56
287.213	232.56
287.444	237.56
287.675	221.56
287.906	213.56
288.138	241.56
288.369	234.56
288.6	218.56
288.831	221.56
289.062	249.56
289.293	214.56
289.524	223.56
289.755	229.56
289.986	228.56
290.217	234.56
290.448	219.56
290.679	226.56
290.91	226.56
291.141	208.56
291.371	235.56
291.602	216.56
291.833	242.56
292.064	214.56
292.295	227.56
292.526	218.56
292.757	223.56
292.987	214.56
293.218	231.56
293.449	235.56
293.68	235.56
293.91	233.56
294.141	210.56
294.372	235.56
294.603	228.56
294.833	234.56
295.064	214.56
295.295	232.56
295.525	238.56
295.756	238.56
295.987	253.56
296.217	275.56
296.448	272.56
296.679	237.56
296.909	247.56
297.14	244.56
297.37	235.56
297.601	223.56
297.831	230.56
298.062	224.56
298.292	254.56
298.523	259.56
298.753	255.56
298.984	251.56
299.214	249.56
299.445	238.56
299.675	234.56
299.905	245.56
300.136	268.56
300.366	260.56
300.597	261.56
300.827	268.56
301.057	251.56
301.288	270.56
301.518	278.56
301.748	260.56
301.979	265.56
302.209	244.56
302.439	282.56
302.669	247.56
302.9	273.56
303.13	261.56
303.36	250.56
303.59	260.56
303.82	283.56
304.051	251.56
304.281	267.56
304.511	258.56
304.741	248.56
304.971	273.56
305.201	252.56
305.431	258.56
305.661	248.56
305.891	248.56
306.121	271.56
306.352	261.56
306.582	271.56
306.812	274.56
307.042	263.56
307.272	261.56
307.502	276.56
307.731	256.56
307.961	265.56
308.191	268.56
308.421	277.56
308.651	264.56
308.881	270.56
309.111	272.56
309.341	285.56
309.571	270.56
309.8	296.56
310.03	286.56
310.26	306.56
310.49	307.56
310.72	310.56
310.949	333.56
311.179	329.56
311.409	318.56
311.639	310.56
311.868	306.56
312.098	295.56
312.328	329.56
312.557	347.56
312.787	332.56
313.017	333.56
313.246	312.56
313.476	314.56
313.706	308.56
313.935	314.56
314.165	298.56
314.394	317.56
314.624	331.56
314.853	323.56
315.083	312.56
315.312	314.56
315.542	307.56
315.771	294.56
316.001	311.56
316.23	284.56
316.46	284.56
316.689	300.56
316.919	302.56
317.148	317.56
317.377	307.56
317.607	310.56
317.836	334.56
318.065	322.56
318.295	302.56
318.524	306.56
318.753	305.56
318.983	300.56
319.212	314.56
319.441	322.56
319.67	326.56
319.9	299.56
320.129	306.56
320.358	300.56
320.587	298.56
320.816	332.56
321.046	325.56
321.275	321.56
321.504	316.56
321.733	331.56
321.962	331.56
322.191	335.56
322.42	364.56
322.649	364.56
322.878	365.56
323.108	390.56
323.337	418.56
323.566	426.56
323.795	459.56
324.024	531.56
324.253	654.56
324.482	935.56
324.71	1450.56
324.939	2062.56
325.168	1739.56
325.397	924.56
325.626	610.56
325.855	495.56
326.084	434.56
326.313	436.56
326.542	453.56
326.77	493.56
326.999	595.56
327.228	851.56
327.457	1295.56
327.686	1497.56
327.914	990.56
328.143	657.56
328.372	586.56
328.6	542.56
328.829	508.56
329.058	511.56
329.287	512.56
329.515	476.56
329.744	454.56
329.972	432.56
330.201	460.56
330.43	494.56
330.658	528.56
330.887	538.56
331.115	523.56
331.344	444.56
331.572	424.56
331.801	422.56
332.03	425.56
332.258	410.56
332.486	378.56
332.715	347.56
332.943	358.56
333.172	355.56
333.4	359.56
333.629	376.56
333.857	376.56
334.085	392.56
334.314	407.56
334.542	438.56
334.771	474.56
334.999	407.56
335.227	387.56
335.455	367.56
335.684	360.56
335.912	382.56
336.14	367.56
336.369	354.56
336.597	368.56
336.825	379.56
337.053	364.56
337.281	370.56
337.51	347.56
337.738	340.56
337.966	361.56
338.194	363.56
338.422	351.56
338.65	351.56
338.878	352.56
339.106	358.56
339.334	341.56
339.562	344.56
339.79	353.56
340.018	352.56
340.246	336.56
340.474	360.56
340.702	347.56
340.93	343.56
341.158	340.56
341.386	346.56
341.614	344.56
341.842	351.56
342.07	330.56
342.298	337.56
342.526	346.56
342.754	344.56
342.981	344.56
343.209	316.56
343.437	324.56
343.665	326.56
343.893	333.56
344.12	316.56
344.348	324.56
344.576	324.56
344.804	339.56
345.031	352.56
345.259	363.56
345.487	354.56
345.714	360.56
345.942	336.56
346.17	326.56
346.397	327.56
346.625	334.56
346.853	347.56
347.08	347.56
347.308	331.56
347.535	341.56
347.763	340.56
347.99	346.56
348.218	349.56
348.445	337.56
348.673	347.56
348.9	331.56
349.128	344.56
349.355	328.56
349.583	351.56
349.81	326.56
350.037	317.56
350.265	323.56
350.492	320.56
350.72	318.56
350.947	339.56
351.174	350.56
351.402	349.56
351.629	351.56
351.856	356.56
352.083	365.56
352.311	353.56
352.538	350.56
352.765	338.56
352.992	344.56
353.22	345.56
353.447	333.56
353.674	334.56
353.901	339.56
354.128	334.56
354.355	320.56
354.583	319.56
354.81	323.56
355.037	316.56
355.264	298.56
355.491	312.56
355.718	310.56
355.945	321.56
356.172	324.56
356.399	317.56
356.626	283.56
356.853	288.56
357.08	316.56
357.307	299.56
357.534	308.56
357.761	304.56
357.988	318.56
358.215	308.56
358.441	320.56
358.668	322.56
358.895	322.56
359.122	323.56
359.349	334.56
359.576	347.56
359.802	380.56
360.029	375.56
360.256	400.56
360.483	375.56
360.709	347.56
360.936	350.56
361.163	347.56
361.39	344.56
361.616	333.56
361.843	325.56
362.07	323.56
362.296	355.56
362.523	328.56
362.749	335.56
362.976	330.56
363.203	333.56
363.429	332.56
363.656	318.56
363.882	313.56
364.109	320.56
364.335	315.56
364.562	325.56
364.788	331.56
365.015	324.56
365.241	328.56
365.468	339.56
365.694	320.56
365.92	314.56
366.147	311.56
366.373	297.56
366.599	320.56
366.826	299.56
367.052	326.56
367.278	354.56
367.505	319.56
367.731	303.56
367.957	320.56
368.184	332.56
368.41	323.56
368.636	335.56
368.862	339.56
369.089	312.56
369.315	318.56
369.541	316.56
369.767	307.56
369.993	337.56
370.219	304.56
370.445	311.56
370.672	318.56
370.898	297.56
371.124	299.56
371.35	332.56
371.576	314.56
371.802	310.56
372.028	319.56
372.254	308.56
372.48	303.56
372.706	316.56
372.932	308.56
373.158	315.56
373.384	300.56
373.61	339.56
373.835	314.56
374.061	310.56
374.287	331.56
374.513	335.56
374.739	323.56
374.965	314.56
375.191	318.56
375.416	331.56
375.642	327.56
375.868	329.56
376.094	306.56
376.319	325.56
376.545	306.56
376.771	325.56
376.997	311.56
377.222	311.56
377.448	320.56
377.674	323.56
377.899	332.56
378.125	287.56
378.35	314.56
378.576	303.56
378.802	298.56
379.027	330.56
379.253	324.56
379.478	299.56
379.704	317.56
379.929	318.56
380.155	324.56
380.38	318.56
380.606	319.56
380.831	328.56
381.057	278.56
381.282	311.56
381.507	323.56
381.733	307.56
381.958	323.56
382.184	322.56
382.409	324.56
382.634	322.56
382.86	312.56
383.085	324.56
383.31	335.56
383.535	294.56
383.761	319.56
383.986	326.56
384.211	325.56
384.436	335.56
384.662	342.56
384.887	344.56
385.112	327.56
385.337	327.56
385.562	319.56
385.787	334.56
386.013	335.56
386.238	352.56
386.463	322.56
386.688	356.56
386.913	325.56
387.138	342.56
387.363	338.56
387.588	325.56
387.813	331.56
388.038	343.56
388.263	327.56
388.488	346.56
388.713	324.56
388.938	342.56
389.163	332.56
389.387	341.56
389.612	337.56
389.837	336.56
390.062	330.56
390.287	336.56
390.512	329.56
390.736	329.56
390.961	341.56
391.186	349.56
391.411	338.56
391.636	324.56
391.86	331.56
392.085	358.56
392.31	349.56
392.534	353.56
392.759	335.56
392.984	324.56
393.208	352.56
393.433	340.56
393.658	344.56
393.882	349.56
394.107	319.56
394.331	341.56
394.556	331.56
394.78	336.56
395.005	335.56
395.229	353.56
395.454	339.56
395.678	359.56
395.903	348.56
396.127	376.56
396.352	374.56
396.576	356.56
396.801	356.56
397.025	364.56
397.249	366.56
397.474	355.56
397.698	362.56
397.922	384.56
398.147	380.56
398.371	381.56
398.595	374.56
398.82	361.56
399.044	396.56
399.268	390.56
399.492	388.56
399.717	417.56
399.941	417.56
400.165	452.56
400.389	476.56
400.613	445.56
400.837	412.56
401.062	390.56
401.286	376.56
401.51	389.56
401.734	358.56
401.958	369.56
402.182	386.56
402.406	418.56
402.63	395.56
402.854	395.56
403.078	386.56
403.302	402.56
403.526	384.56
403.75	394.56
403.974	398.56
404.198	382.56
404.422	397.56
404.645	401.56
404.869	403.56
405.093	430.56
405.317	474.56
405.541	480.56
405.765	458.56
405.988	430.56
406.212	443.56
406.436	459.56
406.66	455.56
406.883	438.56
407.107	450.56
407.331	497.56
407.555	542.56
407.778	537.56
408.002	495.56
408.226	431.56
408.449	457.56
408.673	452.56
408.896	485.56
409.12	462.56
409.344	443.56
409.567	428.56
409.791	434.56
410.014	415.56
410.238	414.56
410.461	397.56
410.685	412.56
410.908	400.56
411.132	439.56
411.355	473.56
411.578	456.56
411.802	402.56
412.025	416.56
412.249	411.56
412.472	434.56
412.695	475.56
412.919	436.56
413.142	414.56
413.365	394.56
413.589	389.56
413.812	400.56
414.035	386.56
414.258	389.56
414.482	371.56
414.705	368.56
414.928	379.56
415.151	376.56
415.374	398.56
415.597	389.56
415.821	386.56
416.044	382.56
416.267	374.56
416.49	392.56
416.713	366.56
416.936	349.56
417.159	375.56
417.382	380.56
417.605	368.56
417.828	404.56
418.051	388.56
418.274	380.56
418.497	396.56
418.72	393.56
418.943	374.56
419.166	386.56
419.389	407.56
419.611	380.56
419.834	378.56
420.057	407.56
420.28	408.56
420.503	409.56
420.726	401.56
420.948	417.56
421.171	454.56
421.394	475.56
421.617	425.56
421.839	387.56
422.062	395.56
422.285	398.56
422.507	453.56
422.73	522.56
422.953	501.56
423.175	460.56
423.398	429.56
423.621	422.56
423.843	397.56
424.066	448.56
424.288	441.56
424.511	462.56
424.733	502.56
424.956	556.56
425.178	528.56
425.401	534.56
425.623	544.56
425.846	462.56
426.068	436.56
426.291	445.56
426.513	414.56
426.735	455.56
426.958	484.56
427.18	542.56
427.402	660.56
427.625	701.56
427.847	650.56
428.069	562.56
428.292	459.56
428.514	461.56
428.736	433.56
428.958	437.56
429.181	414.56
429.403	408.56
429.625	404.56
429.847	423.56
430.069	496.56
430.292	483.56
430.514	412.56
430.736	384.56
430.958	401.56
431.18	398.56
431.402	383.56
431.624	376.56
431.846	379.56
432.068	379.56
432.29	390.56
432.512	382.56
432.734	382.56
432.956	394.56
433.178	395.56
433.4	399.56
433.622	394.56
433.844	389.56
434.066	362.56
434.287	371.56
434.509	378.56
434.731	393.56
434.953	407.56
435.175	420.56
435.397	426.56
435.618	447.56
435.84	471.56
436.062	556.56
436.284	594.56
436.505	488.56
436.727	448.56
436.949	412.56
437.17	428.56
437.392	419.56
437.614	407.56
437.835	451.56
438.057	526.56
438.278	619.56
438.5	608.56
438.721	663.56
438.943	621.56
439.165	511.56
439.386	495.56
439.608	455.56
439.829	469.56
440.05	505.56
440.272	532.56
440.493	494.56
440.715	440.56
440.936	420.56
441.158	399.56
441.379	411.56
441.6	416.56
441.822	448.56
442.043	470.56
442.264	539.56
442.486	593.56
442.707	487.56
442.928	456.56
443.149	464.56
443.371	478.56
443.592	507.56
443.813	588.56
444.034	662.56
444.255	522.56
444.476	452.56
444.698	453.56
444.919	440.56
445.14	550.56
445.361	476.56
445.582	493.56
445.803	532.56
446.024	621.56
446.245	634.56
446.466	582.56
446.687	491.56
446.908	448.56
447.129	434.56
447.35	419.56
447.571	430.56
447.792	417.56
448.013	424.56
448.234	443.56
448.455	488.56
448.675	586.56
448.896	680.56
449.117	582.56
449.338	516.56
449.559	613.56
449.779	689.56
450	546.56
450.221	468.56
450.442	429.56
450.662	420.56
450.883	438.56
451.104	443.56
451.324	422.56
451.545	399.56
451.766	410.56
451.986	398.56
452.207	371.56
452.428	382.56
452.648	376.56
452.869	359.56
453.089	397.56
453.31	388.56
453.53	402.56
453.751	376.56
453.971	375.56
454.192	394.56
454.412	377.56
454.633	380.56
454.853	379.56
455.073	384.56
455.294	385.56
455.514	448.56
455.734	442.56
455.955	383.56
456.175	358.56
456.395	330.56
456.616	351.56
456.836	344.56
457.056	351.56
457.276	350.56
457.497	358.56
457.717	355.56
457.937	358.56
458.157	363.56
458.377	365.56
458.598	389.56
458.818	448.56
459.038	542.56
459.258	500.56
459.478	435.56
459.698	393.56
459.918	398.56
460.138	394.56
460.358	391.56
460.578	380.56
460.798	379.56
461.018	395.56
461.238	389.56
461.458	380.56
461.678	391.56
461.898	386.56
462.118	370.56
462.338	391.56
462.558	399.56
462.777	410.56
462.997	404.56
463.217	391.56
463.437	407.56
463.657	401.56
463.876	400.56
464.096	410.56
464.316	395.56
464.536	409.56
464.755	410.56
464.975	426.56
465.195	472.56
465.414	548.56
465.634	464.56
465.854	407.56
466.073	416.56
466.293	414.56
466.512	390.56
466.732	380.56
466.951	380.56
467.171	389.56
467.391	374.56
467.61	378.56
467.829	410.56
468.049	396.56
468.268	381.56
468.488	383.56
468.707	374.56
468.927	377.56
469.146	370.56
469.365	383.56
469.585	360.56
469.804	379.56
470.023	392.56
470.243	388.56
470.462	386.56
470.681	405.56
470.901	409.56
471.12	373.56
471.339	387.56
471.558	386.56
471.777	378.56
471.997	379.56
472.216	387.56
472.435	443.56
472.654	446.56
472.873	413.56
473.092	366.56
473.311	385.56
473.53	386.56
473.749	380.56
473.968	443.56
474.187	516.56
474.406	529.56
474.625	448.56
474.844	386.56
475.063	381.56
475.282	397.56
475.501	400.56
475.72	411.56
475.939	394.56
476.158	380.56
476.377	394.56
476.596	382.56
476.814	398.56
477.033	417.56
477.252	414.56
477.471	400.56
477.69	406.56
477.908	407.56
478.127	422.56
478.346	407.56
478.564	413.56
478.783	412.56
479.002	420.56
479.22	442.56
479.439	421.56
479.658	467.56
479.876	454.56
480.095	465.56
480.313	484.56
480.532	479.56
480.751	467.56
480.969	467.56
481.188	534.56
481.406	587.56
481.624	526.56
481.843	469.56
482.061	461.56
482.28	459.56
482.498	456.56
482.717	459.56
482.935	448.56
483.153	453.56
483.372	430.56
483.59	462.56
483.808	473.56
484.027	464.56
484.245	439.56
484.463	446.56
484.681	450.56
484.9	463.56
485.118	452.56
485.336	452.56
485.554	470.56
485.772	462.56
485.99	483.56
486.209	460.56
486.427	465.56
486.645	489.56
486.863	500.56
487.081	491.56
487.299	468.56
487.517	475.56
487.735	485.56
487.953	480.56
488.171	487.56
488.389	482.56
488.607	464.56
488.825	487.56
489.043	466.56
489.261	486.56
489.479	495.56
489.696	490.56
489.914	496.56
490.132	496.56
490.35	509.56
490.568	493.56
490.786	532.56
491.003	503.56
491.221	525.56
491.439	536.56
491.657	532.56
491.874	568.56
492.092	555.56
492.31	558.56
492.527	544.56
492.745	562.56
492.963	549.56
493.18	554.56
493.398	573.56
493.615	570.56
493.833	576.56
494.05	586.56
494.268	577.56
494.485	565.56
494.703	573.56
494.92	551.56
495.138	573.56
495.355	589.56
495.573	580.56
495.79	582.56
496.008	584.56
496.225	563.56
496.442	596.56
496.66	578.56
496.877	571.56
497.094	573.56
497.312	564.56
497.529	576.56
497.746	591.56
497.963	609.56
498.181	615.56
498.398	605.56
498.615	615.56
498.832	617.56
499.049	635.56
499.267	638.56
499.484	636.56
499.701	663.56
499.918	693.56
500.135	704.56
500.352	698.56
500.569	712.56
500.786	747.56
501.003	712.56
501.22	712.56
501.437	682.56
501.654	701.56
501.871	712.56
502.088	692.56
