Data from 1961.PennyLincolnUp.Lamp.En5.5.200Scan.071719.P1._HRD10591_13-49-03-058.txt Node
Date: Thu Jul 18 13:49:03 EDT 2019
User: cochatt
Spectrometer: HR+D1059
Trigger mode: 1
Integration Time (sec): 1.000000E-1
Scans to average: 1
Electric dark correction enabled: true
Nonlinearity correction enabled: false
Boxcar width: 0
XAxis mode: Wavelengths
Number of Pixels in Spectrum: 2048
>>>>>Begin Spectral Data<<<<<
223.165	-12
223.4	-12
223.635	-12
223.869	-27
224.104	-2
224.338	-11
224.573	-18
224.808	-22
225.042	3
225.277	-10
225.511	5
225.746	4
225.98	2
226.215	13
226.449	6
226.683	7
226.918	34
227.152	28
227.387	28
227.621	39
227.856	50
228.09	52
228.324	54
228.559	41
228.793	71
229.027	98
229.262	99
229.496	111
229.73	123
229.964	154
230.199	130
230.433	125
230.667	108
230.901	110
231.136	111
231.37	105
231.604	110
231.838	100
232.072	122
232.306	114
232.541	94
232.775	110
233.009	125
233.243	122
233.477	99
233.711	109
233.945	121
234.179	118
234.413	109
234.647	118
234.881	117
235.115	120
235.349	115
235.583	115
235.817	111
236.051	114
236.285	119
236.519	120
236.753	106
236.987	152
237.221	176
237.455	220
237.689	178
237.922	138
238.156	109
238.39	130
238.624	119
238.858	122
239.091	103
239.325	121
239.559	121
239.793	118
240.027	136
240.26	123
240.494	148
240.728	132
240.961	143
241.195	133
241.429	129
241.662	136
241.896	120
242.13	125
242.363	100
242.597	137
242.83	124
243.064	130
243.298	126
243.531	127
243.765	139
243.998	119
244.232	110
244.465	132
244.699	152
244.932	127
245.166	126
245.399	127
245.633	142
245.866	133
246.099	134
246.333	132
246.566	114
246.8	143
247.033	147
247.266	148
247.5	146
247.733	143
247.966	153
248.2	136
248.433	155
248.666	142
248.899	159
249.133	179
249.366	181
249.599	178
249.832	179
250.066	176
250.299	178
250.532	160
250.765	189
250.998	190
251.231	201
251.465	192
251.698	177
251.931	172
252.164	164
252.397	179
252.63	173
252.863	180
253.096	198
253.329	194
253.562	195
253.795	202
254.028	187
254.261	185
254.494	213
254.727	222
254.96	239
255.193	228
255.426	231
255.659	206
255.892	212
256.124	220
256.357	215
256.59	196
256.823	184
257.056	185
257.289	187
257.521	180
257.754	178
257.987	199
258.22	186
258.452	184
258.685	182
258.918	180
259.151	179
259.383	186
259.616	193
259.849	205
260.081	182
260.314	219
260.547	224
260.779	231
261.012	215
261.244	190
261.477	194
261.71	197
261.942	204
262.175	212
262.407	195
262.64	194
262.872	170
263.105	189
263.337	187
263.57	176
263.802	179
264.035	186
264.267	180
264.499	187
264.732	189
264.964	189
265.197	188
265.429	184
265.661	196
265.894	210
266.126	190
266.358	189
266.591	189
266.823	200
267.055	195
267.287	208
267.52	189
267.752	199
267.984	187
268.216	192
268.448	202
268.681	213
268.913	233
269.145	227
269.377	226
269.609	226
269.841	224
270.073	250
270.306	234
270.538	265
270.77	258
271.002	261
271.234	243
271.466	270
271.698	286
271.93	282
272.162	271
272.394	281
272.626	264
272.858	254
273.09	242
273.322	223
273.553	227
273.785	226
274.017	233
274.249	232
274.481	234
274.713	236
274.945	240
275.176	227
275.408	223
275.64	223
275.872	228
276.104	228
276.335	217
276.567	229
276.799	253
277.031	264
277.262	273
277.494	258
277.726	243
277.957	245
278.189	245
278.421	242
278.652	235
278.884	239
279.115	221
279.347	232
279.579	224
279.81	227
280.042	230
280.273	223
280.505	227
280.736	226
280.968	227
281.199	211
281.431	219
281.662	215
281.894	222
282.125	230
282.356	234
282.588	273
282.819	262
283.051	222
283.282	223
283.513	236
283.745	221
283.976	223
284.207	221
284.439	228
284.67	220
284.901	229
285.132	229
285.364	227
285.595	237
285.826	242
286.057	230
286.288	246
286.52	229
286.751	218
286.982	227
287.213	242
287.444	233
287.675	230
287.906	264
288.138	252
288.369	264
288.6	258
288.831	247
289.062	246
289.293	253
289.524	232
289.755	246
289.986	234
290.217	244
290.448	248
290.679	234
290.91	237
291.141	235
291.371	254
291.602	230
291.833	239
292.064	240
292.295	231
292.526	219
292.757	223
292.987	215
293.218	229
293.449	212
293.68	232
293.91	234
294.141	228
294.372	243
294.603	252
294.833	224
295.064	238
295.295	249
295.525	243
295.756	225
295.987	253
296.217	284
296.448	295
296.679	255
296.909	254
297.14	254
297.37	250
297.601	232
297.831	257
298.062	235
298.292	263
298.523	255
298.753	262
298.984	258
299.214	261
299.445	268
299.675	267
299.905	268
300.136	254
300.366	268
300.597	257
300.827	262
301.057	264
301.288	301
301.518	273
301.748	262
301.979	267
302.209	253
302.439	268
302.669	270
302.9	275
303.13	260
303.36	285
303.59	272
303.82	275
304.051	271
304.281	274
304.511	265
304.741	266
304.971	276
305.201	284
305.431	268
305.661	292
305.891	276
306.121	298
306.352	294
306.582	269
306.812	287
307.042	270
307.272	265
307.502	296
307.731	292
307.961	276
308.191	278
308.421	267
308.651	276
308.881	280
309.111	291
309.341	288
309.571	300
309.8	312
310.03	297
310.26	343
310.49	317
310.72	331
310.949	352
311.179	350
311.409	316
311.639	307
311.868	314
312.098	321
312.328	335
312.557	350
312.787	355
313.017	360
313.246	329
313.476	317
313.706	326
313.935	325
314.165	339
314.394	350
314.624	337
314.853	322
315.083	345
315.312	347
315.542	315
315.771	326
316.001	315
316.23	306
316.46	292
316.689	317
316.919	346
317.148	320
317.377	315
317.607	326
317.836	324
318.065	335
318.295	311
318.524	317
318.753	324
318.983	303
319.212	322
319.441	337
319.67	351
319.9	322
320.129	316
320.358	326
320.587	314
320.816	326
321.046	336
321.275	361
321.504	355
321.733	334
321.962	359
322.191	382
322.42	388
322.649	406
322.878	409
323.108	436
323.337	458
323.566	476
323.795	499
324.024	551
324.253	707
324.482	1012
324.71	1607
324.939	2234
325.168	1871
325.397	951
325.626	632
325.855	538
326.084	474
326.313	468
326.542	474
326.77	559
326.999	655
327.228	911
327.457	1390
327.686	1626
327.914	1080
328.143	703
328.372	603
328.6	550
328.829	550
329.058	535
329.287	544
329.515	522
329.744	475
329.972	473
330.201	505
330.43	546
330.658	587
330.887	595
331.115	563
331.344	482
331.572	434
331.801	455
332.03	453
332.258	437
332.486	392
332.715	390
332.943	379
333.172	406
333.4	390
333.629	393
333.857	394
334.085	427
334.314	452
334.542	493
334.771	475
334.999	427
335.227	407
335.455	400
335.684	361
335.912	386
336.14	377
336.369	378
336.597	402
336.825	375
337.053	356
337.281	357
337.51	385
337.738	382
337.966	399
338.194	366
338.422	370
338.65	361
338.878	373
339.106	353
339.334	365
339.562	368
339.79	358
340.018	359
340.246	374
340.474	377
340.702	380
340.93	379
341.158	362
341.386	369
341.614	376
341.842	374
342.07	365
342.298	341
342.526	354
342.754	350
342.981	335
343.209	336
343.437	366
343.665	374
343.893	352
344.12	362
344.348	348
344.576	356
344.804	387
345.031	403
345.259	386
345.487	394
345.714	386
345.942	378
346.17	367
346.397	371
346.625	359
346.853	345
347.08	351
347.308	371
347.535	330
347.763	387
347.99	370
348.218	363
348.445	394
348.673	370
348.9	348
349.128	356
349.355	343
349.583	336
349.81	349
350.037	341
350.265	346
350.492	334
350.72	324
350.947	343
351.174	364
351.402	372
351.629	372
351.856	360
352.083	368
352.311	378
352.538	364
352.765	370
352.992	365
353.22	383
353.447	378
353.674	354
353.901	338
354.128	331
354.355	314
354.583	337
354.81	333
355.037	325
355.264	320
355.491	321
355.718	324
355.945	351
356.172	319
356.399	335
356.626	323
356.853	332
357.08	329
357.307	326
357.534	334
357.761	331
357.988	331
358.215	347
358.441	333
358.668	313
358.895	341
359.122	341
359.349	350
359.576	374
359.802	395
360.029	416
360.256	416
360.483	407
360.709	361
360.936	364
361.163	364
361.39	353
361.616	376
361.843	361
362.07	376
362.296	378
362.523	370
362.749	363
362.976	370
363.203	352
363.429	355
363.656	365
363.882	334
364.109	351
364.335	346
364.562	340
364.788	342
365.015	342
365.241	345
365.468	334
365.694	334
365.92	354
366.147	336
366.373	330
366.599	317
366.826	338
367.052	318
367.278	339
367.505	322
367.731	338
367.957	335
368.184	338
368.41	354
368.636	336
368.862	357
369.089	334
369.315	336
369.541	333
369.767	336
369.993	351
370.219	318
370.445	331
370.672	330
370.898	309
371.124	316
371.35	322
371.576	328
371.802	315
372.028	346
372.254	326
372.48	339
372.706	317
372.932	328
373.158	337
373.384	333
373.61	339
373.835	347
374.061	327
374.287	325
374.513	332
374.739	362
374.965	329
375.191	328
375.416	335
375.642	332
375.868	348
376.094	333
376.319	310
376.545	312
376.771	317
376.997	327
377.222	333
377.448	325
377.674	335
377.899	343
378.125	331
378.35	316
378.576	335
378.802	314
379.027	317
379.253	315
379.478	319
379.704	330
379.929	323
380.155	297
380.38	335
380.606	312
380.831	331
381.057	344
381.282	335
381.507	343
381.733	338
381.958	334
382.184	351
382.409	348
382.634	313
382.86	335
383.085	334
383.31	342
383.535	348
383.761	333
383.986	318
384.211	331
384.436	344
384.662	336
384.887	348
385.112	331
385.337	332
385.562	346
385.787	336
386.013	350
386.238	376
386.463	353
386.688	352
386.913	341
387.138	345
387.363	337
387.588	341
387.813	355
388.038	357
388.263	346
388.488	362
388.713	361
388.938	369
389.163	359
389.387	367
389.612	350
389.837	343
390.062	353
390.287	355
390.512	376
390.736	350
390.961	346
391.186	346
391.411	364
391.636	357
391.86	334
392.085	343
392.31	351
392.534	362
392.759	367
392.984	358
393.208	356
393.433	362
393.658	342
393.882	363
394.107	358
394.331	364
394.556	355
394.78	348
395.005	372
395.229	368
395.454	352
395.678	345
395.903	370
396.127	382
396.352	397
396.576	361
396.801	382
397.025	370
397.249	381
397.474	375
397.698	355
397.922	384
398.147	400
398.371	394
398.595	394
398.82	394
399.044	401
399.268	413
399.492	428
399.717	426
399.941	457
400.165	491
400.389	495
400.613	454
400.837	430
401.062	405
401.286	402
401.51	404
401.734	394
401.958	401
402.182	402
402.406	430
402.63	398
402.854	422
403.078	390
403.302	391
403.526	395
403.75	423
403.974	426
404.198	404
404.422	416
404.645	445
404.869	440
405.093	480
405.317	488
405.541	519
405.765	459
405.988	467
406.212	433
406.436	463
406.66	477
406.883	463
407.107	464
407.331	522
407.555	544
407.778	532
408.002	523
408.226	485
408.449	482
408.673	477
408.896	505
409.12	528
409.344	490
409.567	442
409.791	423
410.014	422
410.238	416
410.461	440
410.685	441
410.908	430
411.132	466
411.355	485
411.578	483
411.802	434
412.025	426
412.249	430
412.472	444
412.695	477
412.919	499
413.142	438
413.365	418
413.589	425
413.812	395
414.035	393
414.258	382
414.482	407
414.705	418
414.928	388
415.151	410
415.374	374
415.597	384
415.821	388
416.044	410
416.267	391
416.49	378
416.713	389
416.936	388
417.159	395
417.382	402
417.605	392
417.828	410
418.051	415
418.274	431
418.497	412
418.72	404
418.943	402
419.166	419
419.389	447
419.611	419
419.834	418
420.057	419
420.28	436
420.503	434
420.726	431
420.948	430
421.171	470
421.394	486
421.617	444
421.839	436
422.062	410
422.285	436
422.507	479
422.73	532
422.953	510
423.175	467
423.398	448
423.621	448
423.843	478
424.066	439
424.288	478
424.511	468
424.733	499
424.956	586
425.178	559
425.401	569
425.623	583
425.846	493
426.068	472
426.291	486
426.513	444
426.735	465
426.958	486
427.18	582
427.402	692
427.625	745
427.847	701
428.069	592
428.292	521
428.514	482
428.736	466
428.958	453
429.181	425
429.403	430
429.625	452
429.847	487
430.069	527
430.292	534
430.514	436
430.736	423
430.958	435
431.18	423
431.402	400
431.624	387
431.846	401
432.068	390
432.29	414
432.512	416
432.734	409
432.956	398
433.178	411
433.4	430
433.622	430
433.844	405
434.066	399
434.287	414
434.509	417
434.731	403
434.953	396
435.175	425
435.397	456
435.618	484
435.84	499
436.062	604
436.284	644
436.505	543
436.727	470
436.949	438
437.17	448
437.392	447
437.614	458
437.835	494
438.057	560
438.278	646
438.5	650
438.721	708
438.943	651
439.165	550
439.386	498
439.608	489
439.829	482
440.05	525
440.272	556
440.493	510
440.715	465
440.936	448
441.158	454
441.379	428
441.6	444
441.822	477
442.043	498
442.264	596
442.486	618
442.707	505
442.928	477
443.149	503
443.371	508
443.592	542
443.813	604
444.034	668
444.255	550
444.476	484
444.698	459
444.919	457
445.14	551
445.361	488
445.582	505
445.803	583
446.024	692
446.245	698
446.466	615
446.687	524
446.908	467
447.129	461
447.35	436
447.571	429
447.792	432
448.013	423
448.234	461
448.455	518
448.675	622
448.896	681
449.117	598
449.338	562
449.559	650
449.779	724
450	578
450.221	513
450.442	470
450.662	456
450.883	437
451.104	479
451.324	431
451.545	420
451.766	414
451.986	389
452.207	404
452.428	410
452.648	403
452.869	394
453.089	402
453.31	422
453.53	398
453.751	403
453.971	399
454.192	413
454.412	413
454.633	412
454.853	401
455.073	406
455.294	435
455.514	503
455.734	452
455.955	388
456.175	382
456.395	389
456.616	364
456.836	373
457.056	362
457.276	370
457.497	363
457.717	359
457.937	371
458.157	381
458.377	383
458.598	416
458.818	478
459.038	557
459.258	572
459.478	462
459.698	427
459.918	396
460.138	418
460.358	392
460.578	414
460.798	416
461.018	413
461.238	411
461.458	400
461.678	418
461.898	406
462.118	398
462.338	396
462.558	422
462.777	423
462.997	436
463.217	410
463.437	430
463.657	413
463.876	404
464.096	414
464.316	434
464.536	415
464.755	454
464.975	450
465.195	490
465.414	577
465.634	500
465.854	447
466.073	430
466.293	399
466.512	386
466.732	412
466.951	405
467.171	372
467.391	408
467.61	403
467.829	413
468.049	441
468.268	411
468.488	420
468.707	386
468.927	394
469.146	398
469.365	398
469.585	395
469.804	397
470.023	420
470.243	406
470.462	424
470.681	427
470.901	422
471.12	399
471.339	427
471.558	408
471.777	417
471.997	416
472.216	428
472.435	457
472.654	452
472.873	412
473.092	401
473.311	417
473.53	411
473.749	435
473.968	466
474.187	549
474.406	562
474.625	484
474.844	438
475.063	411
475.282	409
475.501	401
475.72	411
475.939	405
476.158	423
476.377	409
476.596	424
476.814	427
477.033	433
477.252	424
477.471	419
477.69	439
477.908	436
478.127	439
478.346	444
478.564	432
478.783	432
479.002	445
479.22	451
479.439	480
479.658	498
479.876	479
480.095	489
480.313	510
480.532	495
480.751	510
480.969	514
481.188	577
481.406	636
481.624	540
481.843	521
482.061	510
482.28	501
482.498	479
482.717	470
482.935	479
483.153	467
483.372	492
483.59	470
483.808	463
484.027	478
484.245	490
484.463	486
484.681	490
484.9	490
485.118	500
485.336	483
485.554	475
485.772	483
485.99	481
486.209	496
486.427	482
486.645	493
486.863	516
487.081	514
487.299	526
487.517	491
487.735	490
487.953	512
488.171	495
488.389	519
488.607	509
488.825	500
489.043	492
489.261	510
489.479	502
489.696	503
489.914	513
490.132	536
490.35	540
490.568	546
490.786	562
491.003	566
491.221	552
491.439	568
491.657	589
491.874	587
492.092	587
492.31	570
492.527	575
492.745	581
492.963	590
493.18	588
493.398	594
493.615	601
493.833	602
494.05	623
494.268	597
494.485	604
494.703	573
494.92	567
495.138	579
495.355	599
495.573	602
495.79	610
496.008	602
496.225	610
496.442	608
496.66	599
496.877	595
497.094	604
497.312	615
497.529	642
497.746	620
497.963	635
498.181	654
498.398	638
498.615	660
498.832	670
499.049	669
499.267	654
499.484	700
499.701	723
499.918	729
500.135	736
500.352	744
500.569	765
500.786	783
501.003	733
501.22	738
501.437	741
501.654	726
501.871	719
502.088	713
502.305	710
502.522	678
502.739	663
502.956	654
503.172	640
503.389	638
503.606	645
503.823	640
504.04	596
504.256	609
504.473	600
504.69	596
504.907	604
505.123	589
505.34	564
505.557	602
505.773	596
505.99	608
506.207	584
506.423	600
506.64	571
506.856	570
507.073	584
507.289	594
507.506	582
507.722	604
507.939	639
508.155	586
508.372	558
508.588	575
508.805	575
509.021	558
509.238	574
509.454	580
509.67	574
509.887	568
510.103	571
510.319	565
510.536	686
510.752	1224
510.968	964
511.184	607
511.401	570
511.617	547
511.833	553
512.049	518
512.265	536
512.481	538
512.698	569
512.914	527
513.13	555
513.346	539
513.562	550
513.778	550
513.994	545
514.21	572
514.426	598
514.642	632
514.858	674
515.074	722
515.29	852
515.506	1292
515.721	1060
515.937	717
516.153	655
516.369	598
516.585	586
516.801	557
517.016	568
517.232	546
517.448	581
517.664	567
517.879	569
518.095	542
518.311	551
518.527	555
518.742	535
518.958	557
519.173	543
519.389	525
519.605	559
519.82	555
520.036	570
520.251	586
520.467	633
520.682	593
520.898	640
521.113	633
521.329	710
521.544	809
521.76	1066
521.975	1763
522.19	1672
522.406	918
522.621	663
522.836	602
523.052	572
523.267	553
523.482	505
523.698	502
523.913	526
524.128	503
524.343	503
524.559	480
524.774	461
524.989	468
525.204	476
525.419	496
525.634	473
525.849	467
526.064	445
526.28	433
526.495	445
526.71	467
526.925	436
527.14	435
527.355	462
527.57	458
527.785	453
527.999	450
528.214	426
528.429	436
528.644	434
528.859	448
529.074	451
529.289	498
529.503	555
529.718	548
529.933	501
530.148	479
530.363	431
530.577	440
530.792	452
531.007	438
531.221	435
531.436	429
531.651	432
531.865	399
532.08	406
532.295	423
532.509	417
532.724	403
532.938	443
533.153	429
533.367	420
533.582	410
533.796	432
534.011	411
534.225	406
534.44	409
534.654	416
534.868	389
535.083	404
535.297	437
535.511	440
535.726	424
535.94	419
536.154	420
536.369	411
536.583	399
536.797	396
537.011	378
537.225	383
537.44	407
537.654	397
537.868	400
538.082	394
538.296	399
538.51	387
538.724	417
538.938	402
539.153	393
539.367	438
539.581	404
539.795	392
540.009	403
540.222	398
540.436	398
540.65	382
540.864	407
541.078	416
541.292	402
541.506	402
541.72	405
541.934	397
542.147	394
542.361	398
542.575	396
542.789	391
543.002	407
543.216	403
543.43	403
543.644	414
543.857	401
544.071	400
544.285	394
544.498	391
544.712	403
544.925	376
545.139	400
545.352	395
545.566	370
545.779	402
545.993	378
546.206	370
546.42	386
546.633	375
546.847	393
547.06	376
547.274	360
547.487	357
547.7	377
547.914	390
548.127	380
548.34	363
548.554	362
548.767	366
548.98	371
549.193	346
549.407	387
549.62	390
549.833	365
550.046	362
550.259	358
550.473	365
550.686	358
550.899	360
551.112	357
551.325	360
551.538	349
551.751	364
551.964	378
552.177	372
552.39	376
552.603	377
552.816	382
553.029	379
553.242	359
553.455	378
553.667	370
553.88	388
554.093	395
554.306	379
554.519	373
554.732	370
554.944	380
555.157	359
555.37	346
555.583	353
555.795	372
556.008	334
556.221	357
556.433	357
556.646	338
556.859	355
557.071	335
557.284	344
557.496	345
557.709	352
557.921	335
558.134	351
558.346	336
558.559	358
558.771	350
558.984	342
559.196	325
559.409	340
559.621	333
559.833	330
560.046	331
560.258	341
560.47	322
560.683	322
560.895	342
561.107	324
561.32	336
561.532	321
561.744	334
561.956	332
562.168	338
562.381	339
562.593	331
562.805	342
563.017	332
563.229	316
563.441	327
563.653	343
