Data from 1961.PennyLincolnUp.Lamp.En5.5.200Scan.071719.P1._HRD10591_13-48-23-058.txt Node
Date: Thu Jul 18 13:48:23 EDT 2019
User: cochatt
Spectrometer: HR+D1059
Trigger mode: 1
Integration Time (sec): 1.000000E-1
Scans to average: 1
Electric dark correction enabled: true
Nonlinearity correction enabled: false
Boxcar width: 0
XAxis mode: Wavelengths
Number of Pixels in Spectrum: 2048
>>>>>Begin Spectral Data<<<<<
223.165	-17.75
223.4	-17.75
223.635	-17.75
223.869	-12.75
224.104	0.25
224.338	-7.75
224.573	-17.75
224.808	-4.75
225.042	-4.75
225.277	-4.75
225.511	-1.75
225.746	8.25
225.98	-14.75
226.215	8.25
226.449	15.25
226.683	20.25
226.918	18.25
227.152	16.25
227.387	17.25
227.621	28.25
227.856	36.25
228.09	37.25
228.324	48.25
228.559	54.25
228.793	62.25
229.027	91.25
229.262	106.25
229.496	96.25
229.73	116.25
229.964	132.25
230.199	126.25
230.433	95.25
230.667	89.25
230.901	92.25
231.136	100.25
231.37	106.25
231.604	110.25
231.838	88.25
232.072	100.25
232.306	92.25
232.541	93.25
232.775	92.25
233.009	122.25
233.243	105.25
233.477	109.25
233.711	98.25
233.945	98.25
234.179	100.25
234.413	110.25
234.647	111.25
234.881	99.25
235.115	112.25
235.349	101.25
235.583	106.25
235.817	110.25
236.051	112.25
236.285	101.25
236.519	116.25
236.753	115.25
236.987	139.25
237.221	172.25
237.455	218.25
237.689	163.25
237.922	132.25
238.156	122.25
238.39	123.25
238.624	113.25
238.858	127.25
239.091	104.25
239.325	110.25
239.559	101.25
239.793	120.25
240.027	125.25
240.26	116.25
240.494	151.25
240.728	141.25
240.961	126.25
241.195	126.25
241.429	123.25
241.662	120.25
241.896	112.25
242.13	110.25
242.363	118.25
242.597	124.25
242.83	118.25
243.064	115.25
243.298	116.25
243.531	117.25
243.765	123.25
243.998	137.25
244.232	129.25
244.465	133.25
244.699	117.25
244.932	119.25
245.166	133.25
245.399	129.25
245.633	123.25
245.866	117.25
246.099	122.25
246.333	111.25
246.566	116.25
246.8	124.25
247.033	129.25
247.266	136.25
247.5	150.25
247.733	153.25
247.966	152.25
248.2	154.25
248.433	148.25
248.666	142.25
248.899	152.25
249.133	187.25
249.366	182.25
249.599	174.25
249.832	155.25
250.066	164.25
250.299	145.25
250.532	158.25
250.765	184.25
250.998	192.25
251.231	190.25
251.465	181.25
251.698	173.25
251.931	167.25
252.164	155.25
252.397	167.25
252.63	173.25
252.863	168.25
253.096	176.25
253.329	206.25
253.562	188.25
253.795	199.25
254.028	187.25
254.261	164.25
254.494	214.25
254.727	214.25
254.96	236.25
255.193	227.25
255.426	203.25
255.659	198.25
255.892	204.25
256.124	187.25
256.357	199.25
256.59	209.25
256.823	172.25
257.056	187.25
257.289	186.25
257.521	170.25
257.754	182.25
257.987	176.25
258.22	173.25
258.452	189.25
258.685	157.25
258.918	179.25
259.151	174.25
259.383	188.25
259.616	189.25
259.849	195.25
260.081	188.25
260.314	221.25
260.547	207.25
260.779	199.25
261.012	191.25
261.244	196.25
261.477	191.25
261.71	198.25
261.942	202.25
262.175	203.25
262.407	198.25
262.64	191.25
262.872	177.25
263.105	190.25
263.337	191.25
263.57	188.25
263.802	170.25
264.035	166.25
264.267	194.25
264.499	180.25
264.732	165.25
264.964	179.25
265.197	154.25
265.429	181.25
265.661	186.25
265.894	188.25
266.126	170.25
266.358	196.25
266.591	176.25
266.823	202.25
267.055	176.25
267.287	194.25
267.52	176.25
267.752	185.25
267.984	184.25
268.216	182.25
268.448	190.25
268.681	198.25
268.913	210.25
269.145	235.25
269.377	232.25
269.609	232.25
269.841	216.25
270.073	221.25
270.306	243.25
270.538	268.25
270.77	261.25
271.002	256.25
271.234	238.25
271.466	245.25
271.698	276.25
271.93	258.25
272.162	270.25
272.394	263.25
272.626	262.25
272.858	234.25
273.09	247.25
273.322	245.25
273.553	234.25
273.785	207.25
274.017	198.25
274.249	212.25
274.481	227.25
274.713	229.25
274.945	252.25
275.176	226.25
275.408	217.25
275.64	214.25
275.872	234.25
276.104	219.25
276.335	223.25
276.567	218.25
276.799	253.25
277.031	249.25
277.262	263.25
277.494	268.25
277.726	240.25
277.957	243.25
278.189	227.25
278.421	211.25
278.652	230.25
278.884	219.25
279.115	220.25
279.347	235.25
279.579	223.25
279.81	219.25
280.042	221.25
280.273	221.25
280.505	214.25
280.736	202.25
280.968	212.25
281.199	222.25
281.431	216.25
281.662	216.25
281.894	219.25
282.125	235.25
282.356	241.25
282.588	247.25
282.819	269.25
283.051	252.25
283.282	235.25
283.513	218.25
283.745	228.25
283.976	238.25
284.207	228.25
284.439	240.25
284.67	225.25
284.901	210.25
285.132	222.25
285.364	224.25
285.595	235.25
285.826	234.25
286.057	219.25
286.288	231.25
286.52	237.25
286.751	223.25
286.982	229.25
287.213	234.25
287.444	219.25
287.675	239.25
287.906	243.25
288.138	251.25
288.369	241.25
288.6	251.25
288.831	236.25
289.062	239.25
289.293	247.25
289.524	231.25
289.755	241.25
289.986	252.25
290.217	234.25
290.448	231.25
290.679	239.25
290.91	231.25
291.141	225.25
291.371	232.25
291.602	228.25
291.833	227.25
292.064	229.25
292.295	241.25
292.526	243.25
292.757	239.25
292.987	241.25
293.218	244.25
293.449	215.25
293.68	228.25
293.91	240.25
294.141	231.25
294.372	224.25
294.603	219.25
294.833	224.25
295.064	231.25
295.295	226.25
295.525	236.25
295.756	258.25
295.987	258.25
296.217	274.25
296.448	276.25
296.679	260.25
296.909	241.25
297.14	246.25
297.37	230.25
297.601	248.25
297.831	213.25
298.062	260.25
298.292	256.25
298.523	257.25
298.753	258.25
298.984	242.25
299.214	259.25
299.445	251.25
299.675	245.25
299.905	273.25
300.136	257.25
300.366	245.25
300.597	234.25
300.827	271.25
301.057	274.25
301.288	274.25
301.518	256.25
301.748	256.25
301.979	271.25
302.209	279.25
302.439	264.25
302.669	279.25
302.9	264.25
303.13	266.25
303.36	272.25
303.59	276.25
303.82	281.25
304.051	260.25
304.281	258.25
304.511	265.25
304.741	274.25
304.971	266.25
305.201	271.25
305.431	252.25
305.661	271.25
305.891	271.25
306.121	255.25
306.352	273.25
306.582	273.25
306.812	260.25
307.042	265.25
307.272	285.25
307.502	275.25
307.731	275.25
307.961	270.25
308.191	275.25
308.421	268.25
308.651	289.25
308.881	282.25
309.111	299.25
309.341	284.25
309.571	294.25
309.8	311.25
310.03	320.25
310.26	327.25
310.49	312.25
310.72	321.25
310.949	351.25
311.179	350.25
311.409	332.25
311.639	313.25
311.868	325.25
312.098	315.25
312.328	354.25
312.557	347.25
312.787	349.25
313.017	357.25
313.246	336.25
313.476	331.25
313.706	309.25
313.935	320.25
314.165	336.25
314.394	368.25
314.624	338.25
314.853	327.25
315.083	310.25
315.312	323.25
315.542	323.25
315.771	301.25
316.001	310.25
316.23	326.25
316.46	318.25
316.689	304.25
316.919	308.25
317.148	327.25
317.377	328.25
317.607	327.25
317.836	324.25
318.065	309.25
318.295	313.25
318.524	338.25
318.753	319.25
318.983	312.25
319.212	327.25
319.441	345.25
319.67	335.25
319.9	311.25
320.129	332.25
320.358	331.25
320.587	334.25
320.816	353.25
321.046	349.25
321.275	347.25
321.504	345.25
321.733	348.25
321.962	360.25
322.191	372.25
322.42	380.25
322.649	388.25
322.878	400.25
323.108	421.25
323.337	443.25
323.566	473.25
323.795	485.25
324.024	544.25
324.253	692.25
324.482	1052.25
324.71	1635.25
324.939	2271.25
325.168	1906.25
325.397	995.25
325.626	655.25
325.855	549.25
326.084	495.25
326.313	471.25
326.542	477.25
326.77	549.25
326.999	663.25
327.228	936.25
327.457	1440.25
327.686	1670.25
327.914	1081.25
328.143	719.25
328.372	615.25
328.6	574.25
328.829	532.25
329.058	530.25
329.287	542.25
329.515	509.25
329.744	481.25
329.972	468.25
330.201	511.25
330.43	546.25
330.658	562.25
330.887	588.25
331.115	578.25
331.344	478.25
331.572	455.25
331.801	442.25
332.03	429.25
332.258	426.25
332.486	396.25
332.715	376.25
332.943	375.25
333.172	393.25
333.4	408.25
333.629	389.25
333.857	398.25
334.085	407.25
334.314	444.25
334.542	494.25
334.771	497.25
334.999	448.25
335.227	436.25
335.455	396.25
335.684	375.25
335.912	382.25
336.14	399.25
336.369	370.25
336.597	384.25
336.825	381.25
337.053	376.25
337.281	355.25
337.51	341.25
337.738	366.25
337.966	380.25
338.194	355.25
338.422	352.25
338.65	362.25
338.878	358.25
339.106	352.25
339.334	363.25
339.562	347.25
339.79	371.25
340.018	368.25
340.246	342.25
340.474	366.25
340.702	354.25
340.93	349.25
341.158	362.25
341.386	364.25
341.614	352.25
341.842	368.25
342.07	346.25
342.298	364.25
342.526	359.25
342.754	337.25
342.981	355.25
343.209	350.25
343.437	353.25
343.665	364.25
343.893	356.25
344.12	370.25
344.348	370.25
344.576	374.25
344.804	373.25
345.031	375.25
345.259	376.25
345.487	387.25
345.714	373.25
345.942	347.25
346.17	370.25
346.397	362.25
346.625	334.25
346.853	348.25
347.08	362.25
347.308	352.25
347.535	383.25
347.763	359.25
347.99	350.25
348.218	366.25
348.445	365.25
348.673	356.25
348.9	353.25
349.128	338.25
349.355	348.25
349.583	331.25
349.81	354.25
350.037	345.25
350.265	335.25
350.492	337.25
350.72	339.25
350.947	332.25
351.174	366.25
351.402	355.25
351.629	371.25
351.856	364.25
352.083	383.25
352.311	361.25
352.538	379.25
352.765	371.25
352.992	384.25
353.22	359.25
353.447	358.25
353.674	369.25
353.901	334.25
354.128	344.25
354.355	343.25
354.583	331.25
354.81	312.25
355.037	328.25
355.264	326.25
355.491	301.25
355.718	307.25
355.945	326.25
356.172	336.25
356.399	319.25
356.626	314.25
356.853	338.25
357.08	309.25
357.307	314.25
357.534	322.25
357.761	319.25
357.988	316.25
358.215	297.25
358.441	331.25
358.668	326.25
358.895	313.25
359.122	330.25
359.349	342.25
359.576	354.25
359.802	390.25
360.029	409.25
360.256	426.25
360.483	401.25
360.709	364.25
360.936	366.25
361.163	332.25
361.39	354.25
361.616	369.25
361.843	363.25
362.07	365.25
362.296	363.25
362.523	362.25
362.749	375.25
362.976	330.25
363.203	342.25
363.429	335.25
363.656	352.25
363.882	342.25
364.109	329.25
364.335	343.25
364.562	326.25
364.788	330.25
365.015	332.25
365.241	327.25
365.468	346.25
365.694	355.25
365.92	350.25
366.147	343.25
366.373	339.25
366.599	327.25
366.826	339.25
367.052	337.25
367.278	318.25
367.505	343.25
367.731	332.25
367.957	338.25
368.184	327.25
368.41	324.25
368.636	340.25
368.862	322.25
369.089	353.25
369.315	338.25
369.541	318.25
369.767	345.25
369.993	341.25
370.219	347.25
370.445	324.25
370.672	330.25
370.898	325.25
371.124	326.25
371.35	333.25
371.576	327.25
371.802	308.25
372.028	335.25
372.254	335.25
372.48	326.25
372.706	344.25
372.932	312.25
373.158	316.25
373.384	327.25
373.61	306.25
373.835	327.25
374.061	342.25
374.287	343.25
374.513	331.25
374.739	337.25
374.965	335.25
375.191	351.25
375.416	338.25
375.642	326.25
375.868	324.25
376.094	329.25
376.319	327.25
376.545	328.25
376.771	319.25
376.997	318.25
377.222	326.25
377.448	328.25
377.674	323.25
377.899	302.25
378.125	324.25
378.35	319.25
378.576	328.25
378.802	312.25
379.027	322.25
379.253	333.25
379.478	335.25
379.704	323.25
379.929	339.25
380.155	312.25
380.38	332.25
380.606	334.25
380.831	345.25
381.057	331.25
381.282	329.25
381.507	323.25
381.733	342.25
381.958	339.25
382.184	335.25
382.409	336.25
382.634	336.25
382.86	326.25
383.085	330.25
383.31	326.25
383.535	327.25
383.761	343.25
383.986	336.25
384.211	341.25
384.436	320.25
384.662	329.25
384.887	341.25
385.112	350.25
385.337	334.25
385.562	343.25
385.787	344.25
386.013	369.25
386.238	368.25
386.463	352.25
386.688	363.25
386.913	354.25
387.138	364.25
387.363	348.25
387.588	335.25
387.813	335.25
388.038	350.25
388.263	339.25
388.488	347.25
388.713	353.25
388.938	361.25
389.163	372.25
389.387	350.25
389.612	333.25
389.837	338.25
390.062	337.25
390.287	352.25
390.512	336.25
390.736	345.25
390.961	346.25
391.186	331.25
391.411	355.25
391.636	351.25
391.86	358.25
392.085	353.25
392.31	355.25
392.534	370.25
392.759	352.25
392.984	354.25
393.208	354.25
393.433	342.25
393.658	350.25
393.882	351.25
394.107	362.25
394.331	364.25
394.556	372.25
394.78	359.25
395.005	341.25
395.229	363.25
395.454	340.25
395.678	356.25
395.903	381.25
396.127	386.25
396.352	423.25
396.576	375.25
396.801	376.25
397.025	366.25
397.249	378.25
397.474	375.25
397.698	356.25
397.922	386.25
398.147	399.25
398.371	388.25
398.595	404.25
398.82	402.25
399.044	411.25
399.268	408.25
399.492	417.25
399.717	417.25
399.941	444.25
400.165	463.25
400.389	476.25
400.613	452.25
400.837	423.25
401.062	400.25
401.286	430.25
401.51	393.25
401.734	414.25
401.958	434.25
402.182	408.25
402.406	422.25
402.63	422.25
402.854	400.25
403.078	432.25
403.302	408.25
403.526	415.25
403.75	407.25
403.974	414.25
404.198	407.25
404.422	436.25
404.645	426.25
404.869	410.25
405.093	481.25
405.317	514.25
405.541	508.25
405.765	470.25
405.988	446.25
406.212	456.25
406.436	469.25
406.66	491.25
406.883	444.25
407.107	474.25
407.331	504.25
407.555	594.25
407.778	575.25
408.002	490.25
408.226	486.25
408.449	444.25
408.673	455.25
408.896	498.25
409.12	526.25
409.344	503.25
409.567	441.25
409.791	442.25
410.014	423.25
410.238	438.25
410.461	448.25
410.685	438.25
410.908	441.25
411.132	480.25
411.355	499.25
411.578	467.25
411.802	447.25
412.025	440.25
412.249	439.25
412.472	444.25
412.695	480.25
412.919	478.25
413.142	430.25
413.365	428.25
413.589	413.25
413.812	419.25
414.035	417.25
414.258	402.25
414.482	413.25
414.705	396.25
414.928	395.25
415.151	388.25
415.374	386.25
415.597	376.25
415.821	402.25
416.044	395.25
416.267	418.25
416.49	411.25
416.713	398.25
416.936	382.25
417.159	421.25
417.382	388.25
417.605	413.25
417.828	413.25
418.051	413.25
418.274	420.25
418.497	420.25
418.72	407.25
418.943	415.25
419.166	396.25
419.389	416.25
419.611	411.25
419.834	424.25
420.057	431.25
420.28	414.25
420.503	405.25
420.726	412.25
420.948	438.25
421.171	471.25
421.394	518.25
421.617	436.25
421.839	428.25
422.062	423.25
422.285	429.25
422.507	491.25
422.73	560.25
422.953	524.25
423.175	472.25
423.398	445.25
423.621	440.25
423.843	478.25
424.066	454.25
424.288	463.25
424.511	471.25
424.733	524.25
424.956	572.25
425.178	558.25
425.401	578.25
425.623	586.25
425.846	493.25
426.068	466.25
426.291	455.25
426.513	456.25
426.735	477.25
426.958	500.25
427.18	588.25
427.402	704.25
427.625	768.25
427.847	691.25
428.069	592.25
428.292	513.25
428.514	468.25
428.736	453.25
428.958	456.25
429.181	439.25
429.403	441.25
429.625	438.25
429.847	459.25
430.069	541.25
430.292	516.25
430.514	447.25
430.736	438.25
430.958	401.25
431.18	404.25
431.402	408.25
431.624	410.25
431.846	400.25
432.068	400.25
432.29	394.25
432.512	421.25
432.734	398.25
432.956	412.25
433.178	419.25
433.4	422.25
433.622	405.25
433.844	408.25
434.066	392.25
434.287	420.25
434.509	373.25
434.731	426.25
434.953	417.25
435.175	438.25
435.397	450.25
435.618	480.25
435.84	512.25
436.062	582.25
436.284	648.25
436.505	534.25
436.727	485.25
436.949	444.25
437.17	418.25
437.392	418.25
437.614	446.25
437.835	487.25
438.057	549.25
438.278	656.25
438.5	652.25
438.721	698.25
438.943	680.25
439.165	535.25
439.386	507.25
439.608	490.25
439.829	486.25
440.05	518.25
440.272	564.25
440.493	535.25
440.715	495.25
440.936	454.25
441.158	445.25
441.379	421.25
441.6	441.25
441.822	462.25
442.043	502.25
442.264	567.25
442.486	634.25
442.707	530.25
442.928	487.25
443.149	502.25
443.371	508.25
443.592	558.25
443.813	610.25
444.034	673.25
444.255	538.25
444.476	490.25
444.698	460.25
444.919	472.25
445.14	554.25
445.361	524.25
445.582	520.25
445.803	587.25
446.024	699.25
446.245	666.25
446.466	623.25
446.687	511.25
446.908	479.25
447.129	447.25
447.35	444.25
447.571	447.25
447.792	416.25
448.013	447.25
448.234	459.25
448.455	520.25
448.675	602.25
448.896	691.25
449.117	613.25
449.338	568.25
449.559	670.25
449.779	718.25
450	565.25
450.221	492.25
450.442	453.25
450.662	406.25
450.883	449.25
451.104	453.25
451.324	442.25
451.545	417.25
451.766	411.25
451.986	381.25
452.207	418.25
452.428	391.25
452.648	389.25
452.869	413.25
453.089	398.25
453.31	411.25
453.53	407.25
453.751	408.25
453.971	400.25
454.192	434.25
454.412	424.25
454.633	401.25
454.853	382.25
455.073	389.25
455.294	377.25
455.514	480.25
455.734	460.25
455.955	392.25
456.175	384.25
456.395	359.25
456.616	376.25
456.836	357.25
457.056	353.25
457.276	353.25
457.497	377.25
457.717	369.25
457.937	365.25
458.157	376.25
458.377	400.25
458.598	423.25
458.818	463.25
459.038	544.25
459.258	547.25
459.478	442.25
459.698	423.25
459.918	401.25
460.138	401.25
460.358	396.25
460.578	402.25
460.798	414.25
461.018	416.25
461.238	417.25
461.458	400.25
461.678	403.25
461.898	408.25
462.118	400.25
462.338	401.25
462.558	416.25
462.777	401.25
462.997	428.25
463.217	426.25
463.437	415.25
463.657	416.25
463.876	417.25
464.096	432.25
464.316	418.25
464.536	416.25
464.755	436.25
464.975	437.25
465.195	494.25
465.414	589.25
465.634	490.25
465.854	444.25
466.073	424.25
466.293	413.25
466.512	393.25
466.732	398.25
466.951	397.25
467.171	388.25
467.391	402.25
467.61	413.25
467.829	415.25
468.049	418.25
468.268	428.25
468.488	393.25
468.707	381.25
468.927	385.25
469.146	388.25
469.365	397.25
469.585	387.25
469.804	404.25
470.023	431.25
470.243	423.25
470.462	417.25
470.681	438.25
470.901	426.25
471.12	404.25
471.339	418.25
471.558	404.25
471.777	414.25
471.997	403.25
472.216	414.25
472.435	471.25
472.654	439.25
472.873	406.25
473.092	408.25
473.311	423.25
473.53	407.25
473.749	415.25
473.968	441.25
474.187	525.25
474.406	557.25
474.625	470.25
474.844	425.25
475.063	400.25
475.282	438.25
475.501	413.25
475.72	432.25
475.939	404.25
476.158	411.25
476.377	419.25
476.596	418.25
476.814	431.25
477.033	425.25
477.252	435.25
477.471	443.25
477.69	422.25
477.908	442.25
478.127	433.25
478.346	447.25
478.564	442.25
478.783	434.25
479.002	453.25
479.22	442.25
479.439	478.25
479.658	484.25
479.876	519.25
480.095	503.25
480.313	529.25
480.532	502.25
480.751	511.25
480.969	514.25
481.188	600.25
481.406	634.25
481.624	549.25
481.843	510.25
482.061	481.25
482.28	504.25
482.498	500.25
482.717	505.25
482.935	483.25
483.153	492.25
483.372	478.25
483.59	470.25
483.808	474.25
484.027	471.25
484.245	484.25
484.463	500.25
484.681	492.25
484.9	487.25
485.118	490.25
485.336	482.25
485.554	489.25
485.772	480.25
485.99	510.25
486.209	476.25
486.427	511.25
486.645	505.25
486.863	532.25
487.081	510.25
487.299	522.25
487.517	506.25
487.735	516.25
487.953	505.25
488.171	520.25
488.389	500.25
488.607	524.25
488.825	507.25
489.043	486.25
489.261	504.25
489.479	532.25
489.696	514.25
489.914	507.25
490.132	511.25
490.35	560.25
490.568	537.25
490.786	536.25
491.003	544.25
491.221	542.25
491.439	589.25
491.657	574.25
491.874	589.25
492.092	577.25
492.31	592.25
492.527	585.25
492.745	605.25
492.963	593.25
493.18	592.25
493.398	588.25
493.615	597.25
493.833	592.25
494.05	605.25
494.268	635.25
494.485	600.25
494.703	588.25
494.92	602.25
495.138	608.25
495.355	605.25
495.573	624.25
495.79	610.25
496.008	602.25
496.225	613.25
496.442	615.25
496.66	610.25
496.877	607.25
497.094	618.25
497.312	620.25
497.529	631.25
497.746	602.25
497.963	654.25
498.181	638.25
498.398	657.25
498.615	685.25
498.832	695.25
499.049	656.25
499.267	667.25
499.484	698.25
499.701	690.25
499.918	727.25
500.135	727.25
500.352	742.25
500.569	763.25
500.786	769.25
501.003	766.25
501.22	767.25
501.437	777.25
501.654	750.25
501.871	741.25
502.088	730.25
