Data from 1961.PennyLincolnUp.Lamp.En5.5.200Scan.071719.P1._HRD10591_13-48-21-057.txt Node
Date: Thu Jul 18 13:48:21 EDT 2019
User: cochatt
Spectrometer: HR+D1059
Trigger mode: 1
Integration Time (sec): 1.000000E-1
Scans to average: 1
Electric dark correction enabled: true
Nonlinearity correction enabled: false
Boxcar width: 0
XAxis mode: Wavelengths
Number of Pixels in Spectrum: 2048
>>>>>Begin Spectral Data<<<<<
223.165	-27.19
223.4	-27.19
223.635	-27.19
223.869	-6.19
224.104	-18.19
224.338	-21.19
224.573	0.81
224.808	-4.19
225.042	-6.19
225.277	-10.19
225.511	-12.19
225.746	1.81
225.98	6.81
226.215	11.81
226.449	11.81
226.683	24.81
226.918	24.81
227.152	22.81
227.387	34.81
227.621	25.81
227.856	53.81
228.09	45.81
228.324	45.81
228.559	56.81
228.793	67.81
229.027	79.81
229.262	90.81
229.496	105.81
229.73	121.81
229.964	149.81
230.199	127.81
230.433	113.81
230.667	107.81
230.901	103.81
231.136	107.81
231.37	119.81
231.604	103.81
231.838	88.81
232.072	111.81
232.306	107.81
232.541	111.81
232.775	91.81
233.009	106.81
233.243	99.81
233.477	99.81
233.711	95.81
233.945	105.81
234.179	104.81
234.413	117.81
234.647	93.81
234.881	117.81
235.115	107.81
235.349	109.81
235.583	111.81
235.817	117.81
236.051	120.81
236.285	119.81
236.519	104.81
236.753	138.81
236.987	144.81
237.221	171.81
237.455	201.81
237.689	168.81
237.922	125.81
238.156	135.81
238.39	120.81
238.624	96.81
238.858	119.81
239.091	115.81
239.325	117.81
239.559	106.81
239.793	121.81
240.027	116.81
240.26	121.81
240.494	155.81
240.728	123.81
240.961	140.81
241.195	131.81
241.429	114.81
241.662	119.81
241.896	117.81
242.13	101.81
242.363	122.81
242.597	125.81
242.83	121.81
243.064	127.81
243.298	129.81
243.531	131.81
243.765	131.81
243.998	121.81
244.232	127.81
244.465	129.81
244.699	132.81
244.932	126.81
245.166	129.81
245.399	110.81
245.633	128.81
245.866	124.81
246.099	129.81
246.333	123.81
246.566	129.81
246.8	126.81
247.033	122.81
247.266	142.81
247.5	155.81
247.733	137.81
247.966	128.81
248.2	142.81
248.433	163.81
248.666	154.81
248.899	174.81
249.133	173.81
249.366	178.81
249.599	178.81
249.832	163.81
250.066	151.81
250.299	138.81
250.532	175.81
250.765	184.81
250.998	197.81
251.231	190.81
251.465	194.81
251.698	175.81
251.931	185.81
252.164	166.81
252.397	181.81
252.63	177.81
252.863	173.81
253.096	185.81
253.329	183.81
253.562	183.81
253.795	185.81
254.028	192.81
254.261	190.81
254.494	203.81
254.727	200.81
254.96	232.81
255.193	230.81
255.426	214.81
255.659	211.81
255.892	179.81
256.124	205.81
256.357	206.81
256.59	195.81
256.823	197.81
257.056	177.81
257.289	163.81
257.521	189.81
257.754	192.81
257.987	175.81
258.22	195.81
258.452	176.81
258.685	184.81
258.918	180.81
259.151	176.81
259.383	192.81
259.616	186.81
259.849	198.81
260.081	177.81
260.314	203.81
260.547	219.81
260.779	211.81
261.012	205.81
261.244	185.81
261.477	203.81
261.71	181.81
261.942	201.81
262.175	201.81
262.407	202.81
262.64	175.81
262.872	173.81
263.105	187.81
263.337	184.81
263.57	170.81
263.802	189.81
264.035	191.81
264.267	174.81
264.499	181.81
264.732	183.81
264.964	186.81
265.197	179.81
265.429	177.81
265.661	183.81
265.894	183.81
266.126	192.81
266.358	190.81
266.591	193.81
266.823	179.81
267.055	198.81
267.287	189.81
267.52	196.81
267.752	213.81
267.984	179.81
268.216	200.81
268.448	196.81
268.681	190.81
268.913	198.81
269.145	232.81
269.377	234.81
269.609	233.81
269.841	229.81
270.073	229.81
270.306	261.81
270.538	280.81
270.77	246.81
271.002	239.81
271.234	245.81
271.466	277.81
271.698	259.81
271.93	271.81
272.162	267.81
272.394	272.81
272.626	250.81
272.858	268.81
273.09	234.81
273.322	227.81
273.553	219.81
273.785	224.81
274.017	221.81
274.249	211.81
274.481	243.81
274.713	218.81
274.945	217.81
275.176	218.81
275.408	212.81
275.64	228.81
275.872	207.81
276.104	222.81
276.335	205.81
276.567	229.81
276.799	249.81
277.031	263.81
277.262	274.81
277.494	258.81
277.726	258.81
277.957	256.81
278.189	225.81
278.421	245.81
278.652	244.81
278.884	232.81
279.115	232.81
279.347	230.81
279.579	228.81
279.81	213.81
280.042	216.81
280.273	229.81
280.505	217.81
280.736	221.81
280.968	206.81
281.199	220.81
281.431	225.81
281.662	216.81
281.894	231.81
282.125	235.81
282.356	239.81
282.588	242.81
282.819	260.81
283.051	225.81
283.282	227.81
283.513	221.81
283.745	229.81
283.976	214.81
284.207	231.81
284.439	225.81
284.67	225.81
284.901	238.81
285.132	245.81
285.364	225.81
285.595	203.81
285.826	226.81
286.057	221.81
286.288	231.81
286.52	239.81
286.751	214.81
286.982	228.81
287.213	217.81
287.444	228.81
287.675	234.81
287.906	231.81
288.138	219.81
288.369	265.81
288.6	247.81
288.831	256.81
289.062	255.81
289.293	243.81
289.524	228.81
289.755	224.81
289.986	246.81
290.217	250.81
290.448	232.81
290.679	234.81
290.91	241.81
291.141	249.81
291.371	233.81
291.602	232.81
291.833	235.81
292.064	224.81
292.295	230.81
292.526	228.81
292.757	226.81
292.987	237.81
293.218	237.81
293.449	245.81
293.68	234.81
293.91	228.81
294.141	220.81
294.372	235.81
294.603	227.81
294.833	255.81
295.064	246.81
295.295	230.81
295.525	246.81
295.756	254.81
295.987	254.81
296.217	282.81
296.448	281.81
296.679	257.81
296.909	237.81
297.14	240.81
297.37	251.81
297.601	254.81
297.831	225.81
298.062	245.81
298.292	257.81
298.523	259.81
298.753	270.81
298.984	250.81
299.214	248.81
299.445	243.81
299.675	247.81
299.905	245.81
300.136	257.81
300.366	240.81
300.597	254.81
300.827	263.81
301.057	263.81
301.288	273.81
301.518	275.81
301.748	262.81
301.979	259.81
302.209	261.81
302.439	270.81
302.669	276.81
302.9	268.81
303.13	244.81
303.36	254.81
303.59	304.81
303.82	298.81
304.051	283.81
304.281	280.81
304.511	261.81
304.741	273.81
304.971	269.81
305.201	260.81
305.431	271.81
305.661	276.81
305.891	271.81
306.121	263.81
306.352	271.81
306.582	279.81
306.812	284.81
307.042	281.81
307.272	261.81
307.502	272.81
307.731	289.81
307.961	282.81
308.191	277.81
308.421	277.81
308.651	289.81
308.881	285.81
309.111	272.81
309.341	281.81
309.571	295.81
309.8	293.81
310.03	315.81
310.26	327.81
310.49	331.81
310.72	344.81
310.949	357.81
311.179	339.81
311.409	333.81
311.639	328.81
311.868	337.81
312.098	338.81
312.328	332.81
312.557	345.81
312.787	346.81
313.017	346.81
313.246	335.81
313.476	329.81
313.706	336.81
313.935	312.81
314.165	328.81
314.394	337.81
314.624	346.81
314.853	337.81
315.083	313.81
315.312	308.81
315.542	309.81
315.771	301.81
316.001	322.81
316.23	297.81
316.46	310.81
316.689	315.81
316.919	332.81
317.148	330.81
317.377	321.81
317.607	320.81
317.836	325.81
318.065	317.81
318.295	321.81
318.524	325.81
318.753	319.81
318.983	320.81
319.212	313.81
319.441	332.81
319.67	334.81
319.9	319.81
320.129	322.81
320.358	326.81
320.587	335.81
320.816	352.81
321.046	349.81
321.275	357.81
321.504	350.81
321.733	351.81
321.962	368.81
322.191	373.81
322.42	385.81
322.649	395.81
322.878	408.81
323.108	412.81
323.337	433.81
323.566	468.81
323.795	480.81
324.024	568.81
324.253	705.81
324.482	1017.81
324.71	1625.81
324.939	2212.81
325.168	1877.81
325.397	943.81
325.626	666.81
325.855	545.81
326.084	495.81
326.313	466.81
326.542	474.81
326.77	529.81
326.999	659.81
327.228	914.81
327.457	1421.81
327.686	1655.81
327.914	1114.81
328.143	705.81
328.372	579.81
328.6	583.81
328.829	538.81
329.058	553.81
329.287	552.81
329.515	519.81
329.744	470.81
329.972	491.81
330.201	495.81
330.43	553.81
330.658	561.81
330.887	587.81
331.115	588.81
331.344	486.81
331.572	435.81
331.801	431.81
332.03	465.81
332.258	414.81
332.486	409.81
332.715	372.81
332.943	390.81
333.172	394.81
333.4	412.81
333.629	401.81
333.857	421.81
334.085	443.81
334.314	436.81
334.542	483.81
334.771	488.81
334.999	459.81
335.227	415.81
335.455	388.81
335.684	386.81
335.912	363.81
336.14	377.81
336.369	378.81
336.597	380.81
336.825	390.81
337.053	365.81
337.281	389.81
337.51	369.81
337.738	374.81
337.966	377.81
338.194	369.81
338.422	362.81
338.65	381.81
338.878	355.81
339.106	355.81
339.334	370.81
339.562	371.81
339.79	359.81
340.018	346.81
340.246	358.81
340.474	362.81
340.702	347.81
340.93	337.81
341.158	359.81
341.386	342.81
341.614	357.81
341.842	371.81
342.07	365.81
342.298	354.81
342.526	351.81
342.754	348.81
342.981	355.81
343.209	345.81
343.437	341.81
343.665	353.81
343.893	335.81
344.12	370.81
344.348	345.81
344.576	357.81
344.804	369.81
345.031	385.81
345.259	377.81
345.487	374.81
345.714	357.81
345.942	351.81
346.17	366.81
346.397	357.81
346.625	360.81
346.853	357.81
347.08	353.81
347.308	351.81
347.535	332.81
347.763	346.81
347.99	367.81
348.218	353.81
348.445	373.81
348.673	354.81
348.9	365.81
349.128	356.81
349.355	347.81
349.583	341.81
349.81	325.81
350.037	338.81
350.265	336.81
350.492	339.81
350.72	348.81
350.947	346.81
351.174	351.81
351.402	368.81
351.629	357.81
351.856	381.81
352.083	377.81
352.311	367.81
352.538	356.81
352.765	357.81
352.992	374.81
353.22	372.81
353.447	365.81
353.674	352.81
353.901	343.81
354.128	321.81
354.355	328.81
354.583	318.81
354.81	334.81
355.037	337.81
355.264	319.81
355.491	323.81
355.718	311.81
355.945	310.81
356.172	304.81
356.399	313.81
356.626	310.81
356.853	325.81
357.08	330.81
357.307	317.81
357.534	325.81
357.761	325.81
357.988	337.81
358.215	318.81
358.441	328.81
358.668	322.81
358.895	323.81
359.122	336.81
359.349	358.81
359.576	355.81
359.802	383.81
360.029	434.81
360.256	429.81
360.483	391.81
360.709	350.81
360.936	360.81
361.163	355.81
361.39	343.81
361.616	354.81
361.843	350.81
362.07	354.81
362.296	354.81
362.523	356.81
362.749	328.81
362.976	353.81
363.203	346.81
363.429	333.81
363.656	336.81
363.882	347.81
364.109	338.81
364.335	326.81
364.562	341.81
364.788	334.81
365.015	326.81
365.241	337.81
365.468	339.81
365.694	340.81
365.92	323.81
366.147	330.81
366.373	339.81
366.599	328.81
366.826	332.81
367.052	333.81
367.278	325.81
367.505	323.81
367.731	335.81
367.957	310.81
368.184	325.81
368.41	336.81
368.636	336.81
368.862	355.81
369.089	350.81
369.315	327.81
369.541	323.81
369.767	324.81
369.993	309.81
370.219	322.81
370.445	338.81
370.672	329.81
370.898	312.81
371.124	335.81
371.35	333.81
371.576	313.81
371.802	324.81
372.028	344.81
372.254	309.81
372.48	326.81
372.706	331.81
372.932	332.81
373.158	327.81
373.384	326.81
373.61	310.81
373.835	330.81
374.061	313.81
374.287	343.81
374.513	329.81
374.739	322.81
374.965	307.81
375.191	326.81
375.416	333.81
375.642	332.81
375.868	341.81
376.094	338.81
376.319	335.81
376.545	329.81
376.771	315.81
376.997	329.81
377.222	314.81
377.448	327.81
377.674	305.81
377.899	309.81
378.125	318.81
378.35	329.81
378.576	331.81
378.802	319.81
379.027	298.81
379.253	306.81
379.478	319.81
379.704	328.81
379.929	315.81
380.155	334.81
380.38	329.81
380.606	344.81
380.831	329.81
381.057	327.81
381.282	312.81
381.507	323.81
381.733	319.81
381.958	328.81
382.184	296.81
382.409	319.81
382.634	330.81
382.86	326.81
383.085	329.81
383.31	339.81
383.535	340.81
383.761	337.81
383.986	341.81
384.211	345.81
384.436	334.81
384.662	331.81
384.887	320.81
385.112	344.81
385.337	341.81
385.562	346.81
385.787	323.81
386.013	361.81
386.238	360.81
386.463	354.81
386.688	352.81
386.913	347.81
387.138	360.81
387.363	342.81
387.588	330.81
387.813	341.81
388.038	347.81
388.263	348.81
388.488	346.81
388.713	349.81
388.938	360.81
389.163	360.81
389.387	357.81
389.612	351.81
389.837	344.81
390.062	355.81
390.287	337.81
390.512	354.81
390.736	345.81
390.961	346.81
391.186	338.81
391.411	351.81
391.636	357.81
391.86	353.81
392.085	343.81
392.31	347.81
392.534	355.81
392.759	336.81
392.984	358.81
393.208	353.81
393.433	349.81
393.658	352.81
393.882	347.81
394.107	346.81
394.331	333.81
394.556	344.81
394.78	352.81
395.005	366.81
395.229	355.81
395.454	362.81
395.678	352.81
395.903	365.81
396.127	393.81
396.352	374.81
396.576	371.81
396.801	367.81
397.025	377.81
397.249	365.81
397.474	347.81
397.698	380.81
397.922	385.81
398.147	406.81
398.371	397.81
398.595	403.81
398.82	398.81
399.044	395.81
399.268	387.81
399.492	411.81
399.717	423.81
399.941	458.81
400.165	452.81
400.389	473.81
400.613	459.81
400.837	426.81
401.062	401.81
401.286	420.81
401.51	419.81
401.734	389.81
401.958	419.81
402.182	399.81
402.406	423.81
402.63	424.81
402.854	417.81
403.078	416.81
403.302	395.81
403.526	423.81
403.75	407.81
403.974	393.81
404.198	409.81
404.422	402.81
404.645	440.81
404.869	421.81
405.093	445.81
405.317	482.81
405.541	519.81
405.765	451.81
405.988	456.81
406.212	459.81
406.436	457.81
406.66	504.81
406.883	471.81
407.107	477.81
407.331	518.81
407.555	551.81
407.778	553.81
408.002	519.81
408.226	475.81
408.449	446.81
408.673	432.81
408.896	472.81
409.12	513.81
409.344	467.81
409.567	450.81
409.791	450.81
410.014	418.81
410.238	426.81
410.461	424.81
410.685	431.81
410.908	453.81
411.132	486.81
411.355	497.81
411.578	460.81
411.802	409.81
412.025	418.81
412.249	445.81
412.472	446.81
412.695	499.81
412.919	494.81
413.142	439.81
413.365	418.81
413.589	398.81
413.812	393.81
414.035	415.81
414.258	400.81
414.482	394.81
414.705	399.81
414.928	383.81
415.151	405.81
415.374	406.81
415.597	405.81
415.821	382.81
416.044	386.81
416.267	402.81
416.49	396.81
416.713	393.81
416.936	401.81
417.159	406.81
417.382	409.81
417.605	395.81
417.828	409.81
418.051	424.81
418.274	397.81
418.497	389.81
418.72	388.81
418.943	385.81
419.166	396.81
419.389	413.81
419.611	411.81
419.834	405.81
420.057	423.81
420.28	404.81
420.503	446.81
420.726	416.81
420.948	437.81
421.171	473.81
421.394	482.81
421.617	442.81
421.839	415.81
422.062	412.81
422.285	423.81
422.507	485.81
422.73	546.81
422.953	517.81
423.175	467.81
423.398	455.81
423.621	454.81
423.843	433.81
424.066	461.81
424.288	445.81
424.511	463.81
424.733	522.81
424.956	559.81
425.178	568.81
425.401	544.81
425.623	576.81
425.846	519.81
426.068	481.81
426.291	454.81
426.513	451.81
426.735	489.81
426.958	494.81
427.18	560.81
427.402	682.81
427.625	753.81
427.847	667.81
428.069	593.81
428.292	523.81
428.514	458.81
428.736	461.81
428.958	413.81
429.181	425.81
429.403	431.81
429.625	443.81
429.847	458.81
430.069	516.81
430.292	529.81
430.514	461.81
430.736	430.81
430.958	422.81
431.18	411.81
431.402	395.81
431.624	387.81
431.846	388.81
432.068	396.81
432.29	406.81
432.512	405.81
432.734	415.81
432.956	382.81
433.178	413.81
433.4	409.81
433.622	406.81
433.844	420.81
434.066	404.81
434.287	399.81
434.509	409.81
434.731	418.81
434.953	386.81
435.175	432.81
435.397	454.81
435.618	467.81
435.84	503.81
436.062	595.81
436.284	626.81
436.505	519.81
436.727	471.81
436.949	435.81
437.17	424.81
437.392	431.81
437.614	435.81
437.835	466.81
438.057	565.81
438.278	659.81
438.5	678.81
438.721	702.81
438.943	673.81
439.165	535.81
439.386	496.81
439.608	479.81
439.829	503.81
440.05	516.81
440.272	567.81
440.493	499.81
440.715	461.81
440.936	451.81
441.158	440.81
441.379	438.81
441.6	459.81
441.822	450.81
442.043	511.81
442.264	569.81
442.486	598.81
442.707	511.81
442.928	498.81
443.149	485.81
443.371	537.81
443.592	551.81
443.813	615.81
444.034	668.81
444.255	552.81
444.476	490.81
444.698	449.81
444.919	452.81
445.14	550.81
445.361	538.81
445.582	538.81
445.803	585.81
446.024	674.81
446.245	675.81
446.466	608.81
446.687	513.81
446.908	495.81
447.129	449.81
447.35	437.81
447.571	432.81
447.792	433.81
448.013	435.81
448.234	436.81
448.455	528.81
448.675	601.81
448.896	678.81
449.117	580.81
449.338	563.81
449.559	635.81
449.779	731.81
450	587.81
450.221	480.81
450.442	445.81
450.662	420.81
450.883	461.81
451.104	451.81
451.324	454.81
451.545	451.81
451.766	426.81
451.986	392.81
452.207	403.81
452.428	396.81
452.648	395.81
452.869	395.81
453.089	388.81
453.31	396.81
453.53	407.81
453.751	406.81
453.971	414.81
454.192	407.81
454.412	411.81
454.633	401.81
454.853	376.81
455.073	381.81
455.294	426.81
455.514	459.81
455.734	448.81
455.955	396.81
456.175	370.81
456.395	374.81
456.616	348.81
456.836	353.81
457.056	373.81
457.276	363.81
457.497	369.81
457.717	368.81
457.937	367.81
458.157	383.81
458.377	370.81
458.598	423.81
458.818	469.81
459.038	550.81
459.258	571.81
459.478	442.81
459.698	436.81
459.918	411.81
460.138	401.81
460.358	402.81
460.578	384.81
460.798	410.81
461.018	405.81
461.238	417.81
461.458	386.81
461.678	388.81
461.898	410.81
462.118	410.81
462.338	395.81
462.558	403.81
462.777	403.81
462.997	424.81
463.217	416.81
463.437	422.81
463.657	405.81
463.876	435.81
464.096	426.81
464.316	435.81
464.536	439.81
464.755	443.81
464.975	441.81
465.195	494.81
465.414	586.81
465.634	498.81
465.854	473.81
466.073	429.81
466.293	425.81
466.512	420.81
466.732	401.81
466.951	404.81
467.171	402.81
467.391	387.81
467.61	404.81
467.829	410.81
468.049	414.81
468.268	414.81
468.488	386.81
468.707	396.81
468.927	399.81
469.146	377.81
469.365	397.81
469.585	368.81
469.804	388.81
470.023	401.81
470.243	410.81
470.462	400.81
470.681	439.81
470.901	419.81
471.12	428.81
471.339	389.81
471.558	401.81
471.777	415.81
471.997	405.81
472.216	423.81
472.435	469.81
472.654	453.81
472.873	445.81
473.092	393.81
473.311	411.81
473.53	423.81
473.749	420.81
473.968	475.81
474.187	549.81
474.406	569.81
474.625	456.81
474.844	427.81
475.063	424.81
475.282	403.81
475.501	410.81
475.72	425.81
475.939	405.81
476.158	429.81
476.377	401.81
476.596	410.81
476.814	433.81
477.033	438.81
477.252	426.81
477.471	446.81
477.69	430.81
477.908	426.81
478.127	431.81
478.346	426.81
478.564	423.81
478.783	442.81
479.002	442.81
479.22	451.81
479.439	479.81
479.658	476.81
479.876	476.81
480.095	488.81
480.313	513.81
480.532	506.81
480.751	506.81
480.969	490.81
481.188	586.81
481.406	641.81
481.624	547.81
481.843	530.81
482.061	486.81
482.28	472.81
482.498	479.81
482.717	478.81
482.935	479.81
483.153	495.81
483.372	472.81
483.59	475.81
483.808	479.81
484.027	481.81
484.245	498.81
484.463	462.81
484.681	500.81
484.9	466.81
485.118	496.81
485.336	486.81
485.554	476.81
485.772	477.81
485.99	475.81
486.209	501.81
486.427	496.81
486.645	497.81
486.863	543.81
487.081	538.81
487.299	513.81
487.517	521.81
487.735	511.81
487.953	495.81
488.171	503.81
488.389	521.81
488.607	513.81
488.825	502.81
489.043	482.81
489.261	500.81
489.479	503.81
489.696	509.81
489.914	507.81
490.132	527.81
490.35	523.81
490.568	539.81
490.786	547.81
491.003	545.81
491.221	574.81
491.439	566.81
491.657	585.81
491.874	603.81
492.092	596.81
492.31	599.81
492.527	561.81
492.745	583.81
492.963	567.81
493.18	589.81
493.398	586.81
493.615	597.81
493.833	601.81
494.05	609.81
494.268	627.81
494.485	596.81
494.703	612.81
494.92	608.81
495.138	588.81
495.355	601.81
495.573	597.81
495.79	606.81
496.008	607.81
496.225	590.81
496.442	601.81
496.66	611.81
496.877	602.81
497.094	587.81
497.312	603.81
497.529	606.81
497.746	652.81
497.963	628.81
498.181	669.81
498.398	644.81
498.615	667.81
498.832	669.81
499.049	671.81
499.267	664.81
499.484	671.81
499.701	686.81
499.918	732.81
500.135	741.81
500.352	737.81
500.569	763.81
500.786	759.81
501.003	729.81
501.22	741.81
501.437	725.81
501.654	724.81
501.871	736.81
502.088	719.81
