Data from 1961.PennyLincolnUp.Lamp.En5.5.200Scan.071719.P1._HRD10591_13-48-15-058.txt Node
Date: Thu Jul 18 13:48:15 EDT 2019
User: cochatt
Spectrometer: HR+D1059
Trigger mode: 1
Integration Time (sec): 1.000000E-1
Scans to average: 1
Electric dark correction enabled: true
Nonlinearity correction enabled: false
Boxcar width: 0
XAxis mode: Wavelengths
Number of Pixels in Spectrum: 2048
>>>>>Begin Spectral Data<<<<<
223.165	-15.31
223.4	-15.31
223.635	-15.31
223.869	-11.31
224.104	-12.31
224.338	-15.31
224.573	-16.31
224.808	-13.31
225.042	0.69
225.277	-11.31
225.511	-6.31
225.746	1.69
225.98	-5.31
226.215	11.69
226.449	13.69
226.683	22.69
226.918	33.69
227.152	22.69
227.387	18.69
227.621	37.69
227.856	40.69
228.09	44.69
228.324	67.69
228.559	38.69
228.793	63.69
229.027	80.69
229.262	101.69
229.496	112.69
229.73	126.69
229.964	154.69
230.199	123.69
230.433	108.69
230.667	105.69
230.901	102.69
231.136	99.69
231.37	93.69
231.604	123.69
231.838	114.69
232.072	119.69
232.306	114.69
232.541	95.69
232.775	99.69
233.009	113.69
233.243	89.69
233.477	119.69
233.711	116.69
233.945	114.69
234.179	109.69
234.413	109.69
234.647	107.69
234.881	117.69
235.115	116.69
235.349	114.69
235.583	116.69
235.817	120.69
236.051	108.69
236.285	121.69
236.519	119.69
236.753	109.69
236.987	130.69
237.221	160.69
237.455	215.69
237.689	164.69
237.922	126.69
238.156	123.69
238.39	122.69
238.624	132.69
238.858	113.69
239.091	118.69
239.325	115.69
239.559	120.69
239.793	117.69
240.027	124.69
240.26	142.69
240.494	158.69
240.728	129.69
240.961	128.69
241.195	141.69
241.429	135.69
241.662	112.69
241.896	129.69
242.13	113.69
242.363	117.69
242.597	128.69
242.83	122.69
243.064	135.69
243.298	131.69
243.531	116.69
243.765	127.69
243.998	121.69
244.232	126.69
244.465	141.69
244.699	119.69
244.932	137.69
245.166	117.69
245.399	123.69
245.633	125.69
245.866	121.69
246.099	118.69
246.333	128.69
246.566	129.69
246.8	133.69
247.033	132.69
247.266	131.69
247.5	128.69
247.733	148.69
247.966	160.69
248.2	148.69
248.433	152.69
248.666	159.69
248.899	152.69
249.133	170.69
249.366	171.69
249.599	183.69
249.832	163.69
250.066	166.69
250.299	166.69
250.532	163.69
250.765	176.69
250.998	212.69
251.231	199.69
251.465	181.69
251.698	159.69
251.931	180.69
252.164	165.69
252.397	165.69
252.63	174.69
252.863	166.69
253.096	193.69
253.329	210.69
253.562	203.69
253.795	184.69
254.028	197.69
254.261	177.69
254.494	201.69
254.727	227.69
254.96	241.69
255.193	229.69
255.426	217.69
255.659	207.69
255.892	192.69
256.124	204.69
256.357	205.69
256.59	213.69
256.823	189.69
257.056	178.69
257.289	203.69
257.521	185.69
257.754	187.69
257.987	190.69
258.22	189.69
258.452	181.69
258.685	189.69
258.918	185.69
259.151	188.69
259.383	186.69
259.616	184.69
259.849	196.69
260.081	210.69
260.314	216.69
260.547	220.69
260.779	206.69
261.012	182.69
261.244	195.69
261.477	178.69
261.71	201.69
261.942	178.69
262.175	211.69
262.407	197.69
262.64	168.69
262.872	195.69
263.105	190.69
263.337	198.69
263.57	197.69
263.802	171.69
264.035	181.69
264.267	172.69
264.499	181.69
264.732	181.69
264.964	185.69
265.197	175.69
265.429	188.69
265.661	184.69
265.894	186.69
266.126	196.69
266.358	166.69
266.591	182.69
266.823	193.69
267.055	192.69
267.287	190.69
267.52	200.69
267.752	208.69
267.984	201.69
268.216	189.69
268.448	192.69
268.681	190.69
268.913	209.69
269.145	225.69
269.377	233.69
269.609	224.69
269.841	218.69
270.073	219.69
270.306	258.69
270.538	258.69
270.77	254.69
271.002	268.69
271.234	231.69
271.466	261.69
271.698	262.69
271.93	278.69
272.162	255.69
272.394	270.69
272.626	238.69
272.858	245.69
273.09	237.69
273.322	233.69
273.553	225.69
273.785	227.69
274.017	224.69
274.249	232.69
274.481	230.69
274.713	241.69
274.945	220.69
275.176	225.69
275.408	223.69
275.64	220.69
275.872	202.69
276.104	225.69
276.335	222.69
276.567	232.69
276.799	230.69
277.031	258.69
277.262	272.69
277.494	248.69
277.726	257.69
277.957	254.69
278.189	254.69
278.421	224.69
278.652	238.69
278.884	220.69
279.115	236.69
279.347	230.69
279.579	236.69
279.81	209.69
280.042	200.69
280.273	200.69
280.505	226.69
280.736	213.69
280.968	209.69
281.199	224.69
281.431	225.69
281.662	215.69
281.894	208.69
282.125	218.69
282.356	246.69
282.588	266.69
282.819	248.69
283.051	226.69
283.282	239.69
283.513	220.69
283.745	212.69
283.976	243.69
284.207	231.69
284.439	246.69
284.67	230.69
284.901	235.69
285.132	237.69
285.364	230.69
285.595	231.69
285.826	234.69
286.057	229.69
286.288	220.69
286.52	228.69
286.751	227.69
286.982	232.69
287.213	238.69
287.444	235.69
287.675	237.69
287.906	231.69
288.138	233.69
288.369	256.69
288.6	266.69
288.831	258.69
289.062	228.69
289.293	240.69
289.524	225.69
289.755	226.69
289.986	233.69
290.217	234.69
290.448	242.69
290.679	234.69
290.91	231.69
291.141	228.69
291.371	234.69
291.602	217.69
291.833	236.69
292.064	235.69
292.295	236.69
292.526	265.69
292.757	242.69
292.987	236.69
293.218	225.69
293.449	230.69
293.68	236.69
293.91	235.69
294.141	231.69
294.372	235.69
294.603	225.69
294.833	235.69
295.064	233.69
295.295	227.69
295.525	218.69
295.756	258.69
295.987	266.69
296.217	267.69
296.448	284.69
296.679	252.69
296.909	237.69
297.14	251.69
297.37	256.69
297.601	227.69
297.831	233.69
298.062	226.69
298.292	241.69
298.523	252.69
298.753	227.69
298.984	246.69
299.214	255.69
299.445	253.69
299.675	251.69
299.905	275.69
300.136	251.69
300.366	247.69
300.597	255.69
300.827	263.69
301.057	266.69
301.288	270.69
301.518	259.69
301.748	267.69
301.979	277.69
302.209	275.69
302.439	257.69
302.669	260.69
302.9	283.69
303.13	269.69
303.36	287.69
303.59	273.69
303.82	292.69
304.051	278.69
304.281	272.69
304.511	260.69
304.741	279.69
304.971	253.69
305.201	271.69
305.431	250.69
305.661	281.69
305.891	270.69
306.121	271.69
306.352	278.69
306.582	276.69
306.812	281.69
307.042	268.69
307.272	272.69
307.502	268.69
307.731	267.69
307.961	276.69
308.191	283.69
308.421	266.69
308.651	275.69
308.881	274.69
309.111	290.69
309.341	282.69
309.571	299.69
309.8	320.69
310.03	315.69
310.26	322.69
310.49	348.69
310.72	329.69
310.949	349.69
311.179	356.69
311.409	324.69
311.639	317.69
311.868	327.69
312.098	331.69
312.328	308.69
312.557	320.69
312.787	348.69
313.017	351.69
313.246	354.69
313.476	315.69
313.706	319.69
313.935	314.69
314.165	324.69
314.394	340.69
314.624	336.69
314.853	337.69
315.083	338.69
315.312	311.69
315.542	320.69
315.771	315.69
316.001	308.69
316.23	320.69
316.46	326.69
316.689	310.69
316.919	328.69
317.148	327.69
317.377	330.69
317.607	330.69
317.836	331.69
318.065	312.69
318.295	321.69
318.524	326.69
318.753	316.69
318.983	304.69
319.212	320.69
319.441	329.69
319.67	329.69
319.9	310.69
320.129	318.69
320.358	345.69
320.587	339.69
320.816	345.69
321.046	350.69
321.275	338.69
321.504	332.69
321.733	344.69
321.962	355.69
322.191	361.69
322.42	388.69
322.649	380.69
322.878	398.69
323.108	419.69
323.337	418.69
323.566	466.69
323.795	508.69
324.024	576.69
324.253	692.69
324.482	1006.69
324.71	1598.69
324.939	2259.69
325.168	1838.69
325.397	985.69
325.626	633.69
325.855	520.69
326.084	480.69
326.313	448.69
326.542	484.69
326.77	536.69
326.999	654.69
327.228	910.69
327.457	1373.69
327.686	1589.69
327.914	1090.69
328.143	686.69
328.372	614.69
328.6	575.69
328.829	554.69
329.058	541.69
329.287	553.69
329.515	496.69
329.744	462.69
329.972	468.69
330.201	483.69
330.43	515.69
330.658	562.69
330.887	584.69
331.115	566.69
331.344	473.69
331.572	438.69
331.801	450.69
332.03	440.69
332.258	411.69
332.486	393.69
332.715	374.69
332.943	378.69
333.172	394.69
333.4	403.69
333.629	396.69
333.857	415.69
334.085	416.69
334.314	432.69
334.542	469.69
334.771	479.69
334.999	452.69
335.227	404.69
335.455	386.69
335.684	386.69
335.912	386.69
336.14	365.69
336.369	385.69
336.597	380.69
336.825	378.69
337.053	361.69
337.281	358.69
337.51	359.69
337.738	340.69
337.966	354.69
338.194	365.69
338.422	376.69
338.65	381.69
338.878	366.69
339.106	356.69
339.334	361.69
339.562	354.69
339.79	362.69
340.018	362.69
340.246	352.69
340.474	366.69
340.702	355.69
340.93	375.69
341.158	372.69
341.386	356.69
341.614	348.69
341.842	352.69
342.07	339.69
342.298	350.69
342.526	332.69
342.754	328.69
342.981	333.69
343.209	357.69
343.437	334.69
343.665	331.69
343.893	352.69
344.12	354.69
344.348	347.69
344.576	370.69
344.804	380.69
345.031	388.69
345.259	421.69
345.487	369.69
345.714	359.69
345.942	340.69
346.17	348.69
346.397	355.69
346.625	351.69
346.853	361.69
347.08	346.69
347.308	347.69
347.535	370.69
347.763	356.69
347.99	384.69
348.218	375.69
348.445	376.69
348.673	377.69
348.9	364.69
349.128	356.69
349.355	334.69
349.583	363.69
349.81	347.69
350.037	339.69
350.265	340.69
350.492	338.69
350.72	347.69
350.947	329.69
351.174	365.69
351.402	379.69
351.629	370.69
351.856	394.69
352.083	355.69
352.311	347.69
352.538	377.69
352.765	368.69
352.992	393.69
353.22	357.69
353.447	362.69
353.674	334.69
353.901	325.69
354.128	335.69
354.355	332.69
354.583	331.69
354.81	316.69
355.037	332.69
355.264	333.69
355.491	331.69
355.718	327.69
355.945	316.69
356.172	314.69
356.399	339.69
356.626	308.69
356.853	334.69
357.08	322.69
357.307	319.69
357.534	324.69
357.761	326.69
357.988	331.69
358.215	318.69
358.441	325.69
358.668	326.69
358.895	325.69
359.122	322.69
359.349	330.69
359.576	365.69
359.802	368.69
360.029	388.69
360.256	419.69
360.483	412.69
360.709	356.69
360.936	354.69
361.163	341.69
361.39	361.69
361.616	359.69
361.843	348.69
362.07	347.69
362.296	353.69
362.523	336.69
362.749	363.69
362.976	360.69
363.203	356.69
363.429	337.69
363.656	339.69
363.882	349.69
364.109	334.69
364.335	340.69
364.562	348.69
364.788	325.69
365.015	331.69
365.241	318.69
365.468	326.69
365.694	375.69
365.92	326.69
366.147	338.69
366.373	338.69
366.599	325.69
366.826	341.69
367.052	321.69
367.278	326.69
367.505	338.69
367.731	349.69
367.957	333.69
368.184	332.69
368.41	338.69
368.636	335.69
368.862	355.69
369.089	352.69
369.315	326.69
369.541	347.69
369.767	357.69
369.993	335.69
370.219	326.69
370.445	314.69
370.672	321.69
370.898	322.69
371.124	306.69
371.35	322.69
371.576	321.69
371.802	327.69
372.028	322.69
372.254	320.69
372.48	323.69
372.706	324.69
372.932	324.69
373.158	332.69
373.384	317.69
373.61	299.69
373.835	330.69
374.061	359.69
374.287	346.69
374.513	336.69
374.739	324.69
374.965	315.69
375.191	343.69
375.416	328.69
375.642	319.69
375.868	308.69
376.094	340.69
376.319	325.69
376.545	337.69
376.771	309.69
376.997	327.69
377.222	349.69
377.448	333.69
377.674	340.69
377.899	311.69
378.125	295.69
378.35	310.69
378.576	327.69
378.802	331.69
379.027	323.69
379.253	321.69
379.478	325.69
379.704	324.69
379.929	308.69
380.155	328.69
380.38	318.69
380.606	341.69
380.831	330.69
381.057	352.69
381.282	320.69
381.507	333.69
381.733	336.69
381.958	324.69
382.184	325.69
382.409	347.69
382.634	318.69
382.86	338.69
383.085	338.69
383.31	332.69
383.535	352.69
383.761	323.69
383.986	340.69
384.211	328.69
384.436	335.69
384.662	328.69
384.887	359.69
385.112	358.69
385.337	356.69
385.562	334.69
385.787	344.69
386.013	362.69
386.238	374.69
386.463	362.69
386.688	357.69
386.913	358.69
387.138	368.69
387.363	361.69
387.588	332.69
387.813	348.69
388.038	342.69
388.263	362.69
388.488	349.69
388.713	345.69
388.938	348.69
389.163	344.69
389.387	362.69
389.612	349.69
389.837	350.69
390.062	331.69
390.287	332.69
390.512	342.69
390.736	344.69
390.961	338.69
391.186	344.69
391.411	362.69
391.636	367.69
391.86	346.69
392.085	354.69
392.31	357.69
392.534	356.69
392.759	380.69
392.984	366.69
393.208	371.69
393.433	368.69
393.658	356.69
393.882	341.69
394.107	347.69
394.331	352.69
394.556	358.69
394.78	352.69
395.005	352.69
395.229	345.69
395.454	353.69
395.678	368.69
395.903	369.69
396.127	377.69
396.352	401.69
396.576	362.69
396.801	358.69
397.025	353.69
397.249	376.69
397.474	384.69
397.698	373.69
397.922	377.69
398.147	373.69
398.371	405.69
398.595	413.69
398.82	381.69
399.044	392.69
399.268	393.69
399.492	402.69
399.717	437.69
399.941	438.69
400.165	478.69
400.389	482.69
400.613	452.69
400.837	428.69
401.062	411.69
401.286	390.69
401.51	404.69
401.734	405.69
401.958	375.69
402.182	418.69
402.406	414.69
402.63	413.69
402.854	411.69
403.078	404.69
403.302	403.69
403.526	425.69
403.75	427.69
403.974	404.69
404.198	417.69
404.422	417.69
404.645	394.69
404.869	405.69
405.093	466.69
405.317	508.69
405.541	504.69
405.765	457.69
405.988	434.69
406.212	456.69
406.436	465.69
406.66	464.69
406.883	441.69
407.107	476.69
407.331	514.69
407.555	542.69
407.778	553.69
408.002	503.69
408.226	468.69
408.449	473.69
408.673	456.69
408.896	489.69
409.12	516.69
409.344	499.69
409.567	427.69
409.791	429.69
410.014	422.69
410.238	429.69
410.461	426.69
410.685	430.69
410.908	435.69
411.132	468.69
411.355	507.69
411.578	452.69
411.802	420.69
412.025	421.69
412.249	424.69
412.472	430.69
412.695	491.69
412.919	498.69
413.142	443.69
413.365	410.69
413.589	416.69
413.812	432.69
414.035	404.69
414.258	390.69
414.482	405.69
414.705	394.69
414.928	385.69
415.151	390.69
415.374	389.69
415.597	389.69
415.821	394.69
416.044	422.69
416.267	390.69
416.49	381.69
416.713	395.69
416.936	383.69
417.159	411.69
417.382	404.69
417.605	383.69
417.828	416.69
418.051	422.69
418.274	422.69
418.497	374.69
418.72	386.69
418.943	392.69
419.166	394.69
419.389	434.69
419.611	424.69
419.834	422.69
420.057	408.69
420.28	429.69
420.503	429.69
420.726	421.69
420.948	446.69
421.171	485.69
421.394	470.69
421.617	433.69
421.839	433.69
422.062	414.69
422.285	443.69
422.507	490.69
422.73	518.69
422.953	525.69
423.175	460.69
423.398	434.69
423.621	437.69
423.843	478.69
424.066	440.69
424.288	459.69
424.511	434.69
424.733	522.69
424.956	605.69
425.178	572.69
425.401	549.69
425.623	572.69
425.846	480.69
426.068	468.69
426.291	455.69
426.513	437.69
426.735	458.69
426.958	484.69
427.18	597.69
427.402	684.69
427.625	764.69
427.847	652.69
428.069	572.69
428.292	505.69
428.514	476.69
428.736	442.69
428.958	453.69
429.181	427.69
429.403	413.69
429.625	420.69
429.847	469.69
430.069	508.69
430.292	527.69
430.514	439.69
430.736	428.69
430.958	403.69
431.18	406.69
431.402	407.69
431.624	400.69
431.846	396.69
432.068	396.69
432.29	410.69
432.512	388.69
432.734	386.69
432.956	413.69
433.178	415.69
433.4	414.69
433.622	397.69
433.844	404.69
434.066	396.69
434.287	396.69
434.509	396.69
434.731	402.69
434.953	425.69
435.175	441.69
435.397	436.69
435.618	429.69
435.84	492.69
436.062	570.69
436.284	616.69
436.505	528.69
436.727	501.69
436.949	450.69
437.17	446.69
437.392	439.69
437.614	439.69
437.835	476.69
438.057	555.69
438.278	632.69
438.5	646.69
438.721	664.69
438.943	664.69
439.165	531.69
439.386	468.69
439.608	493.69
439.829	483.69
440.05	514.69
440.272	546.69
440.493	510.69
440.715	476.69
440.936	441.69
441.158	425.69
441.379	429.69
441.6	438.69
441.822	456.69
442.043	504.69
442.264	562.69
442.486	605.69
442.707	514.69
442.928	468.69
443.149	493.69
443.371	517.69
443.592	546.69
443.813	609.69
444.034	682.69
444.255	548.69
444.476	491.69
444.698	474.69
444.919	444.69
445.14	560.69
445.361	542.69
445.582	512.69
445.803	572.69
446.024	650.69
446.245	690.69
446.466	598.69
446.687	502.69
446.908	452.69
447.129	441.69
447.35	436.69
447.571	428.69
447.792	440.69
448.013	414.69
448.234	452.69
448.455	524.69
448.675	636.69
448.896	692.69
449.117	602.69
449.338	558.69
449.559	659.69
449.779	733.69
450	608.69
450.221	496.69
450.442	461.69
450.662	434.69
450.883	451.69
451.104	443.69
451.324	449.69
451.545	426.69
451.766	404.69
451.986	407.69
452.207	371.69
452.428	396.69
452.648	397.69
452.869	379.69
453.089	408.69
453.31	406.69
453.53	398.69
453.751	383.69
453.971	394.69
454.192	421.69
454.412	418.69
454.633	398.69
454.853	380.69
455.073	389.69
455.294	435.69
455.514	459.69
455.734	456.69
455.955	388.69
456.175	372.69
456.395	364.69
456.616	357.69
456.836	370.69
457.056	358.69
457.276	371.69
457.497	363.69
457.717	368.69
457.937	386.69
458.157	387.69
458.377	374.69
458.598	406.69
458.818	461.69
459.038	558.69
459.258	549.69
459.478	436.69
459.698	430.69
459.918	416.69
460.138	402.69
460.358	406.69
460.578	402.69
460.798	385.69
461.018	416.69
461.238	418.69
461.458	384.69
461.678	398.69
461.898	399.69
462.118	393.69
462.338	388.69
462.558	402.69
462.777	384.69
462.997	422.69
463.217	410.69
463.437	413.69
463.657	429.69
463.876	411.69
464.096	412.69
464.316	433.69
464.536	425.69
464.755	422.69
464.975	450.69
465.195	508.69
465.414	568.69
465.634	498.69
465.854	441.69
466.073	429.69
466.293	400.69
466.512	387.69
466.732	408.69
466.951	402.69
467.171	397.69
467.391	397.69
467.61	399.69
467.829	415.69
468.049	376.69
468.268	409.69
468.488	390.69
468.707	400.69
468.927	407.69
469.146	396.69
469.365	380.69
469.585	389.69
469.804	393.69
470.023	414.69
470.243	403.69
470.462	409.69
470.681	435.69
470.901	422.69
471.12	412.69
471.339	397.69
471.558	398.69
471.777	390.69
471.997	381.69
472.216	405.69
472.435	476.69
472.654	453.69
472.873	410.69
473.092	402.69
473.311	397.69
473.53	400.69
473.749	413.69
473.968	449.69
474.187	550.69
474.406	584.69
474.625	449.69
474.844	420.69
475.063	381.69
475.282	413.69
475.501	415.69
475.72	411.69
475.939	411.69
476.158	425.69
476.377	411.69
476.596	410.69
476.814	432.69
477.033	424.69
477.252	424.69
477.471	436.69
477.69	426.69
477.908	429.69
478.127	445.69
478.346	448.69
478.564	427.69
478.783	454.69
479.002	450.69
479.22	452.69
479.439	470.69
479.658	461.69
479.876	472.69
480.095	490.69
480.313	511.69
480.532	474.69
480.751	494.69
480.969	510.69
481.188	583.69
481.406	620.69
481.624	539.69
481.843	509.69
482.061	479.69
482.28	475.69
482.498	476.69
482.717	457.69
482.935	464.69
483.153	451.69
483.372	472.69
483.59	480.69
483.808	490.69
484.027	448.69
484.245	471.69
484.463	462.69
484.681	479.69
484.9	471.69
485.118	494.69
485.336	486.69
485.554	461.69
485.772	489.69
485.99	505.69
486.209	499.69
486.427	486.69
486.645	488.69
486.863	522.69
487.081	534.69
487.299	510.69
487.517	517.69
487.735	509.69
487.953	510.69
488.171	504.69
488.389	512.69
488.607	490.69
488.825	527.69
489.043	518.69
489.261	498.69
489.479	533.69
489.696	513.69
489.914	507.69
490.132	511.69
490.35	563.69
490.568	527.69
490.786	532.69
491.003	524.69
491.221	542.69
491.439	546.69
491.657	569.69
491.874	576.69
492.092	562.69
492.31	581.69
492.527	565.69
492.745	591.69
492.963	605.69
493.18	613.69
493.398	597.69
493.615	616.69
493.833	597.69
494.05	588.69
494.268	580.69
494.485	581.69
494.703	595.69
494.92	599.69
495.138	592.69
495.355	601.69
495.573	574.69
495.79	600.69
496.008	615.69
496.225	598.69
496.442	597.69
496.66	611.69
496.877	605.69
497.094	602.69
497.312	606.69
497.529	595.69
497.746	648.69
497.963	656.69
498.181	662.69
498.398	659.69
498.615	652.69
498.832	654.69
499.049	669.69
499.267	674.69
499.484	675.69
499.701	725.69
499.918	695.69
500.135	726.69
500.352	725.69
500.569	747.69
500.786	749.69
501.003	756.69
501.22	757.69
501.437	723.69
501.654	731.69
501.871	743.69
