Data from 1961.PennyLincolnUp.Lamp.En5.5.200Scan.071719.P1._HRD10591_13-48-10-057.txt Node
Date: Thu Jul 18 13:48:10 EDT 2019
User: cochatt
Spectrometer: HR+D1059
Trigger mode: 1
Integration Time (sec): 1.000000E-1
Scans to average: 1
Electric dark correction enabled: true
Nonlinearity correction enabled: false
Boxcar width: 0
XAxis mode: Wavelengths
Number of Pixels in Spectrum: 2048
>>>>>Begin Spectral Data<<<<<
223.165	-8.38
223.4	-8.38
223.635	-8.38
223.869	-21.38
224.104	-13.38
224.338	-25.38
224.573	-13.38
224.808	-12.38
225.042	-4.38
225.277	-4.38
225.511	-6.38
225.746	5.62
225.98	2.62
226.215	17.62
226.449	13.62
226.683	5.62
226.918	24.62
227.152	39.62
227.387	48.62
227.621	38.62
227.856	44.62
228.09	51.62
228.324	45.62
228.559	51.62
228.793	71.62
229.027	92.62
229.262	98.62
229.496	116.62
229.73	132.62
229.964	156.62
230.199	131.62
230.433	106.62
230.667	110.62
230.901	109.62
231.136	103.62
231.37	114.62
231.604	105.62
231.838	98.62
232.072	113.62
232.306	121.62
232.541	112.62
232.775	117.62
233.009	107.62
233.243	104.62
233.477	94.62
233.711	110.62
233.945	125.62
234.179	123.62
234.413	116.62
234.647	127.62
234.881	113.62
235.115	105.62
235.349	115.62
235.583	111.62
235.817	113.62
236.051	122.62
236.285	114.62
236.519	136.62
236.753	138.62
236.987	130.62
237.221	172.62
237.455	206.62
237.689	178.62
237.922	131.62
238.156	119.62
238.39	113.62
238.624	111.62
238.858	117.62
239.091	114.62
239.325	119.62
239.559	114.62
239.793	110.62
240.027	126.62
240.26	131.62
240.494	142.62
240.728	142.62
240.961	144.62
241.195	126.62
241.429	141.62
241.662	114.62
241.896	124.62
242.13	118.62
242.363	131.62
242.597	113.62
242.83	119.62
243.064	127.62
243.298	135.62
243.531	118.62
243.765	123.62
243.998	138.62
244.232	124.62
244.465	133.62
244.699	130.62
244.932	122.62
245.166	124.62
245.399	142.62
245.633	123.62
245.866	138.62
246.099	126.62
246.333	137.62
246.566	135.62
246.8	146.62
247.033	144.62
247.266	130.62
247.5	133.62
247.733	144.62
247.966	142.62
248.2	148.62
248.433	155.62
248.666	155.62
248.899	160.62
249.133	179.62
249.366	169.62
249.599	177.62
249.832	167.62
250.066	157.62
250.299	143.62
250.532	173.62
250.765	165.62
250.998	204.62
251.231	194.62
251.465	174.62
251.698	168.62
251.931	181.62
252.164	174.62
252.397	167.62
252.63	173.62
252.863	177.62
253.096	197.62
253.329	202.62
253.562	199.62
253.795	195.62
254.028	175.62
254.261	182.62
254.494	196.62
254.727	223.62
254.96	254.62
255.193	242.62
255.426	228.62
255.659	201.62
255.892	215.62
256.124	188.62
256.357	197.62
256.59	204.62
256.823	187.62
257.056	193.62
257.289	198.62
257.521	193.62
257.754	184.62
257.987	175.62
258.22	159.62
258.452	182.62
258.685	162.62
258.918	180.62
259.151	181.62
259.383	183.62
259.616	182.62
259.849	177.62
260.081	197.62
260.314	194.62
260.547	199.62
260.779	204.62
261.012	191.62
261.244	190.62
261.477	197.62
261.71	200.62
261.942	197.62
262.175	214.62
262.407	205.62
262.64	194.62
262.872	181.62
263.105	191.62
263.337	177.62
263.57	188.62
263.802	165.62
264.035	185.62
264.267	178.62
264.499	188.62
264.732	187.62
264.964	184.62
265.197	171.62
265.429	186.62
265.661	167.62
265.894	167.62
266.126	175.62
266.358	185.62
266.591	203.62
266.823	186.62
267.055	182.62
267.287	193.62
267.52	171.62
267.752	197.62
267.984	193.62
268.216	204.62
268.448	196.62
268.681	186.62
268.913	218.62
269.145	222.62
269.377	230.62
269.609	223.62
269.841	231.62
270.073	218.62
270.306	236.62
270.538	257.62
270.77	267.62
271.002	237.62
271.234	261.62
271.466	248.62
271.698	272.62
271.93	264.62
272.162	271.62
272.394	268.62
272.626	245.62
272.858	248.62
273.09	217.62
273.322	244.62
273.553	233.62
273.785	228.62
274.017	234.62
274.249	230.62
274.481	218.62
274.713	220.62
274.945	221.62
275.176	242.62
275.408	222.62
275.64	214.62
275.872	231.62
276.104	234.62
276.335	222.62
276.567	237.62
276.799	238.62
277.031	268.62
277.262	268.62
277.494	276.62
277.726	244.62
277.957	234.62
278.189	220.62
278.421	231.62
278.652	222.62
278.884	209.62
279.115	216.62
279.347	218.62
279.579	214.62
279.81	223.62
280.042	232.62
280.273	224.62
280.505	205.62
280.736	224.62
280.968	216.62
281.199	211.62
281.431	219.62
281.662	199.62
281.894	210.62
282.125	232.62
282.356	232.62
282.588	262.62
282.819	249.62
283.051	230.62
283.282	218.62
283.513	219.62
283.745	221.62
283.976	237.62
284.207	232.62
284.439	231.62
284.67	222.62
284.901	217.62
285.132	212.62
285.364	219.62
285.595	228.62
285.826	233.62
286.057	226.62
286.288	235.62
286.52	228.62
286.751	213.62
286.982	242.62
287.213	210.62
287.444	243.62
287.675	245.62
287.906	250.62
288.138	252.62
288.369	243.62
288.6	241.62
288.831	241.62
289.062	239.62
289.293	224.62
289.524	261.62
289.755	231.62
289.986	242.62
290.217	239.62
290.448	231.62
290.679	249.62
290.91	227.62
291.141	217.62
291.371	216.62
291.602	228.62
291.833	247.62
292.064	229.62
292.295	246.62
292.526	229.62
292.757	232.62
292.987	218.62
293.218	232.62
293.449	225.62
293.68	215.62
293.91	230.62
294.141	221.62
294.372	233.62
294.603	244.62
294.833	246.62
295.064	244.62
295.295	237.62
295.525	233.62
295.756	245.62
295.987	266.62
296.217	267.62
296.448	285.62
296.679	264.62
296.909	246.62
297.14	234.62
297.37	236.62
297.601	215.62
297.831	249.62
298.062	230.62
298.292	252.62
298.523	257.62
298.753	248.62
298.984	263.62
299.214	245.62
299.445	249.62
299.675	251.62
299.905	246.62
300.136	267.62
300.366	231.62
300.597	260.62
300.827	252.62
301.057	273.62
301.288	269.62
301.518	259.62
301.748	268.62
301.979	261.62
302.209	256.62
302.439	269.62
302.669	278.62
302.9	262.62
303.13	254.62
303.36	268.62
303.59	265.62
303.82	271.62
304.051	275.62
304.281	268.62
304.511	267.62
304.741	267.62
304.971	251.62
305.201	260.62
305.431	276.62
305.661	259.62
305.891	280.62
306.121	267.62
306.352	286.62
306.582	285.62
306.812	277.62
307.042	285.62
307.272	282.62
307.502	266.62
307.731	266.62
307.961	291.62
308.191	275.62
308.421	271.62
308.651	282.62
308.881	278.62
309.111	270.62
309.341	270.62
309.571	298.62
309.8	297.62
310.03	301.62
310.26	314.62
310.49	315.62
310.72	319.62
310.949	338.62
311.179	356.62
311.409	313.62
311.639	320.62
311.868	317.62
312.098	309.62
312.328	335.62
312.557	325.62
312.787	342.62
313.017	335.62
313.246	335.62
313.476	300.62
313.706	316.62
313.935	326.62
314.165	327.62
314.394	355.62
314.624	354.62
314.853	330.62
315.083	316.62
315.312	313.62
315.542	291.62
315.771	321.62
316.001	296.62
316.23	317.62
316.46	307.62
316.689	324.62
316.919	338.62
317.148	320.62
317.377	315.62
317.607	315.62
317.836	316.62
318.065	307.62
318.295	305.62
318.524	287.62
318.753	300.62
318.983	306.62
319.212	332.62
319.441	332.62
319.67	347.62
319.9	320.62
320.129	312.62
320.358	330.62
320.587	334.62
320.816	342.62
321.046	350.62
321.275	347.62
321.504	338.62
321.733	351.62
321.962	353.62
322.191	373.62
322.42	357.62
322.649	393.62
322.878	381.62
323.108	421.62
323.337	420.62
323.566	434.62
323.795	486.62
324.024	532.62
324.253	681.62
324.482	999.62
324.71	1574.62
324.939	2173.62
325.168	1825.62
325.397	945.62
325.626	634.62
325.855	521.62
326.084	489.62
326.313	467.62
326.542	456.62
326.77	523.62
326.999	629.62
327.228	892.62
327.457	1342.62
327.686	1600.62
327.914	1061.62
328.143	693.62
328.372	598.62
328.6	550.62
328.829	516.62
329.058	519.62
329.287	517.62
329.515	480.62
329.744	433.62
329.972	460.62
330.201	495.62
330.43	521.62
330.658	555.62
330.887	563.62
331.115	554.62
331.344	470.62
331.572	425.62
331.801	425.62
332.03	420.62
332.258	410.62
332.486	367.62
332.715	381.62
332.943	375.62
333.172	378.62
333.4	382.62
333.629	386.62
333.857	397.62
334.085	411.62
334.314	429.62
334.542	467.62
334.771	467.62
334.999	419.62
335.227	408.62
335.455	382.62
335.684	382.62
335.912	361.62
336.14	364.62
336.369	355.62
336.597	361.62
336.825	362.62
337.053	365.62
337.281	368.62
337.51	341.62
337.738	366.62
337.966	367.62
338.194	369.62
338.422	364.62
338.65	353.62
338.878	347.62
339.106	338.62
339.334	347.62
339.562	339.62
339.79	348.62
340.018	347.62
340.246	364.62
340.474	358.62
340.702	367.62
340.93	338.62
341.158	335.62
341.386	349.62
341.614	361.62
341.842	356.62
342.07	351.62
342.298	355.62
342.526	330.62
342.754	359.62
342.981	332.62
343.209	330.62
343.437	349.62
343.665	344.62
343.893	329.62
344.12	355.62
344.348	353.62
344.576	361.62
344.804	361.62
345.031	357.62
345.259	394.62
345.487	366.62
345.714	334.62
345.942	356.62
346.17	346.62
346.397	351.62
346.625	340.62
346.853	355.62
347.08	354.62
347.308	366.62
347.535	349.62
347.763	358.62
347.99	347.62
348.218	368.62
348.445	389.62
348.673	378.62
348.9	359.62
349.128	346.62
349.355	333.62
349.583	338.62
349.81	312.62
350.037	322.62
350.265	335.62
350.492	337.62
350.72	339.62
350.947	332.62
351.174	354.62
351.402	355.62
351.629	339.62
351.856	361.62
352.083	377.62
352.311	379.62
352.538	376.62
352.765	362.62
352.992	349.62
353.22	348.62
353.447	374.62
353.674	323.62
353.901	318.62
354.128	330.62
354.355	330.62
354.583	326.62
354.81	333.62
355.037	301.62
355.264	315.62
355.491	305.62
355.718	308.62
355.945	321.62
356.172	308.62
356.399	327.62
356.626	310.62
356.853	321.62
357.08	310.62
357.307	337.62
357.534	321.62
357.761	337.62
357.988	317.62
358.215	321.62
358.441	315.62
358.668	311.62
358.895	323.62
359.122	321.62
359.349	321.62
359.576	339.62
359.802	377.62
360.029	390.62
360.256	397.62
360.483	382.62
360.709	349.62
360.936	353.62
361.163	345.62
361.39	364.62
361.616	334.62
361.843	334.62
362.07	343.62
362.296	351.62
362.523	338.62
362.749	353.62
362.976	340.62
363.203	337.62
363.429	312.62
363.656	353.62
363.882	317.62
364.109	328.62
364.335	348.62
364.562	321.62
364.788	323.62
365.015	348.62
365.241	333.62
365.468	331.62
365.694	341.62
365.92	351.62
366.147	336.62
366.373	337.62
366.599	326.62
366.826	325.62
367.052	321.62
367.278	318.62
367.505	322.62
367.731	339.62
367.957	333.62
368.184	319.62
368.41	337.62
368.636	325.62
368.862	345.62
369.089	338.62
369.315	321.62
369.541	322.62
369.767	315.62
369.993	329.62
370.219	322.62
370.445	309.62
370.672	313.62
370.898	308.62
371.124	331.62
371.35	325.62
371.576	307.62
371.802	311.62
372.028	314.62
372.254	326.62
372.48	314.62
372.706	324.62
372.932	321.62
373.158	333.62
373.384	335.62
373.61	331.62
373.835	331.62
374.061	324.62
374.287	334.62
374.513	308.62
374.739	358.62
374.965	318.62
375.191	344.62
375.416	332.62
375.642	318.62
375.868	340.62
376.094	335.62
376.319	317.62
376.545	330.62
376.771	324.62
376.997	313.62
377.222	325.62
377.448	326.62
377.674	315.62
377.899	329.62
378.125	315.62
378.35	310.62
378.576	316.62
378.802	313.62
379.027	334.62
379.253	327.62
379.478	330.62
379.704	334.62
379.929	309.62
380.155	303.62
380.38	328.62
380.606	339.62
380.831	307.62
381.057	339.62
381.282	341.62
381.507	318.62
381.733	314.62
381.958	311.62
382.184	327.62
382.409	333.62
382.634	343.62
382.86	335.62
383.085	333.62
383.31	333.62
383.535	337.62
383.761	339.62
383.986	343.62
384.211	324.62
384.436	316.62
384.662	330.62
384.887	346.62
385.112	340.62
385.337	340.62
385.562	352.62
385.787	331.62
386.013	336.62
386.238	376.62
386.463	362.62
386.688	343.62
386.913	344.62
387.138	328.62
387.363	328.62
387.588	333.62
387.813	343.62
388.038	342.62
388.263	336.62
388.488	344.62
388.713	369.62
388.938	354.62
389.163	347.62
389.387	347.62
389.612	331.62
389.837	339.62
390.062	337.62
390.287	340.62
390.512	343.62
390.736	354.62
390.961	343.62
391.186	349.62
391.411	357.62
391.636	312.62
391.86	348.62
392.085	346.62
392.31	351.62
392.534	346.62
392.759	349.62
392.984	334.62
393.208	330.62
393.433	352.62
393.658	349.62
393.882	360.62
394.107	341.62
394.331	355.62
394.556	344.62
394.78	365.62
395.005	348.62
395.229	362.62
395.454	377.62
395.678	343.62
395.903	356.62
396.127	385.62
396.352	393.62
396.576	354.62
396.801	357.62
397.025	352.62
397.249	375.62
397.474	363.62
397.698	353.62
397.922	361.62
398.147	394.62
398.371	368.62
398.595	388.62
398.82	385.62
399.044	399.62
399.268	403.62
399.492	405.62
399.717	425.62
399.941	455.62
400.165	462.62
400.389	472.62
400.613	427.62
400.837	390.62
401.062	397.62
401.286	387.62
401.51	379.62
401.734	382.62
401.958	399.62
402.182	395.62
402.406	425.62
402.63	404.62
402.854	392.62
403.078	396.62
403.302	400.62
403.526	406.62
403.75	414.62
403.974	398.62
404.198	391.62
404.422	419.62
404.645	400.62
404.869	407.62
405.093	432.62
405.317	492.62
405.541	485.62
405.765	458.62
405.988	439.62
406.212	458.62
406.436	478.62
406.66	478.62
406.883	444.62
407.107	468.62
407.331	475.62
407.555	572.62
407.778	548.62
408.002	468.62
408.226	471.62
408.449	471.62
408.673	462.62
408.896	478.62
409.12	510.62
409.344	481.62
409.567	426.62
409.791	423.62
410.014	391.62
410.238	410.62
410.461	420.62
410.685	429.62
410.908	430.62
411.132	463.62
411.355	482.62
411.578	479.62
411.802	424.62
412.025	419.62
412.249	426.62
412.472	445.62
412.695	486.62
412.919	453.62
413.142	426.62
413.365	407.62
413.589	406.62
413.812	391.62
414.035	395.62
414.258	377.62
414.482	392.62
414.705	411.62
414.928	394.62
415.151	385.62
415.374	392.62
415.597	402.62
415.821	379.62
416.044	385.62
416.267	385.62
416.49	392.62
416.713	381.62
416.936	375.62
417.159	393.62
417.382	413.62
417.605	394.62
417.828	401.62
418.051	415.62
418.274	401.62
418.497	390.62
418.72	391.62
418.943	400.62
419.166	392.62
419.389	403.62
419.611	412.62
419.834	394.62
420.057	389.62
420.28	394.62
420.503	408.62
420.726	426.62
420.948	439.62
421.171	468.62
421.394	478.62
421.617	449.62
421.839	416.62
422.062	411.62
422.285	429.62
422.507	489.62
422.73	517.62
422.953	510.62
423.175	464.62
423.398	450.62
423.621	436.62
423.843	447.62
424.066	447.62
424.288	446.62
424.511	465.62
424.733	501.62
424.956	575.62
425.178	556.62
425.401	526.62
425.623	566.62
425.846	498.62
426.068	457.62
426.291	453.62
426.513	442.62
426.735	445.62
426.958	495.62
427.18	570.62
427.402	650.62
427.625	752.62
427.847	669.62
428.069	607.62
428.292	520.62
428.514	473.62
428.736	455.62
428.958	435.62
429.181	422.62
429.403	429.62
429.625	421.62
429.847	462.62
430.069	512.62
430.292	509.62
430.514	433.62
430.736	436.62
430.958	397.62
431.18	405.62
431.402	412.62
431.624	384.62
431.846	372.62
432.068	376.62
432.29	395.62
432.512	389.62
432.734	417.62
432.956	384.62
433.178	396.62
433.4	430.62
433.622	391.62
433.844	369.62
434.066	387.62
434.287	379.62
434.509	394.62
434.731	400.62
434.953	406.62
435.175	424.62
435.397	443.62
435.618	442.62
435.84	479.62
436.062	583.62
436.284	605.62
436.505	534.62
436.727	482.62
436.949	438.62
437.17	438.62
437.392	429.62
437.614	425.62
437.835	463.62
438.057	550.62
438.278	657.62
438.5	616.62
438.721	671.62
438.943	650.62
439.165	543.62
439.386	476.62
439.608	472.62
439.829	479.62
440.05	533.62
440.272	565.62
440.493	521.62
440.715	464.62
440.936	451.62
441.158	436.62
441.379	447.62
441.6	440.62
441.822	460.62
442.043	475.62
442.264	565.62
442.486	579.62
442.707	502.62
442.928	484.62
443.149	479.62
443.371	499.62
443.592	561.62
443.813	608.62
444.034	651.62
444.255	545.62
444.476	463.62
444.698	461.62
444.919	461.62
445.14	542.62
445.361	529.62
445.582	503.62
445.803	552.62
446.024	633.62
446.245	662.62
446.466	582.62
446.687	494.62
446.908	467.62
447.129	427.62
447.35	434.62
447.571	436.62
447.792	427.62
448.013	442.62
448.234	441.62
448.455	502.62
448.675	582.62
448.896	671.62
449.117	590.62
449.338	573.62
449.559	626.62
449.779	698.62
450	564.62
450.221	489.62
450.442	423.62
450.662	419.62
450.883	427.62
451.104	457.62
451.324	460.62
451.545	413.62
451.766	411.62
451.986	391.62
452.207	381.62
452.428	379.62
452.648	387.62
452.869	389.62
453.089	379.62
453.31	388.62
453.53	397.62
453.751	387.62
453.971	397.62
454.192	428.62
454.412	397.62
454.633	391.62
454.853	380.62
455.073	388.62
455.294	408.62
455.514	459.62
455.734	443.62
455.955	382.62
456.175	373.62
456.395	376.62
456.616	362.62
456.836	373.62
457.056	355.62
457.276	356.62
457.497	366.62
457.717	381.62
457.937	375.62
458.157	371.62
458.377	373.62
458.598	389.62
458.818	451.62
459.038	529.62
459.258	557.62
459.478	439.62
459.698	379.62
459.918	381.62
460.138	394.62
460.358	395.62
460.578	417.62
460.798	379.62
461.018	403.62
461.238	385.62
461.458	398.62
461.678	379.62
461.898	393.62
462.118	403.62
462.338	413.62
462.558	396.62
462.777	412.62
462.997	414.62
463.217	415.62
463.437	425.62
463.657	411.62
463.876	422.62
464.096	435.62
464.316	421.62
464.536	428.62
464.755	441.62
464.975	443.62
465.195	474.62
465.414	586.62
465.634	498.62
465.854	459.62
466.073	413.62
466.293	392.62
466.512	411.62
466.732	399.62
466.951	406.62
467.171	391.62
467.391	377.62
467.61	402.62
467.829	421.62
468.049	409.62
468.268	411.62
468.488	395.62
468.707	388.62
468.927	403.62
469.146	373.62
469.365	378.62
469.585	383.62
469.804	375.62
470.023	379.62
470.243	410.62
470.462	407.62
470.681	427.62
470.901	402.62
471.12	389.62
471.339	406.62
471.558	378.62
471.777	387.62
471.997	409.62
472.216	398.62
472.435	481.62
472.654	418.62
472.873	398.62
473.092	389.62
473.311	391.62
473.53	386.62
473.749	397.62
473.968	442.62
474.187	552.62
474.406	547.62
474.625	440.62
474.844	393.62
475.063	407.62
475.282	399.62
475.501	395.62
475.72	413.62
475.939	396.62
476.158	416.62
476.377	406.62
476.596	403.62
476.814	429.62
477.033	438.62
477.252	433.62
477.471	429.62
477.69	421.62
477.908	424.62
478.127	452.62
478.346	429.62
478.564	419.62
478.783	436.62
479.002	449.62
479.22	448.62
479.439	455.62
479.658	476.62
479.876	486.62
480.095	477.62
480.313	507.62
480.532	471.62
480.751	493.62
480.969	497.62
481.188	575.62
481.406	594.62
481.624	501.62
481.843	474.62
482.061	483.62
482.28	481.62
482.498	462.62
482.717	463.62
482.935	456.62
483.153	469.62
483.372	470.62
483.59	441.62
483.808	464.62
484.027	461.62
484.245	473.62
484.463	461.62
484.681	474.62
484.9	480.62
485.118	454.62
485.336	478.62
485.554	481.62
485.772	471.62
485.99	480.62
486.209	489.62
486.427	482.62
486.645	507.62
486.863	535.62
487.081	522.62
487.299	502.62
487.517	506.62
487.735	488.62
487.953	498.62
488.171	494.62
488.389	501.62
488.607	494.62
488.825	492.62
489.043	520.62
489.261	489.62
489.479	505.62
489.696	504.62
489.914	509.62
490.132	516.62
490.35	530.62
490.568	521.62
490.786	504.62
491.003	545.62
491.221	544.62
491.439	555.62
491.657	569.62
491.874	558.62
492.092	554.62
492.31	581.62
492.527	556.62
492.745	565.62
492.963	590.62
493.18	577.62
493.398	590.62
493.615	593.62
493.833	588.62
494.05	595.62
494.268	591.62
494.485	583.62
494.703	594.62
494.92	580.62
495.138	612.62
495.355	580.62
495.573	597.62
495.79	586.62
496.008	590.62
496.225	580.62
496.442	598.62
496.66	588.62
496.877	595.62
497.094	594.62
497.312	594.62
497.529	601.62
497.746	593.62
497.963	638.62
498.181	632.62
498.398	628.62
498.615	634.62
498.832	641.62
499.049	648.62
499.267	656.62
499.484	691.62
499.701	696.62
499.918	714.62
500.135	712.62
500.352	724.62
500.569	743.62
500.786	758.62
501.003	739.62
501.22	763.62
501.437	733.62
501.654	719.62
501.871	738.62
502.088	723.62
