Data from 1961.PennyLincolnUp.Lamp.En5.5.200Scan.071719.P1._HRD10591_13-49-25-058.txt Node
Date: Thu Jul 18 13:49:25 EDT 2019
User: cochatt
Spectrometer: HR+D1059
Trigger mode: 1
Integration Time (sec): 1.000000E-1
Scans to average: 1
Electric dark correction enabled: true
Nonlinearity correction enabled: false
Boxcar width: 0
XAxis mode: Wavelengths
Number of Pixels in Spectrum: 2048
>>>>>Begin Spectral Data<<<<<
223.165	-12.94
223.4	-12.94
223.635	-12.94
223.869	-12.94
224.104	-18.94
224.338	-21.94
224.573	-12.94
224.808	-4.94
225.042	-12.94
225.277	11.06
225.511	-13.94
225.746	0.06
225.98	19.06
226.215	-3.94
226.449	13.06
226.683	18.06
226.918	19.06
227.152	35.06
227.387	49.06
227.621	46.06
227.856	51.06
228.09	50.06
228.324	55.06
228.559	60.06
228.793	63.06
229.027	94.06
229.262	100.06
229.496	113.06
229.73	141.06
229.964	152.06
230.199	129.06
230.433	102.06
230.667	113.06
230.901	107.06
231.136	104.06
231.37	119.06
231.604	108.06
231.838	115.06
232.072	106.06
232.306	107.06
232.541	113.06
232.775	115.06
233.009	115.06
233.243	116.06
233.477	114.06
233.711	113.06
233.945	96.06
234.179	111.06
234.413	105.06
234.647	121.06
234.881	112.06
235.115	115.06
235.349	115.06
235.583	119.06
235.817	105.06
236.051	112.06
236.285	121.06
236.519	117.06
236.753	107.06
236.987	147.06
237.221	154.06
237.455	230.06
237.689	169.06
237.922	134.06
238.156	142.06
238.39	112.06
238.624	128.06
238.858	131.06
239.091	125.06
239.325	114.06
239.559	127.06
239.793	116.06
240.027	132.06
240.26	149.06
240.494	153.06
240.728	137.06
240.961	141.06
241.195	124.06
241.429	120.06
241.662	123.06
241.896	124.06
242.13	122.06
242.363	120.06
242.597	124.06
242.83	130.06
243.064	127.06
243.298	123.06
243.531	128.06
243.765	133.06
243.998	129.06
244.232	121.06
244.465	125.06
244.699	137.06
244.932	137.06
245.166	140.06
245.399	132.06
245.633	134.06
245.866	124.06
246.099	124.06
246.333	136.06
246.566	139.06
246.8	120.06
247.033	141.06
247.266	139.06
247.5	150.06
247.733	153.06
247.966	157.06
248.2	149.06
248.433	160.06
248.666	155.06
248.899	177.06
249.133	167.06
249.366	183.06
249.599	167.06
249.832	167.06
250.066	157.06
250.299	175.06
250.532	170.06
250.765	187.06
250.998	184.06
251.231	203.06
251.465	208.06
251.698	186.06
251.931	185.06
252.164	182.06
252.397	179.06
252.63	192.06
252.863	172.06
253.096	195.06
253.329	194.06
253.562	214.06
253.795	219.06
254.028	192.06
254.261	177.06
254.494	208.06
254.727	210.06
254.96	255.06
255.193	252.06
255.426	203.06
255.659	212.06
255.892	209.06
256.124	221.06
256.357	195.06
256.59	196.06
256.823	193.06
257.056	221.06
257.289	177.06
257.521	179.06
257.754	196.06
257.987	176.06
258.22	201.06
258.452	192.06
258.685	197.06
258.918	201.06
259.151	181.06
259.383	193.06
259.616	197.06
259.849	197.06
260.081	202.06
260.314	242.06
260.547	243.06
260.779	224.06
261.012	205.06
261.244	202.06
261.477	195.06
261.71	201.06
261.942	208.06
262.175	204.06
262.407	216.06
262.64	202.06
262.872	194.06
263.105	190.06
263.337	202.06
263.57	183.06
263.802	196.06
264.035	199.06
264.267	183.06
264.499	193.06
264.732	205.06
264.964	195.06
265.197	187.06
265.429	196.06
265.661	191.06
265.894	182.06
266.126	198.06
266.358	195.06
266.591	187.06
266.823	202.06
267.055	192.06
267.287	209.06
267.52	205.06
267.752	189.06
267.984	202.06
268.216	212.06
268.448	180.06
268.681	207.06
268.913	228.06
269.145	235.06
269.377	249.06
269.609	250.06
269.841	230.06
270.073	218.06
270.306	262.06
270.538	267.06
270.77	269.06
271.002	277.06
271.234	261.06
271.466	275.06
271.698	283.06
271.93	283.06
272.162	272.06
272.394	273.06
272.626	252.06
272.858	249.06
273.09	240.06
273.322	230.06
273.553	244.06
273.785	249.06
274.017	222.06
274.249	234.06
274.481	246.06
274.713	230.06
274.945	236.06
275.176	235.06
275.408	227.06
275.64	223.06
275.872	214.06
276.104	239.06
276.335	243.06
276.567	233.06
276.799	259.06
277.031	270.06
277.262	271.06
277.494	277.06
277.726	258.06
277.957	233.06
278.189	255.06
278.421	246.06
278.652	248.06
278.884	223.06
279.115	234.06
279.347	230.06
279.579	240.06
279.81	235.06
280.042	225.06
280.273	240.06
280.505	229.06
280.736	221.06
280.968	221.06
281.199	229.06
281.431	224.06
281.662	228.06
281.894	231.06
282.125	233.06
282.356	261.06
282.588	276.06
282.819	270.06
283.051	249.06
283.282	225.06
283.513	226.06
283.745	223.06
283.976	239.06
284.207	232.06
284.439	235.06
284.67	241.06
284.901	253.06
285.132	221.06
285.364	240.06
285.595	244.06
285.826	228.06
286.057	246.06
286.288	233.06
286.52	218.06
286.751	215.06
286.982	242.06
287.213	255.06
287.444	255.06
287.675	249.06
287.906	240.06
288.138	273.06
288.369	253.06
288.6	268.06
288.831	250.06
289.062	247.06
289.293	243.06
289.524	262.06
289.755	233.06
289.986	253.06
290.217	255.06
290.448	238.06
290.679	260.06
290.91	260.06
291.141	240.06
291.371	232.06
291.602	235.06
291.833	228.06
292.064	243.06
292.295	252.06
292.526	251.06
292.757	246.06
292.987	240.06
293.218	232.06
293.449	246.06
293.68	246.06
293.91	229.06
294.141	249.06
294.372	249.06
294.603	229.06
294.833	236.06
295.064	251.06
295.295	256.06
295.525	240.06
295.756	251.06
295.987	268.06
296.217	291.06
296.448	284.06
296.679	276.06
296.909	260.06
297.14	255.06
297.37	246.06
297.601	250.06
297.831	271.06
298.062	244.06
298.292	259.06
298.523	257.06
298.753	275.06
298.984	249.06
299.214	266.06
299.445	267.06
299.675	268.06
299.905	267.06
300.136	278.06
300.366	257.06
300.597	257.06
300.827	273.06
301.057	266.06
301.288	274.06
301.518	274.06
301.748	282.06
301.979	261.06
302.209	266.06
302.439	270.06
302.669	279.06
302.9	298.06
303.13	289.06
303.36	267.06
303.59	292.06
303.82	287.06
304.051	280.06
304.281	284.06
304.511	275.06
304.741	266.06
304.971	283.06
305.201	260.06
305.431	282.06
305.661	287.06
305.891	275.06
306.121	285.06
306.352	290.06
306.582	287.06
306.812	283.06
307.042	290.06
307.272	283.06
307.502	285.06
307.731	294.06
307.961	287.06
308.191	286.06
308.421	293.06
308.651	302.06
308.881	294.06
309.111	300.06
309.341	304.06
309.571	320.06
309.8	317.06
310.03	325.06
310.26	322.06
310.49	344.06
310.72	339.06
310.949	355.06
311.179	353.06
311.409	348.06
311.639	313.06
311.868	338.06
312.098	328.06
312.328	342.06
312.557	363.06
312.787	376.06
313.017	359.06
313.246	351.06
313.476	353.06
313.706	347.06
313.935	324.06
314.165	329.06
314.394	357.06
314.624	356.06
314.853	352.06
315.083	331.06
315.312	324.06
315.542	339.06
315.771	325.06
316.001	311.06
316.23	311.06
316.46	322.06
316.689	329.06
316.919	321.06
317.148	346.06
317.377	339.06
317.607	330.06
317.836	343.06
318.065	316.06
318.295	320.06
318.524	317.06
318.753	323.06
318.983	324.06
319.212	353.06
319.441	344.06
319.67	343.06
319.9	351.06
320.129	330.06
320.358	319.06
320.587	333.06
320.816	350.06
321.046	360.06
321.275	361.06
321.504	376.06
321.733	347.06
321.962	371.06
322.191	377.06
322.42	408.06
322.649	406.06
322.878	421.06
323.108	445.06
323.337	455.06
323.566	470.06
323.795	511.06
324.024	579.06
324.253	714.06
324.482	1096.06
324.71	1700.06
324.939	2419.06
325.168	1991.06
325.397	1023.06
325.626	654.06
325.855	569.06
326.084	507.06
326.313	488.06
326.542	506.06
326.77	564.06
326.999	665.06
327.228	967.06
327.457	1484.06
327.686	1721.06
327.914	1153.06
328.143	726.06
328.372	625.06
328.6	594.06
328.829	539.06
329.058	571.06
329.287	557.06
329.515	546.06
329.744	497.06
329.972	477.06
330.201	509.06
330.43	567.06
330.658	593.06
330.887	602.06
331.115	582.06
331.344	499.06
331.572	458.06
331.801	442.06
332.03	451.06
332.258	437.06
332.486	425.06
332.715	399.06
332.943	394.06
333.172	415.06
333.4	395.06
333.629	427.06
333.857	423.06
334.085	408.06
334.314	454.06
334.542	507.06
334.771	515.06
334.999	436.06
335.227	400.06
335.455	392.06
335.684	396.06
335.912	388.06
336.14	373.06
336.369	369.06
336.597	394.06
336.825	408.06
337.053	384.06
337.281	372.06
337.51	373.06
337.738	387.06
337.966	371.06
338.194	376.06
338.422	396.06
338.65	368.06
338.878	367.06
339.106	376.06
339.334	374.06
339.562	370.06
339.79	384.06
340.018	387.06
340.246	367.06
340.474	377.06
340.702	388.06
340.93	356.06
341.158	357.06
341.386	363.06
341.614	370.06
341.842	351.06
342.07	387.06
342.298	362.06
342.526	346.06
342.754	374.06
342.981	359.06
343.209	340.06
343.437	367.06
343.665	357.06
343.893	349.06
344.12	368.06
344.348	363.06
344.576	381.06
344.804	379.06
345.031	395.06
345.259	409.06
345.487	403.06
345.714	398.06
345.942	359.06
346.17	373.06
346.397	371.06
346.625	358.06
346.853	385.06
347.08	369.06
347.308	368.06
347.535	390.06
347.763	393.06
347.99	368.06
348.218	393.06
348.445	374.06
348.673	369.06
348.9	360.06
349.128	353.06
349.355	356.06
349.583	359.06
349.81	339.06
350.037	356.06
350.265	347.06
350.492	351.06
350.72	357.06
350.947	360.06
351.174	367.06
351.402	391.06
351.629	381.06
351.856	392.06
352.083	384.06
352.311	392.06
352.538	376.06
352.765	378.06
352.992	378.06
353.22	362.06
353.447	387.06
353.674	354.06
353.901	349.06
354.128	364.06
354.355	341.06
354.583	336.06
354.81	332.06
355.037	339.06
355.264	338.06
355.491	320.06
355.718	332.06
355.945	344.06
356.172	344.06
356.399	328.06
356.626	336.06
356.853	337.06
357.08	323.06
357.307	331.06
357.534	331.06
357.761	336.06
357.988	324.06
358.215	336.06
358.441	329.06
358.668	330.06
358.895	316.06
359.122	337.06
359.349	355.06
359.576	375.06
359.802	374.06
360.029	416.06
360.256	429.06
360.483	410.06
360.709	383.06
360.936	367.06
361.163	362.06
361.39	375.06
361.616	366.06
361.843	386.06
362.07	375.06
362.296	383.06
362.523	357.06
362.749	369.06
362.976	361.06
363.203	347.06
363.429	350.06
363.656	359.06
363.882	344.06
364.109	327.06
364.335	327.06
364.562	345.06
364.788	355.06
365.015	330.06
365.241	352.06
365.468	347.06
365.694	363.06
365.92	355.06
366.147	343.06
366.373	328.06
366.599	345.06
366.826	327.06
367.052	339.06
367.278	325.06
367.505	341.06
367.731	344.06
367.957	330.06
368.184	340.06
368.41	351.06
368.636	357.06
368.862	356.06
369.089	348.06
369.315	344.06
369.541	327.06
369.767	356.06
369.993	357.06
370.219	348.06
370.445	344.06
370.672	341.06
370.898	339.06
371.124	336.06
371.35	362.06
371.576	337.06
371.802	338.06
372.028	323.06
372.254	344.06
372.48	345.06
372.706	338.06
372.932	332.06
373.158	333.06
373.384	350.06
373.61	327.06
373.835	334.06
374.061	333.06
374.287	360.06
374.513	339.06
374.739	332.06
374.965	327.06
375.191	339.06
375.416	322.06
375.642	327.06
375.868	343.06
376.094	343.06
376.319	337.06
376.545	333.06
376.771	331.06
376.997	328.06
377.222	314.06
377.448	321.06
377.674	348.06
377.899	344.06
378.125	325.06
378.35	326.06
378.576	323.06
378.802	324.06
379.027	343.06
379.253	339.06
379.478	327.06
379.704	322.06
379.929	320.06
380.155	330.06
380.38	327.06
380.606	364.06
380.831	331.06
381.057	354.06
381.282	346.06
381.507	320.06
381.733	331.06
381.958	334.06
382.184	334.06
382.409	342.06
382.634	328.06
382.86	348.06
383.085	350.06
383.31	338.06
383.535	353.06
383.761	347.06
383.986	339.06
384.211	341.06
384.436	368.06
384.662	352.06
384.887	348.06
385.112	339.06
385.337	352.06
385.562	353.06
385.787	374.06
386.013	355.06
386.238	373.06
386.463	380.06
386.688	346.06
386.913	337.06
387.138	371.06
387.363	349.06
387.588	362.06
387.813	370.06
388.038	357.06
388.263	363.06
388.488	353.06
388.713	358.06
388.938	358.06
389.163	372.06
389.387	356.06
389.612	350.06
389.837	342.06
390.062	338.06
390.287	370.06
390.512	365.06
390.736	355.06
390.961	360.06
391.186	380.06
391.411	348.06
391.636	368.06
391.86	358.06
392.085	364.06
392.31	372.06
392.534	359.06
392.759	372.06
392.984	357.06
393.208	367.06
393.433	363.06
393.658	383.06
393.882	367.06
394.107	374.06
394.331	364.06
394.556	358.06
394.78	369.06
395.005	368.06
395.229	370.06
395.454	358.06
395.678	367.06
395.903	389.06
396.127	395.06
396.352	403.06
396.576	396.06
396.801	382.06
397.025	385.06
397.249	388.06
397.474	387.06
397.698	384.06
397.922	404.06
398.147	411.06
398.371	406.06
398.595	388.06
398.82	416.06
399.044	397.06
399.268	409.06
399.492	430.06
399.717	426.06
399.941	473.06
400.165	490.06
400.389	502.06
400.613	461.06
400.837	431.06
401.062	417.06
401.286	422.06
401.51	411.06
401.734	427.06
401.958	403.06
402.182	412.06
402.406	413.06
402.63	428.06
402.854	408.06
403.078	425.06
403.302	424.06
403.526	417.06
403.75	433.06
403.974	439.06
404.198	399.06
404.422	439.06
404.645	449.06
404.869	460.06
405.093	469.06
405.317	509.06
405.541	530.06
405.765	458.06
405.988	464.06
406.212	464.06
406.436	490.06
406.66	491.06
406.883	460.06
407.107	500.06
407.331	525.06
407.555	571.06
407.778	567.06
408.002	532.06
408.226	476.06
408.449	497.06
408.673	492.06
408.896	500.06
409.12	549.06
409.344	501.06
409.567	463.06
409.791	460.06
410.014	410.06
410.238	434.06
410.461	442.06
410.685	448.06
410.908	454.06
411.132	485.06
411.355	480.06
411.578	493.06
411.802	426.06
412.025	439.06
412.249	427.06
412.472	466.06
412.695	508.06
412.919	490.06
413.142	453.06
413.365	425.06
413.589	415.06
413.812	417.06
414.035	403.06
414.258	410.06
414.482	404.06
414.705	411.06
414.928	411.06
415.151	401.06
415.374	398.06
415.597	418.06
415.821	397.06
416.044	405.06
416.267	398.06
416.49	399.06
416.713	401.06
416.936	411.06
417.159	414.06
417.382	423.06
417.605	418.06
417.828	397.06
418.051	425.06
418.274	421.06
418.497	412.06
418.72	398.06
418.943	415.06
419.166	431.06
419.389	434.06
419.611	431.06
419.834	439.06
420.057	424.06
420.28	428.06
420.503	417.06
420.726	413.06
420.948	435.06
421.171	469.06
421.394	527.06
421.617	469.06
421.839	433.06
422.062	421.06
422.285	450.06
422.507	502.06
422.73	559.06
422.953	565.06
423.175	484.06
423.398	441.06
423.621	449.06
423.843	495.06
424.066	467.06
424.288	482.06
424.511	493.06
424.733	529.06
424.956	627.06
425.178	595.06
425.401	589.06
425.623	607.06
425.846	525.06
426.068	465.06
426.291	474.06
426.513	481.06
426.735	485.06
426.958	518.06
427.18	600.06
427.402	723.06
427.625	780.06
427.847	691.06
428.069	608.06
428.292	534.06
428.514	495.06
428.736	476.06
428.958	459.06
429.181	445.06
429.403	441.06
429.625	444.06
429.847	487.06
430.069	534.06
430.292	530.06
430.514	456.06
430.736	458.06
430.958	437.06
431.18	431.06
431.402	416.06
431.624	425.06
431.846	412.06
432.068	395.06
432.29	398.06
432.512	398.06
432.734	421.06
432.956	416.06
433.178	405.06
433.4	441.06
433.622	424.06
433.844	417.06
434.066	401.06
434.287	401.06
434.509	408.06
434.731	419.06
434.953	439.06
435.175	462.06
435.397	460.06
435.618	460.06
435.84	499.06
436.062	597.06
436.284	651.06
436.505	548.06
436.727	479.06
436.949	461.06
437.17	446.06
437.392	433.06
437.614	436.06
437.835	526.06
438.057	597.06
438.278	683.06
438.5	675.06
438.721	728.06
438.943	681.06
439.165	534.06
439.386	511.06
439.608	485.06
439.829	500.06
440.05	523.06
440.272	565.06
440.493	546.06
440.715	457.06
440.936	453.06
441.158	467.06
441.379	436.06
441.6	474.06
441.822	477.06
442.043	524.06
442.264	600.06
442.486	635.06
442.707	542.06
442.928	516.06
443.149	487.06
443.371	507.06
443.592	552.06
443.813	641.06
444.034	673.06
444.255	561.06
444.476	498.06
444.698	490.06
444.919	475.06
445.14	585.06
445.361	556.06
445.582	529.06
445.803	598.06
446.024	683.06
446.245	727.06
446.466	639.06
446.687	546.06
446.908	489.06
447.129	461.06
447.35	454.06
447.571	472.06
447.792	452.06
448.013	462.06
448.234	467.06
448.455	540.06
448.675	627.06
448.896	707.06
449.117	599.06
449.338	593.06
449.559	668.06
449.779	736.06
450	601.06
450.221	513.06
450.442	463.06
450.662	463.06
450.883	458.06
451.104	467.06
451.324	465.06
451.545	416.06
451.766	414.06
451.986	408.06
452.207	418.06
452.428	397.06
452.648	404.06
452.869	409.06
453.089	422.06
453.31	425.06
453.53	420.06
453.751	406.06
453.971	433.06
454.192	434.06
454.412	417.06
454.633	407.06
454.853	374.06
455.073	409.06
455.294	426.06
455.514	494.06
455.734	473.06
455.955	407.06
456.175	396.06
456.395	377.06
456.616	369.06
456.836	393.06
457.056	395.06
457.276	376.06
457.497	363.06
457.717	383.06
457.937	380.06
458.157	384.06
458.377	396.06
458.598	422.06
458.818	482.06
459.038	565.06
459.258	580.06
459.478	492.06
459.698	434.06
459.918	415.06
460.138	414.06
460.358	410.06
460.578	423.06
460.798	421.06
461.018	431.06
461.238	423.06
461.458	409.06
461.678	405.06
461.898	423.06
462.118	409.06
462.338	420.06
462.558	427.06
462.777	407.06
462.997	434.06
463.217	453.06
463.437	450.06
463.657	437.06
463.876	444.06
464.096	426.06
464.316	418.06
464.536	435.06
464.755	452.06
464.975	447.06
465.195	504.06
465.414	561.06
465.634	504.06
465.854	467.06
466.073	454.06
466.293	421.06
466.512	405.06
466.732	378.06
466.951	387.06
467.171	401.06
467.391	413.06
467.61	424.06
467.829	434.06
468.049	449.06
468.268	444.06
468.488	410.06
468.707	380.06
468.927	404.06
469.146	400.06
469.365	391.06
469.585	379.06
469.804	412.06
470.023	423.06
470.243	418.06
470.462	412.06
470.681	441.06
470.901	439.06
471.12	418.06
471.339	435.06
471.558	423.06
471.777	410.06
471.997	427.06
472.216	434.06
472.435	465.06
472.654	445.06
472.873	429.06
473.092	415.06
473.311	417.06
473.53	422.06
473.749	441.06
473.968	481.06
474.187	565.06
474.406	585.06
474.625	484.06
474.844	445.06
475.063	435.06
475.282	401.06
475.501	419.06
475.72	419.06
475.939	412.06
476.158	438.06
476.377	421.06
476.596	439.06
476.814	446.06
477.033	452.06
477.252	456.06
477.471	441.06
477.69	425.06
477.908	444.06
478.127	466.06
478.346	447.06
478.564	458.06
478.783	447.06
479.002	466.06
479.22	463.06
479.439	462.06
479.658	483.06
479.876	505.06
480.095	523.06
480.313	519.06
480.532	505.06
480.751	495.06
480.969	530.06
481.188	590.06
481.406	633.06
481.624	564.06
481.843	500.06
482.061	491.06
482.28	486.06
482.498	479.06
482.717	456.06
482.935	485.06
483.153	484.06
483.372	483.06
483.59	498.06
483.808	485.06
484.027	479.06
484.245	483.06
484.463	486.06
484.681	499.06
484.9	499.06
485.118	513.06
485.336	477.06
485.554	492.06
485.772	501.06
485.99	507.06
486.209	517.06
486.427	524.06
486.645	524.06
486.863	540.06
487.081	538.06
487.299	537.06
487.517	520.06
487.735	520.06
487.953	509.06
488.171	507.06
488.389	511.06
488.607	538.06
488.825	549.06
489.043	503.06
489.261	520.06
489.479	537.06
489.696	562.06
489.914	543.06
490.132	546.06
490.35	548.06
490.568	538.06
490.786	560.06
491.003	579.06
491.221	569.06
491.439	560.06
491.657	584.06
491.874	594.06
492.092	584.06
492.31	589.06
492.527	596.06
492.745	613.06
492.963	597.06
493.18	581.06
493.398	631.06
493.615	614.06
493.833	633.06
494.05	637.06
494.268	614.06
494.485	645.06
494.703	620.06
494.92	619.06
495.138	623.06
495.355	639.06
495.573	605.06
495.79	614.06
496.008	646.06
496.225	609.06
496.442	629.06
496.66	625.06
496.877	640.06
497.094	616.06
497.312	653.06
497.529	647.06
497.746	648.06
497.963	641.06
498.181	689.06
498.398	669.06
498.615	676.06
498.832	684.06
499.049	678.06
499.267	675.06
499.484	692.06
499.701	732.06
499.918	740.06
500.135	740.06
500.352	784.06
500.569	783.06
500.786	777.06
501.003	793.06
501.22	780.06
501.437	771.06
501.654	763.06
501.871	735.06
