Data from 1961.PennyLincolnUp.Lamp.En5.5.200Scan.071719.P1._HRD10591_13-48-16-057.txt Node
Date: Thu Jul 18 13:48:16 EDT 2019
User: cochatt
Spectrometer: HR+D1059
Trigger mode: 1
Integration Time (sec): 1.000000E-1
Scans to average: 1
Electric dark correction enabled: true
Nonlinearity correction enabled: false
Boxcar width: 0
XAxis mode: Wavelengths
Number of Pixels in Spectrum: 2048
>>>>>Begin Spectral Data<<<<<
223.165	-6.44
223.4	-6.44
223.635	-6.44
223.869	-21.44
224.104	-32.44
224.338	-2.44
224.573	-14.44
224.808	-1.44
225.042	-16.44
225.277	-4.44
225.511	1.56
225.746	-7.44
225.98	10.56
226.215	11.56
226.449	13.56
226.683	10.56
226.918	28.56
227.152	30.56
227.387	27.56
227.621	51.56
227.856	49.56
228.09	52.56
228.324	54.56
228.559	64.56
228.793	68.56
229.027	83.56
229.262	115.56
229.496	115.56
229.73	111.56
229.964	133.56
230.199	123.56
230.433	110.56
230.667	117.56
230.901	108.56
231.136	99.56
231.37	103.56
231.604	101.56
231.838	99.56
232.072	102.56
232.306	111.56
232.541	106.56
232.775	101.56
233.009	111.56
233.243	107.56
233.477	103.56
233.711	107.56
233.945	99.56
234.179	109.56
234.413	101.56
234.647	114.56
234.881	107.56
235.115	115.56
235.349	119.56
235.583	116.56
235.817	113.56
236.051	121.56
236.285	120.56
236.519	115.56
236.753	121.56
236.987	121.56
237.221	172.56
237.455	197.56
237.689	163.56
237.922	124.56
238.156	121.56
238.39	121.56
238.624	120.56
238.858	116.56
239.091	123.56
239.325	119.56
239.559	121.56
239.793	120.56
240.027	112.56
240.26	131.56
240.494	159.56
240.728	135.56
240.961	144.56
241.195	130.56
241.429	127.56
241.662	105.56
241.896	115.56
242.13	115.56
242.363	129.56
242.597	124.56
242.83	125.56
243.064	117.56
243.298	119.56
243.531	118.56
243.765	128.56
243.998	124.56
244.232	130.56
244.465	128.56
244.699	106.56
244.932	132.56
245.166	138.56
245.399	124.56
245.633	138.56
245.866	129.56
246.099	137.56
246.333	120.56
246.566	136.56
246.8	144.56
247.033	122.56
247.266	148.56
247.5	149.56
247.733	157.56
247.966	153.56
248.2	141.56
248.433	147.56
248.666	153.56
248.899	155.56
249.133	181.56
249.366	170.56
249.599	163.56
249.832	161.56
250.066	166.56
250.299	156.56
250.532	189.56
250.765	178.56
250.998	183.56
251.231	173.56
251.465	168.56
251.698	174.56
251.931	160.56
252.164	160.56
252.397	164.56
252.63	172.56
252.863	170.56
253.096	164.56
253.329	186.56
253.562	165.56
253.795	176.56
254.028	179.56
254.261	193.56
254.494	190.56
254.727	198.56
254.96	235.56
255.193	228.56
255.426	205.56
255.659	210.56
255.892	196.56
256.124	198.56
256.357	187.56
256.59	179.56
256.823	193.56
257.056	197.56
257.289	185.56
257.521	168.56
257.754	183.56
257.987	166.56
258.22	179.56
258.452	181.56
258.685	174.56
258.918	186.56
259.151	177.56
259.383	181.56
259.616	191.56
259.849	202.56
260.081	198.56
260.314	205.56
260.547	217.56
260.779	211.56
261.012	206.56
261.244	188.56
261.477	181.56
261.71	180.56
261.942	201.56
262.175	218.56
262.407	206.56
262.64	184.56
262.872	172.56
263.105	177.56
263.337	181.56
263.57	175.56
263.802	183.56
264.035	175.56
264.267	171.56
264.499	187.56
264.732	198.56
264.964	186.56
265.197	174.56
265.429	173.56
265.661	170.56
265.894	191.56
266.126	165.56
266.358	181.56
266.591	188.56
266.823	170.56
267.055	179.56
267.287	177.56
267.52	188.56
267.752	170.56
267.984	190.56
268.216	208.56
268.448	203.56
268.681	213.56
268.913	211.56
269.145	216.56
269.377	244.56
269.609	210.56
269.841	220.56
270.073	229.56
270.306	233.56
270.538	244.56
270.77	252.56
271.002	233.56
271.234	241.56
271.466	268.56
271.698	265.56
271.93	263.56
272.162	257.56
272.394	257.56
272.626	258.56
272.858	239.56
273.09	253.56
273.322	222.56
273.553	215.56
273.785	229.56
274.017	213.56
274.249	225.56
274.481	230.56
274.713	204.56
274.945	202.56
275.176	217.56
275.408	207.56
275.64	224.56
275.872	222.56
276.104	219.56
276.335	211.56
276.567	228.56
276.799	233.56
277.031	268.56
277.262	254.56
277.494	254.56
277.726	238.56
277.957	250.56
278.189	245.56
278.421	222.56
278.652	229.56
278.884	223.56
279.115	229.56
279.347	211.56
279.579	230.56
279.81	199.56
280.042	206.56
280.273	222.56
280.505	221.56
280.736	225.56
280.968	225.56
281.199	213.56
281.431	219.56
281.662	221.56
281.894	215.56
282.125	219.56
282.356	228.56
282.588	267.56
282.819	275.56
283.051	233.56
283.282	213.56
283.513	243.56
283.745	217.56
283.976	224.56
284.207	211.56
284.439	246.56
284.67	213.56
284.901	235.56
285.132	207.56
285.364	221.56
285.595	230.56
285.826	214.56
286.057	220.56
286.288	219.56
286.52	220.56
286.751	229.56
286.982	209.56
287.213	227.56
287.444	230.56
287.675	234.56
287.906	242.56
288.138	232.56
288.369	246.56
288.6	237.56
288.831	239.56
289.062	238.56
289.293	235.56
289.524	226.56
289.755	232.56
289.986	229.56
290.217	229.56
290.448	237.56
290.679	219.56
290.91	236.56
291.141	219.56
291.371	233.56
291.602	230.56
291.833	229.56
292.064	227.56
292.295	226.56
292.526	229.56
292.757	245.56
292.987	229.56
293.218	230.56
293.449	219.56
293.68	236.56
293.91	241.56
294.141	208.56
294.372	228.56
294.603	223.56
294.833	236.56
295.064	235.56
295.295	245.56
295.525	234.56
295.756	245.56
295.987	247.56
296.217	271.56
296.448	271.56
296.679	267.56
296.909	233.56
297.14	244.56
297.37	254.56
297.601	228.56
297.831	257.56
298.062	233.56
298.292	232.56
298.523	242.56
298.753	238.56
298.984	235.56
299.214	238.56
299.445	243.56
299.675	237.56
299.905	247.56
300.136	255.56
300.366	247.56
300.597	251.56
300.827	250.56
301.057	246.56
301.288	254.56
301.518	268.56
301.748	242.56
301.979	263.56
302.209	264.56
302.439	275.56
302.669	269.56
302.9	252.56
303.13	246.56
303.36	255.56
303.59	275.56
303.82	265.56
304.051	277.56
304.281	264.56
304.511	255.56
304.741	246.56
304.971	245.56
305.201	260.56
305.431	263.56
305.661	268.56
305.891	269.56
306.121	273.56
306.352	253.56
306.582	289.56
306.812	266.56
307.042	270.56
307.272	268.56
307.502	269.56
307.731	270.56
307.961	266.56
308.191	242.56
308.421	273.56
308.651	271.56
308.881	261.56
309.111	276.56
309.341	279.56
309.571	276.56
309.8	320.56
310.03	301.56
310.26	290.56
310.49	316.56
310.72	333.56
310.949	319.56
311.179	339.56
311.409	322.56
311.639	295.56
311.868	315.56
312.098	320.56
312.328	334.56
312.557	321.56
312.787	350.56
313.017	331.56
313.246	313.56
313.476	302.56
313.706	307.56
313.935	297.56
314.165	334.56
314.394	341.56
314.624	341.56
314.853	314.56
315.083	312.56
315.312	317.56
315.542	280.56
315.771	286.56
316.001	281.56
316.23	292.56
316.46	298.56
316.689	316.56
316.919	302.56
317.148	309.56
317.377	316.56
317.607	332.56
317.836	315.56
318.065	313.56
318.295	302.56
318.524	318.56
318.753	300.56
318.983	302.56
319.212	299.56
319.441	320.56
319.67	326.56
319.9	316.56
320.129	319.56
320.358	315.56
320.587	335.56
320.816	322.56
321.046	339.56
321.275	329.56
321.504	349.56
321.733	350.56
321.962	348.56
322.191	355.56
322.42	379.56
322.649	390.56
322.878	399.56
323.108	417.56
323.337	425.56
323.566	454.56
323.795	456.56
324.024	528.56
324.253	674.56
324.482	1009.56
324.71	1535.56
324.939	2138.56
325.168	1793.56
325.397	939.56
325.626	632.56
325.855	520.56
326.084	461.56
326.313	442.56
326.542	472.56
326.77	521.56
326.999	637.56
327.228	897.56
327.457	1321.56
327.686	1569.56
327.914	1027.56
328.143	687.56
328.372	617.56
328.6	541.56
328.829	517.56
329.058	528.56
329.287	516.56
329.515	483.56
329.744	438.56
329.972	448.56
330.201	483.56
330.43	527.56
330.658	557.56
330.887	554.56
331.115	531.56
331.344	461.56
331.572	403.56
331.801	435.56
332.03	414.56
332.258	413.56
332.486	398.56
332.715	369.56
332.943	359.56
333.172	358.56
333.4	370.56
333.629	384.56
333.857	399.56
334.085	419.56
334.314	430.56
334.542	474.56
334.771	464.56
334.999	443.56
335.227	390.56
335.455	377.56
335.684	362.56
335.912	349.56
336.14	364.56
336.369	354.56
336.597	356.56
336.825	362.56
337.053	361.56
337.281	377.56
337.51	368.56
337.738	371.56
337.966	343.56
338.194	369.56
338.422	360.56
338.65	364.56
338.878	333.56
339.106	339.56
339.334	347.56
339.562	332.56
339.79	356.56
340.018	340.56
340.246	363.56
340.474	352.56
340.702	369.56
340.93	349.56
341.158	348.56
341.386	369.56
341.614	348.56
341.842	342.56
342.07	355.56
342.298	321.56
342.526	335.56
342.754	340.56
342.981	326.56
343.209	355.56
343.437	334.56
343.665	344.56
343.893	325.56
344.12	345.56
344.348	361.56
344.576	358.56
344.804	357.56
345.031	331.56
345.259	382.56
345.487	369.56
345.714	363.56
345.942	348.56
346.17	348.56
346.397	330.56
346.625	334.56
346.853	346.56
347.08	327.56
347.308	371.56
347.535	366.56
347.763	352.56
347.99	339.56
348.218	358.56
348.445	379.56
348.673	354.56
348.9	333.56
349.128	337.56
349.355	329.56
349.583	321.56
349.81	341.56
350.037	325.56
350.265	337.56
350.492	317.56
350.72	325.56
350.947	350.56
351.174	351.56
351.402	375.56
351.629	359.56
351.856	353.56
352.083	353.56
352.311	362.56
352.538	363.56
352.765	380.56
352.992	346.56
353.22	348.56
353.447	358.56
353.674	330.56
353.901	321.56
354.128	285.56
354.355	323.56
354.583	311.56
354.81	313.56
355.037	323.56
355.264	323.56
355.491	310.56
355.718	306.56
355.945	290.56
356.172	309.56
356.399	321.56
356.626	319.56
356.853	299.56
357.08	307.56
357.307	331.56
357.534	304.56
357.761	331.56
357.988	302.56
358.215	297.56
358.441	318.56
358.668	322.56
358.895	324.56
359.122	329.56
359.349	344.56
359.576	355.56
359.802	389.56
360.029	395.56
360.256	408.56
360.483	375.56
360.709	341.56
360.936	350.56
361.163	361.56
361.39	344.56
361.616	354.56
361.843	339.56
362.07	328.56
362.296	335.56
362.523	342.56
362.749	349.56
362.976	339.56
363.203	325.56
363.429	315.56
363.656	343.56
363.882	321.56
364.109	330.56
364.335	318.56
364.562	339.56
364.788	301.56
365.015	330.56
365.241	315.56
365.468	321.56
365.694	329.56
365.92	350.56
366.147	322.56
366.373	338.56
366.599	307.56
366.826	319.56
367.052	316.56
367.278	332.56
367.505	318.56
367.731	313.56
367.957	329.56
368.184	325.56
368.41	333.56
368.636	334.56
368.862	335.56
369.089	341.56
369.315	326.56
369.541	319.56
369.767	321.56
369.993	322.56
370.219	325.56
370.445	314.56
370.672	310.56
370.898	325.56
371.124	307.56
371.35	317.56
371.576	305.56
371.802	294.56
372.028	312.56
372.254	328.56
372.48	303.56
372.706	306.56
372.932	307.56
373.158	323.56
373.384	314.56
373.61	307.56
373.835	311.56
374.061	316.56
374.287	327.56
374.513	315.56
374.739	313.56
374.965	316.56
375.191	300.56
375.416	328.56
375.642	321.56
375.868	311.56
376.094	316.56
376.319	300.56
376.545	307.56
376.771	309.56
376.997	326.56
377.222	313.56
377.448	308.56
377.674	277.56
377.899	299.56
378.125	298.56
378.35	310.56
378.576	311.56
378.802	314.56
379.027	313.56
379.253	302.56
379.478	305.56
379.704	315.56
379.929	322.56
380.155	326.56
380.38	330.56
380.606	322.56
380.831	302.56
381.057	319.56
381.282	319.56
381.507	310.56
381.733	310.56
381.958	305.56
382.184	317.56
382.409	325.56
382.634	325.56
382.86	320.56
383.085	315.56
383.31	328.56
383.535	323.56
383.761	308.56
383.986	310.56
384.211	322.56
384.436	330.56
384.662	325.56
384.887	331.56
385.112	331.56
385.337	318.56
385.562	334.56
385.787	341.56
386.013	343.56
386.238	347.56
386.463	344.56
386.688	335.56
386.913	345.56
387.138	341.56
387.363	356.56
387.588	326.56
387.813	351.56
388.038	325.56
388.263	331.56
388.488	337.56
388.713	311.56
388.938	334.56
389.163	337.56
389.387	313.56
389.612	341.56
389.837	341.56
390.062	330.56
390.287	343.56
390.512	311.56
390.736	339.56
390.961	363.56
391.186	335.56
391.411	343.56
391.636	326.56
391.86	320.56
392.085	323.56
392.31	335.56
392.534	334.56
392.759	330.56
392.984	341.56
393.208	343.56
393.433	355.56
393.658	342.56
393.882	339.56
394.107	345.56
394.331	340.56
394.556	328.56
394.78	345.56
395.005	335.56
395.229	345.56
395.454	349.56
395.678	350.56
395.903	360.56
396.127	374.56
396.352	364.56
396.576	363.56
396.801	339.56
397.025	340.56
397.249	358.56
397.474	350.56
397.698	372.56
397.922	381.56
398.147	377.56
398.371	374.56
398.595	387.56
398.82	375.56
399.044	369.56
399.268	370.56
399.492	390.56
399.717	406.56
399.941	447.56
400.165	440.56
400.389	455.56
400.613	436.56
400.837	395.56
401.062	410.56
401.286	400.56
401.51	385.56
401.734	381.56
401.958	361.56
402.182	381.56
402.406	413.56
402.63	400.56
402.854	395.56
403.078	399.56
403.302	380.56
403.526	405.56
403.75	393.56
403.974	399.56
404.198	398.56
404.422	409.56
404.645	407.56
404.869	405.56
405.093	419.56
405.317	480.56
405.541	483.56
405.765	468.56
405.988	425.56
406.212	442.56
406.436	463.56
406.66	461.56
406.883	472.56
407.107	459.56
407.331	492.56
407.555	541.56
407.778	520.56
408.002	481.56
408.226	444.56
408.449	426.56
408.673	434.56
408.896	492.56
409.12	492.56
409.344	443.56
409.567	430.56
409.791	397.56
410.014	414.56
410.238	402.56
410.461	405.56
410.685	407.56
410.908	424.56
411.132	460.56
411.355	449.56
411.578	455.56
411.802	422.56
412.025	405.56
412.249	397.56
412.472	435.56
412.695	450.56
412.919	440.56
413.142	414.56
413.365	408.56
413.589	398.56
413.812	399.56
414.035	390.56
414.258	364.56
414.482	375.56
414.705	383.56
414.928	372.56
415.151	399.56
415.374	385.56
415.597	375.56
415.821	370.56
416.044	363.56
416.267	389.56
416.49	373.56
416.713	388.56
416.936	377.56
417.159	375.56
417.382	377.56
417.605	378.56
417.828	407.56
418.051	405.56
418.274	380.56
418.497	367.56
418.72	385.56
418.943	383.56
419.166	387.56
419.389	401.56
419.611	403.56
419.834	389.56
420.057	397.56
420.28	388.56
420.503	405.56
420.726	416.56
420.948	425.56
421.171	437.56
421.394	461.56
421.617	427.56
421.839	392.56
422.062	402.56
422.285	415.56
422.507	462.56
422.73	511.56
422.953	471.56
423.175	419.56
423.398	399.56
423.621	415.56
423.843	444.56
424.066	426.56
424.288	435.56
424.511	462.56
424.733	487.56
424.956	550.56
425.178	526.56
425.401	526.56
425.623	564.56
425.846	474.56
426.068	441.56
426.291	449.56
426.513	439.56
426.735	440.56
426.958	484.56
427.18	537.56
427.402	659.56
427.625	736.56
427.847	656.56
428.069	587.56
428.292	493.56
428.514	452.56
428.736	443.56
428.958	414.56
429.181	417.56
429.403	387.56
429.625	403.56
429.847	447.56
430.069	490.56
430.292	485.56
430.514	446.56
430.736	415.56
430.958	421.56
431.18	385.56
431.402	383.56
431.624	370.56
431.846	371.56
432.068	377.56
432.29	373.56
432.512	393.56
432.734	380.56
432.956	397.56
433.178	409.56
433.4	393.56
433.622	390.56
433.844	374.56
434.066	372.56
434.287	367.56
434.509	398.56
434.731	413.56
434.953	399.56
435.175	411.56
435.397	437.56
435.618	441.56
435.84	482.56
436.062	576.56
436.284	630.56
436.505	526.56
436.727	472.56
436.949	439.56
437.17	409.56
437.392	418.56
437.614	431.56
437.835	466.56
438.057	548.56
438.278	638.56
438.5	626.56
438.721	668.56
438.943	639.56
439.165	535.56
439.386	466.56
439.608	461.56
439.829	449.56
440.05	488.56
440.272	533.56
440.493	501.56
440.715	465.56
440.936	439.56
441.158	414.56
441.379	442.56
441.6	443.56
441.822	443.56
442.043	474.56
442.264	536.56
442.486	573.56
442.707	486.56
442.928	451.56
443.149	465.56
443.371	482.56
443.592	510.56
443.813	593.56
444.034	607.56
444.255	517.56
444.476	449.56
444.698	438.56
444.919	435.56
445.14	558.56
445.361	498.56
445.582	499.56
445.803	558.56
446.024	631.56
446.245	605.56
446.466	595.56
446.687	503.56
446.908	450.56
447.129	429.56
447.35	425.56
447.571	425.56
447.792	427.56
448.013	422.56
448.234	440.56
448.455	477.56
448.675	595.56
448.896	631.56
449.117	567.56
449.338	543.56
449.559	641.56
449.779	701.56
450	581.56
450.221	468.56
450.442	429.56
450.662	409.56
450.883	445.56
451.104	438.56
451.324	423.56
451.545	406.56
451.766	388.56
451.986	370.56
452.207	379.56
452.428	371.56
452.648	360.56
452.869	358.56
453.089	389.56
453.31	390.56
453.53	393.56
453.751	370.56
453.971	389.56
454.192	419.56
454.412	389.56
454.633	364.56
454.853	382.56
455.073	375.56
455.294	405.56
455.514	451.56
455.734	427.56
455.955	381.56
456.175	361.56
456.395	333.56
456.616	359.56
456.836	337.56
457.056	330.56
457.276	334.56
457.497	365.56
457.717	348.56
457.937	371.56
458.157	375.56
458.377	353.56
458.598	377.56
458.818	446.56
459.038	517.56
459.258	512.56
459.478	435.56
459.698	406.56
459.918	407.56
460.138	374.56
460.358	398.56
460.578	394.56
460.798	368.56
461.018	381.56
461.238	382.56
461.458	394.56
461.678	365.56
461.898	385.56
462.118	386.56
462.338	404.56
462.558	383.56
462.777	411.56
462.997	394.56
463.217	410.56
463.437	413.56
463.657	391.56
463.876	410.56
464.096	431.56
464.316	387.56
464.536	394.56
464.755	431.56
464.975	429.56
465.195	455.56
465.414	548.56
465.634	490.56
465.854	448.56
466.073	426.56
466.293	416.56
466.512	401.56
466.732	372.56
466.951	385.56
467.171	391.56
467.391	398.56
467.61	405.56
467.829	404.56
468.049	414.56
468.268	418.56
468.488	388.56
468.707	372.56
468.927	371.56
469.146	385.56
469.365	375.56
469.585	369.56
469.804	369.56
470.023	397.56
470.243	393.56
470.462	403.56
470.681	393.56
470.901	395.56
471.12	393.56
471.339	392.56
471.558	402.56
471.777	391.56
471.997	390.56
472.216	401.56
472.435	421.56
472.654	427.56
472.873	415.56
473.092	384.56
473.311	391.56
473.53	381.56
473.749	418.56
473.968	434.56
474.187	527.56
474.406	531.56
474.625	441.56
474.844	417.56
475.063	396.56
475.282	397.56
475.501	394.56
475.72	421.56
475.939	406.56
476.158	391.56
476.377	414.56
476.596	375.56
476.814	405.56
477.033	415.56
477.252	418.56
477.471	400.56
477.69	392.56
477.908	408.56
478.127	402.56
478.346	428.56
478.564	411.56
478.783	423.56
479.002	435.56
479.22	449.56
479.439	466.56
479.658	454.56
479.876	463.56
480.095	459.56
480.313	471.56
480.532	473.56
480.751	476.56
480.969	488.56
481.188	545.56
481.406	582.56
481.624	502.56
481.843	482.56
482.061	466.56
482.28	467.56
482.498	445.56
482.717	480.56
482.935	456.56
483.153	464.56
483.372	443.56
483.59	449.56
483.808	441.56
484.027	462.56
484.245	446.56
484.463	456.56
484.681	458.56
484.9	465.56
485.118	460.56
485.336	451.56
485.554	459.56
485.772	463.56
485.99	465.56
486.209	469.56
486.427	465.56
486.645	457.56
486.863	513.56
487.081	501.56
487.299	503.56
487.517	490.56
487.735	478.56
487.953	498.56
488.171	492.56
488.389	476.56
488.607	490.56
488.825	492.56
489.043	489.56
489.261	488.56
489.479	490.56
489.696	504.56
489.914	498.56
490.132	522.56
490.35	492.56
490.568	520.56
490.786	524.56
491.003	522.56
491.221	563.56
491.439	535.56
491.657	557.56
491.874	569.56
492.092	561.56
492.31	575.56
492.527	540.56
492.745	562.56
492.963	569.56
493.18	564.56
493.398	558.56
493.615	554.56
493.833	574.56
494.05	563.56
494.268	576.56
494.485	551.56
494.703	576.56
494.92	570.56
495.138	575.56
495.355	581.56
495.573	591.56
495.79	551.56
496.008	598.56
496.225	578.56
496.442	591.56
496.66	586.56
496.877	561.56
497.094	568.56
497.312	597.56
497.529	603.56
497.746	591.56
497.963	607.56
498.181	632.56
498.398	629.56
498.615	625.56
498.832	629.56
499.049	639.56
499.267	649.56
499.484	656.56
499.701	685.56
499.918	684.56
500.135	701.56
500.352	705.56
500.569	719.56
500.786	746.56
501.003	718.56
501.22	707.56
501.437	716.56
501.654	714.56
501.871	698.56
502.088	704.56
