Data from 1961.PennyLincolnUp.Lamp.En5.5.200Scan.071719.P1._HRD10591_13-46-53-057.txt Node
Date: Thu Jul 18 13:46:53 EDT 2019
User: cochatt
Spectrometer: HR+D1059
Trigger mode: 1
Integration Time (sec): 1.000000E-1
Scans to average: 1
Electric dark correction enabled: true
Nonlinearity correction enabled: false
Boxcar width: 0
XAxis mode: Wavelengths
Number of Pixels in Spectrum: 2048
>>>>>Begin Spectral Data<<<<<
223.165	-7.25
223.4	-7.25
223.635	-7.25
223.869	-10.25
224.104	-14.25
224.338	-9.25
224.573	-16.25
224.808	-14.25
225.042	5.75
225.277	-14.25
225.511	-10.25
225.746	3.75
225.98	5.75
226.215	4.75
226.449	6.75
226.683	12.75
226.918	29.75
227.152	26.75
227.387	34.75
227.621	31.75
227.856	34.75
228.09	41.75
228.324	57.75
228.559	54.75
228.793	61.75
229.027	74.75
229.262	89.75
229.496	86.75
229.73	120.75
229.964	137.75
230.199	105.75
230.433	103.75
230.667	105.75
230.901	100.75
231.136	121.75
231.37	97.75
231.604	94.75
231.838	96.75
232.072	110.75
232.306	93.75
232.541	103.75
232.775	102.75
233.009	101.75
233.243	113.75
233.477	100.75
233.711	86.75
233.945	103.75
234.179	104.75
234.413	117.75
234.647	96.75
234.881	110.75
235.115	105.75
235.349	102.75
235.583	112.75
235.817	103.75
236.051	110.75
236.285	114.75
236.519	116.75
236.753	108.75
236.987	130.75
237.221	164.75
237.455	196.75
237.689	151.75
237.922	112.75
238.156	113.75
238.39	119.75
238.624	106.75
238.858	113.75
239.091	113.75
239.325	108.75
239.559	105.75
239.793	112.75
240.027	109.75
240.26	122.75
240.494	125.75
240.728	134.75
240.961	123.75
241.195	119.75
241.429	118.75
241.662	124.75
241.896	109.75
242.13	110.75
242.363	112.75
242.597	100.75
242.83	119.75
243.064	115.75
243.298	125.75
243.531	113.75
243.765	122.75
243.998	121.75
244.232	141.75
244.465	117.75
244.699	111.75
244.932	118.75
245.166	106.75
245.399	132.75
245.633	120.75
245.866	142.75
246.099	138.75
246.333	150.75
246.566	125.75
246.8	130.75
247.033	135.75
247.266	131.75
247.5	135.75
247.733	136.75
247.966	137.75
248.2	143.75
248.433	139.75
248.666	142.75
248.899	135.75
249.133	144.75
249.366	177.75
249.599	166.75
249.832	142.75
250.066	154.75
250.299	137.75
250.532	160.75
250.765	164.75
250.998	162.75
251.231	179.75
251.465	164.75
251.698	162.75
251.931	157.75
252.164	163.75
252.397	156.75
252.63	178.75
252.863	162.75
253.096	165.75
253.329	189.75
253.562	172.75
253.795	178.75
254.028	153.75
254.261	177.75
254.494	161.75
254.727	209.75
254.96	206.75
255.193	206.75
255.426	208.75
255.659	190.75
255.892	185.75
256.124	205.75
256.357	177.75
256.59	162.75
256.823	172.75
257.056	164.75
257.289	160.75
257.521	162.75
257.754	167.75
257.987	159.75
258.22	167.75
258.452	170.75
258.685	171.75
258.918	171.75
259.151	181.75
259.383	191.75
259.616	185.75
259.849	189.75
260.081	189.75
260.314	201.75
260.547	194.75
260.779	195.75
261.012	181.75
261.244	159.75
261.477	184.75
261.71	184.75
261.942	182.75
262.175	187.75
262.407	184.75
262.64	172.75
262.872	177.75
263.105	177.75
263.337	172.75
263.57	165.75
263.802	166.75
264.035	168.75
264.267	164.75
264.499	162.75
264.732	172.75
264.964	162.75
265.197	175.75
265.429	162.75
265.661	158.75
265.894	150.75
266.126	178.75
266.358	169.75
266.591	172.75
266.823	168.75
267.055	162.75
267.287	175.75
267.52	186.75
267.752	173.75
267.984	182.75
268.216	183.75
268.448	178.75
268.681	194.75
268.913	195.75
269.145	199.75
269.377	227.75
269.609	203.75
269.841	198.75
270.073	217.75
270.306	190.75
270.538	243.75
270.77	233.75
271.002	236.75
271.234	230.75
271.466	217.75
271.698	236.75
271.93	243.75
272.162	229.75
272.394	228.75
272.626	238.75
272.858	223.75
273.09	211.75
273.322	225.75
273.553	206.75
273.785	209.75
274.017	193.75
274.249	205.75
274.481	206.75
274.713	212.75
274.945	219.75
275.176	199.75
275.408	210.75
275.64	207.75
275.872	207.75
276.104	206.75
276.335	197.75
276.567	206.75
276.799	223.75
277.031	251.75
277.262	243.75
277.494	244.75
277.726	232.75
277.957	237.75
278.189	229.75
278.421	226.75
278.652	214.75
278.884	214.75
279.115	201.75
279.347	201.75
279.579	193.75
279.81	200.75
280.042	213.75
280.273	199.75
280.505	205.75
280.736	212.75
280.968	198.75
281.199	224.75
281.431	210.75
281.662	215.75
281.894	206.75
282.125	216.75
282.356	221.75
282.588	229.75
282.819	221.75
283.051	225.75
283.282	197.75
283.513	225.75
283.745	209.75
283.976	213.75
284.207	226.75
284.439	205.75
284.67	213.75
284.901	213.75
285.132	192.75
285.364	221.75
285.595	197.75
285.826	186.75
286.057	224.75
286.288	214.75
286.52	190.75
286.751	206.75
286.982	218.75
287.213	216.75
287.444	216.75
287.675	219.75
287.906	223.75
288.138	223.75
288.369	229.75
288.6	234.75
288.831	244.75
289.062	242.75
289.293	239.75
289.524	217.75
289.755	226.75
289.986	200.75
290.217	207.75
290.448	223.75
290.679	218.75
290.91	215.75
291.141	221.75
291.371	212.75
291.602	232.75
291.833	233.75
292.064	228.75
292.295	213.75
292.526	205.75
292.757	228.75
292.987	211.75
293.218	215.75
293.449	223.75
293.68	216.75
293.91	215.75
294.141	221.75
294.372	213.75
294.603	212.75
294.833	220.75
295.064	206.75
295.295	221.75
295.525	221.75
295.756	254.75
295.987	236.75
296.217	261.75
296.448	260.75
296.679	226.75
296.909	237.75
297.14	231.75
297.37	229.75
297.601	226.75
297.831	225.75
298.062	233.75
298.292	208.75
298.523	221.75
298.753	210.75
298.984	239.75
299.214	230.75
299.445	234.75
299.675	236.75
299.905	232.75
300.136	270.75
300.366	229.75
300.597	225.75
300.827	240.75
301.057	252.75
301.288	252.75
301.518	261.75
301.748	251.75
301.979	253.75
302.209	262.75
302.439	239.75
302.669	254.75
302.9	231.75
303.13	258.75
303.36	260.75
303.59	261.75
303.82	256.75
304.051	253.75
304.281	254.75
304.511	245.75
304.741	222.75
304.971	252.75
305.201	265.75
305.431	256.75
305.661	263.75
305.891	249.75
306.121	267.75
306.352	252.75
306.582	248.75
306.812	259.75
307.042	248.75
307.272	252.75
307.502	254.75
307.731	265.75
307.961	264.75
308.191	260.75
308.421	272.75
308.651	257.75
308.881	276.75
309.111	277.75
309.341	278.75
309.571	276.75
309.8	295.75
310.03	287.75
310.26	281.75
310.49	270.75
310.72	312.75
310.949	298.75
311.179	291.75
311.409	306.75
311.639	285.75
311.868	280.75
312.098	287.75
312.328	299.75
312.557	308.75
312.787	330.75
313.017	295.75
313.246	313.75
313.476	271.75
313.706	297.75
313.935	293.75
314.165	321.75
314.394	303.75
314.624	303.75
314.853	296.75
315.083	294.75
315.312	293.75
315.542	295.75
315.771	279.75
316.001	283.75
316.23	283.75
316.46	295.75
316.689	293.75
316.919	283.75
317.148	308.75
317.377	286.75
317.607	315.75
317.836	296.75
318.065	275.75
318.295	289.75
318.524	289.75
318.753	286.75
318.983	293.75
319.212	298.75
319.441	298.75
319.67	296.75
319.9	287.75
320.129	286.75
320.358	281.75
320.587	282.75
320.816	299.75
321.046	304.75
321.275	324.75
321.504	312.75
321.733	320.75
321.962	313.75
322.191	318.75
322.42	338.75
322.649	359.75
322.878	368.75
323.108	354.75
323.337	388.75
323.566	401.75
323.795	400.75
324.024	471.75
324.253	578.75
324.482	843.75
324.71	1337.75
324.939	1838.75
325.168	1534.75
325.397	779.75
325.626	550.75
325.855	453.75
326.084	420.75
326.313	427.75
326.542	424.75
326.77	450.75
326.999	534.75
327.228	755.75
327.457	1135.75
327.686	1317.75
327.914	895.75
328.143	606.75
328.372	510.75
328.6	500.75
328.829	467.75
329.058	452.75
329.287	455.75
329.515	445.75
329.744	427.75
329.972	392.75
330.201	414.75
330.43	464.75
330.658	487.75
330.887	516.75
331.115	476.75
331.344	432.75
331.572	407.75
331.801	382.75
332.03	382.75
332.258	353.75
332.486	352.75
332.715	351.75
332.943	341.75
333.172	347.75
333.4	329.75
333.629	364.75
333.857	366.75
334.085	385.75
334.314	409.75
334.542	406.75
334.771	447.75
334.999	417.75
335.227	391.75
335.455	363.75
335.684	328.75
335.912	342.75
336.14	330.75
336.369	341.75
336.597	330.75
336.825	349.75
337.053	337.75
337.281	334.75
337.51	344.75
337.738	329.75
337.966	328.75
338.194	336.75
338.422	335.75
338.65	322.75
338.878	344.75
339.106	345.75
339.334	333.75
339.562	325.75
339.79	327.75
340.018	323.75
340.246	329.75
340.474	330.75
340.702	324.75
340.93	347.75
341.158	308.75
341.386	321.75
341.614	311.75
341.842	327.75
342.07	332.75
342.298	321.75
342.526	327.75
342.754	321.75
342.981	316.75
343.209	303.75
343.437	334.75
343.665	314.75
343.893	319.75
344.12	339.75
344.348	333.75
344.576	329.75
344.804	332.75
345.031	355.75
345.259	349.75
345.487	344.75
345.714	340.75
345.942	328.75
346.17	326.75
346.397	310.75
346.625	329.75
346.853	334.75
347.08	329.75
347.308	322.75
347.535	324.75
347.763	339.75
347.99	313.75
348.218	334.75
348.445	340.75
348.673	329.75
348.9	325.75
349.128	324.75
349.355	297.75
349.583	323.75
349.81	324.75
350.037	320.75
350.265	310.75
350.492	297.75
350.72	309.75
350.947	308.75
351.174	315.75
351.402	341.75
351.629	328.75
351.856	331.75
352.083	338.75
352.311	350.75
352.538	354.75
352.765	341.75
352.992	343.75
353.22	321.75
353.447	309.75
353.674	322.75
353.901	320.75
354.128	304.75
354.355	296.75
354.583	306.75
354.81	304.75
355.037	305.75
355.264	301.75
355.491	296.75
355.718	294.75
355.945	284.75
356.172	316.75
356.399	292.75
356.626	309.75
356.853	287.75
357.08	325.75
357.307	302.75
357.534	300.75
357.761	281.75
357.988	321.75
358.215	314.75
358.441	296.75
358.668	297.75
358.895	319.75
359.122	290.75
359.349	330.75
359.576	325.75
359.802	346.75
360.029	368.75
360.256	391.75
360.483	327.75
360.709	341.75
360.936	330.75
361.163	337.75
361.39	329.75
361.616	336.75
361.843	318.75
362.07	319.75
362.296	314.75
362.523	308.75
362.749	314.75
362.976	320.75
363.203	337.75
363.429	297.75
363.656	309.75
363.882	317.75
364.109	302.75
364.335	303.75
364.562	300.75
364.788	310.75
365.015	314.75
365.241	318.75
365.468	307.75
365.694	313.75
365.92	318.75
366.147	325.75
366.373	304.75
366.599	287.75
366.826	294.75
367.052	295.75
367.278	305.75
367.505	284.75
367.731	300.75
367.957	312.75
368.184	332.75
368.41	315.75
368.636	326.75
368.862	333.75
369.089	323.75
369.315	314.75
369.541	313.75
369.767	307.75
369.993	298.75
370.219	281.75
370.445	301.75
370.672	297.75
370.898	312.75
371.124	321.75
371.35	310.75
371.576	308.75
371.802	312.75
372.028	288.75
372.254	300.75
372.48	302.75
372.706	295.75
372.932	320.75
373.158	325.75
373.384	290.75
373.61	330.75
373.835	317.75
374.061	288.75
374.287	307.75
374.513	300.75
374.739	318.75
374.965	316.75
375.191	326.75
375.416	316.75
375.642	314.75
375.868	306.75
376.094	290.75
376.319	304.75
376.545	295.75
376.771	304.75
376.997	302.75
377.222	285.75
377.448	301.75
377.674	292.75
377.899	305.75
378.125	300.75
378.35	323.75
378.576	279.75
378.802	300.75
379.027	302.75
379.253	293.75
379.478	314.75
379.704	320.75
379.929	303.75
380.155	307.75
380.38	303.75
380.606	315.75
380.831	289.75
381.057	286.75
381.282	286.75
381.507	309.75
381.733	273.75
381.958	313.75
382.184	315.75
382.409	312.75
382.634	318.75
382.86	308.75
383.085	320.75
383.31	322.75
383.535	319.75
383.761	311.75
383.986	320.75
384.211	311.75
384.436	319.75
384.662	325.75
384.887	306.75
385.112	325.75
385.337	321.75
385.562	329.75
385.787	325.75
386.013	321.75
386.238	338.75
386.463	332.75
386.688	344.75
386.913	313.75
387.138	308.75
387.363	338.75
387.588	336.75
387.813	324.75
388.038	320.75
388.263	312.75
388.488	335.75
388.713	334.75
388.938	324.75
389.163	333.75
389.387	330.75
389.612	310.75
389.837	332.75
390.062	357.75
390.287	336.75
390.512	310.75
390.736	338.75
390.961	320.75
391.186	334.75
391.411	340.75
391.636	350.75
391.86	351.75
392.085	321.75
392.31	343.75
392.534	336.75
392.759	337.75
392.984	311.75
393.208	327.75
393.433	350.75
393.658	341.75
393.882	326.75
394.107	325.75
394.331	352.75
394.556	311.75
394.78	319.75
395.005	329.75
395.229	363.75
395.454	346.75
395.678	342.75
395.903	368.75
396.127	364.75
396.352	345.75
396.576	381.75
396.801	357.75
397.025	350.75
397.249	343.75
397.474	346.75
397.698	371.75
397.922	363.75
398.147	361.75
398.371	367.75
398.595	370.75
398.82	375.75
399.044	367.75
399.268	387.75
399.492	401.75
399.717	417.75
399.941	416.75
400.165	440.75
400.389	458.75
400.613	417.75
400.837	395.75
401.062	381.75
401.286	390.75
401.51	378.75
401.734	382.75
401.958	376.75
402.182	400.75
402.406	392.75
402.63	391.75
402.854	399.75
403.078	354.75
403.302	380.75
403.526	380.75
403.75	377.75
403.974	405.75
404.198	403.75
404.422	381.75
404.645	391.75
404.869	380.75
405.093	410.75
405.317	439.75
405.541	463.75
405.765	447.75
405.988	401.75
406.212	422.75
406.436	423.75
406.66	438.75
406.883	414.75
407.107	442.75
407.331	469.75
407.555	519.75
407.778	504.75
408.002	465.75
408.226	442.75
408.449	432.75
408.673	447.75
408.896	468.75
409.12	485.75
409.344	454.75
409.567	410.75
409.791	419.75
410.014	404.75
410.238	390.75
410.461	407.75
410.685	403.75
410.908	421.75
411.132	442.75
411.355	457.75
411.578	412.75
411.802	400.75
412.025	387.75
412.249	410.75
412.472	426.75
412.695	454.75
412.919	435.75
413.142	394.75
413.365	389.75
413.589	401.75
413.812	388.75
414.035	356.75
414.258	388.75
414.482	372.75
414.705	389.75
414.928	385.75
415.151	377.75
415.374	356.75
415.597	367.75
415.821	359.75
416.044	370.75
416.267	381.75
416.49	376.75
416.713	376.75
416.936	381.75
417.159	377.75
417.382	370.75
417.605	367.75
417.828	375.75
418.051	387.75
418.274	413.75
418.497	384.75
418.72	364.75
418.943	357.75
419.166	384.75
419.389	406.75
419.611	380.75
419.834	407.75
420.057	402.75
420.28	396.75
420.503	371.75
420.726	394.75
420.948	386.75
421.171	428.75
421.394	435.75
421.617	413.75
421.839	375.75
422.062	387.75
422.285	404.75
422.507	448.75
422.73	484.75
422.953	452.75
423.175	413.75
423.398	416.75
423.621	391.75
423.843	422.75
424.066	413.75
424.288	423.75
424.511	434.75
424.733	469.75
424.956	539.75
425.178	518.75
425.401	525.75
425.623	529.75
425.846	452.75
426.068	445.75
426.291	412.75
426.513	416.75
426.735	418.75
426.958	466.75
427.18	523.75
427.402	614.75
427.625	670.75
427.847	595.75
428.069	535.75
428.292	453.75
428.514	424.75
428.736	424.75
428.958	413.75
429.181	408.75
429.403	420.75
429.625	403.75
429.847	440.75
430.069	484.75
430.292	486.75
430.514	445.75
430.736	385.75
430.958	388.75
431.18	390.75
431.402	362.75
431.624	365.75
431.846	380.75
432.068	376.75
432.29	373.75
432.512	382.75
432.734	370.75
432.956	381.75
433.178	383.75
433.4	385.75
433.622	370.75
433.844	382.75
434.066	377.75
434.287	375.75
434.509	380.75
434.731	372.75
434.953	366.75
435.175	409.75
435.397	417.75
435.618	426.75
435.84	461.75
436.062	530.75
436.284	601.75
436.505	500.75
436.727	444.75
436.949	415.75
437.17	401.75
437.392	396.75
437.614	409.75
437.835	453.75
438.057	507.75
438.278	594.75
438.5	586.75
438.721	645.75
438.943	617.75
439.165	477.75
439.386	453.75
439.608	431.75
439.829	448.75
440.05	454.75
440.272	482.75
440.493	459.75
440.715	393.75
440.936	432.75
441.158	398.75
441.379	400.75
441.6	397.75
441.822	419.75
442.043	464.75
442.264	508.75
442.486	566.75
442.707	486.75
442.928	442.75
443.149	432.75
443.371	447.75
443.592	511.75
443.813	566.75
444.034	584.75
444.255	493.75
444.476	441.75
444.698	438.75
444.919	435.75
445.14	556.75
445.361	495.75
445.582	480.75
445.803	512.75
446.024	601.75
446.245	590.75
446.466	547.75
446.687	457.75
446.908	431.75
447.129	407.75
447.35	390.75
447.571	411.75
447.792	398.75
448.013	412.75
448.234	416.75
448.455	473.75
448.675	557.75
448.896	640.75
449.117	548.75
449.338	519.75
449.559	600.75
449.779	631.75
450	538.75
450.221	455.75
450.442	421.75
450.662	393.75
450.883	392.75
451.104	418.75
451.324	423.75
451.545	384.75
451.766	374.75
451.986	357.75
452.207	359.75
452.428	386.75
452.648	357.75
452.869	372.75
453.089	375.75
453.31	373.75
453.53	368.75
453.751	357.75
453.971	356.75
454.192	376.75
454.412	380.75
454.633	362.75
454.853	357.75
455.073	372.75
455.294	386.75
455.514	451.75
455.734	417.75
455.955	372.75
456.175	342.75
456.395	356.75
456.616	347.75
456.836	338.75
457.056	341.75
457.276	340.75
457.497	336.75
457.717	362.75
457.937	356.75
458.157	345.75
458.377	345.75
458.598	375.75
458.818	445.75
459.038	500.75
459.258	487.75
459.478	420.75
459.698	398.75
459.918	388.75
460.138	389.75
460.358	374.75
460.578	370.75
460.798	373.75
461.018	384.75
461.238	376.75
461.458	378.75
461.678	381.75
461.898	377.75
462.118	376.75
462.338	373.75
462.558	378.75
462.777	377.75
462.997	382.75
463.217	416.75
463.437	402.75
463.657	392.75
463.876	403.75
464.096	398.75
464.316	400.75
464.536	403.75
464.755	393.75
464.975	416.75
465.195	442.75
465.414	512.75
465.634	450.75
465.854	385.75
466.073	395.75
466.293	364.75
466.512	371.75
466.732	373.75
466.951	380.75
467.171	371.75
467.391	376.75
467.61	382.75
467.829	387.75
468.049	378.75
468.268	379.75
468.488	395.75
468.707	377.75
468.927	365.75
469.146	364.75
469.365	362.75
469.585	370.75
469.804	386.75
470.023	384.75
470.243	387.75
470.462	370.75
470.681	399.75
470.901	392.75
471.12	364.75
471.339	378.75
471.558	372.75
471.777	372.75
471.997	375.75
472.216	386.75
472.435	415.75
472.654	402.75
472.873	389.75
473.092	390.75
473.311	389.75
473.53	365.75
473.749	356.75
473.968	412.75
474.187	490.75
474.406	509.75
474.625	419.75
474.844	404.75
475.063	381.75
475.282	365.75
475.501	386.75
475.72	384.75
475.939	383.75
476.158	382.75
476.377	375.75
476.596	382.75
476.814	393.75
477.033	412.75
477.252	413.75
477.471	389.75
477.69	408.75
477.908	393.75
478.127	406.75
478.346	412.75
478.564	413.75
478.783	403.75
479.002	456.75
479.22	409.75
479.439	434.75
479.658	462.75
479.876	460.75
480.095	478.75
480.313	481.75
480.532	483.75
480.751	445.75
480.969	466.75
481.188	544.75
481.406	552.75
481.624	487.75
481.843	456.75
482.061	445.75
482.28	448.75
482.498	463.75
482.717	433.75
482.935	452.75
483.153	435.75
483.372	440.75
483.59	436.75
483.808	435.75
484.027	444.75
484.245	443.75
484.463	465.75
484.681	458.75
484.9	458.75
485.118	469.75
485.336	455.75
485.554	458.75
485.772	456.75
485.99	453.75
486.209	458.75
486.427	464.75
486.645	472.75
486.863	497.75
487.081	478.75
487.299	456.75
487.517	478.75
487.735	488.75
487.953	471.75
488.171	478.75
488.389	488.75
488.607	470.75
488.825	459.75
489.043	465.75
489.261	481.75
489.479	485.75
489.696	462.75
489.914	493.75
490.132	478.75
490.35	478.75
490.568	485.75
490.786	502.75
491.003	513.75
491.221	515.75
491.439	525.75
491.657	528.75
491.874	536.75
492.092	536.75
492.31	520.75
492.527	518.75
492.745	546.75
492.963	528.75
493.18	537.75
493.398	547.75
493.615	553.75
493.833	535.75
494.05	548.75
494.268	549.75
494.485	554.75
494.703	527.75
494.92	558.75
495.138	553.75
495.355	561.75
495.573	580.75
495.79	558.75
496.008	554.75
496.225	570.75
496.442	559.75
496.66	552.75
496.877	542.75
497.094	543.75
497.312	592.75
497.529	565.75
497.746	572.75
497.963	600.75
498.181	594.75
498.398	617.75
498.615	622.75
498.832	608.75
499.049	617.75
499.267	637.75
499.484	661.75
499.701	671.75
499.918	674.75
500.135	709.75
500.352	718.75
500.569	710.75
500.786	711.75
501.003	706.75
501.22	712.75
501.437	693.75
501.654	674.75
501.871	682.75
502.088	645.75
