Data from 1961.PennyLincolnUp.Lamp.En5.5.200Scan.071719.P1._HRD10591_13-47-45-060.txt Node
Date: Thu Jul 18 13:47:45 EDT 2019
User: cochatt
Spectrometer: HR+D1059
Trigger mode: 1
Integration Time (sec): 1.000000E-1
Scans to average: 1
Electric dark correction enabled: true
Nonlinearity correction enabled: false
Boxcar width: 0
XAxis mode: Wavelengths
Number of Pixels in Spectrum: 2048
>>>>>Begin Spectral Data<<<<<
223.165	0.88
223.4	0.88
223.635	0.88
223.869	-25.12
224.104	-15.12
224.338	-19.12
224.573	-17.12
224.808	-15.12
225.042	-2.12
225.277	-6.12
225.511	-13.12
225.746	-8.12
225.98	-2.12
226.215	9.88
226.449	17.88
226.683	21.88
226.918	25.88
227.152	46.88
227.387	37.88
227.621	50.88
227.856	36.88
228.09	44.88
228.324	52.88
228.559	45.88
228.793	62.88
229.027	100.88
229.262	109.88
229.496	104.88
229.73	128.88
229.964	126.88
230.199	137.88
230.433	112.88
230.667	105.88
230.901	107.88
231.136	108.88
231.37	101.88
231.604	120.88
231.838	110.88
232.072	108.88
232.306	108.88
232.541	109.88
232.775	114.88
233.009	101.88
233.243	105.88
233.477	103.88
233.711	102.88
233.945	114.88
234.179	115.88
234.413	106.88
234.647	102.88
234.881	117.88
235.115	112.88
235.349	100.88
235.583	125.88
235.817	104.88
236.051	112.88
236.285	115.88
236.519	118.88
236.753	126.88
236.987	141.88
237.221	155.88
237.455	206.88
237.689	171.88
237.922	140.88
238.156	123.88
238.39	122.88
238.624	106.88
238.858	119.88
239.091	120.88
239.325	129.88
239.559	126.88
239.793	120.88
240.027	121.88
240.26	136.88
240.494	147.88
240.728	140.88
240.961	138.88
241.195	130.88
241.429	125.88
241.662	134.88
241.896	125.88
242.13	108.88
242.363	120.88
242.597	128.88
242.83	128.88
243.064	109.88
243.298	125.88
243.531	125.88
243.765	133.88
243.998	131.88
244.232	126.88
244.465	117.88
244.699	142.88
244.932	125.88
245.166	128.88
245.399	128.88
245.633	120.88
245.866	136.88
246.099	130.88
246.333	120.88
246.566	130.88
246.8	124.88
247.033	140.88
247.266	119.88
247.5	126.88
247.733	139.88
247.966	157.88
248.2	150.88
248.433	155.88
248.666	147.88
248.899	163.88
249.133	183.88
249.366	186.88
249.599	168.88
249.832	157.88
250.066	158.88
250.299	163.88
250.532	154.88
250.765	170.88
250.998	190.88
251.231	188.88
251.465	172.88
251.698	175.88
251.931	165.88
252.164	165.88
252.397	172.88
252.63	156.88
252.863	176.88
253.096	182.88
253.329	197.88
253.562	183.88
253.795	163.88
254.028	183.88
254.261	189.88
254.494	181.88
254.727	210.88
254.96	216.88
255.193	218.88
255.426	193.88
255.659	193.88
255.892	187.88
256.124	196.88
256.357	198.88
256.59	184.88
256.823	200.88
257.056	183.88
257.289	176.88
257.521	182.88
257.754	175.88
257.987	178.88
258.22	164.88
258.452	177.88
258.685	163.88
258.918	176.88
259.151	186.88
259.383	178.88
259.616	182.88
259.849	204.88
260.081	216.88
260.314	215.88
260.547	198.88
260.779	200.88
261.012	202.88
261.244	199.88
261.477	194.88
261.71	187.88
261.942	203.88
262.175	200.88
262.407	205.88
262.64	197.88
262.872	169.88
263.105	182.88
263.337	187.88
263.57	182.88
263.802	188.88
264.035	172.88
264.267	176.88
264.499	201.88
264.732	164.88
264.964	178.88
265.197	172.88
265.429	199.88
265.661	173.88
265.894	184.88
266.126	195.88
266.358	185.88
266.591	203.88
266.823	182.88
267.055	200.88
267.287	191.88
267.52	200.88
267.752	185.88
267.984	200.88
268.216	184.88
268.448	190.88
268.681	185.88
268.913	193.88
269.145	210.88
269.377	233.88
269.609	217.88
269.841	224.88
270.073	215.88
270.306	257.88
270.538	268.88
270.77	263.88
271.002	256.88
271.234	251.88
271.466	245.88
271.698	253.88
271.93	263.88
272.162	269.88
272.394	261.88
272.626	257.88
272.858	241.88
273.09	229.88
273.322	225.88
273.553	221.88
273.785	221.88
274.017	218.88
274.249	223.88
274.481	209.88
274.713	214.88
274.945	212.88
275.176	230.88
275.408	224.88
275.64	217.88
275.872	213.88
276.104	214.88
276.335	219.88
276.567	218.88
276.799	236.88
277.031	261.88
277.262	276.88
277.494	258.88
277.726	229.88
277.957	240.88
278.189	215.88
278.421	229.88
278.652	222.88
278.884	231.88
279.115	218.88
279.347	212.88
279.579	229.88
279.81	229.88
280.042	234.88
280.273	213.88
280.505	213.88
280.736	210.88
280.968	225.88
281.199	226.88
281.431	214.88
281.662	203.88
281.894	214.88
282.125	208.88
282.356	231.88
282.588	253.88
282.819	252.88
283.051	226.88
283.282	205.88
283.513	199.88
283.745	243.88
283.976	235.88
284.207	246.88
284.439	218.88
284.67	232.88
284.901	216.88
285.132	233.88
285.364	216.88
285.595	212.88
285.826	220.88
286.057	220.88
286.288	205.88
286.52	232.88
286.751	213.88
286.982	232.88
287.213	231.88
287.444	222.88
287.675	234.88
287.906	240.88
288.138	240.88
288.369	243.88
288.6	222.88
288.831	229.88
289.062	226.88
289.293	231.88
289.524	228.88
289.755	229.88
289.986	227.88
290.217	244.88
290.448	227.88
290.679	233.88
290.91	225.88
291.141	237.88
291.371	249.88
291.602	240.88
291.833	236.88
292.064	213.88
292.295	219.88
292.526	220.88
292.757	228.88
292.987	226.88
293.218	232.88
293.449	241.88
293.68	238.88
293.91	233.88
294.141	231.88
294.372	234.88
294.603	246.88
294.833	226.88
295.064	229.88
295.295	237.88
295.525	214.88
295.756	252.88
295.987	233.88
296.217	274.88
296.448	261.88
296.679	259.88
296.909	238.88
297.14	240.88
297.37	230.88
297.601	242.88
297.831	249.88
298.062	240.88
298.292	241.88
298.523	235.88
298.753	246.88
298.984	261.88
299.214	282.88
299.445	250.88
299.675	249.88
299.905	241.88
300.136	247.88
300.366	237.88
300.597	249.88
300.827	266.88
301.057	266.88
301.288	283.88
301.518	254.88
301.748	259.88
301.979	262.88
302.209	267.88
302.439	269.88
302.669	255.88
302.9	246.88
303.13	258.88
303.36	256.88
303.59	271.88
303.82	273.88
304.051	276.88
304.281	258.88
304.511	252.88
304.741	268.88
304.971	262.88
305.201	260.88
305.431	251.88
305.661	260.88
305.891	280.88
306.121	269.88
306.352	266.88
306.582	290.88
306.812	257.88
307.042	273.88
307.272	274.88
307.502	270.88
307.731	271.88
307.961	268.88
308.191	268.88
308.421	273.88
308.651	272.88
308.881	274.88
309.111	274.88
309.341	286.88
309.571	276.88
309.8	301.88
310.03	292.88
310.26	326.88
310.49	308.88
310.72	312.88
310.949	317.88
311.179	317.88
311.409	310.88
311.639	305.88
311.868	304.88
312.098	310.88
312.328	346.88
312.557	338.88
312.787	327.88
313.017	345.88
313.246	326.88
313.476	334.88
313.706	325.88
313.935	314.88
314.165	318.88
314.394	338.88
314.624	323.88
314.853	312.88
315.083	298.88
315.312	307.88
315.542	292.88
315.771	305.88
316.001	281.88
316.23	293.88
316.46	309.88
316.689	306.88
316.919	312.88
317.148	312.88
317.377	324.88
317.607	320.88
317.836	284.88
318.065	308.88
318.295	314.88
318.524	308.88
318.753	301.88
318.983	304.88
319.212	302.88
319.441	313.88
319.67	324.88
319.9	309.88
320.129	338.88
320.358	328.88
320.587	312.88
320.816	313.88
321.046	349.88
321.275	342.88
321.504	328.88
321.733	354.88
321.962	324.88
322.191	352.88
322.42	358.88
322.649	371.88
322.878	394.88
323.108	384.88
323.337	439.88
323.566	455.88
323.795	474.88
324.024	524.88
324.253	665.88
324.482	972.88
324.71	1506.88
324.939	2074.88
325.168	1740.88
325.397	904.88
325.626	635.88
325.855	491.88
326.084	471.88
326.313	484.88
326.542	458.88
326.77	474.88
326.999	597.88
327.228	855.88
327.457	1320.88
327.686	1569.88
327.914	1034.88
328.143	696.88
328.372	579.88
328.6	556.88
328.829	522.88
329.058	507.88
329.287	516.88
329.515	492.88
329.744	462.88
329.972	457.88
330.201	489.88
330.43	497.88
330.658	548.88
330.887	524.88
331.115	524.88
331.344	451.88
331.572	409.88
331.801	423.88
332.03	420.88
332.258	394.88
332.486	384.88
332.715	360.88
332.943	380.88
333.172	370.88
333.4	363.88
333.629	388.88
333.857	374.88
334.085	403.88
334.314	427.88
334.542	456.88
334.771	477.88
334.999	415.88
335.227	390.88
335.455	368.88
335.684	373.88
335.912	364.88
336.14	351.88
336.369	364.88
336.597	379.88
336.825	381.88
337.053	371.88
337.281	381.88
337.51	366.88
337.738	393.88
337.966	379.88
338.194	365.88
338.422	351.88
338.65	349.88
338.878	347.88
339.106	362.88
339.334	346.88
339.562	341.88
339.79	340.88
340.018	340.88
340.246	355.88
340.474	353.88
340.702	364.88
340.93	349.88
341.158	330.88
341.386	350.88
341.614	359.88
341.842	350.88
342.07	349.88
342.298	334.88
342.526	329.88
342.754	340.88
342.981	331.88
343.209	321.88
343.437	333.88
343.665	331.88
343.893	340.88
344.12	332.88
344.348	347.88
344.576	372.88
344.804	372.88
345.031	369.88
345.259	377.88
345.487	359.88
345.714	354.88
345.942	358.88
346.17	353.88
346.397	322.88
346.625	329.88
346.853	341.88
347.08	353.88
347.308	352.88
347.535	355.88
347.763	359.88
347.99	367.88
348.218	356.88
348.445	356.88
348.673	349.88
348.9	340.88
349.128	334.88
349.355	318.88
349.583	308.88
349.81	316.88
350.037	331.88
350.265	331.88
350.492	330.88
350.72	342.88
350.947	340.88
351.174	354.88
351.402	350.88
351.629	363.88
351.856	365.88
352.083	376.88
352.311	371.88
352.538	364.88
352.765	350.88
352.992	352.88
353.22	364.88
353.447	331.88
353.674	334.88
353.901	323.88
354.128	321.88
354.355	301.88
354.583	314.88
354.81	317.88
355.037	334.88
355.264	319.88
355.491	304.88
355.718	317.88
355.945	304.88
356.172	311.88
356.399	324.88
356.626	314.88
356.853	327.88
357.08	325.88
357.307	316.88
357.534	305.88
357.761	312.88
357.988	294.88
358.215	308.88
358.441	313.88
358.668	314.88
358.895	335.88
359.122	316.88
359.349	344.88
359.576	350.88
359.802	353.88
360.029	412.88
360.256	408.88
360.483	370.88
360.709	355.88
360.936	338.88
361.163	332.88
361.39	342.88
361.616	355.88
361.843	336.88
362.07	329.88
362.296	341.88
362.523	357.88
362.749	347.88
362.976	336.88
363.203	310.88
363.429	319.88
363.656	323.88
363.882	325.88
364.109	333.88
364.335	321.88
364.562	312.88
364.788	324.88
365.015	318.88
365.241	334.88
365.468	334.88
365.694	345.88
365.92	313.88
366.147	321.88
366.373	342.88
366.599	320.88
366.826	321.88
367.052	329.88
367.278	340.88
367.505	332.88
367.731	328.88
367.957	316.88
368.184	327.88
368.41	361.88
368.636	330.88
368.862	340.88
369.089	329.88
369.315	333.88
369.541	332.88
369.767	327.88
369.993	330.88
370.219	320.88
370.445	327.88
370.672	327.88
370.898	316.88
371.124	325.88
371.35	326.88
371.576	315.88
371.802	325.88
372.028	293.88
372.254	313.88
372.48	308.88
372.706	319.88
372.932	329.88
373.158	312.88
373.384	328.88
373.61	322.88
373.835	323.88
374.061	312.88
374.287	311.88
374.513	326.88
374.739	320.88
374.965	332.88
375.191	316.88
375.416	317.88
375.642	325.88
375.868	314.88
376.094	322.88
376.319	296.88
376.545	331.88
376.771	314.88
376.997	329.88
377.222	327.88
377.448	313.88
377.674	299.88
377.899	319.88
378.125	310.88
378.35	317.88
378.576	308.88
378.802	302.88
379.027	317.88
379.253	301.88
379.478	324.88
379.704	313.88
379.929	295.88
380.155	322.88
380.38	321.88
380.606	327.88
380.831	312.88
381.057	323.88
381.282	321.88
381.507	317.88
381.733	305.88
381.958	309.88
382.184	325.88
382.409	331.88
382.634	310.88
382.86	328.88
383.085	333.88
383.31	319.88
383.535	348.88
383.761	343.88
383.986	339.88
384.211	347.88
384.436	331.88
384.662	346.88
384.887	325.88
385.112	334.88
385.337	322.88
385.562	336.88
385.787	336.88
386.013	335.88
386.238	358.88
386.463	325.88
386.688	358.88
386.913	323.88
387.138	338.88
387.363	334.88
387.588	339.88
387.813	344.88
388.038	329.88
388.263	343.88
388.488	340.88
388.713	341.88
388.938	339.88
389.163	339.88
389.387	347.88
389.612	352.88
389.837	324.88
390.062	326.88
390.287	333.88
390.512	346.88
390.736	339.88
390.961	336.88
391.186	344.88
391.411	341.88
391.636	323.88
391.86	334.88
392.085	342.88
392.31	378.88
392.534	361.88
392.759	347.88
392.984	341.88
393.208	359.88
393.433	341.88
393.658	360.88
393.882	346.88
394.107	347.88
394.331	353.88
394.556	340.88
394.78	352.88
395.005	326.88
395.229	351.88
395.454	340.88
395.678	361.88
395.903	370.88
396.127	388.88
396.352	374.88
396.576	363.88
396.801	372.88
397.025	362.88
397.249	360.88
397.474	347.88
397.698	347.88
397.922	379.88
398.147	378.88
398.371	376.88
398.595	372.88
398.82	377.88
399.044	396.88
399.268	386.88
399.492	397.88
399.717	433.88
399.941	448.88
400.165	469.88
400.389	474.88
400.613	443.88
400.837	398.88
401.062	410.88
401.286	389.88
401.51	405.88
401.734	388.88
401.958	390.88
402.182	393.88
402.406	400.88
402.63	407.88
402.854	403.88
403.078	412.88
403.302	394.88
403.526	386.88
403.75	395.88
403.974	398.88
404.198	402.88
404.422	420.88
404.645	401.88
404.869	411.88
405.093	436.88
405.317	481.88
405.541	482.88
405.765	450.88
405.988	420.88
406.212	436.88
406.436	459.88
406.66	467.88
406.883	429.88
407.107	474.88
407.331	501.88
407.555	526.88
407.778	548.88
408.002	460.88
408.226	446.88
408.449	448.88
408.673	422.88
408.896	468.88
409.12	504.88
409.344	467.88
409.567	413.88
409.791	403.88
410.014	417.88
410.238	411.88
410.461	418.88
410.685	405.88
410.908	429.88
411.132	448.88
411.355	468.88
411.578	438.88
411.802	426.88
412.025	403.88
412.249	418.88
412.472	444.88
412.695	462.88
412.919	461.88
413.142	427.88
413.365	411.88
413.589	381.88
413.812	398.88
414.035	386.88
414.258	411.88
414.482	393.88
414.705	395.88
414.928	382.88
415.151	390.88
415.374	396.88
415.597	383.88
415.821	375.88
416.044	394.88
416.267	396.88
416.49	370.88
416.713	383.88
416.936	377.88
417.159	389.88
417.382	398.88
417.605	388.88
417.828	400.88
418.051	391.88
418.274	396.88
418.497	374.88
418.72	376.88
418.943	377.88
419.166	392.88
419.389	416.88
419.611	395.88
419.834	412.88
420.057	414.88
420.28	400.88
420.503	398.88
420.726	380.88
420.948	413.88
421.171	461.88
421.394	450.88
421.617	416.88
421.839	403.88
422.062	392.88
422.285	423.88
422.507	470.88
422.73	514.88
422.953	508.88
423.175	432.88
423.398	422.88
423.621	436.88
423.843	452.88
424.066	425.88
424.288	449.88
424.511	453.88
424.733	493.88
424.956	553.88
425.178	523.88
425.401	523.88
425.623	531.88
425.846	484.88
426.068	459.88
426.291	435.88
426.513	440.88
426.735	447.88
426.958	469.88
427.18	568.88
427.402	655.88
427.625	734.88
427.847	653.88
428.069	565.88
428.292	487.88
428.514	472.88
428.736	437.88
428.958	424.88
429.181	419.88
429.403	422.88
429.625	433.88
429.847	464.88
430.069	491.88
430.292	501.88
430.514	425.88
430.736	412.88
430.958	403.88
431.18	389.88
431.402	402.88
431.624	378.88
431.846	368.88
432.068	378.88
432.29	398.88
432.512	408.88
432.734	386.88
432.956	408.88
433.178	378.88
433.4	413.88
433.622	389.88
433.844	374.88
434.066	371.88
434.287	379.88
434.509	389.88
434.731	379.88
434.953	412.88
435.175	409.88
435.397	431.88
435.618	453.88
435.84	487.88
436.062	566.88
436.284	608.88
436.505	500.88
436.727	466.88
436.949	450.88
437.17	420.88
437.392	389.88
437.614	444.88
437.835	461.88
438.057	554.88
438.278	634.88
438.5	635.88
438.721	670.88
438.943	614.88
439.165	511.88
439.386	480.88
439.608	472.88
439.829	478.88
440.05	484.88
440.272	541.88
440.493	499.88
440.715	450.88
440.936	426.88
441.158	419.88
441.379	407.88
441.6	429.88
441.822	421.88
442.043	485.88
442.264	539.88
442.486	589.88
442.707	471.88
442.928	476.88
443.149	461.88
443.371	499.88
443.592	525.88
443.813	590.88
444.034	637.88
444.255	509.88
444.476	479.88
444.698	446.88
444.919	421.88
445.14	519.88
445.361	501.88
445.582	494.88
445.803	552.88
446.024	623.88
446.245	648.88
446.466	581.88
446.687	514.88
446.908	454.88
447.129	436.88
447.35	439.88
447.571	435.88
447.792	412.88
448.013	422.88
448.234	444.88
448.455	490.88
448.675	582.88
448.896	649.88
449.117	588.88
449.338	522.88
449.559	621.88
449.779	678.88
450	562.88
450.221	458.88
450.442	436.88
450.662	438.88
450.883	459.88
451.104	449.88
451.324	426.88
451.545	392.88
451.766	401.88
451.986	389.88
452.207	395.88
452.428	384.88
452.648	396.88
452.869	388.88
453.089	398.88
453.31	405.88
453.53	380.88
453.751	379.88
453.971	395.88
454.192	406.88
454.412	391.88
454.633	383.88
454.853	370.88
455.073	385.88
455.294	428.88
455.514	459.88
455.734	430.88
455.955	373.88
456.175	376.88
456.395	344.88
456.616	356.88
456.836	354.88
457.056	324.88
457.276	346.88
457.497	363.88
457.717	357.88
457.937	375.88
458.157	384.88
458.377	361.88
458.598	392.88
458.818	455.88
459.038	501.88
459.258	524.88
459.478	430.88
459.698	396.88
459.918	397.88
460.138	410.88
460.358	402.88
460.578	393.88
460.798	380.88
461.018	397.88
461.238	397.88
461.458	382.88
461.678	375.88
461.898	394.88
462.118	379.88
462.338	401.88
462.558	399.88
462.777	407.88
462.997	411.88
463.217	407.88
463.437	413.88
463.657	409.88
463.876	411.88
464.096	431.88
464.316	417.88
464.536	413.88
464.755	424.88
464.975	432.88
465.195	490.88
465.414	553.88
465.634	506.88
465.854	416.88
466.073	421.88
466.293	410.88
466.512	384.88
466.732	402.88
466.951	377.88
467.171	370.88
467.391	390.88
467.61	388.88
467.829	392.88
468.049	406.88
468.268	413.88
468.488	387.88
468.707	370.88
468.927	363.88
469.146	386.88
469.365	380.88
469.585	378.88
469.804	385.88
470.023	390.88
470.243	385.88
470.462	389.88
470.681	425.88
470.901	409.88
471.12	399.88
471.339	382.88
471.558	421.88
471.777	384.88
471.997	389.88
472.216	369.88
472.435	442.88
472.654	409.88
472.873	392.88
473.092	387.88
473.311	396.88
473.53	389.88
473.749	407.88
473.968	460.88
474.187	538.88
474.406	532.88
474.625	446.88
474.844	410.88
475.063	393.88
475.282	404.88
475.501	402.88
475.72	392.88
475.939	398.88
476.158	398.88
476.377	416.88
476.596	412.88
476.814	419.88
477.033	432.88
477.252	429.88
477.471	396.88
477.69	421.88
477.908	433.88
478.127	450.88
478.346	432.88
478.564	413.88
478.783	412.88
479.002	420.88
479.22	435.88
479.439	473.88
479.658	478.88
479.876	477.88
480.095	494.88
480.313	484.88
480.532	466.88
480.751	472.88
480.969	489.88
481.188	549.88
481.406	605.88
481.624	518.88
481.843	484.88
482.061	466.88
482.28	472.88
482.498	455.88
482.717	464.88
482.935	470.88
483.153	466.88
483.372	461.88
483.59	457.88
483.808	467.88
484.027	476.88
484.245	453.88
484.463	460.88
484.681	472.88
484.9	472.88
485.118	473.88
485.336	461.88
485.554	466.88
485.772	458.88
485.99	455.88
486.209	469.88
486.427	478.88
486.645	488.88
486.863	497.88
487.081	481.88
487.299	489.88
487.517	475.88
487.735	495.88
487.953	479.88
488.171	491.88
488.389	488.88
488.607	487.88
488.825	498.88
489.043	491.88
489.261	507.88
489.479	489.88
489.696	500.88
489.914	476.88
490.132	510.88
490.35	521.88
490.568	503.88
490.786	523.88
491.003	525.88
491.221	536.88
491.439	536.88
491.657	558.88
491.874	551.88
492.092	573.88
492.31	564.88
492.527	556.88
492.745	548.88
492.963	581.88
493.18	587.88
493.398	575.88
493.615	578.88
493.833	567.88
494.05	549.88
494.268	553.88
494.485	591.88
494.703	550.88
494.92	583.88
495.138	592.88
495.355	567.88
495.573	602.88
495.79	576.88
496.008	601.88
496.225	566.88
496.442	589.88
496.66	577.88
496.877	603.88
497.094	592.88
497.312	568.88
497.529	582.88
497.746	592.88
497.963	601.88
498.181	641.88
498.398	613.88
498.615	622.88
498.832	630.88
499.049	647.88
499.267	637.88
499.484	679.88
499.701	673.88
499.918	690.88
500.135	696.88
500.352	723.88
500.569	708.88
500.786	753.88
501.003	731.88
501.22	702.88
501.437	711.88
501.654	685.88
501.871	727.88
