Data from 1961.PennyLincolnUp.Lamp.En5.5.200Scan.071719.P1._HRD10591_13-47-49-057.txt Node
Date: Thu Jul 18 13:47:49 EDT 2019
User: cochatt
Spectrometer: HR+D1059
Trigger mode: 1
Integration Time (sec): 1.000000E-1
Scans to average: 1
Electric dark correction enabled: true
Nonlinearity correction enabled: false
Boxcar width: 0
XAxis mode: Wavelengths
Number of Pixels in Spectrum: 2048
>>>>>Begin Spectral Data<<<<<
223.165	-21.38
223.4	-21.38
223.635	-21.38
223.869	-2.38
224.104	-21.38
224.338	-11.38
224.573	-6.38
224.808	-2.38
225.042	-16.38
225.277	-13.38
225.511	-0.38
225.746	1.62
225.98	-14.38
226.215	22.62
226.449	12.62
226.683	29.62
226.918	12.62
227.152	30.62
227.387	37.62
227.621	44.62
227.856	30.62
228.09	64.62
228.324	51.62
228.559	48.62
228.793	64.62
229.027	84.62
229.262	93.62
229.496	111.62
229.73	123.62
229.964	127.62
230.199	122.62
230.433	111.62
230.667	121.62
230.901	107.62
231.136	99.62
231.37	98.62
231.604	115.62
231.838	99.62
232.072	106.62
232.306	105.62
232.541	102.62
232.775	116.62
233.009	113.62
233.243	111.62
233.477	101.62
233.711	101.62
233.945	104.62
234.179	111.62
234.413	104.62
234.647	99.62
234.881	104.62
235.115	108.62
235.349	97.62
235.583	109.62
235.817	105.62
236.051	112.62
236.285	106.62
236.519	109.62
236.753	121.62
236.987	131.62
237.221	160.62
237.455	201.62
237.689	174.62
237.922	139.62
238.156	123.62
238.39	125.62
238.624	116.62
238.858	106.62
239.091	105.62
239.325	116.62
239.559	106.62
239.793	131.62
240.027	123.62
240.26	128.62
240.494	134.62
240.728	151.62
240.961	143.62
241.195	123.62
241.429	114.62
241.662	114.62
241.896	103.62
242.13	113.62
242.363	110.62
242.597	114.62
242.83	117.62
243.064	118.62
243.298	110.62
243.531	120.62
243.765	129.62
243.998	113.62
244.232	121.62
244.465	106.62
244.699	127.62
244.932	129.62
245.166	127.62
245.399	132.62
245.633	105.62
245.866	123.62
246.099	133.62
246.333	129.62
246.566	127.62
246.8	125.62
247.033	136.62
247.266	137.62
247.5	129.62
247.733	135.62
247.966	156.62
248.2	147.62
248.433	141.62
248.666	138.62
248.899	155.62
249.133	165.62
249.366	182.62
249.599	171.62
249.832	148.62
250.066	146.62
250.299	157.62
250.532	173.62
250.765	175.62
250.998	195.62
251.231	194.62
251.465	176.62
251.698	162.62
251.931	181.62
252.164	162.62
252.397	169.62
252.63	179.62
252.863	181.62
253.096	174.62
253.329	195.62
253.562	209.62
253.795	171.62
254.028	188.62
254.261	205.62
254.494	195.62
254.727	209.62
254.96	212.62
255.193	226.62
255.426	206.62
255.659	203.62
255.892	191.62
256.124	219.62
256.357	196.62
256.59	179.62
256.823	179.62
257.056	172.62
257.289	168.62
257.521	189.62
257.754	162.62
257.987	143.62
258.22	161.62
258.452	169.62
258.685	160.62
258.918	182.62
259.151	170.62
259.383	189.62
259.616	184.62
259.849	183.62
260.081	197.62
260.314	205.62
260.547	213.62
260.779	201.62
261.012	200.62
261.244	163.62
261.477	201.62
261.71	191.62
261.942	177.62
262.175	220.62
262.407	190.62
262.64	170.62
262.872	168.62
263.105	177.62
263.337	183.62
263.57	185.62
263.802	174.62
264.035	173.62
264.267	167.62
264.499	170.62
264.732	170.62
264.964	171.62
265.197	173.62
265.429	181.62
265.661	169.62
265.894	174.62
266.126	175.62
266.358	205.62
266.591	186.62
266.823	186.62
267.055	201.62
267.287	187.62
267.52	184.62
267.752	186.62
267.984	197.62
268.216	195.62
268.448	186.62
268.681	191.62
268.913	201.62
269.145	200.62
269.377	224.62
269.609	211.62
269.841	214.62
270.073	205.62
270.306	227.62
270.538	273.62
270.77	261.62
271.002	248.62
271.234	245.62
271.466	246.62
271.698	254.62
271.93	261.62
272.162	262.62
272.394	247.62
272.626	265.62
272.858	232.62
273.09	217.62
273.322	224.62
273.553	220.62
273.785	225.62
274.017	198.62
274.249	206.62
274.481	217.62
274.713	225.62
274.945	221.62
275.176	226.62
275.408	219.62
275.64	215.62
275.872	225.62
276.104	220.62
276.335	217.62
276.567	212.62
276.799	226.62
277.031	253.62
277.262	243.62
277.494	258.62
277.726	251.62
277.957	229.62
278.189	221.62
278.421	235.62
278.652	214.62
278.884	211.62
279.115	218.62
279.347	203.62
279.579	216.62
279.81	214.62
280.042	213.62
280.273	217.62
280.505	214.62
280.736	210.62
280.968	201.62
281.199	202.62
281.431	210.62
281.662	207.62
281.894	221.62
282.125	219.62
282.356	234.62
282.588	253.62
282.819	247.62
283.051	243.62
283.282	226.62
283.513	231.62
283.745	207.62
283.976	215.62
284.207	234.62
284.439	230.62
284.67	227.62
284.901	206.62
285.132	227.62
285.364	220.62
285.595	213.62
285.826	222.62
286.057	226.62
286.288	221.62
286.52	232.62
286.751	231.62
286.982	227.62
287.213	221.62
287.444	201.62
287.675	214.62
287.906	219.62
288.138	226.62
288.369	232.62
288.6	245.62
288.831	247.62
289.062	223.62
289.293	217.62
289.524	237.62
289.755	221.62
289.986	224.62
290.217	222.62
290.448	228.62
290.679	251.62
290.91	242.62
291.141	223.62
291.371	207.62
291.602	242.62
291.833	238.62
292.064	209.62
292.295	232.62
292.526	226.62
292.757	233.62
292.987	221.62
293.218	225.62
293.449	221.62
293.68	244.62
293.91	210.62
294.141	231.62
294.372	251.62
294.603	250.62
294.833	227.62
295.064	226.62
295.295	231.62
295.525	238.62
295.756	247.62
295.987	255.62
296.217	263.62
296.448	287.62
296.679	236.62
296.909	239.62
297.14	242.62
297.37	234.62
297.601	240.62
297.831	227.62
298.062	218.62
298.292	232.62
298.523	253.62
298.753	257.62
298.984	242.62
299.214	230.62
299.445	231.62
299.675	242.62
299.905	253.62
300.136	241.62
300.366	240.62
300.597	245.62
300.827	261.62
301.057	266.62
301.288	265.62
301.518	277.62
301.748	250.62
301.979	269.62
302.209	269.62
302.439	261.62
302.669	254.62
302.9	271.62
303.13	256.62
303.36	258.62
303.59	282.62
303.82	290.62
304.051	274.62
304.281	276.62
304.511	245.62
304.741	259.62
304.971	273.62
305.201	269.62
305.431	277.62
305.661	274.62
305.891	249.62
306.121	253.62
306.352	263.62
306.582	274.62
306.812	284.62
307.042	286.62
307.272	271.62
307.502	277.62
307.731	270.62
307.961	257.62
308.191	271.62
308.421	262.62
308.651	272.62
308.881	283.62
309.111	274.62
309.341	280.62
309.571	281.62
309.8	296.62
310.03	308.62
310.26	314.62
310.49	292.62
310.72	324.62
310.949	318.62
311.179	318.62
311.409	316.62
311.639	302.62
311.868	312.62
312.098	323.62
312.328	330.62
312.557	328.62
312.787	339.62
313.017	340.62
313.246	323.62
313.476	313.62
313.706	295.62
313.935	311.62
314.165	324.62
314.394	337.62
314.624	330.62
314.853	317.62
315.083	301.62
315.312	306.62
315.542	298.62
315.771	294.62
316.001	300.62
316.23	309.62
316.46	295.62
316.689	312.62
316.919	315.62
317.148	309.62
317.377	320.62
317.607	322.62
317.836	319.62
318.065	320.62
318.295	311.62
318.524	313.62
318.753	307.62
318.983	324.62
319.212	309.62
319.441	303.62
319.67	316.62
319.9	307.62
320.129	323.62
320.358	301.62
320.587	305.62
320.816	301.62
321.046	325.62
321.275	334.62
321.504	322.62
321.733	320.62
321.962	354.62
322.191	369.62
322.42	367.62
322.649	388.62
322.878	390.62
323.108	402.62
323.337	418.62
323.566	457.62
323.795	480.62
324.024	536.62
324.253	671.62
324.482	938.62
324.71	1529.62
324.939	2097.62
325.168	1778.62
325.397	937.62
325.626	612.62
325.855	509.62
326.084	459.62
326.313	447.62
326.542	449.62
326.77	505.62
326.999	598.62
327.228	885.62
327.457	1345.62
327.686	1565.62
327.914	1028.62
328.143	686.62
328.372	580.62
328.6	530.62
328.829	511.62
329.058	524.62
329.287	530.62
329.515	496.62
329.744	468.62
329.972	449.62
330.201	485.62
330.43	511.62
330.658	533.62
330.887	555.62
331.115	525.62
331.344	445.62
331.572	421.62
331.801	408.62
332.03	412.62
332.258	390.62
332.486	381.62
332.715	379.62
332.943	374.62
333.172	373.62
333.4	384.62
333.629	387.62
333.857	387.62
334.085	395.62
334.314	418.62
334.542	481.62
334.771	474.62
334.999	429.62
335.227	372.62
335.455	384.62
335.684	371.62
335.912	354.62
336.14	340.62
336.369	351.62
336.597	354.62
336.825	379.62
337.053	352.62
337.281	369.62
337.51	344.62
337.738	348.62
337.966	360.62
338.194	348.62
338.422	358.62
338.65	355.62
338.878	353.62
339.106	353.62
339.334	352.62
339.562	347.62
339.79	335.62
340.018	337.62
340.246	346.62
340.474	367.62
340.702	352.62
340.93	350.62
341.158	354.62
341.386	349.62
341.614	362.62
341.842	343.62
342.07	335.62
342.298	331.62
342.526	334.62
342.754	348.62
342.981	363.62
343.209	331.62
343.437	326.62
343.665	335.62
343.893	325.62
344.12	332.62
344.348	365.62
344.576	352.62
344.804	367.62
345.031	356.62
345.259	373.62
345.487	372.62
345.714	375.62
345.942	361.62
346.17	335.62
346.397	345.62
346.625	345.62
346.853	337.62
347.08	326.62
347.308	337.62
347.535	325.62
347.763	361.62
347.99	341.62
348.218	353.62
348.445	362.62
348.673	365.62
348.9	359.62
349.128	338.62
349.355	331.62
349.583	334.62
349.81	338.62
350.037	344.62
350.265	349.62
350.492	338.62
350.72	337.62
350.947	344.62
351.174	342.62
351.402	352.62
351.629	339.62
351.856	335.62
352.083	337.62
352.311	376.62
352.538	354.62
352.765	378.62
352.992	354.62
353.22	337.62
353.447	352.62
353.674	338.62
353.901	327.62
354.128	326.62
354.355	297.62
354.583	328.62
354.81	337.62
355.037	322.62
355.264	299.62
355.491	307.62
355.718	302.62
355.945	318.62
356.172	327.62
356.399	328.62
356.626	296.62
356.853	308.62
357.08	309.62
357.307	322.62
357.534	325.62
357.761	313.62
357.988	317.62
358.215	333.62
358.441	320.62
358.668	324.62
358.895	330.62
359.122	321.62
359.349	325.62
359.576	339.62
359.802	358.62
360.029	391.62
360.256	389.62
360.483	394.62
360.709	353.62
360.936	335.62
361.163	333.62
361.39	350.62
361.616	331.62
361.843	335.62
362.07	325.62
362.296	324.62
362.523	344.62
362.749	339.62
362.976	328.62
363.203	339.62
363.429	317.62
363.656	315.62
363.882	330.62
364.109	319.62
364.335	309.62
364.562	334.62
364.788	316.62
365.015	317.62
365.241	339.62
365.468	325.62
365.694	337.62
365.92	318.62
366.147	331.62
366.373	316.62
366.599	314.62
366.826	314.62
367.052	314.62
367.278	338.62
367.505	321.62
367.731	331.62
367.957	320.62
368.184	340.62
368.41	328.62
368.636	339.62
368.862	349.62
369.089	338.62
369.315	328.62
369.541	330.62
369.767	337.62
369.993	321.62
370.219	317.62
370.445	321.62
370.672	319.62
370.898	307.62
371.124	316.62
371.35	307.62
371.576	315.62
371.802	315.62
372.028	297.62
372.254	313.62
372.48	318.62
372.706	317.62
372.932	327.62
373.158	318.62
373.384	336.62
373.61	317.62
373.835	310.62
374.061	317.62
374.287	313.62
374.513	314.62
374.739	339.62
374.965	326.62
375.191	331.62
375.416	315.62
375.642	308.62
375.868	328.62
376.094	320.62
376.319	328.62
376.545	325.62
376.771	297.62
376.997	322.62
377.222	318.62
377.448	311.62
377.674	322.62
377.899	318.62
378.125	313.62
378.35	292.62
378.576	310.62
378.802	310.62
379.027	322.62
379.253	306.62
379.478	301.62
379.704	311.62
379.929	324.62
380.155	329.62
380.38	322.62
380.606	312.62
380.831	330.62
381.057	317.62
381.282	293.62
381.507	331.62
381.733	319.62
381.958	319.62
382.184	335.62
382.409	327.62
382.634	333.62
382.86	324.62
383.085	314.62
383.31	348.62
383.535	325.62
383.761	336.62
383.986	332.62
384.211	361.62
384.436	319.62
384.662	335.62
384.887	329.62
385.112	319.62
385.337	318.62
385.562	324.62
385.787	327.62
386.013	357.62
386.238	344.62
386.463	335.62
386.688	337.62
386.913	336.62
387.138	353.62
387.363	331.62
387.588	346.62
387.813	335.62
388.038	316.62
388.263	338.62
388.488	338.62
388.713	362.62
388.938	343.62
389.163	345.62
389.387	340.62
389.612	331.62
389.837	340.62
390.062	311.62
390.287	335.62
390.512	340.62
390.736	333.62
390.961	322.62
391.186	331.62
391.411	325.62
391.636	341.62
391.86	332.62
392.085	351.62
392.31	343.62
392.534	321.62
392.759	331.62
392.984	350.62
393.208	336.62
393.433	344.62
393.658	351.62
393.882	339.62
394.107	350.62
394.331	329.62
394.556	336.62
394.78	356.62
395.005	341.62
395.229	366.62
395.454	357.62
395.678	367.62
395.903	368.62
396.127	381.62
396.352	387.62
396.576	368.62
396.801	354.62
397.025	352.62
397.249	353.62
397.474	345.62
397.698	367.62
397.922	381.62
398.147	378.62
398.371	390.62
398.595	374.62
398.82	381.62
399.044	394.62
399.268	408.62
399.492	418.62
399.717	408.62
399.941	456.62
400.165	456.62
400.389	458.62
400.613	445.62
400.837	405.62
401.062	396.62
401.286	397.62
401.51	378.62
401.734	376.62
401.958	385.62
402.182	395.62
402.406	405.62
402.63	401.62
402.854	386.62
403.078	403.62
403.302	404.62
403.526	395.62
403.75	400.62
403.974	401.62
404.198	385.62
404.422	416.62
404.645	410.62
404.869	413.62
405.093	442.62
405.317	477.62
405.541	488.62
405.765	450.62
405.988	426.62
406.212	439.62
406.436	434.62
406.66	479.62
406.883	445.62
407.107	472.62
407.331	488.62
407.555	529.62
407.778	545.62
408.002	485.62
408.226	457.62
408.449	445.62
408.673	450.62
408.896	458.62
409.12	492.62
409.344	476.62
409.567	436.62
409.791	409.62
410.014	409.62
410.238	391.62
410.461	388.62
410.685	409.62
410.908	426.62
411.132	431.62
411.355	461.62
411.578	466.62
411.802	425.62
412.025	417.62
412.249	416.62
412.472	438.62
412.695	467.62
412.919	437.62
413.142	408.62
413.365	425.62
413.589	407.62
413.812	398.62
414.035	373.62
414.258	370.62
414.482	394.62
414.705	397.62
414.928	385.62
415.151	385.62
415.374	373.62
415.597	388.62
415.821	385.62
416.044	393.62
416.267	379.62
416.49	390.62
416.713	388.62
416.936	378.62
417.159	378.62
417.382	368.62
417.605	394.62
417.828	377.62
418.051	381.62
418.274	423.62
418.497	414.62
418.72	411.62
418.943	381.62
419.166	368.62
419.389	422.62
419.611	430.62
419.834	382.62
420.057	417.62
420.28	403.62
420.503	383.62
420.726	411.62
420.948	413.62
421.171	441.62
421.394	488.62
421.617	431.62
421.839	399.62
422.062	427.62
422.285	421.62
422.507	475.62
422.73	516.62
422.953	509.62
423.175	454.62
423.398	433.62
423.621	408.62
423.843	442.62
424.066	455.62
424.288	423.62
424.511	473.62
424.733	487.62
424.956	575.62
425.178	551.62
425.401	550.62
425.623	541.62
425.846	491.62
426.068	426.62
426.291	451.62
426.513	453.62
426.735	444.62
426.958	502.62
427.18	575.62
427.402	644.62
427.625	717.62
427.847	657.62
428.069	579.62
428.292	501.62
428.514	444.62
428.736	435.62
428.958	434.62
429.181	444.62
429.403	428.62
429.625	460.62
429.847	438.62
430.069	479.62
430.292	498.62
430.514	432.62
430.736	412.62
430.958	418.62
431.18	394.62
431.402	395.62
431.624	400.62
431.846	397.62
432.068	371.62
432.29	397.62
432.512	406.62
432.734	394.62
432.956	398.62
433.178	413.62
433.4	416.62
433.622	400.62
433.844	390.62
434.066	374.62
434.287	387.62
434.509	396.62
434.731	389.62
434.953	409.62
435.175	425.62
435.397	432.62
435.618	435.62
435.84	480.62
436.062	561.62
436.284	629.62
436.505	530.62
436.727	457.62
436.949	441.62
437.17	418.62
437.392	426.62
437.614	446.62
437.835	490.62
438.057	558.62
438.278	618.62
438.5	639.62
438.721	671.62
438.943	653.62
439.165	519.62
439.386	479.62
439.608	460.62
439.829	482.62
440.05	485.62
440.272	523.62
440.493	497.62
440.715	454.62
440.936	426.62
441.158	428.62
441.379	433.62
441.6	434.62
441.822	465.62
442.043	487.62
442.264	546.62
442.486	585.62
442.707	498.62
442.928	465.62
443.149	460.62
443.371	498.62
443.592	507.62
443.813	593.62
444.034	622.62
444.255	531.62
444.476	467.62
444.698	472.62
444.919	433.62
445.14	552.62
445.361	521.62
445.582	482.62
445.803	558.62
446.024	635.62
446.245	632.62
446.466	594.62
446.687	497.62
446.908	466.62
447.129	433.62
447.35	422.62
447.571	413.62
447.792	433.62
448.013	437.62
448.234	453.62
448.455	490.62
448.675	568.62
448.896	641.62
449.117	571.62
449.338	551.62
449.559	644.62
449.779	698.62
450	561.62
450.221	473.62
450.442	425.62
450.662	461.62
450.883	434.62
451.104	451.62
451.324	429.62
451.545	431.62
451.766	407.62
451.986	387.62
452.207	397.62
452.428	381.62
452.648	383.62
452.869	380.62
453.089	383.62
453.31	391.62
453.53	400.62
453.751	373.62
453.971	382.62
454.192	403.62
454.412	415.62
454.633	379.62
454.853	418.62
455.073	385.62
455.294	403.62
455.514	471.62
455.734	456.62
455.955	389.62
456.175	362.62
456.395	363.62
456.616	368.62
456.836	346.62
457.056	342.62
457.276	338.62
457.497	378.62
457.717	363.62
457.937	371.62
458.157	346.62
458.377	376.62
458.598	385.62
458.818	455.62
459.038	525.62
459.258	517.62
459.478	447.62
459.698	416.62
459.918	403.62
460.138	389.62
460.358	390.62
460.578	378.62
460.798	381.62
461.018	397.62
461.238	392.62
461.458	394.62
461.678	401.62
461.898	408.62
462.118	387.62
462.338	399.62
462.558	374.62
462.777	388.62
462.997	375.62
463.217	402.62
463.437	412.62
463.657	415.62
463.876	408.62
464.096	410.62
464.316	410.62
464.536	429.62
464.755	417.62
464.975	422.62
465.195	490.62
465.414	558.62
465.634	477.62
465.854	448.62
466.073	427.62
466.293	406.62
466.512	388.62
466.732	394.62
466.951	392.62
467.171	399.62
467.391	409.62
467.61	393.62
467.829	385.62
468.049	405.62
468.268	405.62
468.488	391.62
468.707	374.62
468.927	370.62
469.146	365.62
469.365	375.62
469.585	375.62
469.804	378.62
470.023	405.62
470.243	379.62
470.462	389.62
470.681	406.62
470.901	423.62
471.12	393.62
471.339	381.62
471.558	396.62
471.777	375.62
471.997	393.62
472.216	401.62
472.435	431.62
472.654	413.62
472.873	406.62
473.092	396.62
473.311	403.62
473.53	383.62
473.749	401.62
473.968	422.62
474.187	513.62
474.406	546.62
474.625	463.62
474.844	424.62
475.063	387.62
475.282	385.62
475.501	386.62
475.72	390.62
475.939	440.62
476.158	404.62
476.377	405.62
476.596	417.62
476.814	420.62
477.033	418.62
477.252	417.62
477.471	426.62
477.69	422.62
477.908	407.62
478.127	416.62
478.346	407.62
478.564	427.62
478.783	435.62
479.002	434.62
479.22	437.62
479.439	446.62
479.658	467.62
479.876	481.62
480.095	461.62
480.313	493.62
480.532	490.62
480.751	474.62
480.969	483.62
481.188	547.62
481.406	612.62
481.624	531.62
481.843	489.62
482.061	493.62
482.28	467.62
482.498	453.62
482.717	469.62
482.935	447.62
483.153	462.62
483.372	465.62
483.59	471.62
483.808	451.62
484.027	447.62
484.245	464.62
484.463	447.62
484.681	470.62
484.9	458.62
485.118	468.62
485.336	455.62
485.554	488.62
485.772	495.62
485.99	471.62
486.209	460.62
486.427	469.62
486.645	480.62
486.863	509.62
487.081	490.62
487.299	499.62
487.517	474.62
487.735	477.62
487.953	513.62
488.171	496.62
488.389	468.62
488.607	494.62
488.825	505.62
489.043	505.62
489.261	497.62
489.479	485.62
489.696	499.62
489.914	503.62
490.132	527.62
490.35	522.62
490.568	501.62
490.786	516.62
491.003	541.62
491.221	544.62
491.439	525.62
491.657	553.62
491.874	567.62
492.092	561.62
492.31	561.62
492.527	555.62
492.745	565.62
492.963	587.62
493.18	559.62
493.398	571.62
493.615	569.62
493.833	570.62
494.05	557.62
494.268	586.62
494.485	569.62
494.703	586.62
494.92	585.62
495.138	574.62
495.355	581.62
495.573	591.62
495.79	586.62
496.008	562.62
496.225	583.62
496.442	580.62
496.66	584.62
496.877	590.62
497.094	578.62
497.312	582.62
497.529	598.62
497.746	600.62
497.963	603.62
498.181	632.62
498.398	625.62
498.615	650.62
498.832	647.62
499.049	659.62
499.267	645.62
499.484	651.62
499.701	674.62
499.918	674.62
500.135	713.62
500.352	730.62
500.569	727.62
500.786	714.62
501.003	717.62
501.22	735.62
501.437	709.62
501.654	699.62
501.871	678.62
502.088	680.62
