Data from 1961.PennyLincolnUp.Lamp.En5.5.200Scan.071719.P1._HRD10591_13-47-06-057.txt Node
Date: Thu Jul 18 13:47:06 EDT 2019
User: cochatt
Spectrometer: HR+D1059
Trigger mode: 1
Integration Time (sec): 1.000000E-1
Scans to average: 1
Electric dark correction enabled: true
Nonlinearity correction enabled: false
Boxcar width: 0
XAxis mode: Wavelengths
Number of Pixels in Spectrum: 2048
>>>>>Begin Spectral Data<<<<<
223.165	-16.75
223.4	-16.75
223.635	-16.75
223.869	-19.75
224.104	-10.75
224.338	-14.75
224.573	-11.75
224.808	-18.75
225.042	-1.75
225.277	-3.75
225.511	-15.75
225.746	-4.75
225.98	6.25
226.215	19.25
226.449	10.25
226.683	14.25
226.918	26.25
227.152	42.25
227.387	32.25
227.621	19.25
227.856	42.25
228.09	27.25
228.324	60.25
228.559	55.25
228.793	65.25
229.027	87.25
229.262	114.25
229.496	110.25
229.73	102.25
229.964	130.25
230.199	116.25
230.433	108.25
230.667	101.25
230.901	112.25
231.136	109.25
231.37	101.25
231.604	102.25
231.838	101.25
232.072	97.25
232.306	105.25
232.541	112.25
232.775	104.25
233.009	93.25
233.243	96.25
233.477	100.25
233.711	111.25
233.945	85.25
234.179	89.25
234.413	87.25
234.647	94.25
234.881	124.25
235.115	103.25
235.349	119.25
235.583	110.25
235.817	103.25
236.051	112.25
236.285	117.25
236.519	115.25
236.753	119.25
236.987	138.25
237.221	150.25
237.455	188.25
237.689	158.25
237.922	136.25
238.156	136.25
238.39	113.25
238.624	108.25
238.858	118.25
239.091	120.25
239.325	113.25
239.559	113.25
239.793	113.25
240.027	123.25
240.26	128.25
240.494	128.25
240.728	121.25
240.961	126.25
241.195	136.25
241.429	120.25
241.662	120.25
241.896	125.25
242.13	114.25
242.363	106.25
242.597	103.25
242.83	126.25
243.064	105.25
243.298	132.25
243.531	122.25
243.765	112.25
243.998	114.25
244.232	110.25
244.465	135.25
244.699	124.25
244.932	116.25
245.166	114.25
245.399	115.25
245.633	112.25
245.866	106.25
246.099	133.25
246.333	128.25
246.566	123.25
246.8	116.25
247.033	127.25
247.266	118.25
247.5	122.25
247.733	145.25
247.966	124.25
248.2	144.25
248.433	140.25
248.666	147.25
248.899	155.25
249.133	153.25
249.366	169.25
249.599	163.25
249.832	153.25
250.066	169.25
250.299	152.25
250.532	175.25
250.765	161.25
250.998	167.25
251.231	183.25
251.465	181.25
251.698	155.25
251.931	156.25
252.164	157.25
252.397	160.25
252.63	165.25
252.863	161.25
253.096	178.25
253.329	190.25
253.562	180.25
253.795	183.25
254.028	167.25
254.261	162.25
254.494	188.25
254.727	190.25
254.96	203.25
255.193	206.25
255.426	214.25
255.659	186.25
255.892	186.25
256.124	190.25
256.357	194.25
256.59	180.25
256.823	163.25
257.056	174.25
257.289	168.25
257.521	160.25
257.754	159.25
257.987	162.25
258.22	161.25
258.452	154.25
258.685	153.25
258.918	170.25
259.151	164.25
259.383	168.25
259.616	187.25
259.849	156.25
260.081	172.25
260.314	205.25
260.547	210.25
260.779	197.25
261.012	173.25
261.244	172.25
261.477	174.25
261.71	177.25
261.942	179.25
262.175	199.25
262.407	182.25
262.64	177.25
262.872	165.25
263.105	188.25
263.337	184.25
263.57	167.25
263.802	162.25
264.035	153.25
264.267	170.25
264.499	167.25
264.732	162.25
264.964	165.25
265.197	161.25
265.429	164.25
265.661	172.25
265.894	179.25
266.126	174.25
266.358	167.25
266.591	164.25
266.823	174.25
267.055	166.25
267.287	162.25
267.52	160.25
267.752	175.25
267.984	181.25
268.216	182.25
268.448	186.25
268.681	192.25
268.913	191.25
269.145	209.25
269.377	216.25
269.609	209.25
269.841	213.25
270.073	206.25
270.306	218.25
270.538	237.25
270.77	254.25
271.002	222.25
271.234	224.25
271.466	225.25
271.698	255.25
271.93	245.25
272.162	236.25
272.394	255.25
272.626	236.25
272.858	234.25
273.09	231.25
273.322	223.25
273.553	201.25
273.785	206.25
274.017	220.25
274.249	207.25
274.481	210.25
274.713	220.25
274.945	208.25
275.176	211.25
275.408	207.25
275.64	201.25
275.872	206.25
276.104	206.25
276.335	201.25
276.567	204.25
276.799	228.25
277.031	217.25
277.262	234.25
277.494	248.25
277.726	228.25
277.957	234.25
278.189	215.25
278.421	210.25
278.652	208.25
278.884	207.25
279.115	203.25
279.347	199.25
279.579	217.25
279.81	212.25
280.042	209.25
280.273	197.25
280.505	209.25
280.736	210.25
280.968	215.25
281.199	194.25
281.431	206.25
281.662	208.25
281.894	214.25
282.125	197.25
282.356	213.25
282.588	230.25
282.819	226.25
283.051	204.25
283.282	192.25
283.513	203.25
283.745	218.25
283.976	209.25
284.207	217.25
284.439	219.25
284.67	198.25
284.901	216.25
285.132	198.25
285.364	198.25
285.595	201.25
285.826	185.25
286.057	202.25
286.288	209.25
286.52	193.25
286.751	218.25
286.982	211.25
287.213	209.25
287.444	211.25
287.675	210.25
287.906	214.25
288.138	241.25
288.369	232.25
288.6	244.25
288.831	235.25
289.062	223.25
289.293	220.25
289.524	220.25
289.755	217.25
289.986	213.25
290.217	222.25
290.448	201.25
290.679	222.25
290.91	207.25
291.141	224.25
291.371	226.25
291.602	207.25
291.833	207.25
292.064	237.25
292.295	215.25
292.526	222.25
292.757	208.25
292.987	220.25
293.218	218.25
293.449	232.25
293.68	217.25
293.91	214.25
294.141	233.25
294.372	210.25
294.603	209.25
294.833	233.25
295.064	217.25
295.295	220.25
295.525	221.25
295.756	210.25
295.987	237.25
296.217	257.25
296.448	254.25
296.679	243.25
296.909	228.25
297.14	228.25
297.37	233.25
297.601	231.25
297.831	217.25
298.062	238.25
298.292	230.25
298.523	242.25
298.753	232.25
298.984	241.25
299.214	240.25
299.445	233.25
299.675	229.25
299.905	235.25
300.136	231.25
300.366	225.25
300.597	249.25
300.827	250.25
301.057	240.25
301.288	248.25
301.518	236.25
301.748	260.25
301.979	254.25
302.209	245.25
302.439	261.25
302.669	257.25
302.9	248.25
303.13	252.25
303.36	238.25
303.59	266.25
303.82	252.25
304.051	269.25
304.281	249.25
304.511	258.25
304.741	255.25
304.971	252.25
305.201	222.25
305.431	237.25
305.661	262.25
305.891	244.25
306.121	253.25
306.352	252.25
306.582	261.25
306.812	260.25
307.042	261.25
307.272	265.25
307.502	253.25
307.731	240.25
307.961	230.25
308.191	256.25
308.421	264.25
308.651	251.25
308.881	269.25
309.111	279.25
309.341	244.25
309.571	261.25
309.8	268.25
310.03	277.25
310.26	306.25
310.49	303.25
310.72	286.25
310.949	322.25
311.179	319.25
311.409	291.25
311.639	278.25
311.868	286.25
312.098	289.25
312.328	300.25
312.557	316.25
312.787	315.25
313.017	313.25
313.246	292.25
313.476	290.25
313.706	280.25
313.935	301.25
314.165	302.25
314.394	311.25
314.624	305.25
314.853	295.25
315.083	293.25
315.312	297.25
315.542	290.25
315.771	288.25
316.001	278.25
316.23	280.25
316.46	290.25
316.689	293.25
316.919	306.25
317.148	310.25
317.377	301.25
317.607	309.25
317.836	297.25
318.065	302.25
318.295	288.25
318.524	305.25
318.753	300.25
318.983	294.25
319.212	290.25
319.441	309.25
319.67	300.25
319.9	304.25
320.129	302.25
320.358	293.25
320.587	280.25
320.816	301.25
321.046	302.25
321.275	319.25
321.504	314.25
321.733	315.25
321.962	337.25
322.191	352.25
322.42	331.25
322.649	366.25
322.878	366.25
323.108	378.25
323.337	402.25
323.566	393.25
323.795	422.25
324.024	508.25
324.253	606.25
324.482	884.25
324.71	1366.25
324.939	1913.25
325.168	1592.25
325.397	846.25
325.626	551.25
325.855	434.25
326.084	407.25
326.313	407.25
326.542	403.25
326.77	452.25
326.999	535.25
327.228	776.25
327.457	1198.25
327.686	1389.25
327.914	947.25
328.143	632.25
328.372	544.25
328.6	488.25
328.829	465.25
329.058	457.25
329.287	455.25
329.515	460.25
329.744	414.25
329.972	418.25
330.201	419.25
330.43	470.25
330.658	485.25
330.887	514.25
331.115	492.25
331.344	415.25
331.572	385.25
331.801	393.25
332.03	412.25
332.258	366.25
332.486	360.25
332.715	350.25
332.943	345.25
333.172	358.25
333.4	366.25
333.629	360.25
333.857	357.25
334.085	384.25
334.314	390.25
334.542	414.25
334.771	440.25
334.999	390.25
335.227	358.25
335.455	365.25
335.684	355.25
335.912	349.25
336.14	322.25
336.369	351.25
336.597	343.25
336.825	359.25
337.053	343.25
337.281	320.25
337.51	334.25
337.738	342.25
337.966	327.25
338.194	328.25
338.422	345.25
338.65	342.25
338.878	336.25
339.106	328.25
339.334	315.25
339.562	306.25
339.79	336.25
340.018	333.25
340.246	320.25
340.474	322.25
340.702	324.25
340.93	324.25
341.158	327.25
341.386	326.25
341.614	333.25
341.842	328.25
342.07	310.25
342.298	309.25
342.526	305.25
342.754	343.25
342.981	287.25
343.209	319.25
343.437	328.25
343.665	316.25
343.893	310.25
344.12	316.25
344.348	314.25
344.576	333.25
344.804	336.25
345.031	327.25
345.259	342.25
345.487	335.25
345.714	337.25
345.942	318.25
346.17	327.25
346.397	327.25
346.625	324.25
346.853	318.25
347.08	295.25
347.308	340.25
347.535	343.25
347.763	322.25
347.99	328.25
348.218	368.25
348.445	330.25
348.673	319.25
348.9	323.25
349.128	325.25
349.355	306.25
349.583	321.25
349.81	302.25
350.037	295.25
350.265	312.25
350.492	309.25
350.72	318.25
350.947	330.25
351.174	325.25
351.402	326.25
351.629	347.25
351.856	332.25
352.083	358.25
352.311	334.25
352.538	336.25
352.765	334.25
352.992	349.25
353.22	326.25
353.447	317.25
353.674	328.25
353.901	304.25
354.128	306.25
354.355	317.25
354.583	284.25
354.81	306.25
355.037	289.25
355.264	296.25
355.491	293.25
355.718	301.25
355.945	307.25
356.172	296.25
356.399	302.25
356.626	314.25
356.853	298.25
357.08	294.25
357.307	288.25
357.534	298.25
357.761	288.25
357.988	305.25
358.215	329.25
358.441	315.25
358.668	308.25
358.895	297.25
359.122	311.25
359.349	314.25
359.576	324.25
359.802	345.25
360.029	341.25
360.256	373.25
360.483	342.25
360.709	335.25
360.936	321.25
361.163	339.25
361.39	302.25
361.616	308.25
361.843	337.25
362.07	322.25
362.296	334.25
362.523	316.25
362.749	327.25
362.976	326.25
363.203	317.25
363.429	305.25
363.656	311.25
363.882	317.25
364.109	300.25
364.335	319.25
364.562	291.25
364.788	281.25
365.015	319.25
365.241	302.25
365.468	297.25
365.694	312.25
365.92	309.25
366.147	306.25
366.373	298.25
366.599	303.25
366.826	312.25
367.052	300.25
367.278	306.25
367.505	301.25
367.731	319.25
367.957	309.25
368.184	295.25
368.41	311.25
368.636	316.25
368.862	295.25
369.089	312.25
369.315	333.25
369.541	315.25
369.767	308.25
369.993	315.25
370.219	290.25
370.445	298.25
370.672	299.25
370.898	274.25
371.124	296.25
371.35	295.25
371.576	298.25
371.802	291.25
372.028	309.25
372.254	316.25
372.48	302.25
372.706	290.25
372.932	296.25
373.158	301.25
373.384	306.25
373.61	294.25
373.835	323.25
374.061	328.25
374.287	296.25
374.513	295.25
374.739	308.25
374.965	292.25
375.191	303.25
375.416	308.25
375.642	307.25
375.868	297.25
376.094	308.25
376.319	307.25
376.545	288.25
376.771	309.25
376.997	300.25
377.222	291.25
377.448	294.25
377.674	298.25
377.899	309.25
378.125	284.25
378.35	276.25
378.576	302.25
378.802	292.25
379.027	305.25
379.253	301.25
379.478	297.25
379.704	303.25
379.929	284.25
380.155	305.25
380.38	319.25
380.606	305.25
380.831	312.25
381.057	308.25
381.282	296.25
381.507	308.25
381.733	321.25
381.958	302.25
382.184	318.25
382.409	307.25
382.634	329.25
382.86	307.25
383.085	306.25
383.31	319.25
383.535	321.25
383.761	303.25
383.986	311.25
384.211	322.25
384.436	317.25
384.662	301.25
384.887	318.25
385.112	314.25
385.337	324.25
385.562	320.25
385.787	310.25
386.013	350.25
386.238	334.25
386.463	322.25
386.688	317.25
386.913	327.25
387.138	321.25
387.363	319.25
387.588	320.25
387.813	337.25
388.038	330.25
388.263	335.25
388.488	326.25
388.713	323.25
388.938	329.25
389.163	344.25
389.387	324.25
389.612	322.25
389.837	334.25
390.062	313.25
390.287	330.25
390.512	318.25
390.736	317.25
390.961	323.25
391.186	345.25
391.411	324.25
391.636	332.25
391.86	334.25
392.085	326.25
392.31	328.25
392.534	325.25
392.759	342.25
392.984	333.25
393.208	325.25
393.433	334.25
393.658	334.25
393.882	346.25
394.107	301.25
394.331	315.25
394.556	329.25
394.78	314.25
395.005	317.25
395.229	320.25
395.454	332.25
395.678	341.25
395.903	357.25
396.127	375.25
396.352	376.25
396.576	339.25
396.801	358.25
397.025	355.25
397.249	354.25
397.474	340.25
397.698	338.25
397.922	379.25
398.147	364.25
398.371	377.25
398.595	385.25
398.82	351.25
399.044	361.25
399.268	373.25
399.492	392.25
399.717	406.25
399.941	437.25
400.165	433.25
400.389	437.25
400.613	422.25
400.837	401.25
401.062	369.25
401.286	379.25
401.51	383.25
401.734	359.25
401.958	368.25
402.182	387.25
402.406	390.25
402.63	390.25
402.854	371.25
403.078	395.25
403.302	369.25
403.526	390.25
403.75	380.25
403.974	377.25
404.198	370.25
404.422	389.25
404.645	384.25
404.869	401.25
405.093	407.25
405.317	449.25
405.541	464.25
405.765	432.25
405.988	409.25
406.212	424.25
406.436	433.25
406.66	434.25
406.883	436.25
407.107	431.25
407.331	467.25
407.555	522.25
407.778	513.25
408.002	468.25
408.226	409.25
408.449	422.25
408.673	443.25
408.896	458.25
409.12	468.25
409.344	428.25
409.567	420.25
409.791	388.25
410.014	395.25
410.238	393.25
410.461	378.25
410.685	398.25
410.908	402.25
411.132	432.25
411.355	467.25
411.578	448.25
411.802	404.25
412.025	391.25
412.249	390.25
412.472	416.25
412.695	435.25
412.919	430.25
413.142	405.25
413.365	387.25
413.589	401.25
413.812	392.25
414.035	359.25
414.258	373.25
414.482	367.25
414.705	358.25
414.928	372.25
415.151	350.25
415.374	372.25
415.597	375.25
415.821	369.25
416.044	378.25
416.267	367.25
416.49	362.25
416.713	357.25
416.936	368.25
417.159	357.25
417.382	378.25
417.605	356.25
417.828	364.25
418.051	388.25
418.274	374.25
418.497	361.25
418.72	372.25
418.943	366.25
419.166	374.25
419.389	386.25
419.611	390.25
419.834	390.25
420.057	402.25
420.28	376.25
420.503	380.25
420.726	394.25
420.948	410.25
421.171	425.25
421.394	439.25
421.617	407.25
421.839	402.25
422.062	400.25
422.285	391.25
422.507	452.25
422.73	513.25
422.953	481.25
423.175	427.25
423.398	394.25
423.621	403.25
423.843	425.25
424.066	430.25
424.288	426.25
424.511	431.25
424.733	486.25
424.956	539.25
425.178	513.25
425.401	520.25
425.623	498.25
425.846	431.25
426.068	434.25
426.291	448.25
426.513	430.25
426.735	438.25
426.958	461.25
427.18	515.25
427.402	625.25
427.625	688.25
427.847	629.25
428.069	557.25
428.292	462.25
428.514	434.25
428.736	422.25
428.958	434.25
429.181	408.25
429.403	393.25
429.625	412.25
429.847	435.25
430.069	481.25
430.292	468.25
430.514	411.25
430.736	401.25
430.958	388.25
431.18	387.25
431.402	373.25
431.624	381.25
431.846	351.25
432.068	380.25
432.29	370.25
432.512	355.25
432.734	376.25
432.956	372.25
433.178	390.25
433.4	390.25
433.622	373.25
433.844	362.25
434.066	376.25
434.287	369.25
434.509	368.25
434.731	375.25
434.953	397.25
435.175	378.25
435.397	413.25
435.618	429.25
435.84	463.25
436.062	548.25
436.284	559.25
436.505	472.25
436.727	431.25
436.949	409.25
437.17	386.25
437.392	392.25
437.614	423.25
437.835	433.25
438.057	525.25
438.278	589.25
438.5	573.25
438.721	615.25
438.943	607.25
439.165	481.25
439.386	458.25
439.608	423.25
439.829	464.25
440.05	472.25
440.272	495.25
440.493	462.25
440.715	415.25
440.936	415.25
441.158	410.25
441.379	398.25
441.6	422.25
441.822	425.25
442.043	458.25
442.264	535.25
442.486	568.25
442.707	470.25
442.928	453.25
443.149	429.25
443.371	450.25
443.592	501.25
443.813	556.25
444.034	587.25
444.255	507.25
444.476	440.25
444.698	420.25
444.919	420.25
445.14	504.25
445.361	453.25
445.582	450.25
445.803	501.25
446.024	600.25
446.245	593.25
446.466	575.25
446.687	458.25
446.908	449.25
447.129	403.25
447.35	400.25
447.571	412.25
447.792	397.25
448.013	406.25
448.234	393.25
448.455	450.25
448.675	548.25
448.896	611.25
449.117	524.25
449.338	510.25
449.559	606.25
449.779	644.25
450	540.25
450.221	443.25
450.442	408.25
450.662	409.25
450.883	399.25
451.104	417.25
451.324	408.25
451.545	386.25
451.766	354.25
451.986	348.25
452.207	372.25
452.428	366.25
452.648	384.25
452.869	372.25
453.089	357.25
453.31	394.25
453.53	368.25
453.751	359.25
453.971	358.25
454.192	384.25
454.412	370.25
454.633	356.25
454.853	345.25
455.073	351.25
455.294	386.25
455.514	440.25
455.734	432.25
455.955	362.25
456.175	331.25
456.395	339.25
456.616	326.25
456.836	347.25
457.056	339.25
457.276	344.25
457.497	337.25
457.717	333.25
457.937	346.25
458.157	352.25
458.377	346.25
458.598	378.25
458.818	428.25
459.038	489.25
459.258	495.25
459.478	442.25
459.698	389.25
459.918	379.25
460.138	376.25
460.358	366.25
460.578	373.25
460.798	388.25
461.018	383.25
461.238	387.25
461.458	368.25
461.678	371.25
461.898	388.25
462.118	387.25
462.338	388.25
462.558	386.25
462.777	396.25
462.997	413.25
463.217	396.25
463.437	409.25
463.657	395.25
463.876	382.25
464.096	377.25
464.316	402.25
464.536	415.25
464.755	408.25
464.975	395.25
465.195	437.25
465.414	497.25
465.634	461.25
465.854	438.25
466.073	401.25
466.293	387.25
466.512	366.25
466.732	356.25
466.951	373.25
467.171	350.25
467.391	368.25
467.61	388.25
467.829	390.25
468.049	389.25
468.268	395.25
468.488	364.25
468.707	373.25
468.927	359.25
469.146	348.25
469.365	361.25
469.585	350.25
469.804	349.25
470.023	368.25
470.243	376.25
470.462	373.25
470.681	385.25
470.901	389.25
471.12	377.25
471.339	383.25
471.558	400.25
471.777	378.25
471.997	381.25
472.216	390.25
472.435	428.25
472.654	426.25
472.873	378.25
473.092	378.25
473.311	368.25
473.53	384.25
473.749	384.25
473.968	425.25
474.187	510.25
474.406	535.25
474.625	456.25
474.844	393.25
475.063	390.25
475.282	383.25
475.501	384.25
475.72	397.25
475.939	400.25
476.158	371.25
476.377	386.25
476.596	374.25
476.814	385.25
477.033	379.25
477.252	387.25
477.471	412.25
477.69	402.25
477.908	401.25
478.127	383.25
478.346	396.25
478.564	395.25
478.783	398.25
479.002	417.25
479.22	425.25
479.439	424.25
479.658	454.25
479.876	466.25
480.095	451.25
480.313	470.25
480.532	476.25
480.751	467.25
480.969	457.25
481.188	517.25
481.406	590.25
481.624	504.25
481.843	452.25
482.061	450.25
482.28	421.25
482.498	456.25
482.717	443.25
482.935	421.25
483.153	421.25
483.372	442.25
483.59	431.25
483.808	437.25
484.027	448.25
484.245	444.25
484.463	440.25
484.681	448.25
484.9	446.25
485.118	461.25
485.336	435.25
485.554	443.25
485.772	441.25
485.99	442.25
486.209	472.25
486.427	447.25
486.645	462.25
486.863	471.25
487.081	485.25
487.299	480.25
487.517	476.25
487.735	465.25
487.953	486.25
488.171	480.25
488.389	470.25
488.607	480.25
488.825	459.25
489.043	480.25
489.261	501.25
489.479	481.25
489.696	483.25
489.914	466.25
490.132	481.25
490.35	499.25
490.568	496.25
490.786	509.25
491.003	514.25
491.221	522.25
491.439	518.25
491.657	515.25
491.874	518.25
492.092	528.25
492.31	537.25
492.527	521.25
492.745	530.25
492.963	538.25
493.18	493.25
493.398	555.25
493.615	541.25
493.833	535.25
494.05	552.25
494.268	558.25
494.485	540.25
494.703	551.25
494.92	558.25
495.138	530.25
495.355	541.25
495.573	553.25
495.79	563.25
496.008	561.25
496.225	566.25
496.442	550.25
496.66	560.25
496.877	568.25
497.094	557.25
497.312	567.25
497.529	587.25
497.746	585.25
497.963	599.25
498.181	598.25
498.398	602.25
498.615	627.25
498.832	624.25
499.049	613.25
499.267	614.25
499.484	633.25
499.701	660.25
499.918	647.25
500.135	687.25
500.352	685.25
500.569	681.25
500.786	722.25
501.003	710.25
501.22	694.25
501.437	660.25
501.654	678.25
501.871	659.25
502.088	650.25
