Data from 1961.PennyLincolnUp.Lamp.En5.5.200Scan.071719.P1._HRD10591_13-49-09-058.txt Node
Date: Thu Jul 18 13:49:09 EDT 2019
User: cochatt
Spectrometer: HR+D1059
Trigger mode: 1
Integration Time (sec): 1.000000E-1
Scans to average: 1
Electric dark correction enabled: true
Nonlinearity correction enabled: false
Boxcar width: 0
XAxis mode: Wavelengths
Number of Pixels in Spectrum: 2048
>>>>>Begin Spectral Data<<<<<
223.165	-17.81
223.4	-17.81
223.635	-17.81
223.869	-12.81
224.104	-30.81
224.338	-18.81
224.573	-10.81
224.808	-8.81
225.042	-6.81
225.277	-1.81
225.511	10.19
225.746	-5.81
225.98	5.19
226.215	26.19
226.449	13.19
226.683	14.19
226.918	26.19
227.152	19.19
227.387	33.19
227.621	42.19
227.856	50.19
228.09	46.19
228.324	52.19
228.559	59.19
228.793	68.19
229.027	95.19
229.262	101.19
229.496	126.19
229.73	117.19
229.964	153.19
230.199	111.19
230.433	122.19
230.667	109.19
230.901	111.19
231.136	93.19
231.37	116.19
231.604	108.19
231.838	114.19
232.072	98.19
232.306	103.19
232.541	120.19
232.775	114.19
233.009	121.19
233.243	118.19
233.477	124.19
233.711	113.19
233.945	113.19
234.179	107.19
234.413	104.19
234.647	110.19
234.881	117.19
235.115	115.19
235.349	106.19
235.583	115.19
235.817	124.19
236.051	113.19
236.285	125.19
236.519	121.19
236.753	130.19
236.987	137.19
237.221	191.19
237.455	239.19
237.689	165.19
237.922	139.19
238.156	142.19
238.39	122.19
238.624	129.19
238.858	109.19
239.091	125.19
239.325	105.19
239.559	100.19
239.793	129.19
240.027	134.19
240.26	147.19
240.494	141.19
240.728	121.19
240.961	132.19
241.195	145.19
241.429	138.19
241.662	139.19
241.896	122.19
242.13	135.19
242.363	135.19
242.597	125.19
242.83	135.19
243.064	141.19
243.298	130.19
243.531	125.19
243.765	133.19
243.998	124.19
244.232	132.19
244.465	149.19
244.699	131.19
244.932	125.19
245.166	133.19
245.399	134.19
245.633	140.19
245.866	142.19
246.099	124.19
246.333	134.19
246.566	123.19
246.8	128.19
247.033	146.19
247.266	152.19
247.5	153.19
247.733	153.19
247.966	161.19
248.2	142.19
248.433	142.19
248.666	142.19
248.899	174.19
249.133	178.19
249.366	181.19
249.599	165.19
249.832	163.19
250.066	180.19
250.299	165.19
250.532	181.19
250.765	176.19
250.998	193.19
251.231	200.19
251.465	193.19
251.698	182.19
251.931	190.19
252.164	175.19
252.397	175.19
252.63	170.19
252.863	185.19
253.096	191.19
253.329	193.19
253.562	208.19
253.795	205.19
254.028	191.19
254.261	187.19
254.494	219.19
254.727	223.19
254.96	245.19
255.193	235.19
255.426	220.19
255.659	197.19
255.892	210.19
256.124	203.19
256.357	213.19
256.59	206.19
256.823	196.19
257.056	207.19
257.289	185.19
257.521	192.19
257.754	190.19
257.987	185.19
258.22	183.19
258.452	199.19
258.685	172.19
258.918	190.19
259.151	203.19
259.383	200.19
259.616	206.19
259.849	201.19
260.081	218.19
260.314	231.19
260.547	225.19
260.779	212.19
261.012	214.19
261.244	210.19
261.477	191.19
261.71	183.19
261.942	191.19
262.175	208.19
262.407	199.19
262.64	205.19
262.872	196.19
263.105	197.19
263.337	196.19
263.57	182.19
263.802	196.19
264.035	197.19
264.267	182.19
264.499	175.19
264.732	188.19
264.964	198.19
265.197	194.19
265.429	196.19
265.661	194.19
265.894	180.19
266.126	198.19
266.358	203.19
266.591	190.19
266.823	207.19
267.055	202.19
267.287	184.19
267.52	189.19
267.752	200.19
267.984	206.19
268.216	200.19
268.448	208.19
268.681	196.19
268.913	212.19
269.145	222.19
269.377	228.19
269.609	247.19
269.841	241.19
270.073	253.19
270.306	255.19
270.538	275.19
270.77	301.19
271.002	264.19
271.234	256.19
271.466	269.19
271.698	261.19
271.93	291.19
272.162	283.19
272.394	275.19
272.626	262.19
272.858	248.19
273.09	241.19
273.322	238.19
273.553	247.19
273.785	225.19
274.017	215.19
274.249	204.19
274.481	241.19
274.713	249.19
274.945	248.19
275.176	223.19
275.408	241.19
275.64	225.19
275.872	230.19
276.104	225.19
276.335	214.19
276.567	233.19
276.799	247.19
277.031	274.19
277.262	281.19
277.494	282.19
277.726	276.19
277.957	257.19
278.189	238.19
278.421	217.19
278.652	224.19
278.884	234.19
279.115	220.19
279.347	231.19
279.579	227.19
279.81	236.19
280.042	237.19
280.273	236.19
280.505	246.19
280.736	218.19
280.968	229.19
281.199	232.19
281.431	237.19
281.662	237.19
281.894	218.19
282.125	226.19
282.356	259.19
282.588	279.19
282.819	263.19
283.051	243.19
283.282	228.19
283.513	235.19
283.745	247.19
283.976	247.19
284.207	238.19
284.439	245.19
284.67	230.19
284.901	219.19
285.132	236.19
285.364	232.19
285.595	250.19
285.826	221.19
286.057	228.19
286.288	234.19
286.52	238.19
286.751	235.19
286.982	236.19
287.213	233.19
287.444	233.19
287.675	239.19
287.906	261.19
288.138	250.19
288.369	245.19
288.6	263.19
288.831	265.19
289.062	262.19
289.293	241.19
289.524	245.19
289.755	244.19
289.986	244.19
290.217	233.19
290.448	247.19
290.679	237.19
290.91	251.19
291.141	261.19
291.371	247.19
291.602	249.19
291.833	243.19
292.064	243.19
292.295	240.19
292.526	247.19
292.757	245.19
292.987	226.19
293.218	237.19
293.449	237.19
293.68	254.19
293.91	232.19
294.141	233.19
294.372	252.19
294.603	248.19
294.833	236.19
295.064	237.19
295.295	234.19
295.525	235.19
295.756	249.19
295.987	277.19
296.217	271.19
296.448	301.19
296.679	262.19
296.909	247.19
297.14	244.19
297.37	247.19
297.601	249.19
297.831	256.19
298.062	231.19
298.292	244.19
298.523	279.19
298.753	252.19
298.984	273.19
299.214	269.19
299.445	262.19
299.675	273.19
299.905	267.19
300.136	252.19
300.366	263.19
300.597	250.19
300.827	255.19
301.057	280.19
301.288	276.19
301.518	280.19
301.748	279.19
301.979	283.19
302.209	283.19
302.439	279.19
302.669	291.19
302.9	268.19
303.13	261.19
303.36	285.19
303.59	293.19
303.82	287.19
304.051	284.19
304.281	269.19
304.511	283.19
304.741	273.19
304.971	269.19
305.201	277.19
305.431	285.19
305.661	275.19
305.891	291.19
306.121	269.19
306.352	273.19
306.582	285.19
306.812	291.19
307.042	285.19
307.272	280.19
307.502	272.19
307.731	272.19
307.961	277.19
308.191	291.19
308.421	298.19
308.651	289.19
308.881	293.19
309.111	291.19
309.341	309.19
309.571	315.19
309.8	319.19
310.03	317.19
310.26	335.19
310.49	313.19
310.72	327.19
310.949	368.19
311.179	369.19
311.409	342.19
311.639	327.19
311.868	354.19
312.098	344.19
312.328	358.19
312.557	358.19
312.787	362.19
313.017	355.19
313.246	349.19
313.476	339.19
313.706	341.19
313.935	326.19
314.165	343.19
314.394	348.19
314.624	359.19
314.853	337.19
315.083	333.19
315.312	332.19
315.542	327.19
315.771	334.19
316.001	332.19
316.23	299.19
316.46	305.19
316.689	314.19
316.919	355.19
317.148	350.19
317.377	345.19
317.607	354.19
317.836	352.19
318.065	341.19
318.295	335.19
318.524	299.19
318.753	330.19
318.983	315.19
319.212	319.19
319.441	335.19
319.67	340.19
319.9	337.19
320.129	332.19
320.358	327.19
320.587	333.19
320.816	330.19
321.046	348.19
321.275	362.19
321.504	346.19
321.733	366.19
321.962	356.19
322.191	364.19
322.42	385.19
322.649	399.19
322.878	418.19
323.108	421.19
323.337	444.19
323.566	464.19
323.795	510.19
324.024	588.19
324.253	745.19
324.482	1094.19
324.71	1678.19
324.939	2353.19
325.168	1962.19
325.397	1030.19
325.626	663.19
325.855	534.19
326.084	479.19
326.313	488.19
326.542	482.19
326.77	549.19
326.999	672.19
327.228	973.19
327.457	1460.19
327.686	1711.19
327.914	1140.19
328.143	739.19
328.372	635.19
328.6	570.19
328.829	550.19
329.058	561.19
329.287	555.19
329.515	525.19
329.744	494.19
329.972	488.19
330.201	516.19
330.43	555.19
330.658	577.19
330.887	611.19
331.115	566.19
331.344	487.19
331.572	477.19
331.801	460.19
332.03	442.19
332.258	444.19
332.486	380.19
332.715	396.19
332.943	393.19
333.172	392.19
333.4	386.19
333.629	406.19
333.857	425.19
334.085	427.19
334.314	451.19
334.542	508.19
334.771	517.19
334.999	457.19
335.227	417.19
335.455	422.19
335.684	391.19
335.912	395.19
336.14	389.19
336.369	373.19
336.597	385.19
336.825	399.19
337.053	365.19
337.281	381.19
337.51	358.19
337.738	358.19
337.966	385.19
338.194	381.19
338.422	382.19
338.65	381.19
338.878	365.19
339.106	364.19
339.334	360.19
339.562	353.19
339.79	369.19
340.018	377.19
340.246	377.19
340.474	381.19
340.702	381.19
340.93	370.19
341.158	352.19
341.386	373.19
341.614	366.19
341.842	377.19
342.07	359.19
342.298	359.19
342.526	366.19
342.754	341.19
342.981	339.19
343.209	362.19
343.437	351.19
343.665	358.19
343.893	371.19
344.12	371.19
344.348	363.19
344.576	374.19
344.804	385.19
345.031	403.19
345.259	396.19
345.487	381.19
345.714	378.19
345.942	371.19
346.17	353.19
346.397	348.19
346.625	345.19
346.853	366.19
347.08	350.19
347.308	358.19
347.535	364.19
347.763	379.19
347.99	375.19
348.218	358.19
348.445	362.19
348.673	372.19
348.9	363.19
349.128	345.19
349.355	344.19
349.583	350.19
349.81	357.19
350.037	354.19
350.265	350.19
350.492	356.19
350.72	343.19
350.947	366.19
351.174	362.19
351.402	369.19
351.629	364.19
351.856	362.19
352.083	393.19
352.311	382.19
352.538	390.19
352.765	389.19
352.992	379.19
353.22	373.19
353.447	351.19
353.674	369.19
353.901	350.19
354.128	367.19
354.355	339.19
354.583	347.19
354.81	354.19
355.037	326.19
355.264	323.19
355.491	337.19
355.718	341.19
355.945	336.19
356.172	340.19
356.399	327.19
356.626	356.19
356.853	319.19
357.08	324.19
357.307	322.19
357.534	331.19
357.761	349.19
357.988	330.19
358.215	341.19
358.441	331.19
358.668	351.19
358.895	326.19
359.122	347.19
359.349	359.19
359.576	373.19
359.802	396.19
360.029	417.19
360.256	439.19
360.483	404.19
360.709	357.19
360.936	349.19
361.163	368.19
361.39	362.19
361.616	379.19
361.843	362.19
362.07	380.19
362.296	373.19
362.523	363.19
362.749	349.19
362.976	360.19
363.203	364.19
363.429	341.19
363.656	349.19
363.882	335.19
364.109	359.19
364.335	333.19
364.562	331.19
364.788	343.19
365.015	340.19
365.241	336.19
365.468	343.19
365.694	348.19
365.92	354.19
366.147	329.19
366.373	343.19
366.599	366.19
366.826	319.19
367.052	342.19
367.278	341.19
367.505	344.19
367.731	355.19
367.957	349.19
368.184	343.19
368.41	369.19
368.636	353.19
368.862	349.19
369.089	348.19
369.315	348.19
369.541	329.19
369.767	363.19
369.993	354.19
370.219	322.19
370.445	341.19
370.672	337.19
370.898	335.19
371.124	312.19
371.35	344.19
371.576	353.19
371.802	324.19
372.028	339.19
372.254	329.19
372.48	347.19
372.706	331.19
372.932	321.19
373.158	340.19
373.384	316.19
373.61	334.19
373.835	339.19
374.061	335.19
374.287	337.19
374.513	334.19
374.739	335.19
374.965	326.19
375.191	353.19
375.416	335.19
375.642	329.19
375.868	341.19
376.094	347.19
376.319	332.19
376.545	340.19
376.771	316.19
376.997	341.19
377.222	333.19
377.448	336.19
377.674	323.19
377.899	326.19
378.125	325.19
378.35	310.19
378.576	321.19
378.802	332.19
379.027	319.19
379.253	323.19
379.478	325.19
379.704	354.19
379.929	313.19
380.155	330.19
380.38	331.19
380.606	319.19
380.831	333.19
381.057	358.19
381.282	341.19
381.507	332.19
381.733	343.19
381.958	346.19
382.184	342.19
382.409	347.19
382.634	345.19
382.86	341.19
383.085	327.19
383.31	340.19
383.535	353.19
383.761	347.19
383.986	346.19
384.211	349.19
384.436	355.19
384.662	344.19
384.887	351.19
385.112	334.19
385.337	351.19
385.562	342.19
385.787	330.19
386.013	370.19
386.238	365.19
386.463	363.19
386.688	350.19
386.913	362.19
387.138	355.19
387.363	346.19
387.588	375.19
387.813	366.19
388.038	345.19
388.263	354.19
388.488	344.19
388.713	346.19
388.938	363.19
389.163	367.19
389.387	356.19
389.612	347.19
389.837	356.19
390.062	366.19
390.287	367.19
390.512	346.19
390.736	364.19
390.961	345.19
391.186	366.19
391.411	362.19
391.636	358.19
391.86	361.19
392.085	371.19
392.31	355.19
392.534	340.19
392.759	365.19
392.984	358.19
393.208	349.19
393.433	350.19
393.658	366.19
393.882	362.19
394.107	355.19
394.331	372.19
394.556	364.19
394.78	348.19
395.005	341.19
395.229	348.19
395.454	357.19
395.678	366.19
395.903	369.19
396.127	389.19
396.352	397.19
396.576	383.19
396.801	383.19
397.025	362.19
397.249	395.19
397.474	396.19
397.698	398.19
397.922	398.19
398.147	398.19
398.371	409.19
398.595	391.19
398.82	389.19
399.044	395.19
399.268	405.19
399.492	414.19
399.717	449.19
399.941	435.19
400.165	477.19
400.389	490.19
400.613	455.19
400.837	443.19
401.062	435.19
401.286	420.19
401.51	418.19
401.734	399.19
401.958	422.19
402.182	405.19
402.406	414.19
402.63	435.19
402.854	426.19
403.078	414.19
403.302	390.19
403.526	424.19
403.75	413.19
403.974	424.19
404.198	421.19
404.422	440.19
404.645	423.19
404.869	418.19
405.093	467.19
405.317	489.19
405.541	533.19
405.765	485.19
405.988	456.19
406.212	481.19
406.436	480.19
406.66	471.19
406.883	457.19
407.107	496.19
407.331	509.19
407.555	588.19
407.778	549.19
408.002	519.19
408.226	493.19
408.449	486.19
408.673	475.19
408.896	496.19
409.12	508.19
409.344	486.19
409.567	453.19
409.791	446.19
410.014	430.19
410.238	430.19
410.461	419.19
410.685	419.19
410.908	449.19
411.132	472.19
411.355	510.19
411.578	478.19
411.802	446.19
412.025	435.19
412.249	434.19
412.472	443.19
412.695	505.19
412.919	478.19
413.142	443.19
413.365	425.19
413.589	437.19
413.812	423.19
414.035	415.19
414.258	410.19
414.482	403.19
414.705	411.19
414.928	397.19
415.151	397.19
415.374	407.19
415.597	398.19
415.821	392.19
416.044	383.19
416.267	410.19
416.49	404.19
416.713	382.19
416.936	415.19
417.159	395.19
417.382	400.19
417.605	434.19
417.828	410.19
418.051	415.19
418.274	411.19
418.497	405.19
418.72	396.19
418.943	411.19
419.166	419.19
419.389	420.19
419.611	454.19
419.834	417.19
420.057	427.19
420.28	433.19
420.503	423.19
420.726	439.19
420.948	422.19
421.171	479.19
421.394	505.19
421.617	453.19
421.839	425.19
422.062	408.19
422.285	446.19
422.507	484.19
422.73	538.19
422.953	526.19
423.175	465.19
423.398	437.19
423.621	440.19
423.843	467.19
424.066	464.19
424.288	455.19
424.511	477.19
424.733	545.19
424.956	613.19
425.178	569.19
425.401	574.19
425.623	584.19
425.846	497.19
426.068	465.19
426.291	471.19
426.513	465.19
426.735	484.19
426.958	542.19
427.18	597.19
427.402	701.19
427.625	783.19
427.847	715.19
428.069	620.19
428.292	539.19
428.514	455.19
428.736	449.19
428.958	455.19
429.181	420.19
429.403	425.19
429.625	461.19
429.847	486.19
430.069	530.19
430.292	518.19
430.514	440.19
430.736	451.19
430.958	424.19
431.18	407.19
431.402	410.19
431.624	393.19
431.846	386.19
432.068	396.19
432.29	399.19
432.512	407.19
432.734	409.19
432.956	420.19
433.178	429.19
433.4	431.19
433.622	410.19
433.844	403.19
434.066	395.19
434.287	410.19
434.509	406.19
434.731	409.19
434.953	431.19
435.175	444.19
435.397	476.19
435.618	483.19
435.84	518.19
436.062	606.19
436.284	649.19
436.505	553.19
436.727	519.19
436.949	469.19
437.17	453.19
437.392	453.19
437.614	450.19
437.835	487.19
438.057	586.19
438.278	689.19
438.5	663.19
438.721	714.19
438.943	683.19
439.165	538.19
439.386	494.19
439.608	497.19
439.829	493.19
440.05	534.19
440.272	567.19
440.493	541.19
440.715	472.19
440.936	453.19
441.158	457.19
441.379	436.19
441.6	455.19
441.822	470.19
442.043	523.19
442.264	601.19
442.486	638.19
442.707	540.19
442.928	485.19
443.149	510.19
443.371	516.19
443.592	574.19
443.813	626.19
444.034	683.19
444.255	559.19
444.476	489.19
444.698	490.19
444.919	485.19
445.14	577.19
445.361	517.19
445.582	530.19
445.803	597.19
446.024	693.19
446.245	667.19
446.466	632.19
446.687	535.19
446.908	472.19
447.129	472.19
447.35	457.19
447.571	453.19
447.792	456.19
448.013	441.19
448.234	466.19
448.455	507.19
448.675	597.19
448.896	680.19
449.117	596.19
449.338	583.19
449.559	677.19
449.779	709.19
450	601.19
450.221	517.19
450.442	481.19
450.662	447.19
450.883	455.19
451.104	473.19
451.324	448.19
451.545	450.19
451.766	415.19
451.986	395.19
452.207	397.19
452.428	396.19
452.648	390.19
452.869	401.19
453.089	423.19
453.31	415.19
453.53	396.19
453.751	387.19
453.971	405.19
454.192	433.19
454.412	420.19
454.633	426.19
454.853	408.19
455.073	406.19
455.294	433.19
455.514	485.19
455.734	459.19
455.955	413.19
456.175	369.19
456.395	366.19
456.616	362.19
456.836	376.19
457.056	376.19
457.276	346.19
457.497	370.19
457.717	360.19
457.937	360.19
458.157	393.19
458.377	384.19
458.598	404.19
458.818	489.19
459.038	569.19
459.258	573.19
459.478	493.19
459.698	447.19
459.918	407.19
460.138	418.19
460.358	381.19
460.578	389.19
460.798	398.19
461.018	430.19
461.238	418.19
461.458	413.19
461.678	399.19
461.898	415.19
462.118	410.19
462.338	406.19
462.558	423.19
462.777	395.19
462.997	411.19
463.217	423.19
463.437	431.19
463.657	447.19
463.876	427.19
464.096	419.19
464.316	426.19
464.536	435.19
464.755	435.19
464.975	451.19
465.195	512.19
465.414	591.19
465.634	506.19
465.854	469.19
466.073	443.19
466.293	438.19
466.512	421.19
466.732	403.19
466.951	400.19
467.171	380.19
467.391	407.19
467.61	413.19
467.829	435.19
468.049	434.19
468.268	420.19
468.488	419.19
468.707	406.19
468.927	387.19
469.146	392.19
469.365	396.19
469.585	400.19
469.804	436.19
470.023	436.19
470.243	406.19
470.462	412.19
470.681	438.19
470.901	437.19
471.12	412.19
471.339	421.19
471.558	415.19
471.777	410.19
471.997	406.19
472.216	423.19
472.435	446.19
472.654	467.19
472.873	421.19
473.092	420.19
473.311	409.19
473.53	402.19
473.749	433.19
473.968	480.19
474.187	554.19
474.406	597.19
474.625	483.19
474.844	441.19
475.063	412.19
475.282	427.19
475.501	411.19
475.72	404.19
475.939	422.19
476.158	423.19
476.377	426.19
476.596	423.19
476.814	422.19
477.033	447.19
477.252	444.19
477.471	441.19
477.69	419.19
477.908	434.19
478.127	442.19
478.346	444.19
478.564	421.19
478.783	462.19
479.002	446.19
479.22	451.19
479.439	466.19
479.658	494.19
479.876	494.19
480.095	494.19
480.313	521.19
480.532	513.19
480.751	499.19
480.969	526.19
481.188	593.19
481.406	623.19
481.624	575.19
481.843	530.19
482.061	489.19
482.28	495.19
482.498	476.19
482.717	470.19
482.935	493.19
483.153	497.19
483.372	471.19
483.59	488.19
483.808	497.19
484.027	471.19
484.245	494.19
484.463	473.19
484.681	488.19
484.9	489.19
485.118	488.19
485.336	500.19
485.554	489.19
485.772	515.19
485.99	499.19
486.209	510.19
486.427	513.19
486.645	509.19
486.863	515.19
487.081	525.19
487.299	546.19
487.517	527.19
487.735	514.19
487.953	514.19
488.171	506.19
488.389	504.19
488.607	529.19
488.825	519.19
489.043	546.19
489.261	535.19
489.479	531.19
489.696	518.19
489.914	521.19
490.132	535.19
490.35	537.19
490.568	569.19
490.786	566.19
491.003	545.19
491.221	572.19
491.439	578.19
491.657	569.19
491.874	570.19
492.092	611.19
492.31	600.19
492.527	577.19
492.745	594.19
492.963	601.19
493.18	585.19
493.398	593.19
493.615	604.19
493.833	625.19
494.05	619.19
494.268	621.19
494.485	603.19
494.703	615.19
494.92	600.19
495.138	612.19
495.355	629.19
495.573	621.19
495.79	598.19
496.008	600.19
496.225	607.19
496.442	644.19
496.66	596.19
496.877	614.19
497.094	615.19
497.312	605.19
497.529	636.19
497.746	616.19
497.963	629.19
498.181	651.19
498.398	679.19
498.615	674.19
498.832	677.19
499.049	654.19
499.267	671.19
499.484	718.19
499.701	715.19
499.918	705.19
500.135	733.19
500.352	767.19
500.569	771.19
500.786	797.19
501.003	771.19
501.22	770.19
501.437	767.19
501.654	739.19
501.871	748.19
