Data from 1961.PennyLincolnUp.Lamp.En5.5.200Scan.071719.P1._HRD10591_13-48-31-058.txt Node
Date: Thu Jul 18 13:48:31 EDT 2019
User: cochatt
Spectrometer: HR+D1059
Trigger mode: 1
Integration Time (sec): 1.000000E-1
Scans to average: 1
Electric dark correction enabled: true
Nonlinearity correction enabled: false
Boxcar width: 0
XAxis mode: Wavelengths
Number of Pixels in Spectrum: 2048
>>>>>Begin Spectral Data<<<<<
223.165	-17.25
223.4	-17.25
223.635	-17.25
223.869	-28.25
224.104	-10.25
224.338	-4.25
224.573	-23.25
224.808	-25.25
225.042	-4.25
225.277	-2.25
225.511	-6.25
225.746	10.75
225.98	8.75
226.215	5.75
226.449	20.75
226.683	17.75
226.918	24.75
227.152	32.75
227.387	23.75
227.621	33.75
227.856	47.75
228.09	42.75
228.324	39.75
228.559	46.75
228.793	54.75
229.027	88.75
229.262	101.75
229.496	103.75
229.73	118.75
229.964	133.75
230.199	111.75
230.433	114.75
230.667	105.75
230.901	94.75
231.136	98.75
231.37	102.75
231.604	90.75
231.838	99.75
232.072	106.75
232.306	99.75
232.541	109.75
232.775	97.75
233.009	110.75
233.243	96.75
233.477	105.75
233.711	105.75
233.945	99.75
234.179	108.75
234.413	109.75
234.647	103.75
234.881	111.75
235.115	107.75
235.349	107.75
235.583	122.75
235.817	101.75
236.051	113.75
236.285	111.75
236.519	100.75
236.753	109.75
236.987	130.75
237.221	187.75
237.455	217.75
237.689	164.75
237.922	115.75
238.156	117.75
238.39	117.75
238.624	127.75
238.858	100.75
239.091	117.75
239.325	101.75
239.559	110.75
239.793	118.75
240.027	116.75
240.26	135.75
240.494	139.75
240.728	129.75
240.961	135.75
241.195	113.75
241.429	115.75
241.662	106.75
241.896	121.75
242.13	131.75
242.363	117.75
242.597	112.75
242.83	114.75
243.064	110.75
243.298	113.75
243.531	137.75
243.765	118.75
243.998	101.75
244.232	127.75
244.465	125.75
244.699	117.75
244.932	124.75
245.166	123.75
245.399	113.75
245.633	122.75
245.866	129.75
246.099	125.75
246.333	125.75
246.566	124.75
246.8	126.75
247.033	115.75
247.266	140.75
247.5	140.75
247.733	135.75
247.966	144.75
248.2	135.75
248.433	127.75
248.666	151.75
248.899	162.75
249.133	182.75
249.366	167.75
249.599	153.75
249.832	138.75
250.066	156.75
250.299	147.75
250.532	161.75
250.765	187.75
250.998	194.75
251.231	189.75
251.465	181.75
251.698	162.75
251.931	157.75
252.164	175.75
252.397	134.75
252.63	158.75
252.863	173.75
253.096	191.75
253.329	195.75
253.562	177.75
253.795	198.75
254.028	180.75
254.261	176.75
254.494	190.75
254.727	204.75
254.96	235.75
255.193	239.75
255.426	205.75
255.659	210.75
255.892	207.75
256.124	194.75
256.357	178.75
256.59	189.75
256.823	181.75
257.056	198.75
257.289	169.75
257.521	175.75
257.754	179.75
257.987	174.75
258.22	179.75
258.452	169.75
258.685	169.75
258.918	182.75
259.151	184.75
259.383	169.75
259.616	175.75
259.849	189.75
260.081	187.75
260.314	214.75
260.547	218.75
260.779	212.75
261.012	191.75
261.244	177.75
261.477	172.75
261.71	165.75
261.942	187.75
262.175	198.75
262.407	194.75
262.64	165.75
262.872	179.75
263.105	171.75
263.337	176.75
263.57	182.75
263.802	171.75
264.035	170.75
264.267	175.75
264.499	175.75
264.732	179.75
264.964	179.75
265.197	170.75
265.429	167.75
265.661	173.75
265.894	182.75
266.126	184.75
266.358	178.75
266.591	159.75
266.823	189.75
267.055	185.75
267.287	171.75
267.52	180.75
267.752	190.75
267.984	181.75
268.216	180.75
268.448	177.75
268.681	211.75
268.913	206.75
269.145	219.75
269.377	219.75
269.609	225.75
269.841	214.75
270.073	225.75
270.306	246.75
270.538	243.75
270.77	223.75
271.002	241.75
271.234	209.75
271.466	233.75
271.698	253.75
271.93	257.75
272.162	250.75
272.394	265.75
272.626	239.75
272.858	217.75
273.09	238.75
273.322	211.75
273.553	205.75
273.785	215.75
274.017	222.75
274.249	235.75
274.481	214.75
274.713	210.75
274.945	209.75
275.176	203.75
275.408	225.75
275.64	211.75
275.872	218.75
276.104	202.75
276.335	212.75
276.567	214.75
276.799	247.75
277.031	233.75
277.262	253.75
277.494	265.75
277.726	259.75
277.957	236.75
278.189	220.75
278.421	221.75
278.652	218.75
278.884	215.75
279.115	213.75
279.347	213.75
279.579	224.75
279.81	206.75
280.042	211.75
280.273	216.75
280.505	235.75
280.736	214.75
280.968	214.75
281.199	201.75
281.431	212.75
281.662	213.75
281.894	206.75
282.125	201.75
282.356	219.75
282.588	246.75
282.819	240.75
283.051	211.75
283.282	212.75
283.513	211.75
283.745	231.75
283.976	230.75
284.207	214.75
284.439	212.75
284.67	226.75
284.901	222.75
285.132	221.75
285.364	225.75
285.595	216.75
285.826	209.75
286.057	215.75
286.288	229.75
286.52	235.75
286.751	214.75
286.982	229.75
287.213	233.75
287.444	233.75
287.675	236.75
287.906	235.75
288.138	245.75
288.369	235.75
288.6	247.75
288.831	251.75
289.062	229.75
289.293	221.75
289.524	229.75
289.755	239.75
289.986	221.75
290.217	212.75
290.448	217.75
290.679	238.75
290.91	220.75
291.141	212.75
291.371	207.75
291.602	238.75
291.833	220.75
292.064	235.75
292.295	222.75
292.526	220.75
292.757	219.75
292.987	218.75
293.218	240.75
293.449	239.75
293.68	221.75
293.91	226.75
294.141	228.75
294.372	224.75
294.603	219.75
294.833	234.75
295.064	230.75
295.295	236.75
295.525	218.75
295.756	241.75
295.987	230.75
296.217	261.75
296.448	274.75
296.679	259.75
296.909	233.75
297.14	233.75
297.37	229.75
297.601	240.75
297.831	233.75
298.062	220.75
298.292	219.75
298.523	236.75
298.753	235.75
298.984	238.75
299.214	254.75
299.445	235.75
299.675	226.75
299.905	247.75
300.136	253.75
300.366	243.75
300.597	239.75
300.827	244.75
301.057	243.75
301.288	263.75
301.518	251.75
301.748	257.75
301.979	256.75
302.209	258.75
302.439	250.75
302.669	254.75
302.9	270.75
303.13	250.75
303.36	249.75
303.59	266.75
303.82	280.75
304.051	241.75
304.281	280.75
304.511	255.75
304.741	252.75
304.971	254.75
305.201	251.75
305.431	252.75
305.661	252.75
305.891	248.75
306.121	251.75
306.352	270.75
306.582	258.75
306.812	273.75
307.042	261.75
307.272	268.75
307.502	268.75
307.731	250.75
307.961	253.75
308.191	259.75
308.421	259.75
308.651	272.75
308.881	284.75
309.111	281.75
309.341	272.75
309.571	270.75
309.8	290.75
310.03	286.75
310.26	312.75
310.49	310.75
310.72	316.75
310.949	309.75
311.179	345.75
311.409	321.75
311.639	310.75
311.868	311.75
312.098	326.75
312.328	305.75
312.557	325.75
312.787	364.75
313.017	337.75
313.246	339.75
313.476	318.75
313.706	297.75
313.935	308.75
314.165	325.75
314.394	327.75
314.624	327.75
314.853	340.75
315.083	321.75
315.312	296.75
315.542	326.75
315.771	304.75
316.001	288.75
316.23	301.75
316.46	295.75
316.689	292.75
316.919	301.75
317.148	329.75
317.377	307.75
317.607	305.75
317.836	310.75
318.065	289.75
318.295	297.75
318.524	301.75
318.753	306.75
318.983	291.75
319.212	318.75
319.441	317.75
319.67	319.75
319.9	308.75
320.129	302.75
320.358	297.75
320.587	325.75
320.816	325.75
321.046	344.75
321.275	341.75
321.504	337.75
321.733	353.75
321.962	336.75
322.191	357.75
322.42	369.75
322.649	359.75
322.878	393.75
323.108	397.75
323.337	421.75
323.566	450.75
323.795	491.75
324.024	530.75
324.253	647.75
324.482	999.75
324.71	1567.75
324.939	2174.75
325.168	1783.75
325.397	905.75
325.626	628.75
325.855	499.75
326.084	466.75
326.313	442.75
326.542	457.75
326.77	489.75
326.999	625.75
327.228	885.75
327.457	1341.75
327.686	1597.75
327.914	1036.75
328.143	680.75
328.372	600.75
328.6	547.75
328.829	519.75
329.058	508.75
329.287	525.75
329.515	512.75
329.744	463.75
329.972	462.75
330.201	475.75
330.43	515.75
330.658	555.75
330.887	564.75
331.115	517.75
331.344	446.75
331.572	430.75
331.801	441.75
332.03	398.75
332.258	400.75
332.486	373.75
332.715	373.75
332.943	369.75
333.172	349.75
333.4	358.75
333.629	388.75
333.857	406.75
334.085	390.75
334.314	422.75
334.542	457.75
334.771	480.75
334.999	409.75
335.227	388.75
335.455	370.75
335.684	342.75
335.912	351.75
336.14	338.75
336.369	362.75
336.597	363.75
336.825	360.75
337.053	339.75
337.281	341.75
337.51	365.75
337.738	360.75
337.966	349.75
338.194	385.75
338.422	347.75
338.65	341.75
338.878	350.75
339.106	329.75
339.334	343.75
339.562	333.75
339.79	330.75
340.018	349.75
340.246	361.75
340.474	343.75
340.702	357.75
340.93	338.75
341.158	343.75
341.386	345.75
341.614	348.75
341.842	346.75
342.07	340.75
342.298	326.75
342.526	328.75
342.754	332.75
342.981	330.75
343.209	310.75
343.437	338.75
343.665	338.75
343.893	315.75
344.12	324.75
344.348	342.75
344.576	339.75
344.804	326.75
345.031	339.75
345.259	390.75
345.487	366.75
345.714	341.75
345.942	352.75
346.17	334.75
346.397	326.75
346.625	323.75
346.853	326.75
347.08	330.75
347.308	341.75
347.535	347.75
347.763	329.75
347.99	338.75
348.218	348.75
348.445	367.75
348.673	369.75
348.9	330.75
349.128	333.75
349.355	316.75
349.583	311.75
349.81	314.75
350.037	316.75
350.265	318.75
350.492	329.75
350.72	320.75
350.947	323.75
351.174	363.75
351.402	337.75
351.629	340.75
351.856	351.75
352.083	348.75
352.311	347.75
352.538	340.75
352.765	367.75
352.992	335.75
353.22	352.75
353.447	341.75
353.674	315.75
353.901	322.75
354.128	318.75
354.355	305.75
354.583	316.75
354.81	292.75
355.037	328.75
355.264	303.75
355.491	301.75
355.718	286.75
355.945	308.75
356.172	304.75
356.399	293.75
356.626	319.75
356.853	278.75
357.08	311.75
357.307	309.75
357.534	316.75
357.761	301.75
357.988	312.75
358.215	314.75
358.441	303.75
358.668	323.75
358.895	314.75
359.122	333.75
359.349	321.75
359.576	336.75
359.802	348.75
360.029	378.75
360.256	406.75
360.483	369.75
360.709	338.75
360.936	336.75
361.163	327.75
361.39	343.75
361.616	342.75
361.843	341.75
362.07	358.75
362.296	340.75
362.523	337.75
362.749	337.75
362.976	323.75
363.203	318.75
363.429	321.75
363.656	321.75
363.882	316.75
364.109	325.75
364.335	310.75
364.562	312.75
364.788	315.75
365.015	313.75
365.241	328.75
365.468	325.75
365.694	331.75
365.92	319.75
366.147	314.75
366.373	327.75
366.599	322.75
366.826	304.75
367.052	317.75
367.278	309.75
367.505	291.75
367.731	316.75
367.957	319.75
368.184	316.75
368.41	327.75
368.636	332.75
368.862	327.75
369.089	321.75
369.315	300.75
369.541	326.75
369.767	313.75
369.993	311.75
370.219	311.75
370.445	322.75
370.672	295.75
370.898	305.75
371.124	319.75
371.35	294.75
371.576	309.75
371.802	311.75
372.028	298.75
372.254	301.75
372.48	282.75
372.706	301.75
372.932	318.75
373.158	324.75
373.384	326.75
373.61	324.75
373.835	307.75
374.061	305.75
374.287	312.75
374.513	307.75
374.739	316.75
374.965	322.75
375.191	311.75
375.416	308.75
375.642	309.75
375.868	321.75
376.094	287.75
376.319	302.75
376.545	304.75
376.771	298.75
376.997	290.75
377.222	320.75
377.448	314.75
377.674	304.75
377.899	288.75
378.125	294.75
378.35	302.75
378.576	305.75
378.802	292.75
379.027	303.75
379.253	310.75
379.478	322.75
379.704	289.75
379.929	306.75
380.155	297.75
380.38	299.75
380.606	302.75
380.831	325.75
381.057	314.75
381.282	310.75
381.507	305.75
381.733	318.75
381.958	315.75
382.184	322.75
382.409	316.75
382.634	299.75
382.86	333.75
383.085	314.75
383.31	310.75
383.535	315.75
383.761	313.75
383.986	318.75
384.211	305.75
384.436	337.75
384.662	322.75
384.887	333.75
385.112	336.75
385.337	317.75
385.562	331.75
385.787	324.75
386.013	325.75
386.238	332.75
386.463	353.75
386.688	357.75
386.913	325.75
387.138	319.75
387.363	338.75
387.588	335.75
387.813	323.75
388.038	327.75
388.263	348.75
388.488	328.75
388.713	313.75
388.938	334.75
389.163	325.75
389.387	326.75
389.612	349.75
389.837	325.75
390.062	341.75
390.287	336.75
390.512	324.75
390.736	314.75
390.961	332.75
391.186	337.75
391.411	318.75
391.636	335.75
391.86	338.75
392.085	341.75
392.31	338.75
392.534	342.75
392.759	322.75
392.984	331.75
393.208	327.75
393.433	319.75
393.658	348.75
393.882	324.75
394.107	348.75
394.331	309.75
394.556	323.75
394.78	334.75
395.005	318.75
395.229	345.75
395.454	327.75
395.678	322.75
395.903	345.75
396.127	374.75
396.352	373.75
396.576	363.75
396.801	363.75
397.025	343.75
397.249	348.75
397.474	322.75
397.698	346.75
397.922	371.75
398.147	364.75
398.371	359.75
398.595	372.75
398.82	376.75
399.044	373.75
399.268	371.75
399.492	383.75
399.717	411.75
399.941	441.75
400.165	445.75
400.389	446.75
400.613	430.75
400.837	393.75
401.062	367.75
401.286	395.75
401.51	374.75
401.734	383.75
401.958	361.75
402.182	363.75
402.406	367.75
402.63	394.75
402.854	385.75
403.078	381.75
403.302	379.75
403.526	372.75
403.75	372.75
403.974	379.75
404.198	395.75
404.422	393.75
404.645	399.75
404.869	412.75
405.093	418.75
405.317	467.75
405.541	498.75
405.765	450.75
405.988	422.75
406.212	425.75
406.436	441.75
406.66	454.75
406.883	449.75
407.107	463.75
407.331	486.75
407.555	540.75
407.778	528.75
408.002	494.75
408.226	436.75
408.449	441.75
408.673	451.75
408.896	464.75
409.12	521.75
409.344	466.75
409.567	423.75
409.791	416.75
410.014	392.75
410.238	391.75
410.461	379.75
410.685	417.75
410.908	442.75
411.132	437.75
411.355	449.75
411.578	434.75
411.802	423.75
412.025	393.75
412.249	418.75
412.472	418.75
412.695	459.75
412.919	427.75
413.142	405.75
413.365	388.75
413.589	391.75
413.812	383.75
414.035	367.75
414.258	373.75
414.482	368.75
414.705	380.75
414.928	367.75
415.151	366.75
415.374	369.75
415.597	373.75
415.821	376.75
416.044	381.75
416.267	377.75
416.49	384.75
416.713	372.75
416.936	368.75
417.159	370.75
417.382	385.75
417.605	371.75
417.828	385.75
418.051	394.75
418.274	387.75
418.497	382.75
418.72	373.75
418.943	363.75
419.166	379.75
419.389	409.75
419.611	388.75
419.834	384.75
420.057	391.75
420.28	390.75
420.503	409.75
420.726	398.75
420.948	418.75
421.171	438.75
421.394	452.75
421.617	402.75
421.839	390.75
422.062	406.75
422.285	439.75
422.507	480.75
422.73	505.75
422.953	495.75
423.175	452.75
423.398	405.75
423.621	401.75
423.843	426.75
424.066	426.75
424.288	437.75
424.511	460.75
424.733	495.75
424.956	544.75
425.178	525.75
425.401	517.75
425.623	539.75
425.846	482.75
426.068	430.75
426.291	431.75
426.513	442.75
426.735	454.75
426.958	486.75
427.18	532.75
427.402	657.75
427.625	726.75
427.847	659.75
428.069	559.75
428.292	506.75
428.514	450.75
428.736	428.75
428.958	423.75
429.181	424.75
429.403	421.75
429.625	417.75
429.847	436.75
430.069	484.75
430.292	507.75
430.514	434.75
430.736	415.75
430.958	403.75
431.18	393.75
431.402	363.75
431.624	390.75
431.846	351.75
432.068	373.75
432.29	383.75
432.512	358.75
432.734	390.75
432.956	355.75
433.178	403.75
433.4	405.75
433.622	390.75
433.844	388.75
434.066	379.75
434.287	370.75
434.509	385.75
434.731	406.75
434.953	403.75
435.175	417.75
435.397	419.75
435.618	442.75
435.84	475.75
436.062	540.75
436.284	608.75
436.505	513.75
436.727	466.75
436.949	436.75
437.17	417.75
437.392	412.75
437.614	438.75
437.835	454.75
438.057	530.75
438.278	634.75
438.5	617.75
438.721	677.75
438.943	622.75
439.165	515.75
439.386	478.75
439.608	452.75
439.829	454.75
440.05	500.75
440.272	522.75
440.493	508.75
440.715	433.75
440.936	419.75
441.158	420.75
441.379	423.75
441.6	437.75
441.822	437.75
442.043	494.75
442.264	562.75
442.486	570.75
442.707	507.75
442.928	442.75
443.149	465.75
443.371	487.75
443.592	517.75
443.813	583.75
444.034	640.75
444.255	544.75
444.476	471.75
444.698	413.75
444.919	418.75
445.14	555.75
445.361	499.75
445.582	478.75
445.803	548.75
446.024	631.75
446.245	639.75
446.466	573.75
446.687	489.75
446.908	461.75
447.129	430.75
447.35	420.75
447.571	401.75
447.792	411.75
448.013	429.75
448.234	442.75
448.455	482.75
448.675	573.75
448.896	629.75
449.117	571.75
449.338	520.75
449.559	611.75
449.779	684.75
450	580.75
450.221	447.75
450.442	432.75
450.662	419.75
450.883	425.75
451.104	446.75
451.324	448.75
451.545	410.75
451.766	404.75
451.986	368.75
452.207	370.75
452.428	376.75
452.648	383.75
452.869	380.75
453.089	373.75
453.31	383.75
453.53	375.75
453.751	379.75
453.971	370.75
454.192	403.75
454.412	390.75
454.633	369.75
454.853	369.75
455.073	368.75
455.294	391.75
455.514	470.75
455.734	417.75
455.955	381.75
456.175	357.75
456.395	346.75
456.616	331.75
456.836	343.75
457.056	335.75
457.276	342.75
457.497	353.75
457.717	335.75
457.937	350.75
458.157	349.75
458.377	357.75
458.598	384.75
458.818	466.75
459.038	538.75
459.258	528.75
459.478	445.75
459.698	404.75
459.918	379.75
460.138	387.75
460.358	391.75
460.578	380.75
460.798	363.75
461.018	382.75
461.238	390.75
461.458	373.75
461.678	374.75
461.898	385.75
462.118	388.75
462.338	395.75
462.558	403.75
462.777	379.75
462.997	385.75
463.217	418.75
463.437	405.75
463.657	397.75
463.876	397.75
464.096	396.75
464.316	401.75
464.536	393.75
464.755	414.75
464.975	413.75
465.195	493.75
465.414	557.75
465.634	470.75
465.854	427.75
466.073	431.75
466.293	383.75
466.512	383.75
466.732	382.75
466.951	398.75
467.171	372.75
467.391	382.75
467.61	402.75
467.829	413.75
468.049	404.75
468.268	416.75
468.488	374.75
468.707	361.75
468.927	375.75
469.146	374.75
469.365	378.75
469.585	390.75
469.804	368.75
470.023	386.75
470.243	390.75
470.462	397.75
470.681	435.75
470.901	409.75
471.12	370.75
471.339	365.75
471.558	379.75
471.777	388.75
471.997	358.75
472.216	401.75
472.435	429.75
472.654	437.75
472.873	404.75
473.092	387.75
473.311	379.75
473.53	381.75
473.749	410.75
473.968	450.75
474.187	512.75
474.406	551.75
474.625	444.75
474.844	419.75
475.063	388.75
475.282	383.75
475.501	401.75
475.72	429.75
475.939	399.75
476.158	388.75
476.377	405.75
476.596	399.75
476.814	400.75
477.033	397.75
477.252	396.75
477.471	396.75
477.69	407.75
477.908	403.75
478.127	399.75
478.346	415.75
478.564	422.75
478.783	417.75
479.002	418.75
479.22	418.75
479.439	451.75
479.658	449.75
479.876	452.75
480.095	466.75
480.313	500.75
480.532	472.75
480.751	456.75
480.969	494.75
481.188	566.75
481.406	620.75
481.624	515.75
481.843	484.75
482.061	480.75
482.28	460.75
482.498	451.75
482.717	447.75
482.935	462.75
483.153	458.75
483.372	450.75
483.59	449.75
483.808	448.75
484.027	451.75
484.245	448.75
484.463	461.75
484.681	462.75
484.9	469.75
485.118	453.75
485.336	448.75
485.554	476.75
485.772	466.75
485.99	455.75
486.209	466.75
486.427	485.75
486.645	470.75
486.863	493.75
487.081	477.75
487.299	483.75
487.517	484.75
487.735	481.75
487.953	489.75
488.171	495.75
488.389	477.75
488.607	486.75
488.825	484.75
489.043	498.75
489.261	477.75
489.479	501.75
489.696	534.75
489.914	506.75
490.132	500.75
490.35	516.75
490.568	537.75
490.786	513.75
491.003	522.75
491.221	522.75
491.439	524.75
491.657	545.75
491.874	573.75
492.092	572.75
492.31	562.75
492.527	562.75
492.745	564.75
492.963	568.75
493.18	586.75
493.398	563.75
493.615	581.75
493.833	582.75
494.05	594.75
494.268	578.75
494.485	550.75
494.703	573.75
494.92	571.75
495.138	572.75
495.355	579.75
495.573	590.75
495.79	558.75
496.008	607.75
496.225	570.75
496.442	576.75
496.66	595.75
496.877	575.75
497.094	571.75
497.312	587.75
497.529	605.75
497.746	590.75
497.963	595.75
498.181	623.75
498.398	633.75
498.615	625.75
498.832	626.75
499.049	625.75
499.267	653.75
499.484	653.75
499.701	689.75
499.918	697.75
500.135	673.75
500.352	708.75
500.569	710.75
500.786	735.75
501.003	732.75
501.22	704.75
501.437	699.75
501.654	694.75
501.871	719.75
502.088	674.75
