Data from 1961.PennyLincolnUp.Lamp.En5.5.200Scan.071719.P1._HRD10591_13-47-10-057.txt Node
Date: Thu Jul 18 13:47:10 EDT 2019
User: cochatt
Spectrometer: HR+D1059
Trigger mode: 1
Integration Time (sec): 1.000000E-1
Scans to average: 1
Electric dark correction enabled: true
Nonlinearity correction enabled: false
Boxcar width: 0
XAxis mode: Wavelengths
Number of Pixels in Spectrum: 2048
>>>>>Begin Spectral Data<<<<<
223.165	0.81
223.4	0.81
223.635	0.81
223.869	-16.19
224.104	-19.19
224.338	-17.19
224.573	-23.19
224.808	-11.19
225.042	-15.19
225.277	-0.19
225.511	-6.19
225.746	9.81
225.98	13.81
226.215	4.81
226.449	10.81
226.683	20.81
226.918	20.81
227.152	26.81
227.387	28.81
227.621	42.81
227.856	38.81
228.09	37.81
228.324	40.81
228.559	56.81
228.793	68.81
229.027	76.81
229.262	87.81
229.496	111.81
229.73	113.81
229.964	136.81
230.199	118.81
230.433	109.81
230.667	94.81
230.901	110.81
231.136	116.81
231.37	89.81
231.604	98.81
231.838	104.81
232.072	93.81
232.306	99.81
232.541	103.81
232.775	110.81
233.009	98.81
233.243	120.81
233.477	105.81
233.711	100.81
233.945	94.81
234.179	103.81
234.413	100.81
234.647	105.81
234.881	103.81
235.115	103.81
235.349	95.81
235.583	103.81
235.817	113.81
236.051	124.81
236.285	112.81
236.519	98.81
236.753	118.81
236.987	124.81
237.221	155.81
237.455	200.81
237.689	161.81
237.922	128.81
238.156	122.81
238.39	110.81
238.624	99.81
238.858	108.81
239.091	101.81
239.325	119.81
239.559	111.81
239.793	110.81
240.027	116.81
240.26	125.81
240.494	133.81
240.728	137.81
240.961	121.81
241.195	143.81
241.429	133.81
241.662	108.81
241.896	122.81
242.13	105.81
242.363	107.81
242.597	121.81
242.83	122.81
243.064	125.81
243.298	132.81
243.531	117.81
243.765	109.81
243.998	121.81
244.232	123.81
244.465	129.81
244.699	144.81
244.932	118.81
245.166	117.81
245.399	117.81
245.633	122.81
245.866	116.81
246.099	123.81
246.333	121.81
246.566	121.81
246.8	109.81
247.033	120.81
247.266	140.81
247.5	128.81
247.733	135.81
247.966	126.81
248.2	147.81
248.433	132.81
248.666	138.81
248.899	180.81
249.133	146.81
249.366	175.81
249.599	173.81
249.832	156.81
250.066	139.81
250.299	133.81
250.532	142.81
250.765	162.81
250.998	172.81
251.231	176.81
251.465	185.81
251.698	176.81
251.931	164.81
252.164	144.81
252.397	160.81
252.63	173.81
252.863	159.81
253.096	165.81
253.329	186.81
253.562	177.81
253.795	160.81
254.028	164.81
254.261	160.81
254.494	195.81
254.727	189.81
254.96	201.81
255.193	214.81
255.426	204.81
255.659	205.81
255.892	190.81
256.124	186.81
256.357	176.81
256.59	179.81
256.823	176.81
257.056	154.81
257.289	176.81
257.521	180.81
257.754	172.81
257.987	178.81
258.22	185.81
258.452	170.81
258.685	165.81
258.918	165.81
259.151	169.81
259.383	177.81
259.616	161.81
259.849	178.81
260.081	190.81
260.314	188.81
260.547	206.81
260.779	204.81
261.012	186.81
261.244	181.81
261.477	204.81
261.71	173.81
261.942	201.81
262.175	210.81
262.407	192.81
262.64	164.81
262.872	177.81
263.105	166.81
263.337	162.81
263.57	179.81
263.802	176.81
264.035	178.81
264.267	168.81
264.499	180.81
264.732	166.81
264.964	167.81
265.197	173.81
265.429	187.81
265.661	173.81
265.894	182.81
266.126	163.81
266.358	182.81
266.591	174.81
266.823	192.81
267.055	174.81
267.287	172.81
267.52	183.81
267.752	188.81
267.984	176.81
268.216	183.81
268.448	182.81
268.681	187.81
268.913	211.81
269.145	201.81
269.377	219.81
269.609	215.81
269.841	198.81
270.073	220.81
270.306	222.81
270.538	248.81
270.77	236.81
271.002	252.81
271.234	225.81
271.466	240.81
271.698	252.81
271.93	259.81
272.162	240.81
272.394	243.81
272.626	249.81
272.858	222.81
273.09	218.81
273.322	216.81
273.553	225.81
273.785	220.81
274.017	203.81
274.249	214.81
274.481	201.81
274.713	199.81
274.945	205.81
275.176	209.81
275.408	205.81
275.64	195.81
275.872	203.81
276.104	208.81
276.335	199.81
276.567	209.81
276.799	244.81
277.031	233.81
277.262	266.81
277.494	248.81
277.726	250.81
277.957	208.81
278.189	222.81
278.421	213.81
278.652	209.81
278.884	210.81
279.115	205.81
279.347	211.81
279.579	208.81
279.81	203.81
280.042	209.81
280.273	223.81
280.505	221.81
280.736	224.81
280.968	211.81
281.199	196.81
281.431	208.81
281.662	215.81
281.894	210.81
282.125	228.81
282.356	226.81
282.588	251.81
282.819	251.81
283.051	207.81
283.282	214.81
283.513	223.81
283.745	214.81
283.976	216.81
284.207	204.81
284.439	204.81
284.67	207.81
284.901	193.81
285.132	214.81
285.364	221.81
285.595	206.81
285.826	214.81
286.057	225.81
286.288	232.81
286.52	201.81
286.751	220.81
286.982	216.81
287.213	216.81
287.444	207.81
287.675	208.81
287.906	213.81
288.138	229.81
288.369	247.81
288.6	227.81
288.831	233.81
289.062	232.81
289.293	222.81
289.524	223.81
289.755	221.81
289.986	219.81
290.217	215.81
290.448	218.81
290.679	217.81
290.91	245.81
291.141	217.81
291.371	217.81
291.602	214.81
291.833	222.81
292.064	219.81
292.295	220.81
292.526	241.81
292.757	250.81
292.987	237.81
293.218	219.81
293.449	225.81
293.68	232.81
293.91	242.81
294.141	206.81
294.372	230.81
294.603	233.81
294.833	222.81
295.064	221.81
295.295	216.81
295.525	232.81
295.756	227.81
295.987	227.81
296.217	252.81
296.448	252.81
296.679	239.81
296.909	220.81
297.14	226.81
297.37	216.81
297.601	249.81
297.831	230.81
298.062	227.81
298.292	228.81
298.523	253.81
298.753	246.81
298.984	246.81
299.214	239.81
299.445	237.81
299.675	241.81
299.905	247.81
300.136	239.81
300.366	244.81
300.597	238.81
300.827	248.81
301.057	254.81
301.288	247.81
301.518	262.81
301.748	236.81
301.979	244.81
302.209	273.81
302.439	237.81
302.669	265.81
302.9	257.81
303.13	232.81
303.36	240.81
303.59	269.81
303.82	248.81
304.051	272.81
304.281	259.81
304.511	247.81
304.741	253.81
304.971	274.81
305.201	251.81
305.431	256.81
305.661	265.81
305.891	243.81
306.121	258.81
306.352	256.81
306.582	260.81
306.812	266.81
307.042	242.81
307.272	260.81
307.502	266.81
307.731	259.81
307.961	259.81
308.191	262.81
308.421	264.81
308.651	259.81
308.881	257.81
309.111	264.81
309.341	254.81
309.571	265.81
309.8	275.81
310.03	284.81
310.26	287.81
310.49	291.81
310.72	299.81
310.949	320.81
311.179	327.81
311.409	318.81
311.639	292.81
311.868	289.81
312.098	304.81
312.328	292.81
312.557	306.81
312.787	327.81
313.017	334.81
313.246	322.81
313.476	308.81
313.706	298.81
313.935	280.81
314.165	322.81
314.394	310.81
314.624	312.81
314.853	308.81
315.083	301.81
315.312	293.81
315.542	291.81
315.771	291.81
316.001	290.81
316.23	288.81
316.46	299.81
316.689	290.81
316.919	289.81
317.148	311.81
317.377	291.81
317.607	314.81
317.836	309.81
318.065	286.81
318.295	281.81
318.524	310.81
318.753	300.81
318.983	309.81
319.212	309.81
319.441	300.81
319.67	302.81
319.9	307.81
320.129	307.81
320.358	294.81
320.587	311.81
320.816	324.81
321.046	309.81
321.275	324.81
321.504	314.81
321.733	312.81
321.962	312.81
322.191	327.81
322.42	334.81
322.649	358.81
322.878	386.81
323.108	386.81
323.337	398.81
323.566	432.81
323.795	451.81
324.024	497.81
324.253	642.81
324.482	889.81
324.71	1412.81
324.939	1944.81
325.168	1618.81
325.397	839.81
325.626	572.81
325.855	471.81
326.084	420.81
326.313	430.81
326.542	436.81
326.77	465.81
326.999	573.81
327.228	815.81
327.457	1184.81
327.686	1421.81
327.914	944.81
328.143	628.81
328.372	549.81
328.6	500.81
328.829	496.81
329.058	504.81
329.287	493.81
329.515	456.81
329.744	435.81
329.972	432.81
330.201	441.81
330.43	485.81
330.658	512.81
330.887	524.81
331.115	499.81
331.344	439.81
331.572	404.81
331.801	408.81
332.03	386.81
332.258	380.81
332.486	365.81
332.715	366.81
332.943	358.81
333.172	361.81
333.4	360.81
333.629	372.81
333.857	349.81
334.085	371.81
334.314	389.81
334.542	446.81
334.771	429.81
334.999	400.81
335.227	368.81
335.455	359.81
335.684	353.81
335.912	351.81
336.14	329.81
336.369	345.81
336.597	353.81
336.825	356.81
337.053	342.81
337.281	329.81
337.51	336.81
337.738	345.81
337.966	338.81
338.194	335.81
338.422	339.81
338.65	345.81
338.878	357.81
339.106	356.81
339.334	339.81
339.562	340.81
339.79	349.81
340.018	334.81
340.246	322.81
340.474	345.81
340.702	331.81
340.93	330.81
341.158	344.81
341.386	333.81
341.614	337.81
341.842	344.81
342.07	329.81
342.298	323.81
342.526	324.81
342.754	314.81
342.981	347.81
343.209	330.81
343.437	329.81
343.665	325.81
343.893	316.81
344.12	332.81
344.348	338.81
344.576	344.81
344.804	339.81
345.031	356.81
345.259	351.81
345.487	329.81
345.714	336.81
345.942	317.81
346.17	335.81
346.397	333.81
346.625	322.81
346.853	330.81
347.08	325.81
347.308	320.81
347.535	362.81
347.763	346.81
347.99	345.81
348.218	342.81
348.445	346.81
348.673	346.81
348.9	320.81
349.128	338.81
349.355	313.81
349.583	322.81
349.81	316.81
350.037	295.81
350.265	321.81
350.492	318.81
350.72	304.81
350.947	323.81
351.174	360.81
351.402	334.81
351.629	320.81
351.856	338.81
352.083	337.81
352.311	345.81
352.538	337.81
352.765	349.81
352.992	332.81
353.22	329.81
353.447	325.81
353.674	321.81
353.901	327.81
354.128	320.81
354.355	301.81
354.583	300.81
354.81	305.81
355.037	319.81
355.264	287.81
355.491	302.81
355.718	307.81
355.945	308.81
356.172	301.81
356.399	302.81
356.626	302.81
356.853	303.81
357.08	309.81
357.307	300.81
357.534	300.81
357.761	312.81
357.988	301.81
358.215	310.81
358.441	306.81
358.668	312.81
358.895	315.81
359.122	324.81
359.349	323.81
359.576	311.81
359.802	355.81
360.029	373.81
360.256	405.81
360.483	360.81
360.709	338.81
360.936	335.81
361.163	346.81
361.39	318.81
361.616	329.81
361.843	334.81
362.07	332.81
362.296	335.81
362.523	353.81
362.749	337.81
362.976	323.81
363.203	329.81
363.429	322.81
363.656	327.81
363.882	305.81
364.109	302.81
364.335	309.81
364.562	330.81
364.788	313.81
365.015	325.81
365.241	314.81
365.468	326.81
365.694	325.81
365.92	337.81
366.147	332.81
366.373	310.81
366.599	324.81
366.826	309.81
367.052	300.81
367.278	316.81
367.505	335.81
367.731	339.81
367.957	322.81
368.184	302.81
368.41	322.81
368.636	329.81
368.862	332.81
369.089	335.81
369.315	314.81
369.541	319.81
369.767	303.81
369.993	328.81
370.219	323.81
370.445	315.81
370.672	307.81
370.898	318.81
371.124	312.81
371.35	292.81
371.576	331.81
371.802	315.81
372.028	300.81
372.254	318.81
372.48	305.81
372.706	310.81
372.932	308.81
373.158	302.81
373.384	295.81
373.61	308.81
373.835	316.81
374.061	310.81
374.287	317.81
374.513	325.81
374.739	328.81
374.965	318.81
375.191	315.81
375.416	305.81
375.642	301.81
375.868	322.81
376.094	310.81
376.319	324.81
376.545	304.81
376.771	319.81
376.997	320.81
377.222	310.81
377.448	296.81
377.674	318.81
377.899	301.81
378.125	310.81
378.35	288.81
378.576	294.81
378.802	293.81
379.027	304.81
379.253	311.81
379.478	312.81
379.704	303.81
379.929	307.81
380.155	323.81
380.38	318.81
380.606	326.81
380.831	322.81
381.057	342.81
381.282	295.81
381.507	305.81
381.733	297.81
381.958	290.81
382.184	304.81
382.409	319.81
382.634	325.81
382.86	301.81
383.085	325.81
383.31	317.81
383.535	330.81
383.761	310.81
383.986	323.81
384.211	311.81
384.436	346.81
384.662	310.81
384.887	321.81
385.112	332.81
385.337	317.81
385.562	321.81
385.787	328.81
386.013	341.81
386.238	334.81
386.463	343.81
386.688	324.81
386.913	327.81
387.138	311.81
387.363	320.81
387.588	329.81
387.813	331.81
388.038	327.81
388.263	333.81
388.488	327.81
388.713	350.81
388.938	349.81
389.163	346.81
389.387	352.81
389.612	326.81
389.837	325.81
390.062	330.81
390.287	333.81
390.512	319.81
390.736	332.81
390.961	334.81
391.186	343.81
391.411	356.81
391.636	328.81
391.86	360.81
392.085	332.81
392.31	318.81
392.534	333.81
392.759	343.81
392.984	346.81
393.208	337.81
393.433	333.81
393.658	369.81
393.882	356.81
394.107	353.81
394.331	344.81
394.556	323.81
394.78	327.81
395.005	324.81
395.229	340.81
395.454	353.81
395.678	334.81
395.903	378.81
396.127	372.81
396.352	386.81
396.576	348.81
396.801	338.81
397.025	358.81
397.249	338.81
397.474	354.81
397.698	373.81
397.922	374.81
398.147	361.81
398.371	396.81
398.595	366.81
398.82	377.81
399.044	361.81
399.268	390.81
399.492	372.81
399.717	429.81
399.941	420.81
400.165	468.81
400.389	449.81
400.613	425.81
400.837	426.81
401.062	397.81
401.286	370.81
401.51	390.81
401.734	380.81
401.958	377.81
402.182	373.81
402.406	405.81
402.63	388.81
402.854	384.81
403.078	393.81
403.302	398.81
403.526	385.81
403.75	407.81
403.974	373.81
404.198	390.81
404.422	403.81
404.645	401.81
404.869	398.81
405.093	448.81
405.317	470.81
405.541	481.81
405.765	454.81
405.988	428.81
406.212	436.81
406.436	418.81
406.66	466.81
406.883	439.81
407.107	468.81
407.331	493.81
407.555	536.81
407.778	510.81
408.002	471.81
408.226	442.81
408.449	446.81
408.673	445.81
408.896	456.81
409.12	510.81
409.344	477.81
409.567	418.81
409.791	426.81
410.014	402.81
410.238	400.81
410.461	410.81
410.685	410.81
410.908	420.81
411.132	431.81
411.355	474.81
411.578	420.81
411.802	406.81
412.025	377.81
412.249	424.81
412.472	415.81
412.695	448.81
412.919	464.81
413.142	414.81
413.365	408.81
413.589	392.81
413.812	383.81
414.035	386.81
414.258	371.81
414.482	382.81
414.705	387.81
414.928	382.81
415.151	367.81
415.374	372.81
415.597	356.81
415.821	350.81
416.044	375.81
416.267	375.81
416.49	382.81
416.713	364.81
416.936	371.81
417.159	369.81
417.382	382.81
417.605	379.81
417.828	381.81
418.051	422.81
418.274	380.81
418.497	371.81
418.72	388.81
418.943	357.81
419.166	365.81
419.389	386.81
419.611	406.81
419.834	388.81
420.057	390.81
420.28	368.81
420.503	397.81
420.726	400.81
420.948	404.81
421.171	443.81
421.394	452.81
421.617	417.81
421.839	399.81
422.062	393.81
422.285	395.81
422.507	447.81
422.73	522.81
422.953	489.81
423.175	452.81
423.398	415.81
423.621	416.81
423.843	421.81
424.066	404.81
424.288	420.81
424.511	454.81
424.733	484.81
424.956	548.81
425.178	528.81
425.401	520.81
425.623	542.81
425.846	468.81
426.068	415.81
426.291	422.81
426.513	422.81
426.735	453.81
426.958	472.81
427.18	556.81
427.402	637.81
427.625	685.81
427.847	633.81
428.069	576.81
428.292	492.81
428.514	432.81
428.736	428.81
428.958	412.81
429.181	406.81
429.403	392.81
429.625	415.81
429.847	417.81
430.069	479.81
430.292	458.81
430.514	413.81
430.736	405.81
430.958	391.81
431.18	380.81
431.402	393.81
431.624	396.81
431.846	370.81
432.068	373.81
432.29	400.81
432.512	382.81
432.734	390.81
432.956	390.81
433.178	393.81
433.4	389.81
433.622	388.81
433.844	385.81
434.066	387.81
434.287	378.81
434.509	395.81
434.731	401.81
434.953	387.81
435.175	398.81
435.397	412.81
435.618	432.81
435.84	469.81
436.062	553.81
436.284	600.81
436.505	505.81
436.727	457.81
436.949	403.81
437.17	407.81
437.392	407.81
437.614	413.81
437.835	456.81
438.057	546.81
438.278	602.81
438.5	611.81
438.721	644.81
438.943	597.81
439.165	490.81
439.386	461.81
439.608	452.81
439.829	446.81
440.05	473.81
440.272	506.81
440.493	484.81
440.715	451.81
440.936	415.81
441.158	418.81
441.379	429.81
441.6	407.81
441.822	424.81
442.043	452.81
442.264	551.81
442.486	556.81
442.707	476.81
442.928	440.81
443.149	465.81
443.371	475.81
443.592	505.81
443.813	566.81
444.034	616.81
444.255	502.81
444.476	462.81
444.698	450.81
444.919	437.81
445.14	504.81
445.361	460.81
445.582	454.81
445.803	524.81
446.024	629.81
446.245	643.81
446.466	570.81
446.687	490.81
446.908	441.81
447.129	414.81
447.35	426.81
447.571	399.81
447.792	406.81
448.013	425.81
448.234	417.81
448.455	472.81
448.675	564.81
448.896	650.81
449.117	553.81
449.338	540.81
449.559	608.81
449.779	645.81
450	550.81
450.221	449.81
450.442	445.81
450.662	416.81
450.883	406.81
451.104	426.81
451.324	405.81
451.545	392.81
451.766	386.81
451.986	371.81
452.207	382.81
452.428	369.81
452.648	365.81
452.869	381.81
453.089	365.81
453.31	385.81
453.53	353.81
453.751	372.81
453.971	372.81
454.192	394.81
454.412	382.81
454.633	368.81
454.853	364.81
455.073	352.81
455.294	409.81
455.514	442.81
455.734	431.81
455.955	384.81
456.175	348.81
456.395	339.81
456.616	336.81
456.836	351.81
457.056	352.81
457.276	354.81
457.497	356.81
457.717	348.81
457.937	351.81
458.157	362.81
458.377	369.81
458.598	375.81
458.818	415.81
459.038	508.81
459.258	501.81
459.478	425.81
459.698	392.81
459.918	388.81
460.138	401.81
460.358	386.81
460.578	384.81
460.798	378.81
461.018	391.81
461.238	382.81
461.458	378.81
461.678	380.81
461.898	380.81
462.118	404.81
462.338	395.81
462.558	391.81
462.777	402.81
462.997	402.81
463.217	399.81
463.437	389.81
463.657	420.81
463.876	411.81
464.096	416.81
464.316	408.81
464.536	405.81
464.755	411.81
464.975	429.81
465.195	441.81
465.414	514.81
465.634	463.81
465.854	422.81
466.073	417.81
466.293	381.81
466.512	380.81
466.732	403.81
466.951	378.81
467.171	376.81
467.391	383.81
467.61	390.81
467.829	399.81
468.049	403.81
468.268	393.81
468.488	381.81
468.707	370.81
468.927	359.81
469.146	372.81
469.365	363.81
469.585	368.81
469.804	394.81
470.023	383.81
470.243	386.81
470.462	387.81
470.681	416.81
470.901	397.81
471.12	374.81
471.339	370.81
471.558	377.81
471.777	398.81
471.997	373.81
472.216	382.81
472.435	432.81
472.654	401.81
472.873	376.81
473.092	377.81
473.311	381.81
473.53	387.81
473.749	393.81
473.968	416.81
474.187	502.81
474.406	506.81
474.625	432.81
474.844	399.81
475.063	384.81
475.282	392.81
475.501	361.81
475.72	394.81
475.939	389.81
476.158	376.81
476.377	401.81
476.596	400.81
476.814	410.81
477.033	408.81
477.252	406.81
477.471	405.81
477.69	420.81
477.908	416.81
478.127	402.81
478.346	416.81
478.564	425.81
478.783	442.81
479.002	425.81
479.22	433.81
479.439	428.81
479.658	455.81
479.876	462.81
480.095	474.81
480.313	489.81
480.532	464.81
480.751	475.81
480.969	474.81
481.188	535.81
481.406	592.81
481.624	503.81
481.843	464.81
482.061	460.81
482.28	463.81
482.498	442.81
482.717	448.81
482.935	450.81
483.153	448.81
483.372	464.81
483.59	420.81
483.808	448.81
484.027	440.81
484.245	457.81
484.463	441.81
484.681	445.81
484.9	468.81
485.118	483.81
485.336	444.81
485.554	446.81
485.772	460.81
485.99	474.81
486.209	452.81
486.427	444.81
486.645	482.81
486.863	476.81
487.081	471.81
487.299	493.81
487.517	485.81
487.735	466.81
487.953	484.81
488.171	482.81
488.389	478.81
488.607	489.81
488.825	484.81
489.043	516.81
489.261	485.81
489.479	512.81
489.696	494.81
489.914	492.81
490.132	468.81
490.35	481.81
490.568	512.81
490.786	497.81
491.003	493.81
491.221	510.81
491.439	512.81
491.657	521.81
491.874	526.81
492.092	534.81
492.31	549.81
492.527	533.81
492.745	553.81
492.963	535.81
493.18	544.81
493.398	562.81
493.615	586.81
493.833	549.81
494.05	553.81
494.268	581.81
494.485	552.81
494.703	556.81
494.92	558.81
495.138	543.81
495.355	554.81
495.573	561.81
495.79	581.81
496.008	586.81
496.225	593.81
496.442	563.81
496.66	591.81
496.877	559.81
497.094	544.81
497.312	562.81
497.529	588.81
497.746	570.81
497.963	568.81
498.181	603.81
498.398	610.81
498.615	611.81
498.832	627.81
499.049	621.81
499.267	638.81
499.484	643.81
499.701	671.81
499.918	672.81
500.135	684.81
500.352	740.81
500.569	738.81
500.786	749.81
501.003	733.81
501.22	710.81
501.437	709.81
501.654	712.81
501.871	697.81
502.088	668.81
