Data from 1961.PennyLincolnUp.Lamp.En5.5.200Scan.071719.P1._HRD10591_13-49-06-058.txt Node
Date: Thu Jul 18 13:49:06 EDT 2019
User: cochatt
Spectrometer: HR+D1059
Trigger mode: 1
Integration Time (sec): 1.000000E-1
Scans to average: 1
Electric dark correction enabled: true
Nonlinearity correction enabled: false
Boxcar width: 0
XAxis mode: Wavelengths
Number of Pixels in Spectrum: 2048
>>>>>Begin Spectral Data<<<<<
223.165	-20.94
223.4	-20.94
223.635	-20.94
223.869	-29.94
224.104	-20.94
224.338	-7.94
224.573	-12.94
224.808	2.06
225.042	-4.94
225.277	-9.94
225.511	7.06
225.746	2.06
225.98	5.06
226.215	16.06
226.449	20.06
226.683	10.06
226.918	22.06
227.152	23.06
227.387	22.06
227.621	30.06
227.856	27.06
228.09	49.06
228.324	40.06
228.559	53.06
228.793	63.06
229.027	85.06
229.262	99.06
229.496	118.06
229.73	124.06
229.964	159.06
230.199	121.06
230.433	100.06
230.667	103.06
230.901	101.06
231.136	111.06
231.37	114.06
231.604	101.06
231.838	110.06
232.072	98.06
232.306	107.06
232.541	106.06
232.775	113.06
233.009	105.06
233.243	114.06
233.477	95.06
233.711	104.06
233.945	84.06
234.179	101.06
234.413	112.06
234.647	109.06
234.881	102.06
235.115	104.06
235.349	119.06
235.583	105.06
235.817	126.06
236.051	121.06
236.285	111.06
236.519	111.06
236.753	121.06
236.987	138.06
237.221	182.06
237.455	216.06
237.689	172.06
237.922	121.06
238.156	98.06
238.39	117.06
238.624	108.06
238.858	110.06
239.091	93.06
239.325	104.06
239.559	124.06
239.793	114.06
240.027	123.06
240.26	138.06
240.494	143.06
240.728	152.06
240.961	128.06
241.195	139.06
241.429	122.06
241.662	119.06
241.896	122.06
242.13	105.06
242.363	126.06
242.597	120.06
242.83	128.06
243.064	139.06
243.298	130.06
243.531	128.06
243.765	115.06
243.998	118.06
244.232	117.06
244.465	123.06
244.699	126.06
244.932	128.06
245.166	123.06
245.399	118.06
245.633	134.06
245.866	123.06
246.099	144.06
246.333	133.06
246.566	134.06
246.8	121.06
247.033	142.06
247.266	136.06
247.5	161.06
247.733	147.06
247.966	153.06
248.2	151.06
248.433	168.06
248.666	155.06
248.899	164.06
249.133	166.06
249.366	179.06
249.599	176.06
249.832	151.06
250.066	163.06
250.299	155.06
250.532	178.06
250.765	185.06
250.998	202.06
251.231	184.06
251.465	183.06
251.698	183.06
251.931	185.06
252.164	169.06
252.397	178.06
252.63	180.06
252.863	180.06
253.096	192.06
253.329	196.06
253.562	201.06
253.795	191.06
254.028	177.06
254.261	187.06
254.494	201.06
254.727	223.06
254.96	249.06
255.193	248.06
255.426	214.06
255.659	188.06
255.892	202.06
256.124	198.06
256.357	189.06
256.59	208.06
256.823	179.06
257.056	192.06
257.289	192.06
257.521	193.06
257.754	165.06
257.987	166.06
258.22	168.06
258.452	184.06
258.685	180.06
258.918	193.06
259.151	184.06
259.383	179.06
259.616	195.06
259.849	196.06
260.081	207.06
260.314	225.06
260.547	230.06
260.779	201.06
261.012	208.06
261.244	208.06
261.477	203.06
261.71	193.06
261.942	203.06
262.175	211.06
262.407	207.06
262.64	190.06
262.872	174.06
263.105	189.06
263.337	164.06
263.57	189.06
263.802	196.06
264.035	179.06
264.267	176.06
264.499	162.06
264.732	188.06
264.964	187.06
265.197	186.06
265.429	171.06
265.661	189.06
265.894	194.06
266.126	188.06
266.358	171.06
266.591	176.06
266.823	185.06
267.055	184.06
267.287	192.06
267.52	195.06
267.752	186.06
267.984	191.06
268.216	191.06
268.448	194.06
268.681	211.06
268.913	209.06
269.145	207.06
269.377	231.06
269.609	224.06
269.841	211.06
270.073	226.06
270.306	279.06
270.538	282.06
270.77	255.06
271.002	251.06
271.234	254.06
271.466	272.06
271.698	271.06
271.93	281.06
272.162	278.06
272.394	275.06
272.626	259.06
272.858	265.06
273.09	226.06
273.322	240.06
273.553	239.06
273.785	230.06
274.017	244.06
274.249	226.06
274.481	226.06
274.713	246.06
274.945	218.06
275.176	240.06
275.408	239.06
275.64	242.06
275.872	220.06
276.104	223.06
276.335	212.06
276.567	247.06
276.799	259.06
277.031	269.06
277.262	276.06
277.494	270.06
277.726	251.06
277.957	250.06
278.189	226.06
278.421	237.06
278.652	218.06
278.884	222.06
279.115	227.06
279.347	211.06
279.579	233.06
279.81	232.06
280.042	215.06
280.273	213.06
280.505	230.06
280.736	230.06
280.968	216.06
281.199	211.06
281.431	210.06
281.662	217.06
281.894	217.06
282.125	243.06
282.356	242.06
282.588	262.06
282.819	263.06
283.051	258.06
283.282	238.06
283.513	223.06
283.745	222.06
283.976	227.06
284.207	221.06
284.439	240.06
284.67	243.06
284.901	227.06
285.132	221.06
285.364	241.06
285.595	240.06
285.826	216.06
286.057	224.06
286.288	232.06
286.52	225.06
286.751	243.06
286.982	242.06
287.213	251.06
287.444	239.06
287.675	221.06
287.906	250.06
288.138	246.06
288.369	242.06
288.6	247.06
288.831	250.06
289.062	246.06
289.293	241.06
289.524	242.06
289.755	234.06
289.986	257.06
290.217	219.06
290.448	246.06
290.679	224.06
290.91	230.06
291.141	237.06
291.371	236.06
291.602	231.06
291.833	269.06
292.064	243.06
292.295	250.06
292.526	245.06
292.757	246.06
292.987	248.06
293.218	222.06
293.449	245.06
293.68	238.06
293.91	222.06
294.141	229.06
294.372	232.06
294.603	250.06
294.833	240.06
295.064	239.06
295.295	236.06
295.525	227.06
295.756	260.06
295.987	242.06
296.217	264.06
296.448	276.06
296.679	247.06
296.909	234.06
297.14	243.06
297.37	238.06
297.601	244.06
297.831	242.06
298.062	236.06
298.292	258.06
298.523	253.06
298.753	249.06
298.984	227.06
299.214	247.06
299.445	242.06
299.675	262.06
299.905	258.06
300.136	252.06
300.366	267.06
300.597	262.06
300.827	248.06
301.057	265.06
301.288	253.06
301.518	256.06
301.748	265.06
301.979	275.06
302.209	265.06
302.439	277.06
302.669	261.06
302.9	267.06
303.13	285.06
303.36	273.06
303.59	280.06
303.82	280.06
304.051	279.06
304.281	265.06
304.511	270.06
304.741	276.06
304.971	263.06
305.201	283.06
305.431	285.06
305.661	278.06
305.891	262.06
306.121	271.06
306.352	278.06
306.582	289.06
306.812	258.06
307.042	280.06
307.272	276.06
307.502	274.06
307.731	282.06
307.961	268.06
308.191	272.06
308.421	291.06
308.651	278.06
308.881	259.06
309.111	297.06
309.341	298.06
309.571	311.06
309.8	303.06
310.03	328.06
310.26	323.06
310.49	315.06
310.72	331.06
310.949	345.06
311.179	336.06
311.409	329.06
311.639	330.06
311.868	334.06
312.098	328.06
312.328	345.06
312.557	347.06
312.787	362.06
313.017	367.06
313.246	359.06
313.476	325.06
313.706	338.06
313.935	343.06
314.165	350.06
314.394	336.06
314.624	346.06
314.853	338.06
315.083	324.06
315.312	305.06
315.542	315.06
315.771	326.06
316.001	333.06
316.23	312.06
316.46	316.06
316.689	319.06
316.919	320.06
317.148	327.06
317.377	314.06
317.607	322.06
317.836	326.06
318.065	316.06
318.295	326.06
318.524	318.06
318.753	331.06
318.983	331.06
319.212	313.06
319.441	334.06
319.67	341.06
319.9	332.06
320.129	329.06
320.358	328.06
320.587	339.06
320.816	344.06
321.046	361.06
321.275	351.06
321.504	354.06
321.733	345.06
321.962	351.06
322.191	385.06
322.42	399.06
322.649	406.06
322.878	397.06
323.108	412.06
323.337	447.06
323.566	466.06
323.795	495.06
324.024	569.06
324.253	737.06
324.482	1071.06
324.71	1671.06
324.939	2311.06
325.168	1940.06
325.397	1026.06
325.626	669.06
325.855	555.06
326.084	492.06
326.313	488.06
326.542	499.06
326.77	527.06
326.999	669.06
327.228	938.06
327.457	1441.06
327.686	1714.06
327.914	1129.06
328.143	731.06
328.372	642.06
328.6	582.06
328.829	548.06
329.058	561.06
329.287	544.06
329.515	520.06
329.744	472.06
329.972	460.06
330.201	485.06
330.43	542.06
330.658	558.06
330.887	598.06
331.115	564.06
331.344	482.06
331.572	440.06
331.801	439.06
332.03	450.06
332.258	426.06
332.486	400.06
332.715	391.06
332.943	382.06
333.172	384.06
333.4	392.06
333.629	392.06
333.857	418.06
334.085	430.06
334.314	425.06
334.542	486.06
334.771	519.06
334.999	433.06
335.227	423.06
335.455	397.06
335.684	369.06
335.912	370.06
336.14	380.06
336.369	367.06
336.597	370.06
336.825	404.06
337.053	375.06
337.281	378.06
337.51	375.06
337.738	369.06
337.966	370.06
338.194	372.06
338.422	380.06
338.65	368.06
338.878	361.06
339.106	374.06
339.334	364.06
339.562	360.06
339.79	366.06
340.018	362.06
340.246	348.06
340.474	360.06
340.702	372.06
340.93	372.06
341.158	377.06
341.386	374.06
341.614	364.06
341.842	382.06
342.07	353.06
342.298	351.06
342.526	361.06
342.754	363.06
342.981	350.06
343.209	348.06
343.437	363.06
343.665	358.06
343.893	358.06
344.12	359.06
344.348	363.06
344.576	344.06
344.804	358.06
345.031	381.06
345.259	366.06
345.487	395.06
345.714	351.06
345.942	354.06
346.17	347.06
346.397	362.06
346.625	346.06
346.853	363.06
347.08	358.06
347.308	370.06
347.535	370.06
347.763	375.06
347.99	358.06
348.218	368.06
348.445	378.06
348.673	364.06
348.9	342.06
349.128	341.06
349.355	326.06
349.583	337.06
349.81	329.06
350.037	328.06
350.265	363.06
350.492	357.06
350.72	342.06
350.947	339.06
351.174	376.06
351.402	357.06
351.629	361.06
351.856	362.06
352.083	384.06
352.311	378.06
352.538	369.06
352.765	394.06
352.992	380.06
353.22	371.06
353.447	341.06
353.674	344.06
353.901	358.06
354.128	333.06
354.355	331.06
354.583	320.06
354.81	340.06
355.037	332.06
355.264	319.06
355.491	328.06
355.718	316.06
355.945	323.06
356.172	320.06
356.399	322.06
356.626	310.06
356.853	305.06
357.08	327.06
357.307	323.06
357.534	325.06
357.761	322.06
357.988	326.06
358.215	329.06
358.441	322.06
358.668	328.06
358.895	351.06
359.122	336.06
359.349	351.06
359.576	356.06
359.802	398.06
360.029	418.06
360.256	421.06
360.483	396.06
360.709	367.06
360.936	355.06
361.163	352.06
361.39	350.06
361.616	376.06
361.843	356.06
362.07	359.06
362.296	342.06
362.523	361.06
362.749	359.06
362.976	354.06
363.203	349.06
363.429	340.06
363.656	341.06
363.882	330.06
364.109	328.06
364.335	339.06
364.562	328.06
364.788	328.06
365.015	332.06
365.241	337.06
365.468	349.06
365.694	358.06
365.92	351.06
366.147	336.06
366.373	341.06
366.599	343.06
366.826	340.06
367.052	315.06
367.278	321.06
367.505	349.06
367.731	354.06
367.957	329.06
368.184	332.06
368.41	339.06
368.636	368.06
368.862	339.06
369.089	351.06
369.315	322.06
369.541	330.06
369.767	329.06
369.993	354.06
370.219	333.06
370.445	323.06
370.672	312.06
370.898	314.06
371.124	329.06
371.35	327.06
371.576	313.06
371.802	324.06
372.028	321.06
372.254	323.06
372.48	325.06
372.706	336.06
372.932	332.06
373.158	321.06
373.384	331.06
373.61	320.06
373.835	330.06
374.061	335.06
374.287	336.06
374.513	315.06
374.739	340.06
374.965	317.06
375.191	327.06
375.416	326.06
375.642	327.06
375.868	328.06
376.094	314.06
376.319	326.06
376.545	323.06
376.771	330.06
376.997	332.06
377.222	330.06
377.448	329.06
377.674	320.06
377.899	318.06
378.125	320.06
378.35	306.06
378.576	334.06
378.802	323.06
379.027	327.06
379.253	318.06
379.478	300.06
379.704	324.06
379.929	323.06
380.155	313.06
380.38	312.06
380.606	323.06
380.831	335.06
381.057	323.06
381.282	319.06
381.507	315.06
381.733	328.06
381.958	331.06
382.184	330.06
382.409	326.06
382.634	314.06
382.86	317.06
383.085	342.06
383.31	340.06
383.535	340.06
383.761	337.06
383.986	337.06
384.211	349.06
384.436	346.06
384.662	331.06
384.887	346.06
385.112	332.06
385.337	350.06
385.562	343.06
385.787	348.06
386.013	358.06
386.238	367.06
386.463	348.06
386.688	345.06
386.913	341.06
387.138	331.06
387.363	328.06
387.588	340.06
387.813	341.06
388.038	336.06
388.263	364.06
388.488	345.06
388.713	352.06
388.938	332.06
389.163	353.06
389.387	343.06
389.612	344.06
389.837	338.06
390.062	351.06
390.287	331.06
390.512	339.06
390.736	366.06
390.961	373.06
391.186	346.06
391.411	349.06
391.636	354.06
391.86	352.06
392.085	349.06
392.31	355.06
392.534	345.06
392.759	353.06
392.984	336.06
393.208	354.06
393.433	342.06
393.658	341.06
393.882	346.06
394.107	345.06
394.331	353.06
394.556	352.06
394.78	336.06
395.005	344.06
395.229	355.06
395.454	356.06
395.678	344.06
395.903	373.06
396.127	402.06
396.352	371.06
396.576	377.06
396.801	346.06
397.025	355.06
397.249	364.06
397.474	371.06
397.698	370.06
397.922	389.06
398.147	376.06
398.371	407.06
398.595	387.06
398.82	384.06
399.044	376.06
399.268	422.06
399.492	402.06
399.717	422.06
399.941	453.06
400.165	480.06
400.389	472.06
400.613	440.06
400.837	419.06
401.062	412.06
401.286	420.06
401.51	388.06
401.734	388.06
401.958	394.06
402.182	387.06
402.406	411.06
402.63	424.06
402.854	407.06
403.078	405.06
403.302	406.06
403.526	427.06
403.75	422.06
403.974	400.06
404.198	411.06
404.422	402.06
404.645	412.06
404.869	422.06
405.093	445.06
405.317	494.06
405.541	515.06
405.765	474.06
405.988	452.06
406.212	463.06
406.436	454.06
406.66	491.06
406.883	445.06
407.107	488.06
407.331	496.06
407.555	576.06
407.778	543.06
408.002	496.06
408.226	472.06
408.449	460.06
408.673	458.06
408.896	494.06
409.12	522.06
409.344	473.06
409.567	444.06
409.791	440.06
410.014	431.06
410.238	430.06
410.461	410.06
410.685	417.06
410.908	434.06
411.132	450.06
411.355	494.06
411.578	470.06
411.802	423.06
412.025	412.06
412.249	438.06
412.472	450.06
412.695	477.06
412.919	469.06
413.142	443.06
413.365	402.06
413.589	446.06
413.812	396.06
414.035	398.06
414.258	393.06
414.482	394.06
414.705	390.06
414.928	383.06
415.151	402.06
415.374	394.06
415.597	394.06
415.821	377.06
416.044	398.06
416.267	391.06
416.49	410.06
416.713	394.06
416.936	393.06
417.159	406.06
417.382	404.06
417.605	413.06
417.828	415.06
418.051	396.06
418.274	404.06
418.497	391.06
418.72	406.06
418.943	402.06
419.166	400.06
419.389	419.06
419.611	400.06
419.834	420.06
420.057	422.06
420.28	412.06
420.503	411.06
420.726	421.06
420.948	419.06
421.171	436.06
421.394	484.06
421.617	413.06
421.839	411.06
422.062	409.06
422.285	425.06
422.507	471.06
422.73	551.06
422.953	501.06
423.175	481.06
423.398	428.06
423.621	441.06
423.843	450.06
424.066	440.06
424.288	450.06
424.511	461.06
424.733	538.06
424.956	590.06
425.178	564.06
425.401	558.06
425.623	577.06
425.846	498.06
426.068	458.06
426.291	453.06
426.513	474.06
426.735	466.06
426.958	501.06
427.18	596.06
427.402	723.06
427.625	769.06
427.847	708.06
428.069	594.06
428.292	526.06
428.514	490.06
428.736	455.06
428.958	451.06
429.181	435.06
429.403	437.06
429.625	439.06
429.847	464.06
430.069	530.06
430.292	512.06
430.514	459.06
430.736	455.06
430.958	428.06
431.18	421.06
431.402	403.06
431.624	410.06
431.846	382.06
432.068	386.06
432.29	380.06
432.512	420.06
432.734	394.06
432.956	390.06
433.178	418.06
433.4	426.06
433.622	402.06
433.844	397.06
434.066	402.06
434.287	410.06
434.509	397.06
434.731	421.06
434.953	391.06
435.175	437.06
435.397	457.06
435.618	457.06
435.84	513.06
436.062	601.06
436.284	626.06
436.505	533.06
436.727	480.06
436.949	439.06
437.17	452.06
437.392	423.06
437.614	451.06
437.835	474.06
438.057	569.06
438.278	662.06
438.5	650.06
438.721	700.06
438.943	671.06
439.165	555.06
439.386	501.06
439.608	486.06
439.829	494.06
440.05	512.06
440.272	552.06
440.493	522.06
440.715	478.06
440.936	438.06
441.158	442.06
441.379	439.06
441.6	457.06
441.822	460.06
442.043	512.06
442.264	588.06
442.486	617.06
442.707	515.06
442.928	481.06
443.149	487.06
443.371	514.06
443.592	536.06
443.813	629.06
444.034	659.06
444.255	540.06
444.476	473.06
444.698	458.06
444.919	455.06
445.14	565.06
445.361	544.06
445.582	508.06
445.803	570.06
446.024	662.06
446.245	664.06
446.466	605.06
446.687	519.06
446.908	491.06
447.129	451.06
447.35	438.06
447.571	442.06
447.792	450.06
448.013	460.06
448.234	452.06
448.455	503.06
448.675	598.06
448.896	688.06
449.117	586.06
449.338	580.06
449.559	663.06
449.779	716.06
450	583.06
450.221	491.06
450.442	436.06
450.662	450.06
450.883	466.06
451.104	470.06
451.324	468.06
451.545	428.06
451.766	418.06
451.986	396.06
452.207	398.06
452.428	390.06
452.648	392.06
452.869	403.06
453.089	394.06
453.31	412.06
453.53	420.06
453.751	395.06
453.971	394.06
454.192	409.06
454.412	430.06
454.633	391.06
454.853	392.06
455.073	380.06
455.294	419.06
455.514	489.06
455.734	455.06
455.955	401.06
456.175	376.06
456.395	376.06
456.616	362.06
456.836	358.06
457.056	362.06
457.276	353.06
457.497	372.06
457.717	363.06
457.937	376.06
458.157	374.06
458.377	389.06
458.598	405.06
458.818	470.06
459.038	544.06
459.258	559.06
459.478	458.06
459.698	436.06
459.918	398.06
460.138	395.06
460.358	403.06
460.578	403.06
460.798	400.06
461.018	412.06
461.238	386.06
461.458	381.06
461.678	406.06
461.898	390.06
462.118	411.06
462.338	402.06
462.558	411.06
462.777	430.06
462.997	428.06
463.217	410.06
463.437	445.06
463.657	446.06
463.876	382.06
464.096	414.06
464.316	416.06
464.536	431.06
464.755	465.06
464.975	458.06
465.195	501.06
465.414	576.06
465.634	495.06
465.854	464.06
466.073	430.06
466.293	431.06
466.512	414.06
466.732	404.06
466.951	384.06
467.171	387.06
467.391	399.06
467.61	400.06
467.829	418.06
468.049	431.06
468.268	412.06
468.488	406.06
468.707	392.06
468.927	379.06
469.146	402.06
469.365	367.06
469.585	394.06
469.804	416.06
470.023	400.06
470.243	408.06
470.462	408.06
470.681	433.06
470.901	416.06
471.12	398.06
471.339	408.06
471.558	415.06
471.777	407.06
471.997	406.06
472.216	426.06
472.435	444.06
472.654	450.06
472.873	422.06
473.092	406.06
473.311	403.06
473.53	404.06
473.749	416.06
473.968	465.06
474.187	540.06
474.406	555.06
474.625	460.06
474.844	423.06
475.063	412.06
475.282	411.06
475.501	408.06
475.72	420.06
475.939	404.06
476.158	417.06
476.377	416.06
476.596	424.06
476.814	441.06
477.033	431.06
477.252	410.06
477.471	437.06
477.69	421.06
477.908	425.06
478.127	424.06
478.346	432.06
478.564	445.06
478.783	431.06
479.002	452.06
479.22	455.06
479.439	467.06
479.658	481.06
479.876	517.06
480.095	482.06
480.313	535.06
480.532	500.06
480.751	482.06
480.969	479.06
481.188	577.06
481.406	626.06
481.624	539.06
481.843	496.06
482.061	476.06
482.28	490.06
482.498	483.06
482.717	474.06
482.935	473.06
483.153	465.06
483.372	481.06
483.59	464.06
483.808	460.06
484.027	459.06
484.245	450.06
484.463	475.06
484.681	468.06
484.9	472.06
485.118	484.06
485.336	483.06
485.554	504.06
485.772	494.06
485.99	508.06
486.209	495.06
486.427	495.06
486.645	510.06
486.863	527.06
487.081	532.06
487.299	506.06
487.517	513.06
487.735	508.06
487.953	498.06
488.171	503.06
488.389	500.06
488.607	511.06
488.825	521.06
489.043	504.06
489.261	514.06
489.479	518.06
489.696	537.06
489.914	515.06
490.132	528.06
490.35	514.06
490.568	531.06
490.786	550.06
491.003	528.06
491.221	560.06
491.439	564.06
491.657	575.06
491.874	581.06
492.092	573.06
492.31	584.06
492.527	595.06
492.745	594.06
492.963	570.06
493.18	610.06
493.398	574.06
493.615	616.06
493.833	594.06
494.05	598.06
494.268	607.06
494.485	599.06
494.703	582.06
494.92	594.06
495.138	593.06
495.355	604.06
495.573	607.06
495.79	623.06
496.008	585.06
496.225	602.06
496.442	577.06
496.66	599.06
496.877	594.06
497.094	617.06
497.312	602.06
497.529	644.06
497.746	614.06
497.963	653.06
498.181	636.06
498.398	652.06
498.615	675.06
498.832	659.06
499.049	684.06
499.267	688.06
499.484	650.06
499.701	702.06
499.918	746.06
500.135	736.06
500.352	740.06
500.569	755.06
500.786	752.06
501.003	757.06
501.22	726.06
501.437	721.06
501.654	731.06
501.871	723.06
502.088	731.06
