Data from 1961.PennyLincolnUp.Lamp.En5.5.200Scan.071719.P1._HRD10591_13-46-26-057.txt Node
Date: Thu Jul 18 13:46:26 EDT 2019
User: cochatt
Spectrometer: HR+D1059
Trigger mode: 1
Integration Time (sec): 1.000000E-1
Scans to average: 1
Electric dark correction enabled: true
Nonlinearity correction enabled: false
Boxcar width: 0
XAxis mode: Wavelengths
Number of Pixels in Spectrum: 2048
>>>>>Begin Spectral Data<<<<<
223.165	-14.94
223.4	-14.94
223.635	-14.94
223.869	-19.94
224.104	-4.94
224.338	-15.94
224.573	-23.94
224.808	0.06
225.042	-14.94
225.277	3.06
225.511	-5.94
225.746	0.06
225.98	2.06
226.215	-1.94
226.449	15.06
226.683	16.06
226.918	37.06
227.152	29.06
227.387	13.06
227.621	52.06
227.856	36.06
228.09	41.06
228.324	56.06
228.559	49.06
228.793	47.06
229.027	96.06
229.262	86.06
229.496	93.06
229.73	116.06
229.964	124.06
230.199	104.06
230.433	94.06
230.667	113.06
230.901	108.06
231.136	106.06
231.37	91.06
231.604	94.06
231.838	91.06
232.072	89.06
232.306	113.06
232.541	104.06
232.775	90.06
233.009	117.06
233.243	99.06
233.477	94.06
233.711	99.06
233.945	113.06
234.179	90.06
234.413	96.06
234.647	105.06
234.881	106.06
235.115	109.06
235.349	101.06
235.583	94.06
235.817	110.06
236.051	94.06
236.285	104.06
236.519	114.06
236.753	110.06
236.987	118.06
237.221	135.06
237.455	180.06
237.689	149.06
237.922	117.06
238.156	115.06
238.39	108.06
238.624	95.06
238.858	100.06
239.091	107.06
239.325	92.06
239.559	101.06
239.793	104.06
240.027	92.06
240.26	120.06
240.494	123.06
240.728	110.06
240.961	117.06
241.195	128.06
241.429	119.06
241.662	104.06
241.896	113.06
242.13	114.06
242.363	89.06
242.597	94.06
242.83	112.06
243.064	116.06
243.298	99.06
243.531	102.06
243.765	109.06
243.998	124.06
244.232	109.06
244.465	114.06
244.699	127.06
244.932	121.06
245.166	140.06
245.399	132.06
245.633	108.06
245.866	120.06
246.099	113.06
246.333	120.06
246.566	121.06
246.8	112.06
247.033	102.06
247.266	122.06
247.5	121.06
247.733	127.06
247.966	138.06
248.2	137.06
248.433	122.06
248.666	132.06
248.899	136.06
249.133	149.06
249.366	136.06
249.599	151.06
249.832	151.06
250.066	143.06
250.299	127.06
250.532	135.06
250.765	153.06
250.998	152.06
251.231	146.06
251.465	154.06
251.698	159.06
251.931	138.06
252.164	151.06
252.397	158.06
252.63	158.06
252.863	146.06
253.096	144.06
253.329	161.06
253.562	159.06
253.795	146.06
254.028	158.06
254.261	160.06
254.494	164.06
254.727	180.06
254.96	181.06
255.193	184.06
255.426	181.06
255.659	168.06
255.892	170.06
256.124	166.06
256.357	167.06
256.59	154.06
256.823	160.06
257.056	174.06
257.289	159.06
257.521	166.06
257.754	165.06
257.987	160.06
258.22	155.06
258.452	158.06
258.685	154.06
258.918	158.06
259.151	156.06
259.383	169.06
259.616	168.06
259.849	165.06
260.081	174.06
260.314	181.06
260.547	180.06
260.779	162.06
261.012	171.06
261.244	181.06
261.477	163.06
261.71	168.06
261.942	170.06
262.175	162.06
262.407	169.06
262.64	167.06
262.872	159.06
263.105	152.06
263.337	162.06
263.57	163.06
263.802	149.06
264.035	159.06
264.267	145.06
264.499	148.06
264.732	149.06
264.964	149.06
265.197	172.06
265.429	167.06
265.661	144.06
265.894	157.06
266.126	179.06
266.358	143.06
266.591	145.06
266.823	161.06
267.055	168.06
267.287	165.06
267.52	173.06
267.752	145.06
267.984	169.06
268.216	165.06
268.448	159.06
268.681	180.06
268.913	174.06
269.145	174.06
269.377	198.06
269.609	186.06
269.841	179.06
270.073	184.06
270.306	201.06
270.538	203.06
270.77	227.06
271.002	200.06
271.234	202.06
271.466	214.06
271.698	213.06
271.93	201.06
272.162	205.06
272.394	211.06
272.626	197.06
272.858	202.06
273.09	189.06
273.322	204.06
273.553	198.06
273.785	180.06
274.017	196.06
274.249	184.06
274.481	201.06
274.713	164.06
274.945	197.06
275.176	190.06
275.408	205.06
275.64	192.06
275.872	160.06
276.104	173.06
276.335	191.06
276.567	184.06
276.799	196.06
277.031	206.06
277.262	205.06
277.494	203.06
277.726	215.06
277.957	191.06
278.189	201.06
278.421	188.06
278.652	182.06
278.884	179.06
279.115	200.06
279.347	192.06
279.579	180.06
279.81	211.06
280.042	197.06
280.273	189.06
280.505	177.06
280.736	194.06
280.968	180.06
281.199	190.06
281.431	182.06
281.662	185.06
281.894	197.06
282.125	187.06
282.356	188.06
282.588	209.06
282.819	215.06
283.051	202.06
283.282	183.06
283.513	183.06
283.745	201.06
283.976	195.06
284.207	180.06
284.439	202.06
284.67	170.06
284.901	191.06
285.132	201.06
285.364	191.06
285.595	194.06
285.826	194.06
286.057	203.06
286.288	190.06
286.52	194.06
286.751	185.06
286.982	195.06
287.213	202.06
287.444	197.06
287.675	198.06
287.906	193.06
288.138	197.06
288.369	196.06
288.6	208.06
288.831	193.06
289.062	212.06
289.293	196.06
289.524	201.06
289.755	216.06
289.986	197.06
290.217	197.06
290.448	206.06
290.679	207.06
290.91	198.06
291.141	202.06
291.371	201.06
291.602	215.06
291.833	206.06
292.064	215.06
292.295	195.06
292.526	193.06
292.757	192.06
292.987	212.06
293.218	200.06
293.449	204.06
293.68	192.06
293.91	188.06
294.141	207.06
294.372	201.06
294.603	190.06
294.833	211.06
295.064	184.06
295.295	198.06
295.525	196.06
295.756	205.06
295.987	199.06
296.217	237.06
296.448	228.06
296.679	203.06
296.909	199.06
297.14	201.06
297.37	212.06
297.601	192.06
297.831	213.06
298.062	201.06
298.292	207.06
298.523	241.06
298.753	182.06
298.984	210.06
299.214	220.06
299.445	215.06
299.675	216.06
299.905	217.06
300.136	217.06
300.366	219.06
300.597	213.06
300.827	226.06
301.057	220.06
301.288	213.06
301.518	231.06
301.748	224.06
301.979	215.06
302.209	220.06
302.439	211.06
302.669	228.06
302.9	237.06
303.13	225.06
303.36	223.06
303.59	231.06
303.82	223.06
304.051	237.06
304.281	228.06
304.511	230.06
304.741	199.06
304.971	233.06
305.201	226.06
305.431	206.06
305.661	231.06
305.891	221.06
306.121	249.06
306.352	234.06
306.582	224.06
306.812	229.06
307.042	214.06
307.272	229.06
307.502	232.06
307.731	248.06
307.961	243.06
308.191	242.06
308.421	244.06
308.651	238.06
308.881	252.06
309.111	220.06
309.341	257.06
309.571	244.06
309.8	245.06
310.03	236.06
310.26	254.06
310.49	258.06
310.72	244.06
310.949	271.06
311.179	257.06
311.409	259.06
311.639	253.06
311.868	271.06
312.098	252.06
312.328	268.06
312.557	256.06
312.787	262.06
313.017	252.06
313.246	273.06
313.476	268.06
313.706	270.06
313.935	269.06
314.165	276.06
314.394	281.06
314.624	263.06
314.853	281.06
315.083	266.06
315.312	256.06
315.542	265.06
315.771	260.06
316.001	263.06
316.23	255.06
316.46	254.06
316.689	264.06
316.919	250.06
317.148	247.06
317.377	258.06
317.607	270.06
317.836	258.06
318.065	271.06
318.295	258.06
318.524	266.06
318.753	263.06
318.983	253.06
319.212	256.06
319.441	264.06
319.67	258.06
319.9	254.06
320.129	276.06
320.358	273.06
320.587	252.06
320.816	276.06
321.046	266.06
321.275	288.06
321.504	276.06
321.733	279.06
321.962	273.06
322.191	284.06
322.42	300.06
322.649	310.06
322.878	310.06
323.108	321.06
323.337	331.06
323.566	341.06
323.795	357.06
324.024	376.06
324.253	440.06
324.482	644.06
324.71	976.06
324.939	1344.06
325.168	1098.06
325.397	591.06
325.626	430.06
325.855	374.06
326.084	342.06
326.313	321.06
326.542	358.06
326.77	367.06
326.999	442.06
327.228	595.06
327.457	852.06
327.686	994.06
327.914	666.06
328.143	463.06
328.372	398.06
328.6	378.06
328.829	366.06
329.058	369.06
329.287	372.06
329.515	369.06
329.744	343.06
329.972	332.06
330.201	366.06
330.43	362.06
330.658	386.06
330.887	401.06
331.115	394.06
331.344	342.06
331.572	329.06
331.801	331.06
332.03	335.06
332.258	333.06
332.486	308.06
332.715	289.06
332.943	306.06
333.172	315.06
333.4	296.06
333.629	312.06
333.857	313.06
334.085	329.06
334.314	333.06
334.542	350.06
334.771	357.06
334.999	352.06
335.227	311.06
335.455	310.06
335.684	309.06
335.912	301.06
336.14	313.06
336.369	305.06
336.597	304.06
336.825	311.06
337.053	284.06
337.281	295.06
337.51	289.06
337.738	306.06
337.966	301.06
338.194	314.06
338.422	311.06
338.65	300.06
338.878	284.06
339.106	287.06
339.334	306.06
339.562	310.06
339.79	312.06
340.018	304.06
340.246	301.06
340.474	285.06
340.702	295.06
340.93	292.06
341.158	286.06
341.386	301.06
341.614	293.06
341.842	296.06
342.07	294.06
342.298	291.06
342.526	296.06
342.754	305.06
342.981	282.06
343.209	285.06
343.437	297.06
343.665	280.06
343.893	304.06
344.12	322.06
344.348	294.06
344.576	300.06
344.804	288.06
345.031	310.06
345.259	314.06
345.487	316.06
345.714	293.06
345.942	295.06
346.17	297.06
346.397	290.06
346.625	284.06
346.853	269.06
347.08	291.06
347.308	290.06
347.535	321.06
347.763	318.06
347.99	303.06
348.218	281.06
348.445	297.06
348.673	289.06
348.9	283.06
349.128	269.06
349.355	260.06
349.583	292.06
349.81	285.06
350.037	281.06
350.265	287.06
350.492	279.06
350.72	281.06
350.947	273.06
351.174	281.06
351.402	305.06
351.629	292.06
351.856	278.06
352.083	301.06
352.311	296.06
352.538	309.06
352.765	295.06
352.992	294.06
353.22	294.06
353.447	278.06
353.674	287.06
353.901	272.06
354.128	285.06
354.355	280.06
354.583	285.06
354.81	269.06
355.037	266.06
355.264	256.06
355.491	274.06
355.718	276.06
355.945	287.06
356.172	265.06
356.399	283.06
356.626	282.06
356.853	274.06
357.08	288.06
357.307	255.06
357.534	266.06
357.761	287.06
357.988	280.06
358.215	292.06
358.441	282.06
358.668	265.06
358.895	300.06
359.122	281.06
359.349	284.06
359.576	275.06
359.802	309.06
360.029	309.06
360.256	298.06
360.483	315.06
360.709	296.06
360.936	325.06
361.163	306.06
361.39	285.06
361.616	294.06
361.843	296.06
362.07	295.06
362.296	314.06
362.523	300.06
362.749	286.06
362.976	281.06
363.203	276.06
363.429	278.06
363.656	281.06
363.882	267.06
364.109	280.06
364.335	302.06
364.562	273.06
364.788	295.06
365.015	291.06
365.241	286.06
365.468	294.06
365.694	286.06
365.92	300.06
366.147	286.06
366.373	285.06
366.599	279.06
366.826	288.06
367.052	278.06
367.278	286.06
367.505	294.06
367.731	278.06
367.957	277.06
368.184	294.06
368.41	303.06
368.636	279.06
368.862	282.06
369.089	288.06
369.315	272.06
369.541	289.06
369.767	278.06
369.993	289.06
370.219	265.06
370.445	287.06
370.672	265.06
370.898	281.06
371.124	288.06
371.35	289.06
371.576	272.06
371.802	287.06
372.028	304.06
372.254	289.06
372.48	279.06
372.706	260.06
372.932	295.06
373.158	274.06
373.384	271.06
373.61	313.06
373.835	295.06
374.061	297.06
374.287	302.06
374.513	291.06
374.739	289.06
374.965	276.06
375.191	287.06
375.416	297.06
375.642	283.06
375.868	306.06
376.094	296.06
376.319	280.06
376.545	274.06
376.771	286.06
376.997	291.06
377.222	282.06
377.448	290.06
377.674	287.06
377.899	277.06
378.125	306.06
378.35	287.06
378.576	271.06
378.802	277.06
379.027	278.06
379.253	277.06
379.478	262.06
379.704	265.06
379.929	268.06
380.155	288.06
380.38	274.06
380.606	279.06
380.831	278.06
381.057	306.06
381.282	296.06
381.507	288.06
381.733	292.06
381.958	278.06
382.184	287.06
382.409	295.06
382.634	289.06
382.86	291.06
383.085	301.06
383.31	290.06
383.535	290.06
383.761	293.06
383.986	297.06
384.211	312.06
384.436	310.06
384.662	296.06
384.887	300.06
385.112	319.06
385.337	290.06
385.562	317.06
385.787	329.06
386.013	331.06
386.238	324.06
386.463	338.06
386.688	309.06
386.913	320.06
387.138	296.06
387.363	301.06
387.588	289.06
387.813	309.06
388.038	304.06
388.263	321.06
388.488	311.06
388.713	284.06
388.938	311.06
389.163	326.06
389.387	326.06
389.612	324.06
389.837	317.06
390.062	287.06
390.287	316.06
390.512	309.06
390.736	297.06
390.961	314.06
391.186	303.06
391.411	303.06
391.636	304.06
391.86	313.06
392.085	306.06
392.31	297.06
392.534	309.06
392.759	314.06
392.984	325.06
393.208	290.06
393.433	344.06
393.658	329.06
393.882	328.06
394.107	299.06
394.331	316.06
394.556	302.06
394.78	314.06
395.005	327.06
395.229	322.06
395.454	310.06
395.678	330.06
395.903	321.06
396.127	335.06
396.352	345.06
396.576	324.06
396.801	318.06
397.025	350.06
397.249	325.06
397.474	328.06
397.698	348.06
397.922	348.06
398.147	355.06
398.371	356.06
398.595	356.06
398.82	340.06
399.044	357.06
399.268	348.06
399.492	378.06
399.717	367.06
399.941	396.06
400.165	415.06
400.389	446.06
400.613	405.06
400.837	378.06
401.062	364.06
401.286	373.06
401.51	357.06
401.734	349.06
401.958	351.06
402.182	364.06
402.406	358.06
402.63	372.06
402.854	358.06
403.078	365.06
403.302	352.06
403.526	364.06
403.75	356.06
403.974	354.06
404.198	357.06
404.422	377.06
404.645	370.06
404.869	375.06
405.093	387.06
405.317	414.06
405.541	448.06
405.765	404.06
405.988	372.06
406.212	387.06
406.436	388.06
406.66	393.06
406.883	404.06
407.107	403.06
407.331	419.06
407.555	454.06
407.778	452.06
408.002	437.06
408.226	407.06
408.449	407.06
408.673	380.06
408.896	422.06
409.12	446.06
409.344	424.06
409.567	388.06
409.791	392.06
410.014	381.06
410.238	360.06
410.461	376.06
410.685	370.06
410.908	386.06
411.132	416.06
411.355	433.06
411.578	381.06
411.802	377.06
412.025	357.06
412.249	378.06
412.472	378.06
412.695	396.06
412.919	413.06
413.142	393.06
413.365	345.06
413.589	349.06
413.812	351.06
414.035	350.06
414.258	364.06
414.482	359.06
414.705	356.06
414.928	357.06
415.151	334.06
415.374	328.06
415.597	349.06
415.821	351.06
416.044	335.06
416.267	362.06
416.49	341.06
416.713	352.06
416.936	336.06
417.159	344.06
417.382	351.06
417.605	349.06
417.828	352.06
418.051	352.06
418.274	355.06
418.497	340.06
418.72	358.06
418.943	354.06
419.166	340.06
419.389	360.06
419.611	352.06
419.834	369.06
420.057	387.06
420.28	364.06
420.503	368.06
420.726	360.06
420.948	373.06
421.171	405.06
421.394	401.06
421.617	363.06
421.839	376.06
422.062	362.06
422.285	380.06
422.507	396.06
422.73	437.06
422.953	415.06
423.175	376.06
423.398	394.06
423.621	359.06
423.843	392.06
424.066	363.06
424.288	386.06
424.511	389.06
424.733	423.06
424.956	494.06
425.178	477.06
425.401	468.06
425.623	461.06
425.846	432.06
426.068	407.06
426.291	376.06
426.513	374.06
426.735	392.06
426.958	435.06
427.18	469.06
427.402	549.06
427.625	595.06
427.847	522.06
428.069	473.06
428.292	417.06
428.514	398.06
428.736	382.06
428.958	378.06
429.181	358.06
429.403	379.06
429.625	384.06
429.847	390.06
430.069	440.06
430.292	423.06
430.514	374.06
430.736	358.06
430.958	366.06
431.18	352.06
431.402	364.06
431.624	362.06
431.846	357.06
432.068	345.06
432.29	318.06
432.512	346.06
432.734	347.06
432.956	352.06
433.178	348.06
433.4	372.06
433.622	352.06
433.844	360.06
434.066	342.06
434.287	340.06
434.509	355.06
434.731	374.06
434.953	350.06
435.175	371.06
435.397	396.06
435.618	383.06
435.84	414.06
436.062	473.06
436.284	512.06
436.505	447.06
436.727	394.06
436.949	375.06
437.17	371.06
437.392	371.06
437.614	398.06
437.835	392.06
438.057	467.06
438.278	539.06
438.5	532.06
438.721	574.06
438.943	535.06
439.165	450.06
439.386	423.06
439.608	380.06
439.829	391.06
440.05	405.06
440.272	427.06
440.493	424.06
440.715	398.06
440.936	379.06
441.158	361.06
441.379	374.06
441.6	380.06
441.822	374.06
442.043	412.06
442.264	471.06
442.486	471.06
442.707	414.06
442.928	402.06
443.149	412.06
443.371	429.06
443.592	433.06
443.813	507.06
444.034	542.06
444.255	457.06
444.476	405.06
444.698	388.06
444.919	399.06
445.14	504.06
445.361	447.06
445.582	418.06
445.803	463.06
446.024	523.06
446.245	539.06
446.466	466.06
446.687	416.06
446.908	389.06
447.129	386.06
447.35	372.06
447.571	350.06
447.792	358.06
448.013	382.06
448.234	385.06
448.455	413.06
448.675	468.06
448.896	560.06
449.117	464.06
449.338	441.06
449.559	542.06
449.779	596.06
450	470.06
450.221	404.06
450.442	350.06
450.662	360.06
450.883	372.06
451.104	366.06
451.324	371.06
451.545	355.06
451.766	340.06
451.986	331.06
452.207	332.06
452.428	348.06
452.648	330.06
452.869	339.06
453.089	330.06
453.31	361.06
453.53	335.06
453.751	338.06
453.971	328.06
454.192	349.06
454.412	326.06
454.633	313.06
454.853	327.06
455.073	318.06
455.294	328.06
455.514	380.06
455.734	377.06
455.955	343.06
456.175	317.06
456.395	310.06
456.616	312.06
456.836	327.06
457.056	336.06
457.276	297.06
457.497	321.06
457.717	322.06
457.937	311.06
458.157	341.06
458.377	325.06
458.598	326.06
458.818	359.06
459.038	402.06
459.258	428.06
459.478	367.06
459.698	353.06
459.918	351.06
460.138	343.06
460.358	340.06
460.578	345.06
460.798	340.06
461.018	357.06
461.238	338.06
461.458	376.06
461.678	338.06
461.898	352.06
462.118	367.06
462.338	365.06
462.558	384.06
462.777	372.06
462.997	364.06
463.217	371.06
463.437	391.06
463.657	381.06
463.876	374.06
464.096	382.06
464.316	378.06
464.536	364.06
464.755	393.06
464.975	376.06
465.195	387.06
465.414	431.06
465.634	400.06
465.854	368.06
466.073	360.06
466.293	359.06
466.512	357.06
466.732	355.06
466.951	356.06
467.171	364.06
467.391	328.06
467.61	333.06
467.829	370.06
468.049	347.06
468.268	344.06
468.488	349.06
468.707	361.06
468.927	344.06
469.146	327.06
469.365	348.06
469.585	321.06
469.804	358.06
470.023	348.06
470.243	330.06
470.462	348.06
470.681	367.06
470.901	354.06
471.12	343.06
471.339	334.06
471.558	354.06
471.777	332.06
471.997	345.06
472.216	348.06
472.435	376.06
472.654	357.06
472.873	353.06
473.092	333.06
473.311	352.06
473.53	339.06
473.749	343.06
473.968	399.06
474.187	422.06
474.406	446.06
474.625	388.06
474.844	371.06
475.063	356.06
475.282	361.06
475.501	339.06
475.72	366.06
475.939	366.06
476.158	354.06
476.377	351.06
476.596	348.06
476.814	369.06
477.033	359.06
477.252	386.06
477.471	365.06
477.69	375.06
477.908	371.06
478.127	381.06
478.346	385.06
478.564	390.06
478.783	399.06
479.002	394.06
479.22	373.06
479.439	393.06
479.658	412.06
479.876	409.06
480.095	414.06
480.313	418.06
480.532	439.06
480.751	420.06
480.969	436.06
481.188	461.06
481.406	483.06
481.624	453.06
481.843	435.06
482.061	404.06
482.28	406.06
482.498	411.06
482.717	413.06
482.935	408.06
483.153	409.06
483.372	406.06
483.59	406.06
483.808	392.06
484.027	402.06
484.245	417.06
484.463	405.06
484.681	417.06
484.9	391.06
485.118	417.06
485.336	425.06
485.554	410.06
485.772	432.06
485.99	421.06
486.209	434.06
486.427	414.06
486.645	418.06
486.863	434.06
487.081	428.06
487.299	422.06
487.517	438.06
487.735	453.06
487.953	441.06
488.171	440.06
488.389	447.06
488.607	452.06
488.825	433.06
489.043	442.06
489.261	434.06
489.479	435.06
489.696	440.06
489.914	437.06
490.132	445.06
490.35	450.06
490.568	449.06
490.786	430.06
491.003	451.06
491.221	453.06
491.439	478.06
491.657	474.06
491.874	458.06
492.092	477.06
492.31	483.06
492.527	496.06
492.745	494.06
492.963	491.06
493.18	499.06
493.398	511.06
493.615	471.06
493.833	498.06
494.05	497.06
494.268	496.06
494.485	514.06
494.703	503.06
494.92	504.06
495.138	501.06
495.355	509.06
495.573	510.06
495.79	504.06
496.008	509.06
496.225	523.06
496.442	492.06
496.66	524.06
496.877	510.06
497.094	526.06
497.312	532.06
497.529	516.06
497.746	552.06
497.963	552.06
498.181	558.06
498.398	564.06
498.615	561.06
498.832	580.06
499.049	586.06
499.267	593.06
499.484	597.06
499.701	604.06
499.918	633.06
500.135	636.06
500.352	647.06
500.569	654.06
500.786	654.06
501.003	679.06
501.22	633.06
501.437	631.06
501.654	621.06
501.871	624.06
502.088	610.06
502.305	582.06
