Data from 1961.PennyLincolnUp.Lamp.En5.5.200Scan.071719.P1._HRD10591_13-46-06-057.txt Node
Date: Thu Jul 18 13:46:06 EDT 2019
User: cochatt
Spectrometer: HR+D1059
Trigger mode: 1
Integration Time (sec): 1.000000E-1
Scans to average: 1
Electric dark correction enabled: true
Nonlinearity correction enabled: false
Boxcar width: 0
XAxis mode: Wavelengths
Number of Pixels in Spectrum: 2048
>>>>>Begin Spectral Data<<<<<
223.165	-25.06
223.4	-25.06
223.635	-25.06
223.869	-26.06
224.104	-16.06
224.338	-10.06
224.573	-6.06
224.808	-5.06
225.042	-11.06
225.277	-7.06
225.511	7.94
225.746	-13.06
225.98	9.94
226.215	8.94
226.449	10.94
226.683	23.94
226.918	13.94
227.152	43.94
227.387	39.94
227.621	50.94
227.856	42.94
228.09	44.94
228.324	50.94
228.559	66.94
228.793	77.94
229.027	70.94
229.262	89.94
229.496	106.94
229.73	110.94
229.964	133.94
230.199	102.94
230.433	111.94
230.667	96.94
230.901	105.94
231.136	84.94
231.37	97.94
231.604	87.94
231.838	98.94
232.072	98.94
232.306	111.94
232.541	102.94
232.775	104.94
233.009	91.94
233.243	89.94
233.477	101.94
233.711	103.94
233.945	101.94
234.179	92.94
234.413	111.94
234.647	102.94
234.881	111.94
235.115	111.94
235.349	95.94
235.583	106.94
235.817	108.94
236.051	110.94
236.285	115.94
236.519	115.94
236.753	105.94
236.987	117.94
237.221	122.94
237.455	184.94
237.689	149.94
237.922	130.94
238.156	125.94
238.39	126.94
238.624	117.94
238.858	117.94
239.091	113.94
239.325	114.94
239.559	99.94
239.793	112.94
240.027	114.94
240.26	123.94
240.494	126.94
240.728	125.94
240.961	117.94
241.195	128.94
241.429	112.94
241.662	114.94
241.896	117.94
242.13	119.94
242.363	119.94
242.597	107.94
242.83	103.94
243.064	106.94
243.298	113.94
243.531	115.94
243.765	121.94
243.998	115.94
244.232	120.94
244.465	124.94
244.699	135.94
244.932	122.94
245.166	116.94
245.399	139.94
245.633	130.94
245.866	130.94
246.099	118.94
246.333	125.94
246.566	112.94
246.8	127.94
247.033	115.94
247.266	132.94
247.5	132.94
247.733	136.94
247.966	137.94
248.2	156.94
248.433	157.94
248.666	129.94
248.899	145.94
249.133	144.94
249.366	159.94
249.599	147.94
249.832	141.94
250.066	152.94
250.299	127.94
250.532	154.94
250.765	157.94
250.998	162.94
251.231	182.94
251.465	153.94
251.698	158.94
251.931	162.94
252.164	166.94
252.397	161.94
252.63	160.94
252.863	161.94
253.096	156.94
253.329	167.94
253.562	154.94
253.795	166.94
254.028	164.94
254.261	158.94
254.494	169.94
254.727	187.94
254.96	199.94
255.193	197.94
255.426	182.94
255.659	166.94
255.892	163.94
256.124	182.94
256.357	183.94
256.59	171.94
256.823	155.94
257.056	164.94
257.289	150.94
257.521	151.94
257.754	171.94
257.987	172.94
258.22	151.94
258.452	142.94
258.685	153.94
258.918	170.94
259.151	155.94
259.383	170.94
259.616	172.94
259.849	175.94
260.081	166.94
260.314	185.94
260.547	207.94
260.779	187.94
261.012	172.94
261.244	186.94
261.477	175.94
261.71	167.94
261.942	175.94
262.175	184.94
262.407	167.94
262.64	153.94
262.872	154.94
263.105	145.94
263.337	167.94
263.57	164.94
263.802	149.94
264.035	173.94
264.267	177.94
264.499	155.94
264.732	169.94
264.964	159.94
265.197	174.94
265.429	172.94
265.661	156.94
265.894	172.94
266.126	172.94
266.358	156.94
266.591	174.94
266.823	175.94
267.055	164.94
267.287	185.94
267.52	149.94
267.752	162.94
267.984	176.94
268.216	154.94
268.448	179.94
268.681	152.94
268.913	179.94
269.145	171.94
269.377	175.94
269.609	194.94
269.841	186.94
270.073	184.94
270.306	202.94
270.538	211.94
270.77	220.94
271.002	201.94
271.234	210.94
271.466	215.94
271.698	219.94
271.93	228.94
272.162	208.94
272.394	217.94
272.626	216.94
272.858	194.94
273.09	212.94
273.322	195.94
273.553	209.94
273.785	218.94
274.017	193.94
274.249	197.94
274.481	192.94
274.713	188.94
274.945	199.94
275.176	191.94
275.408	202.94
275.64	202.94
275.872	191.94
276.104	201.94
276.335	194.94
276.567	211.94
276.799	213.94
277.031	213.94
277.262	225.94
277.494	231.94
277.726	223.94
277.957	205.94
278.189	207.94
278.421	190.94
278.652	199.94
278.884	198.94
279.115	207.94
279.347	219.94
279.579	244.94
279.81	281.94
280.042	253.94
280.273	223.94
280.505	243.94
280.736	231.94
280.968	204.94
281.199	208.94
281.431	189.94
281.662	197.94
281.894	209.94
282.125	197.94
282.356	201.94
282.588	224.94
282.819	230.94
283.051	216.94
283.282	209.94
283.513	207.94
283.745	202.94
283.976	203.94
284.207	212.94
284.439	223.94
284.67	211.94
284.901	204.94
285.132	206.94
285.364	208.94
285.595	201.94
285.826	219.94
286.057	202.94
286.288	205.94
286.52	202.94
286.751	212.94
286.982	205.94
287.213	212.94
287.444	204.94
287.675	227.94
287.906	208.94
288.138	207.94
288.369	232.94
288.6	230.94
288.831	207.94
289.062	215.94
289.293	225.94
289.524	209.94
289.755	187.94
289.986	220.94
290.217	216.94
290.448	202.94
290.679	215.94
290.91	194.94
291.141	194.94
291.371	205.94
291.602	200.94
291.833	204.94
292.064	217.94
292.295	209.94
292.526	200.94
292.757	216.94
292.987	208.94
293.218	195.94
293.449	227.94
293.68	221.94
293.91	213.94
294.141	202.94
294.372	209.94
294.603	204.94
294.833	210.94
295.064	217.94
295.295	215.94
295.525	205.94
295.756	201.94
295.987	212.94
296.217	246.94
296.448	253.94
296.679	224.94
296.909	235.94
297.14	207.94
297.37	207.94
297.601	237.94
297.831	223.94
298.062	215.94
298.292	224.94
298.523	216.94
298.753	219.94
298.984	200.94
299.214	201.94
299.445	228.94
299.675	227.94
299.905	224.94
300.136	213.94
300.366	214.94
300.597	213.94
300.827	211.94
301.057	230.94
301.288	257.94
301.518	227.94
301.748	233.94
301.979	243.94
302.209	234.94
302.439	227.94
302.669	248.94
302.9	235.94
303.13	229.94
303.36	246.94
303.59	248.94
303.82	242.94
304.051	228.94
304.281	240.94
304.511	235.94
304.741	246.94
304.971	243.94
305.201	229.94
305.431	260.94
305.661	236.94
305.891	218.94
306.121	240.94
306.352	227.94
306.582	234.94
306.812	252.94
307.042	263.94
307.272	241.94
307.502	241.94
307.731	240.94
307.961	235.94
308.191	234.94
308.421	229.94
308.651	260.94
308.881	230.94
309.111	250.94
309.341	252.94
309.571	261.94
309.8	281.94
310.03	258.94
310.26	259.94
310.49	271.94
310.72	284.94
310.949	282.94
311.179	297.94
311.409	285.94
311.639	269.94
311.868	273.94
312.098	275.94
312.328	272.94
312.557	314.94
312.787	295.94
313.017	301.94
313.246	300.94
313.476	271.94
313.706	274.94
313.935	273.94
314.165	271.94
314.394	304.94
314.624	284.94
314.853	279.94
315.083	272.94
315.312	278.94
315.542	272.94
315.771	266.94
316.001	264.94
316.23	269.94
316.46	266.94
316.689	267.94
316.919	286.94
317.148	284.94
317.377	285.94
317.607	289.94
317.836	277.94
318.065	251.94
318.295	275.94
318.524	264.94
318.753	275.94
318.983	271.94
319.212	285.94
319.441	276.94
319.67	286.94
319.9	271.94
320.129	277.94
320.358	269.94
320.587	269.94
320.816	288.94
321.046	313.94
321.275	299.94
321.504	287.94
321.733	296.94
321.962	281.94
322.191	332.94
322.42	308.94
322.649	316.94
322.878	340.94
323.108	333.94
323.337	375.94
323.566	370.94
323.795	404.94
324.024	443.94
324.253	567.94
324.482	827.94
324.71	1323.94
324.939	1836.94
325.168	1496.94
325.397	782.94
325.626	507.94
325.855	424.94
326.084	383.94
326.313	367.94
326.542	393.94
326.77	413.94
326.999	532.94
327.228	745.94
327.457	1144.94
327.686	1377.94
327.914	893.94
328.143	591.94
328.372	509.94
328.6	450.94
328.829	415.94
329.058	448.94
329.287	447.94
329.515	401.94
329.744	379.94
329.972	368.94
330.201	382.94
330.43	416.94
330.658	454.94
330.887	444.94
331.115	423.94
331.344	381.94
331.572	337.94
331.801	363.94
332.03	367.94
332.258	343.94
332.486	328.94
332.715	311.94
332.943	325.94
333.172	326.94
333.4	333.94
333.629	320.94
333.857	359.94
334.085	324.94
334.314	342.94
334.542	373.94
334.771	393.94
334.999	356.94
335.227	351.94
335.455	330.94
335.684	321.94
335.912	329.94
336.14	332.94
336.369	337.94
336.597	324.94
336.825	323.94
337.053	314.94
337.281	314.94
337.51	329.94
337.738	346.94
337.966	330.94
338.194	320.94
338.422	335.94
338.65	334.94
338.878	312.94
339.106	305.94
339.334	293.94
339.562	303.94
339.79	295.94
340.018	300.94
340.246	311.94
340.474	313.94
340.702	316.94
340.93	323.94
341.158	328.94
341.386	317.94
341.614	318.94
341.842	306.94
342.07	315.94
342.298	304.94
342.526	307.94
342.754	290.94
342.981	297.94
343.209	300.94
343.437	312.94
343.665	309.94
343.893	314.94
344.12	322.94
344.348	304.94
344.576	300.94
344.804	322.94
345.031	329.94
345.259	336.94
345.487	334.94
345.714	318.94
345.942	316.94
346.17	299.94
346.397	321.94
346.625	314.94
346.853	305.94
347.08	299.94
347.308	313.94
347.535	319.94
347.763	319.94
347.99	304.94
348.218	335.94
348.445	305.94
348.673	328.94
348.9	301.94
349.128	313.94
349.355	311.94
349.583	304.94
349.81	315.94
350.037	300.94
350.265	287.94
350.492	306.94
350.72	298.94
350.947	307.94
351.174	300.94
351.402	315.94
351.629	326.94
351.856	308.94
352.083	312.94
352.311	312.94
352.538	322.94
352.765	333.94
352.992	297.94
353.22	319.94
353.447	310.94
353.674	314.94
353.901	297.94
354.128	296.94
354.355	289.94
354.583	289.94
354.81	288.94
355.037	277.94
355.264	275.94
355.491	278.94
355.718	287.94
355.945	275.94
356.172	279.94
356.399	288.94
356.626	287.94
356.853	281.94
357.08	286.94
357.307	273.94
357.534	285.94
357.761	274.94
357.988	290.94
358.215	296.94
358.441	283.94
358.668	300.94
358.895	285.94
359.122	289.94
359.349	292.94
359.576	304.94
359.802	316.94
360.029	330.94
360.256	348.94
360.483	343.94
360.709	313.94
360.936	310.94
361.163	311.94
361.39	293.94
361.616	317.94
361.843	316.94
362.07	297.94
362.296	312.94
362.523	293.94
362.749	293.94
362.976	319.94
363.203	295.94
363.429	278.94
363.656	298.94
363.882	291.94
364.109	283.94
364.335	285.94
364.562	287.94
364.788	279.94
365.015	298.94
365.241	259.94
365.468	283.94
365.694	304.94
365.92	293.94
366.147	312.94
366.373	300.94
366.599	301.94
366.826	294.94
367.052	304.94
367.278	276.94
367.505	288.94
367.731	282.94
367.957	291.94
368.184	306.94
368.41	285.94
368.636	271.94
368.862	309.94
369.089	309.94
369.315	273.94
369.541	280.94
369.767	294.94
369.993	272.94
370.219	307.94
370.445	312.94
370.672	290.94
370.898	288.94
371.124	287.94
371.35	276.94
371.576	301.94
371.802	299.94
372.028	295.94
372.254	296.94
372.48	289.94
372.706	291.94
372.932	296.94
373.158	288.94
373.384	292.94
373.61	305.94
373.835	295.94
374.061	302.94
374.287	298.94
374.513	290.94
374.739	300.94
374.965	297.94
375.191	314.94
375.416	306.94
375.642	289.94
375.868	312.94
376.094	303.94
376.319	313.94
376.545	304.94
376.771	307.94
376.997	296.94
377.222	293.94
377.448	286.94
377.674	291.94
377.899	306.94
378.125	310.94
378.35	282.94
378.576	300.94
378.802	301.94
379.027	285.94
379.253	283.94
379.478	307.94
379.704	309.94
379.929	290.94
380.155	313.94
380.38	312.94
380.606	316.94
380.831	310.94
381.057	301.94
381.282	292.94
381.507	289.94
381.733	292.94
381.958	293.94
382.184	315.94
382.409	314.94
382.634	332.94
382.86	307.94
383.085	324.94
383.31	330.94
383.535	333.94
383.761	314.94
383.986	317.94
384.211	324.94
384.436	335.94
384.662	313.94
384.887	319.94
385.112	326.94
385.337	308.94
385.562	348.94
385.787	324.94
386.013	339.94
386.238	332.94
386.463	342.94
386.688	333.94
386.913	337.94
387.138	351.94
387.363	339.94
387.588	317.94
387.813	324.94
388.038	327.94
388.263	351.94
388.488	352.94
388.713	328.94
388.938	338.94
389.163	319.94
389.387	328.94
389.612	321.94
389.837	325.94
390.062	337.94
390.287	321.94
390.512	309.94
390.736	336.94
390.961	335.94
391.186	313.94
391.411	316.94
391.636	316.94
391.86	333.94
392.085	337.94
392.31	347.94
392.534	330.94
392.759	339.94
392.984	360.94
393.208	396.94
393.433	480.94
393.658	489.94
393.882	379.94
394.107	350.94
394.331	339.94
394.556	334.94
394.78	332.94
395.005	337.94
395.229	321.94
395.454	321.94
395.678	336.94
395.903	354.94
396.127	347.94
396.352	359.94
396.576	372.94
396.801	381.94
397.025	443.94
397.249	399.94
397.474	362.94
397.698	378.94
397.922	354.94
398.147	367.94
398.371	348.94
398.595	359.94
398.82	357.94
399.044	347.94
399.268	367.94
399.492	383.94
399.717	374.94
399.941	415.94
400.165	433.94
400.389	431.94
400.613	392.94
400.837	386.94
401.062	381.94
401.286	363.94
401.51	364.94
401.734	370.94
401.958	362.94
402.182	354.94
402.406	402.94
402.63	373.94
402.854	357.94
403.078	363.94
403.302	376.94
403.526	363.94
403.75	376.94
403.974	347.94
404.198	367.94
404.422	365.94
404.645	378.94
404.869	364.94
405.093	405.94
405.317	444.94
405.541	423.94
405.765	407.94
405.988	395.94
406.212	418.94
406.436	427.94
406.66	460.94
406.883	437.94
407.107	424.94
407.331	449.94
407.555	496.94
407.778	469.94
408.002	447.94
408.226	434.94
408.449	431.94
408.673	424.94
408.896	441.94
409.12	459.94
409.344	428.94
409.567	398.94
409.791	389.94
410.014	400.94
410.238	366.94
410.461	376.94
410.685	374.94
410.908	387.94
411.132	424.94
411.355	433.94
411.578	411.94
411.802	396.94
412.025	378.94
412.249	420.94
412.472	402.94
412.695	416.94
412.919	419.94
413.142	368.94
413.365	385.94
413.589	364.94
413.812	375.94
414.035	364.94
414.258	375.94
414.482	344.94
414.705	356.94
414.928	336.94
415.151	364.94
415.374	378.94
415.597	347.94
415.821	356.94
416.044	364.94
416.267	360.94
416.49	373.94
416.713	357.94
416.936	362.94
417.159	367.94
417.382	355.94
417.605	370.94
417.828	363.94
418.051	360.94
418.274	368.94
418.497	353.94
418.72	361.94
418.943	364.94
419.166	373.94
419.389	359.94
419.611	380.94
419.834	375.94
420.057	375.94
420.28	371.94
420.503	374.94
420.726	365.94
420.948	378.94
421.171	411.94
421.394	420.94
421.617	389.94
421.839	376.94
422.062	378.94
422.285	389.94
422.507	443.94
422.73	497.94
422.953	497.94
423.175	421.94
423.398	381.94
423.621	394.94
423.843	392.94
424.066	392.94
424.288	386.94
424.511	415.94
424.733	453.94
424.956	492.94
425.178	479.94
425.401	497.94
425.623	498.94
425.846	420.94
426.068	409.94
426.291	414.94
426.513	390.94
426.735	417.94
426.958	459.94
427.18	497.94
427.402	590.94
427.625	666.94
427.847	579.94
428.069	503.94
428.292	437.94
428.514	435.94
428.736	377.94
428.958	379.94
429.181	381.94
429.403	378.94
429.625	401.94
429.847	399.94
430.069	457.94
430.292	449.94
430.514	385.94
430.736	381.94
430.958	381.94
431.18	387.94
431.402	371.94
431.624	373.94
431.846	358.94
432.068	340.94
432.29	355.94
432.512	360.94
432.734	365.94
432.956	371.94
433.178	364.94
433.4	367.94
433.622	367.94
433.844	350.94
434.066	343.94
434.287	369.94
434.509	369.94
434.731	348.94
434.953	381.94
435.175	384.94
435.397	411.94
435.618	423.94
435.84	452.94
436.062	515.94
436.284	521.94
436.505	463.94
436.727	428.94
436.949	391.94
437.17	376.94
437.392	365.94
437.614	379.94
437.835	412.94
438.057	480.94
438.278	551.94
438.5	549.94
438.721	578.94
438.943	581.94
439.165	455.94
439.386	409.94
439.608	412.94
439.829	417.94
440.05	459.94
440.272	484.94
440.493	464.94
440.715	425.94
440.936	396.94
441.158	388.94
441.379	369.94
441.6	401.94
441.822	415.94
442.043	441.94
442.264	476.94
442.486	513.94
442.707	456.94
442.928	427.94
443.149	437.94
443.371	443.94
443.592	483.94
443.813	551.94
444.034	575.94
444.255	482.94
444.476	449.94
444.698	415.94
444.919	412.94
445.14	549.94
445.361	450.94
445.582	435.94
445.803	495.94
446.024	563.94
446.245	561.94
446.466	542.94
446.687	444.94
446.908	412.94
447.129	402.94
447.35	369.94
447.571	378.94
447.792	380.94
448.013	397.94
448.234	412.94
448.455	435.94
448.675	508.94
448.896	580.94
449.117	535.94
449.338	472.94
449.559	569.94
449.779	613.94
450	490.94
450.221	429.94
450.442	384.94
450.662	383.94
450.883	385.94
451.104	406.94
451.324	391.94
451.545	367.94
451.766	347.94
451.986	362.94
452.207	331.94
452.428	333.94
452.648	346.94
452.869	352.94
453.089	357.94
453.31	374.94
453.53	351.94
453.751	327.94
453.971	358.94
454.192	369.94
454.412	368.94
454.633	358.94
454.853	360.94
455.073	350.94
455.294	367.94
455.514	418.94
455.734	394.94
455.955	338.94
456.175	338.94
456.395	332.94
456.616	329.94
456.836	340.94
457.056	313.94
457.276	310.94
457.497	330.94
457.717	337.94
457.937	341.94
458.157	362.94
458.377	351.94
458.598	383.94
458.818	403.94
459.038	481.94
459.258	451.94
459.478	397.94
459.698	400.94
459.918	375.94
460.138	352.94
460.358	373.94
460.578	375.94
460.798	377.94
461.018	356.94
461.238	367.94
461.458	369.94
461.678	372.94
461.898	353.94
462.118	369.94
462.338	362.94
462.558	383.94
462.777	384.94
462.997	380.94
463.217	399.94
463.437	391.94
463.657	379.94
463.876	380.94
464.096	384.94
464.316	395.94
464.536	414.94
464.755	398.94
464.975	394.94
465.195	420.94
465.414	488.94
465.634	439.94
465.854	406.94
466.073	387.94
466.293	391.94
466.512	380.94
466.732	363.94
466.951	367.94
467.171	355.94
467.391	363.94
467.61	362.94
467.829	377.94
468.049	380.94
468.268	367.94
468.488	359.94
468.707	355.94
468.927	364.94
469.146	346.94
469.365	337.94
469.585	349.94
469.804	361.94
470.023	370.94
470.243	389.94
470.462	367.94
470.681	378.94
470.901	394.94
471.12	369.94
471.339	355.94
471.558	379.94
471.777	356.94
471.997	367.94
472.216	377.94
472.435	400.94
472.654	396.94
472.873	375.94
473.092	349.94
473.311	360.94
473.53	370.94
473.749	367.94
473.968	416.94
474.187	461.94
474.406	476.94
474.625	392.94
474.844	364.94
475.063	369.94
475.282	351.94
475.501	360.94
475.72	373.94
475.939	379.94
476.158	361.94
476.377	383.94
476.596	381.94
476.814	385.94
477.033	384.94
477.252	392.94
477.471	371.94
477.69	390.94
477.908	409.94
478.127	379.94
478.346	388.94
478.564	381.94
478.783	407.94
479.002	410.94
479.22	401.94
479.439	413.94
479.658	431.94
479.876	439.94
480.095	440.94
480.313	458.94
480.532	445.94
480.751	445.94
480.969	458.94
481.188	508.94
481.406	528.94
481.624	436.94
481.843	454.94
482.061	445.94
482.28	442.94
482.498	426.94
482.717	420.94
482.935	448.94
483.153	455.94
483.372	441.94
483.59	440.94
483.808	423.94
484.027	422.94
484.245	439.94
484.463	455.94
484.681	460.94
484.9	459.94
485.118	445.94
485.336	451.94
485.554	442.94
485.772	461.94
485.99	450.94
486.209	464.94
486.427	465.94
486.645	453.94
486.863	448.94
487.081	463.94
487.299	461.94
487.517	474.94
487.735	461.94
487.953	467.94
488.171	458.94
488.389	456.94
488.607	460.94
488.825	479.94
489.043	458.94
489.261	469.94
489.479	486.94
489.696	498.94
489.914	454.94
490.132	471.94
490.35	472.94
490.568	461.94
490.786	474.94
491.003	468.94
491.221	477.94
491.439	510.94
491.657	519.94
491.874	515.94
492.092	544.94
492.31	507.94
492.527	489.94
492.745	519.94
492.963	505.94
493.18	521.94
493.398	524.94
493.615	526.94
493.833	531.94
494.05	518.94
494.268	524.94
494.485	516.94
494.703	547.94
494.92	498.94
495.138	537.94
495.355	527.94
495.573	523.94
495.79	529.94
496.008	547.94
496.225	554.94
496.442	519.94
496.66	543.94
496.877	525.94
497.094	547.94
497.312	544.94
497.529	548.94
497.746	564.94
497.963	552.94
498.181	580.94
498.398	600.94
498.615	579.94
498.832	605.94
499.049	607.94
499.267	627.94
499.484	607.94
499.701	644.94
499.918	641.94
500.135	669.94
500.352	653.94
500.569	717.94
500.786	687.94
501.003	697.94
501.22	709.94
501.437	680.94
501.654	641.94
501.871	680.94
502.088	642.94
