Data from 1961.PennyLincolnUp.Lamp.En5.5.200Scan.071719.P1._HRD10591_13-46-45-056.txt Node
Date: Thu Jul 18 13:46:45 EDT 2019
User: cochatt
Spectrometer: HR+D1059
Trigger mode: 1
Integration Time (sec): 1.000000E-1
Scans to average: 1
Electric dark correction enabled: true
Nonlinearity correction enabled: false
Boxcar width: 0
XAxis mode: Wavelengths
Number of Pixels in Spectrum: 2048
>>>>>Begin Spectral Data<<<<<
223.165	-12.75
223.4	-12.75
223.635	-12.75
223.869	-17.75
224.104	-22.75
224.338	-16.75
224.573	-1.75
224.808	-5.75
225.042	-0.75
225.277	-4.75
225.511	-2.75
225.746	-4.75
225.98	9.25
226.215	7.25
226.449	14.25
226.683	9.25
226.918	20.25
227.152	30.25
227.387	32.25
227.621	41.25
227.856	38.25
228.09	57.25
228.324	52.25
228.559	63.25
228.793	67.25
229.027	95.25
229.262	88.25
229.496	108.25
229.73	111.25
229.964	133.25
230.199	122.25
230.433	99.25
230.667	114.25
230.901	99.25
231.136	100.25
231.37	108.25
231.604	111.25
231.838	103.25
232.072	89.25
232.306	105.25
232.541	122.25
232.775	104.25
233.009	105.25
233.243	121.25
233.477	110.25
233.711	104.25
233.945	105.25
234.179	108.25
234.413	105.25
234.647	118.25
234.881	109.25
235.115	102.25
235.349	122.25
235.583	117.25
235.817	106.25
236.051	122.25
236.285	116.25
236.519	124.25
236.753	121.25
236.987	121.25
237.221	150.25
237.455	200.25
237.689	159.25
237.922	127.25
238.156	131.25
238.39	115.25
238.624	106.25
238.858	102.25
239.091	113.25
239.325	107.25
239.559	93.25
239.793	115.25
240.027	120.25
240.26	126.25
240.494	134.25
240.728	139.25
240.961	128.25
241.195	100.25
241.429	118.25
241.662	112.25
241.896	108.25
242.13	107.25
242.363	124.25
242.597	127.25
242.83	117.25
243.064	118.25
243.298	110.25
243.531	116.25
243.765	134.25
243.998	119.25
244.232	128.25
244.465	119.25
244.699	123.25
244.932	122.25
245.166	116.25
245.399	113.25
245.633	125.25
245.866	133.25
246.099	120.25
246.333	121.25
246.566	134.25
246.8	127.25
247.033	138.25
247.266	133.25
247.5	134.25
247.733	148.25
247.966	128.25
248.2	166.25
248.433	143.25
248.666	137.25
248.899	146.25
249.133	160.25
249.366	170.25
249.599	167.25
249.832	150.25
250.066	148.25
250.299	155.25
250.532	152.25
250.765	159.25
250.998	162.25
251.231	174.25
251.465	174.25
251.698	159.25
251.931	148.25
252.164	159.25
252.397	160.25
252.63	174.25
252.863	166.25
253.096	178.25
253.329	161.25
253.562	162.25
253.795	172.25
254.028	172.25
254.261	175.25
254.494	190.25
254.727	192.25
254.96	219.25
255.193	189.25
255.426	196.25
255.659	188.25
255.892	169.25
256.124	195.25
256.357	170.25
256.59	181.25
256.823	169.25
257.056	176.25
257.289	178.25
257.521	177.25
257.754	164.25
257.987	168.25
258.22	172.25
258.452	163.25
258.685	160.25
258.918	171.25
259.151	156.25
259.383	169.25
259.616	157.25
259.849	162.25
260.081	184.25
260.314	190.25
260.547	190.25
260.779	186.25
261.012	175.25
261.244	187.25
261.477	183.25
261.71	183.25
261.942	174.25
262.175	198.25
262.407	185.25
262.64	171.25
262.872	173.25
263.105	171.25
263.337	166.25
263.57	170.25
263.802	180.25
264.035	172.25
264.267	164.25
264.499	163.25
264.732	176.25
264.964	161.25
265.197	173.25
265.429	174.25
265.661	184.25
265.894	167.25
266.126	167.25
266.358	178.25
266.591	170.25
266.823	166.25
267.055	170.25
267.287	186.25
267.52	178.25
267.752	170.25
267.984	179.25
268.216	190.25
268.448	193.25
268.681	197.25
268.913	182.25
269.145	209.25
269.377	186.25
269.609	219.25
269.841	198.25
270.073	199.25
270.306	218.25
270.538	218.25
270.77	235.25
271.002	216.25
271.234	224.25
271.466	225.25
271.698	228.25
271.93	218.25
272.162	233.25
272.394	230.25
272.626	216.25
272.858	230.25
273.09	212.25
273.322	202.25
273.553	208.25
273.785	218.25
274.017	199.25
274.249	209.25
274.481	206.25
274.713	209.25
274.945	206.25
275.176	219.25
275.408	223.25
275.64	199.25
275.872	202.25
276.104	204.25
276.335	209.25
276.567	204.25
276.799	221.25
277.031	224.25
277.262	235.25
277.494	238.25
277.726	230.25
277.957	210.25
278.189	212.25
278.421	230.25
278.652	224.25
278.884	202.25
279.115	197.25
279.347	210.25
279.579	210.25
279.81	198.25
280.042	199.25
280.273	195.25
280.505	211.25
280.736	205.25
280.968	213.25
281.199	207.25
281.431	204.25
281.662	208.25
281.894	205.25
282.125	201.25
282.356	220.25
282.588	226.25
282.819	238.25
283.051	217.25
283.282	229.25
283.513	213.25
283.745	207.25
283.976	211.25
284.207	201.25
284.439	211.25
284.67	209.25
284.901	208.25
285.132	217.25
285.364	212.25
285.595	204.25
285.826	213.25
286.057	211.25
286.288	219.25
286.52	220.25
286.751	189.25
286.982	215.25
287.213	209.25
287.444	206.25
287.675	208.25
287.906	210.25
288.138	211.25
288.369	216.25
288.6	226.25
288.831	210.25
289.062	208.25
289.293	235.25
289.524	231.25
289.755	211.25
289.986	219.25
290.217	220.25
290.448	214.25
290.679	219.25
290.91	197.25
291.141	227.25
291.371	229.25
291.602	220.25
291.833	228.25
292.064	220.25
292.295	211.25
292.526	201.25
292.757	214.25
292.987	226.25
293.218	222.25
293.449	226.25
293.68	218.25
293.91	223.25
294.141	215.25
294.372	210.25
294.603	227.25
294.833	213.25
295.064	218.25
295.295	216.25
295.525	217.25
295.756	232.25
295.987	214.25
296.217	241.25
296.448	247.25
296.679	232.25
296.909	217.25
297.14	215.25
297.37	239.25
297.601	240.25
297.831	239.25
298.062	234.25
298.292	236.25
298.523	219.25
298.753	219.25
298.984	226.25
299.214	229.25
299.445	226.25
299.675	240.25
299.905	236.25
300.136	238.25
300.366	227.25
300.597	222.25
300.827	252.25
301.057	238.25
301.288	258.25
301.518	244.25
301.748	240.25
301.979	232.25
302.209	260.25
302.439	253.25
302.669	257.25
302.9	240.25
303.13	258.25
303.36	252.25
303.59	260.25
303.82	249.25
304.051	256.25
304.281	238.25
304.511	265.25
304.741	250.25
304.971	239.25
305.201	236.25
305.431	246.25
305.661	238.25
305.891	243.25
306.121	229.25
306.352	250.25
306.582	239.25
306.812	262.25
307.042	245.25
307.272	242.25
307.502	251.25
307.731	251.25
307.961	244.25
308.191	258.25
308.421	246.25
308.651	264.25
308.881	260.25
309.111	284.25
309.341	243.25
309.571	263.25
309.8	286.25
310.03	271.25
310.26	298.25
310.49	276.25
310.72	291.25
310.949	293.25
311.179	302.25
311.409	284.25
311.639	267.25
311.868	288.25
312.098	279.25
312.328	281.25
312.557	308.25
312.787	305.25
313.017	315.25
313.246	292.25
313.476	292.25
313.706	284.25
313.935	288.25
314.165	302.25
314.394	307.25
314.624	322.25
314.853	292.25
315.083	287.25
315.312	272.25
315.542	284.25
315.771	287.25
316.001	285.25
316.23	285.25
316.46	292.25
316.689	286.25
316.919	296.25
317.148	288.25
317.377	296.25
317.607	287.25
317.836	284.25
318.065	295.25
318.295	296.25
318.524	288.25
318.753	277.25
318.983	294.25
319.212	291.25
319.441	287.25
319.67	298.25
319.9	289.25
320.129	295.25
320.358	296.25
320.587	308.25
320.816	313.25
321.046	307.25
321.275	314.25
321.504	309.25
321.733	292.25
321.962	323.25
322.191	318.25
322.42	310.25
322.649	343.25
322.878	361.25
323.108	336.25
323.337	378.25
323.566	394.25
323.795	413.25
324.024	456.25
324.253	564.25
324.482	811.25
324.71	1264.25
324.939	1738.25
325.168	1484.25
325.397	788.25
325.626	508.25
325.855	456.25
326.084	414.25
326.313	404.25
326.542	413.25
326.77	462.25
326.999	508.25
327.228	723.25
327.457	1101.25
327.686	1287.25
327.914	874.25
328.143	599.25
328.372	510.25
328.6	478.25
328.829	443.25
329.058	461.25
329.287	448.25
329.515	434.25
329.744	400.25
329.972	418.25
330.201	422.25
330.43	472.25
330.658	451.25
330.887	487.25
331.115	457.25
331.344	424.25
331.572	376.25
331.801	370.25
332.03	375.25
332.258	368.25
332.486	346.25
332.715	344.25
332.943	332.25
333.172	342.25
333.4	353.25
333.629	348.25
333.857	354.25
334.085	361.25
334.314	381.25
334.542	410.25
334.771	414.25
334.999	375.25
335.227	357.25
335.455	354.25
335.684	331.25
335.912	349.25
336.14	317.25
336.369	343.25
336.597	341.25
336.825	336.25
337.053	337.25
337.281	339.25
337.51	331.25
337.738	327.25
337.966	320.25
338.194	350.25
338.422	312.25
338.65	329.25
338.878	343.25
339.106	314.25
339.334	332.25
339.562	319.25
339.79	308.25
340.018	306.25
340.246	323.25
340.474	313.25
340.702	329.25
340.93	330.25
341.158	314.25
341.386	323.25
341.614	326.25
341.842	326.25
342.07	317.25
342.298	326.25
342.526	335.25
342.754	314.25
342.981	315.25
343.209	326.25
343.437	323.25
343.665	310.25
343.893	333.25
344.12	326.25
344.348	305.25
344.576	332.25
344.804	335.25
345.031	337.25
345.259	327.25
345.487	342.25
345.714	325.25
345.942	320.25
346.17	312.25
346.397	328.25
346.625	314.25
346.853	304.25
347.08	328.25
347.308	328.25
347.535	336.25
347.763	346.25
347.99	330.25
348.218	323.25
348.445	330.25
348.673	322.25
348.9	303.25
349.128	312.25
349.355	302.25
349.583	303.25
349.81	308.25
350.037	306.25
350.265	298.25
350.492	306.25
350.72	326.25
350.947	333.25
351.174	317.25
351.402	332.25
351.629	332.25
351.856	325.25
352.083	325.25
352.311	350.25
352.538	338.25
352.765	331.25
352.992	321.25
353.22	326.25
353.447	316.25
353.674	318.25
353.901	291.25
354.128	294.25
354.355	298.25
354.583	304.25
354.81	290.25
355.037	283.25
355.264	307.25
355.491	288.25
355.718	288.25
355.945	314.25
356.172	286.25
356.399	302.25
356.626	299.25
356.853	284.25
357.08	287.25
357.307	297.25
357.534	303.25
357.761	299.25
357.988	308.25
358.215	300.25
358.441	286.25
358.668	297.25
358.895	304.25
359.122	289.25
359.349	306.25
359.576	331.25
359.802	328.25
360.029	373.25
360.256	373.25
360.483	348.25
360.709	316.25
360.936	320.25
361.163	312.25
361.39	333.25
361.616	313.25
361.843	322.25
362.07	315.25
362.296	321.25
362.523	314.25
362.749	314.25
362.976	296.25
363.203	322.25
363.429	308.25
363.656	315.25
363.882	313.25
364.109	311.25
364.335	307.25
364.562	307.25
364.788	312.25
365.015	336.25
365.241	295.25
365.468	300.25
365.694	309.25
365.92	314.25
366.147	302.25
366.373	309.25
366.599	311.25
366.826	311.25
367.052	287.25
367.278	292.25
367.505	305.25
367.731	308.25
367.957	289.25
368.184	314.25
368.41	309.25
368.636	316.25
368.862	323.25
369.089	314.25
369.315	314.25
369.541	310.25
369.767	319.25
369.993	301.25
370.219	312.25
370.445	303.25
370.672	298.25
370.898	274.25
371.124	293.25
371.35	293.25
371.576	293.25
371.802	296.25
372.028	300.25
372.254	284.25
372.48	312.25
372.706	303.25
372.932	280.25
373.158	312.25
373.384	294.25
373.61	300.25
373.835	319.25
374.061	316.25
374.287	302.25
374.513	323.25
374.739	314.25
374.965	313.25
375.191	307.25
375.416	317.25
375.642	306.25
375.868	310.25
376.094	298.25
376.319	302.25
376.545	293.25
376.771	298.25
376.997	308.25
377.222	295.25
377.448	310.25
377.674	302.25
377.899	300.25
378.125	313.25
378.35	286.25
378.576	307.25
378.802	293.25
379.027	304.25
379.253	308.25
379.478	294.25
379.704	300.25
379.929	297.25
380.155	299.25
380.38	311.25
380.606	316.25
380.831	306.25
381.057	326.25
381.282	306.25
381.507	306.25
381.733	310.25
381.958	297.25
382.184	311.25
382.409	306.25
382.634	297.25
382.86	318.25
383.085	300.25
383.31	304.25
383.535	322.25
383.761	322.25
383.986	313.25
384.211	313.25
384.436	299.25
384.662	312.25
384.887	341.25
385.112	316.25
385.337	332.25
385.562	296.25
385.787	319.25
386.013	331.25
386.238	329.25
386.463	312.25
386.688	344.25
386.913	295.25
387.138	317.25
387.363	326.25
387.588	324.25
387.813	309.25
388.038	336.25
388.263	322.25
388.488	323.25
388.713	334.25
388.938	322.25
389.163	332.25
389.387	349.25
389.612	343.25
389.837	337.25
390.062	335.25
390.287	328.25
390.512	322.25
390.736	334.25
390.961	311.25
391.186	332.25
391.411	322.25
391.636	316.25
391.86	322.25
392.085	335.25
392.31	351.25
392.534	331.25
392.759	330.25
392.984	334.25
393.208	349.25
393.433	345.25
393.658	335.25
393.882	338.25
394.107	339.25
394.331	322.25
394.556	339.25
394.78	341.25
395.005	353.25
395.229	354.25
395.454	344.25
395.678	335.25
395.903	340.25
396.127	361.25
396.352	372.25
396.576	354.25
396.801	352.25
397.025	328.25
397.249	358.25
397.474	356.25
397.698	348.25
397.922	352.25
398.147	344.25
398.371	386.25
398.595	370.25
398.82	362.25
399.044	374.25
399.268	368.25
399.492	394.25
399.717	414.25
399.941	427.25
400.165	442.25
400.389	443.25
400.613	425.25
400.837	396.25
401.062	389.25
401.286	385.25
401.51	371.25
401.734	366.25
401.958	349.25
402.182	378.25
402.406	363.25
402.63	374.25
402.854	388.25
403.078	388.25
403.302	379.25
403.526	369.25
403.75	393.25
403.974	371.25
404.198	369.25
404.422	390.25
404.645	375.25
404.869	406.25
405.093	421.25
405.317	467.25
405.541	467.25
405.765	431.25
405.988	409.25
406.212	436.25
406.436	434.25
406.66	435.25
406.883	404.25
407.107	448.25
407.331	448.25
407.555	520.25
407.778	517.25
408.002	473.25
408.226	440.25
408.449	434.25
408.673	438.25
408.896	428.25
409.12	472.25
409.344	459.25
409.567	406.25
409.791	410.25
410.014	403.25
410.238	386.25
410.461	398.25
410.685	387.25
410.908	384.25
411.132	424.25
411.355	436.25
411.578	432.25
411.802	416.25
412.025	388.25
412.249	396.25
412.472	403.25
412.695	437.25
412.919	442.25
413.142	402.25
413.365	401.25
413.589	400.25
413.812	379.25
414.035	382.25
414.258	368.25
414.482	361.25
414.705	378.25
414.928	352.25
415.151	358.25
415.374	357.25
415.597	357.25
415.821	360.25
416.044	380.25
416.267	370.25
416.49	379.25
416.713	367.25
416.936	378.25
417.159	362.25
417.382	349.25
417.605	370.25
417.828	366.25
418.051	391.25
418.274	382.25
418.497	368.25
418.72	350.25
418.943	358.25
419.166	383.25
419.389	387.25
419.611	393.25
419.834	386.25
420.057	409.25
420.28	397.25
420.503	382.25
420.726	379.25
420.948	401.25
421.171	423.25
421.394	445.25
421.617	411.25
421.839	389.25
422.062	387.25
422.285	399.25
422.507	442.25
422.73	485.25
422.953	467.25
423.175	426.25
423.398	395.25
423.621	386.25
423.843	401.25
424.066	396.25
424.288	408.25
424.511	422.25
424.733	456.25
424.956	516.25
425.178	510.25
425.401	519.25
425.623	529.25
425.846	442.25
426.068	423.25
426.291	416.25
426.513	416.25
426.735	404.25
426.958	472.25
427.18	554.25
427.402	611.25
427.625	674.25
427.847	595.25
428.069	527.25
428.292	452.25
428.514	418.25
428.736	396.25
428.958	379.25
429.181	398.25
429.403	393.25
429.625	415.25
429.847	436.25
430.069	490.25
430.292	472.25
430.514	410.25
430.736	380.25
430.958	380.25
431.18	379.25
431.402	364.25
431.624	363.25
431.846	372.25
432.068	381.25
432.29	378.25
432.512	372.25
432.734	384.25
432.956	383.25
433.178	390.25
433.4	382.25
433.622	394.25
433.844	381.25
434.066	375.25
434.287	368.25
434.509	382.25
434.731	379.25
434.953	384.25
435.175	380.25
435.397	422.25
435.618	433.25
435.84	463.25
436.062	544.25
436.284	595.25
436.505	499.25
436.727	440.25
436.949	412.25
437.17	407.25
437.392	390.25
437.614	407.25
437.835	460.25
438.057	501.25
438.278	559.25
438.5	594.25
438.721	627.25
438.943	606.25
439.165	464.25
439.386	450.25
439.608	440.25
439.829	447.25
440.05	455.25
440.272	495.25
440.493	477.25
440.715	440.25
440.936	410.25
441.158	387.25
441.379	403.25
441.6	403.25
441.822	423.25
442.043	443.25
442.264	522.25
442.486	542.25
442.707	470.25
442.928	448.25
443.149	450.25
443.371	467.25
443.592	486.25
443.813	567.25
444.034	601.25
444.255	499.25
444.476	442.25
444.698	441.25
444.919	423.25
445.14	537.25
445.361	481.25
445.582	450.25
445.803	516.25
446.024	571.25
446.245	590.25
446.466	523.25
446.687	456.25
446.908	441.25
447.129	394.25
447.35	397.25
447.571	399.25
447.792	410.25
448.013	406.25
448.234	397.25
448.455	445.25
448.675	539.25
448.896	623.25
449.117	545.25
449.338	520.25
449.559	607.25
449.779	650.25
450	506.25
450.221	453.25
450.442	416.25
450.662	388.25
450.883	383.25
451.104	420.25
451.324	426.25
451.545	386.25
451.766	360.25
451.986	373.25
452.207	353.25
452.428	362.25
452.648	352.25
452.869	371.25
453.089	382.25
453.31	365.25
453.53	352.25
453.751	360.25
453.971	351.25
454.192	368.25
454.412	352.25
454.633	373.25
454.853	354.25
455.073	362.25
455.294	384.25
455.514	445.25
455.734	424.25
455.955	371.25
456.175	363.25
456.395	336.25
456.616	343.25
456.836	345.25
457.056	327.25
457.276	339.25
457.497	351.25
457.717	354.25
457.937	339.25
458.157	355.25
458.377	364.25
458.598	377.25
458.818	430.25
459.038	459.25
459.258	472.25
459.478	427.25
459.698	396.25
459.918	395.25
460.138	378.25
460.358	360.25
460.578	370.25
460.798	378.25
461.018	380.25
461.238	367.25
461.458	383.25
461.678	375.25
461.898	385.25
462.118	372.25
462.338	401.25
462.558	414.25
462.777	377.25
462.997	404.25
463.217	384.25
463.437	401.25
463.657	398.25
463.876	410.25
464.096	390.25
464.316	402.25
464.536	387.25
464.755	409.25
464.975	402.25
465.195	445.25
465.414	503.25
465.634	440.25
465.854	404.25
466.073	394.25
466.293	394.25
466.512	373.25
466.732	371.25
466.951	375.25
467.171	370.25
467.391	372.25
467.61	372.25
467.829	384.25
468.049	386.25
468.268	356.25
468.488	379.25
468.707	371.25
468.927	382.25
469.146	381.25
469.365	346.25
469.585	349.25
469.804	364.25
470.023	383.25
470.243	379.25
470.462	390.25
470.681	390.25
470.901	387.25
471.12	366.25
471.339	366.25
471.558	382.25
471.777	355.25
471.997	380.25
472.216	377.25
472.435	408.25
472.654	399.25
472.873	384.25
473.092	386.25
473.311	361.25
473.53	366.25
473.749	386.25
473.968	401.25
474.187	509.25
474.406	509.25
474.625	434.25
474.844	393.25
475.063	388.25
475.282	372.25
475.501	386.25
475.72	375.25
475.939	368.25
476.158	395.25
476.377	388.25
476.596	384.25
476.814	402.25
477.033	403.25
477.252	367.25
477.471	385.25
477.69	405.25
477.908	413.25
478.127	413.25
478.346	397.25
478.564	392.25
478.783	402.25
479.002	424.25
479.22	414.25
479.439	436.25
479.658	455.25
479.876	453.25
480.095	457.25
480.313	446.25
480.532	454.25
480.751	440.25
480.969	465.25
481.188	521.25
481.406	553.25
481.624	495.25
481.843	498.25
482.061	460.25
482.28	441.25
482.498	448.25
482.717	438.25
482.935	446.25
483.153	434.25
483.372	423.25
483.59	438.25
483.808	434.25
484.027	417.25
484.245	432.25
484.463	446.25
484.681	439.25
484.9	453.25
485.118	463.25
485.336	442.25
485.554	465.25
485.772	462.25
485.99	436.25
486.209	459.25
486.427	444.25
486.645	461.25
486.863	480.25
487.081	468.25
487.299	464.25
487.517	454.25
487.735	478.25
487.953	463.25
488.171	453.25
488.389	469.25
488.607	475.25
488.825	474.25
489.043	464.25
489.261	476.25
489.479	486.25
489.696	472.25
489.914	492.25
490.132	459.25
490.35	482.25
490.568	512.25
490.786	511.25
491.003	503.25
491.221	499.25
491.439	539.25
491.657	503.25
491.874	531.25
492.092	509.25
492.31	533.25
492.527	529.25
492.745	543.25
492.963	518.25
493.18	535.25
493.398	555.25
493.615	532.25
493.833	533.25
494.05	545.25
494.268	532.25
494.485	565.25
494.703	553.25
494.92	541.25
495.138	532.25
495.355	546.25
495.573	544.25
495.79	555.25
496.008	535.25
496.225	559.25
496.442	552.25
496.66	568.25
496.877	574.25
497.094	536.25
497.312	574.25
497.529	588.25
497.746	564.25
497.963	549.25
498.181	621.25
498.398	604.25
498.615	589.25
498.832	627.25
499.049	629.25
499.267	652.25
499.484	661.25
499.701	652.25
499.918	659.25
500.135	677.25
500.352	699.25
500.569	703.25
500.786	715.25
501.003	715.25
501.22	692.25
501.437	709.25
501.654	644.25
501.871	667.25
502.088	668.25
