Data from 1961.PennyLincolnUp.Lamp.En5.5.200Scan.071719.P1._HRD10591_13-48-11-057.txt Node
Date: Thu Jul 18 13:48:11 EDT 2019
User: cochatt
Spectrometer: HR+D1059
Trigger mode: 1
Integration Time (sec): 1.000000E-1
Scans to average: 1
Electric dark correction enabled: true
Nonlinearity correction enabled: false
Boxcar width: 0
XAxis mode: Wavelengths
Number of Pixels in Spectrum: 2048
>>>>>Begin Spectral Data<<<<<
223.165	-23.88
223.4	-23.88
223.635	-23.88
223.869	-16.88
224.104	-9.88
224.338	-10.88
224.573	-19.88
224.808	-18.88
225.042	-22.88
225.277	-12.88
225.511	11.12
225.746	5.12
225.98	13.12
226.215	10.12
226.449	15.12
226.683	20.12
226.918	38.12
227.152	23.12
227.387	30.12
227.621	35.12
227.856	39.12
228.09	48.12
228.324	41.12
228.559	59.12
228.793	69.12
229.027	77.12
229.262	100.12
229.496	108.12
229.73	114.12
229.964	143.12
230.199	120.12
230.433	99.12
230.667	101.12
230.901	97.12
231.136	98.12
231.37	119.12
231.604	106.12
231.838	97.12
232.072	129.12
232.306	106.12
232.541	90.12
232.775	102.12
233.009	103.12
233.243	104.12
233.477	109.12
233.711	92.12
233.945	105.12
234.179	109.12
234.413	90.12
234.647	103.12
234.881	98.12
235.115	95.12
235.349	102.12
235.583	98.12
235.817	101.12
236.051	112.12
236.285	111.12
236.519	122.12
236.753	119.12
236.987	135.12
237.221	164.12
237.455	210.12
237.689	149.12
237.922	129.12
238.156	108.12
238.39	116.12
238.624	110.12
238.858	109.12
239.091	124.12
239.325	115.12
239.559	119.12
239.793	110.12
240.027	113.12
240.26	129.12
240.494	128.12
240.728	134.12
240.961	123.12
241.195	129.12
241.429	118.12
241.662	118.12
241.896	104.12
242.13	126.12
242.363	114.12
242.597	113.12
242.83	123.12
243.064	117.12
243.298	106.12
243.531	130.12
243.765	130.12
243.998	121.12
244.232	120.12
244.465	111.12
244.699	111.12
244.932	124.12
245.166	118.12
245.399	122.12
245.633	125.12
245.866	132.12
246.099	142.12
246.333	121.12
246.566	138.12
246.8	130.12
247.033	138.12
247.266	150.12
247.5	147.12
247.733	148.12
247.966	135.12
248.2	145.12
248.433	146.12
248.666	155.12
248.899	144.12
249.133	159.12
249.366	171.12
249.599	179.12
249.832	161.12
250.066	143.12
250.299	147.12
250.532	160.12
250.765	175.12
250.998	199.12
251.231	195.12
251.465	182.12
251.698	168.12
251.931	171.12
252.164	167.12
252.397	158.12
252.63	179.12
252.863	182.12
253.096	186.12
253.329	189.12
253.562	192.12
253.795	185.12
254.028	183.12
254.261	170.12
254.494	196.12
254.727	227.12
254.96	250.12
255.193	215.12
255.426	197.12
255.659	199.12
255.892	207.12
256.124	192.12
256.357	201.12
256.59	181.12
256.823	179.12
257.056	175.12
257.289	176.12
257.521	181.12
257.754	156.12
257.987	169.12
258.22	162.12
258.452	174.12
258.685	169.12
258.918	165.12
259.151	167.12
259.383	185.12
259.616	175.12
259.849	175.12
260.081	215.12
260.314	193.12
260.547	191.12
260.779	205.12
261.012	200.12
261.244	195.12
261.477	198.12
261.71	185.12
261.942	190.12
262.175	210.12
262.407	174.12
262.64	190.12
262.872	195.12
263.105	190.12
263.337	187.12
263.57	202.12
263.802	192.12
264.035	192.12
264.267	182.12
264.499	163.12
264.732	173.12
264.964	183.12
265.197	185.12
265.429	184.12
265.661	163.12
265.894	174.12
266.126	169.12
266.358	170.12
266.591	179.12
266.823	198.12
267.055	192.12
267.287	160.12
267.52	184.12
267.752	179.12
267.984	190.12
268.216	208.12
268.448	196.12
268.681	195.12
268.913	213.12
269.145	224.12
269.377	236.12
269.609	237.12
269.841	211.12
270.073	225.12
270.306	239.12
270.538	253.12
270.77	239.12
271.002	243.12
271.234	227.12
271.466	237.12
271.698	261.12
271.93	267.12
272.162	254.12
272.394	238.12
272.626	241.12
272.858	232.12
273.09	243.12
273.322	231.12
273.553	228.12
273.785	215.12
274.017	224.12
274.249	211.12
274.481	210.12
274.713	208.12
274.945	233.12
275.176	214.12
275.408	201.12
275.64	213.12
275.872	202.12
276.104	226.12
276.335	216.12
276.567	210.12
276.799	234.12
277.031	232.12
277.262	263.12
277.494	247.12
277.726	245.12
277.957	239.12
278.189	232.12
278.421	217.12
278.652	206.12
278.884	218.12
279.115	222.12
279.347	226.12
279.579	231.12
279.81	220.12
280.042	225.12
280.273	249.12
280.505	212.12
280.736	211.12
280.968	217.12
281.199	216.12
281.431	219.12
281.662	211.12
281.894	214.12
282.125	208.12
282.356	227.12
282.588	237.12
282.819	263.12
283.051	233.12
283.282	210.12
283.513	211.12
283.745	218.12
283.976	209.12
284.207	217.12
284.439	222.12
284.67	204.12
284.901	212.12
285.132	229.12
285.364	229.12
285.595	223.12
285.826	201.12
286.057	216.12
286.288	229.12
286.52	214.12
286.751	233.12
286.982	210.12
287.213	196.12
287.444	231.12
287.675	226.12
287.906	254.12
288.138	239.12
288.369	227.12
288.6	216.12
288.831	243.12
289.062	239.12
289.293	237.12
289.524	227.12
289.755	221.12
289.986	214.12
290.217	223.12
290.448	225.12
290.679	223.12
290.91	223.12
291.141	232.12
291.371	214.12
291.602	224.12
291.833	230.12
292.064	222.12
292.295	218.12
292.526	210.12
292.757	230.12
292.987	227.12
293.218	220.12
293.449	227.12
293.68	230.12
293.91	213.12
294.141	228.12
294.372	236.12
294.603	246.12
294.833	238.12
295.064	238.12
295.295	215.12
295.525	232.12
295.756	241.12
295.987	240.12
296.217	270.12
296.448	285.12
296.679	245.12
296.909	244.12
297.14	221.12
297.37	235.12
297.601	253.12
297.831	234.12
298.062	252.12
298.292	249.12
298.523	241.12
298.753	232.12
298.984	248.12
299.214	227.12
299.445	221.12
299.675	234.12
299.905	253.12
300.136	253.12
300.366	249.12
300.597	253.12
300.827	255.12
301.057	248.12
301.288	261.12
301.518	274.12
301.748	237.12
301.979	270.12
302.209	250.12
302.439	250.12
302.669	260.12
302.9	260.12
303.13	251.12
303.36	269.12
303.59	274.12
303.82	264.12
304.051	255.12
304.281	256.12
304.511	254.12
304.741	259.12
304.971	270.12
305.201	250.12
305.431	254.12
305.661	255.12
305.891	240.12
306.121	264.12
306.352	264.12
306.582	265.12
306.812	259.12
307.042	249.12
307.272	246.12
307.502	272.12
307.731	275.12
307.961	269.12
308.191	278.12
308.421	262.12
308.651	267.12
308.881	260.12
309.111	288.12
309.341	268.12
309.571	289.12
309.8	292.12
310.03	314.12
310.26	318.12
310.49	310.12
310.72	334.12
310.949	327.12
311.179	302.12
311.409	309.12
311.639	312.12
311.868	315.12
312.098	328.12
312.328	318.12
312.557	332.12
312.787	340.12
313.017	334.12
313.246	319.12
313.476	313.12
313.706	292.12
313.935	309.12
314.165	322.12
314.394	333.12
314.624	319.12
314.853	312.12
315.083	307.12
315.312	294.12
315.542	303.12
315.771	310.12
316.001	302.12
316.23	297.12
316.46	290.12
316.689	308.12
316.919	314.12
317.148	319.12
317.377	325.12
317.607	317.12
317.836	310.12
318.065	294.12
318.295	308.12
318.524	298.12
318.753	303.12
318.983	302.12
319.212	299.12
319.441	314.12
319.67	330.12
319.9	306.12
320.129	312.12
320.358	324.12
320.587	323.12
320.816	309.12
321.046	349.12
321.275	344.12
321.504	318.12
321.733	347.12
321.962	345.12
322.191	359.12
322.42	369.12
322.649	399.12
322.878	360.12
323.108	393.12
323.337	437.12
323.566	438.12
323.795	486.12
324.024	496.12
324.253	658.12
324.482	951.12
324.71	1469.12
324.939	2067.12
325.168	1790.12
325.397	896.12
325.626	607.12
325.855	486.12
326.084	461.12
326.313	433.12
326.542	486.12
326.77	509.12
326.999	607.12
327.228	865.12
327.457	1285.12
327.686	1531.12
327.914	1041.12
328.143	667.12
328.372	563.12
328.6	526.12
328.829	487.12
329.058	499.12
329.287	509.12
329.515	484.12
329.744	443.12
329.972	445.12
330.201	469.12
330.43	491.12
330.658	510.12
330.887	550.12
331.115	534.12
331.344	447.12
331.572	420.12
331.801	439.12
332.03	423.12
332.258	368.12
332.486	396.12
332.715	358.12
332.943	377.12
333.172	391.12
333.4	366.12
333.629	379.12
333.857	397.12
334.085	395.12
334.314	410.12
334.542	442.12
334.771	463.12
334.999	408.12
335.227	385.12
335.455	384.12
335.684	363.12
335.912	371.12
336.14	341.12
336.369	355.12
336.597	377.12
336.825	337.12
337.053	351.12
337.281	363.12
337.51	349.12
337.738	341.12
337.966	349.12
338.194	377.12
338.422	340.12
338.65	353.12
338.878	353.12
339.106	350.12
339.334	358.12
339.562	345.12
339.79	357.12
340.018	348.12
340.246	342.12
340.474	355.12
340.702	361.12
340.93	361.12
341.158	334.12
341.386	351.12
341.614	350.12
341.842	368.12
342.07	355.12
342.298	342.12
342.526	336.12
342.754	317.12
342.981	336.12
343.209	344.12
343.437	357.12
343.665	339.12
343.893	337.12
344.12	331.12
344.348	346.12
344.576	355.12
344.804	353.12
345.031	363.12
345.259	372.12
345.487	369.12
345.714	354.12
345.942	369.12
346.17	330.12
346.397	340.12
346.625	336.12
346.853	330.12
347.08	338.12
347.308	338.12
347.535	335.12
347.763	366.12
347.99	359.12
348.218	356.12
348.445	364.12
348.673	360.12
348.9	349.12
349.128	334.12
349.355	322.12
349.583	318.12
349.81	330.12
350.037	331.12
350.265	327.12
350.492	319.12
350.72	314.12
350.947	321.12
351.174	348.12
351.402	337.12
351.629	357.12
351.856	349.12
352.083	345.12
352.311	360.12
352.538	348.12
352.765	364.12
352.992	373.12
353.22	342.12
353.447	343.12
353.674	325.12
353.901	316.12
354.128	306.12
354.355	342.12
354.583	308.12
354.81	299.12
355.037	309.12
355.264	295.12
355.491	315.12
355.718	314.12
355.945	294.12
356.172	297.12
356.399	303.12
356.626	317.12
356.853	328.12
357.08	316.12
357.307	314.12
357.534	320.12
357.761	311.12
357.988	328.12
358.215	331.12
358.441	329.12
358.668	321.12
358.895	315.12
359.122	323.12
359.349	332.12
359.576	346.12
359.802	365.12
360.029	369.12
360.256	414.12
360.483	364.12
360.709	337.12
360.936	356.12
361.163	343.12
361.39	341.12
361.616	342.12
361.843	348.12
362.07	356.12
362.296	353.12
362.523	336.12
362.749	331.12
362.976	327.12
363.203	342.12
363.429	349.12
363.656	333.12
363.882	319.12
364.109	318.12
364.335	305.12
364.562	327.12
364.788	317.12
365.015	327.12
365.241	312.12
365.468	335.12
365.694	321.12
365.92	330.12
366.147	317.12
366.373	316.12
366.599	314.12
366.826	304.12
367.052	310.12
367.278	323.12
367.505	316.12
367.731	324.12
367.957	316.12
368.184	313.12
368.41	327.12
368.636	324.12
368.862	350.12
369.089	324.12
369.315	323.12
369.541	328.12
369.767	331.12
369.993	321.12
370.219	318.12
370.445	321.12
370.672	327.12
370.898	324.12
371.124	333.12
371.35	334.12
371.576	306.12
371.802	305.12
372.028	321.12
372.254	328.12
372.48	331.12
372.706	320.12
372.932	327.12
373.158	326.12
373.384	317.12
373.61	316.12
373.835	324.12
374.061	338.12
374.287	317.12
374.513	329.12
374.739	314.12
374.965	340.12
375.191	311.12
375.416	302.12
375.642	315.12
375.868	317.12
376.094	322.12
376.319	346.12
376.545	295.12
376.771	312.12
376.997	308.12
377.222	325.12
377.448	306.12
377.674	321.12
377.899	312.12
378.125	304.12
378.35	317.12
378.576	332.12
378.802	317.12
379.027	305.12
379.253	309.12
379.478	314.12
379.704	318.12
379.929	312.12
380.155	312.12
380.38	320.12
380.606	311.12
380.831	319.12
381.057	324.12
381.282	329.12
381.507	335.12
381.733	314.12
381.958	310.12
382.184	343.12
382.409	311.12
382.634	314.12
382.86	327.12
383.085	329.12
383.31	307.12
383.535	316.12
383.761	298.12
383.986	331.12
384.211	321.12
384.436	319.12
384.662	334.12
384.887	322.12
385.112	318.12
385.337	333.12
385.562	331.12
385.787	324.12
386.013	366.12
386.238	331.12
386.463	336.12
386.688	324.12
386.913	339.12
387.138	355.12
387.363	342.12
387.588	330.12
387.813	340.12
388.038	337.12
388.263	339.12
388.488	321.12
388.713	357.12
388.938	332.12
389.163	328.12
389.387	347.12
389.612	341.12
389.837	346.12
390.062	328.12
390.287	335.12
390.512	348.12
390.736	330.12
390.961	314.12
391.186	330.12
391.411	333.12
391.636	333.12
391.86	345.12
392.085	337.12
392.31	338.12
392.534	347.12
392.759	370.12
392.984	345.12
393.208	335.12
393.433	351.12
393.658	333.12
393.882	330.12
394.107	348.12
394.331	338.12
394.556	346.12
394.78	339.12
395.005	360.12
395.229	359.12
395.454	354.12
395.678	358.12
395.903	367.12
396.127	359.12
396.352	381.12
396.576	360.12
396.801	346.12
397.025	358.12
397.249	366.12
397.474	367.12
397.698	369.12
397.922	372.12
398.147	398.12
398.371	394.12
398.595	369.12
398.82	384.12
399.044	378.12
399.268	382.12
399.492	405.12
399.717	408.12
399.941	431.12
400.165	453.12
400.389	468.12
400.613	426.12
400.837	412.12
401.062	396.12
401.286	377.12
401.51	412.12
401.734	394.12
401.958	372.12
402.182	386.12
402.406	411.12
402.63	409.12
402.854	396.12
403.078	379.12
403.302	403.12
403.526	407.12
403.75	399.12
403.974	393.12
404.198	385.12
404.422	382.12
404.645	415.12
404.869	405.12
405.093	444.12
405.317	486.12
405.541	501.12
405.765	424.12
405.988	449.12
406.212	446.12
406.436	484.12
406.66	471.12
406.883	446.12
407.107	452.12
407.331	494.12
407.555	531.12
407.778	542.12
408.002	465.12
408.226	467.12
408.449	467.12
408.673	452.12
408.896	463.12
409.12	473.12
409.344	461.12
409.567	436.12
409.791	433.12
410.014	407.12
410.238	402.12
410.461	415.12
410.685	420.12
410.908	413.12
411.132	446.12
411.355	469.12
411.578	449.12
411.802	416.12
412.025	402.12
412.249	410.12
412.472	446.12
412.695	485.12
412.919	454.12
413.142	404.12
413.365	394.12
413.589	394.12
413.812	383.12
414.035	374.12
414.258	382.12
414.482	391.12
414.705	382.12
414.928	394.12
415.151	377.12
415.374	370.12
415.597	367.12
415.821	386.12
416.044	384.12
416.267	398.12
416.49	398.12
416.713	375.12
416.936	376.12
417.159	383.12
417.382	381.12
417.605	403.12
417.828	402.12
418.051	414.12
418.274	381.12
418.497	384.12
418.72	379.12
418.943	385.12
419.166	378.12
419.389	405.12
419.611	407.12
419.834	409.12
420.057	409.12
420.28	415.12
420.503	421.12
420.726	393.12
420.948	408.12
421.171	446.12
421.394	487.12
421.617	437.12
421.839	402.12
422.062	409.12
422.285	426.12
422.507	474.12
422.73	545.12
422.953	515.12
423.175	433.12
423.398	431.12
423.621	425.12
423.843	447.12
424.066	434.12
424.288	433.12
424.511	443.12
424.733	496.12
424.956	567.12
425.178	539.12
425.401	547.12
425.623	571.12
425.846	475.12
426.068	430.12
426.291	439.12
426.513	436.12
426.735	453.12
426.958	473.12
427.18	570.12
427.402	653.12
427.625	705.12
427.847	666.12
428.069	562.12
428.292	493.12
428.514	470.12
428.736	424.12
428.958	434.12
429.181	435.12
429.403	416.12
429.625	425.12
429.847	462.12
430.069	530.12
430.292	502.12
430.514	432.12
430.736	417.12
430.958	424.12
431.18	401.12
431.402	401.12
431.624	404.12
431.846	382.12
432.068	392.12
432.29	398.12
432.512	387.12
432.734	391.12
432.956	406.12
433.178	385.12
433.4	426.12
433.622	381.12
433.844	400.12
434.066	408.12
434.287	373.12
434.509	387.12
434.731	387.12
434.953	413.12
435.175	427.12
435.397	440.12
435.618	435.12
435.84	509.12
436.062	580.12
436.284	584.12
436.505	513.12
436.727	487.12
436.949	443.12
437.17	416.12
437.392	410.12
437.614	432.12
437.835	477.12
438.057	554.12
438.278	629.12
438.5	626.12
438.721	686.12
438.943	645.12
439.165	514.12
439.386	476.12
439.608	455.12
439.829	479.12
440.05	504.12
440.272	546.12
440.493	505.12
440.715	449.12
440.936	417.12
441.158	420.12
441.379	428.12
441.6	439.12
441.822	471.12
442.043	484.12
442.264	537.12
442.486	600.12
442.707	500.12
442.928	477.12
443.149	449.12
443.371	483.12
443.592	522.12
443.813	596.12
444.034	644.12
444.255	513.12
444.476	458.12
444.698	434.12
444.919	455.12
445.14	545.12
445.361	511.12
445.582	479.12
445.803	542.12
446.024	618.12
446.245	663.12
446.466	593.12
446.687	481.12
446.908	463.12
447.129	434.12
447.35	426.12
447.571	406.12
447.792	414.12
448.013	416.12
448.234	442.12
448.455	492.12
448.675	569.12
448.896	669.12
449.117	579.12
449.338	543.12
449.559	618.12
449.779	665.12
450	551.12
450.221	472.12
450.442	416.12
450.662	429.12
450.883	435.12
451.104	438.12
451.324	438.12
451.545	409.12
451.766	381.12
451.986	379.12
452.207	374.12
452.428	376.12
452.648	389.12
452.869	368.12
453.089	408.12
453.31	409.12
453.53	391.12
453.751	406.12
453.971	379.12
454.192	428.12
454.412	413.12
454.633	379.12
454.853	381.12
455.073	374.12
455.294	416.12
455.514	455.12
455.734	435.12
455.955	392.12
456.175	367.12
456.395	354.12
456.616	371.12
456.836	335.12
457.056	348.12
457.276	335.12
457.497	361.12
457.717	368.12
457.937	390.12
458.157	356.12
458.377	371.12
458.598	387.12
458.818	457.12
459.038	542.12
459.258	509.12
459.478	430.12
459.698	417.12
459.918	389.12
460.138	390.12
460.358	374.12
460.578	403.12
460.798	406.12
461.018	388.12
461.238	405.12
461.458	383.12
461.678	388.12
461.898	392.12
462.118	406.12
462.338	402.12
462.558	407.12
462.777	410.12
462.997	408.12
463.217	409.12
463.437	420.12
463.657	397.12
463.876	406.12
464.096	436.12
464.316	419.12
464.536	422.12
464.755	423.12
464.975	436.12
465.195	471.12
465.414	547.12
465.634	487.12
465.854	435.12
466.073	421.12
466.293	389.12
466.512	405.12
466.732	386.12
466.951	390.12
467.171	373.12
467.391	408.12
467.61	393.12
467.829	403.12
468.049	397.12
468.268	390.12
468.488	391.12
468.707	389.12
468.927	371.12
469.146	381.12
469.365	378.12
469.585	367.12
469.804	385.12
470.023	387.12
470.243	386.12
470.462	382.12
470.681	426.12
470.901	404.12
471.12	371.12
471.339	394.12
471.558	403.12
471.777	398.12
471.997	383.12
472.216	399.12
472.435	441.12
472.654	439.12
472.873	414.12
473.092	378.12
473.311	384.12
473.53	389.12
473.749	418.12
473.968	469.12
474.187	528.12
474.406	529.12
474.625	436.12
474.844	393.12
475.063	411.12
475.282	421.12
475.501	402.12
475.72	404.12
475.939	407.12
476.158	420.12
476.377	413.12
476.596	396.12
476.814	403.12
477.033	401.12
477.252	436.12
477.471	426.12
477.69	410.12
477.908	423.12
478.127	415.12
478.346	419.12
478.564	424.12
478.783	440.12
479.002	433.12
479.22	436.12
479.439	467.12
479.658	479.12
479.876	497.12
480.095	487.12
480.313	517.12
480.532	499.12
480.751	473.12
480.969	509.12
481.188	563.12
481.406	584.12
481.624	518.12
481.843	490.12
482.061	477.12
482.28	471.12
482.498	445.12
482.717	448.12
482.935	453.12
483.153	450.12
483.372	450.12
483.59	473.12
483.808	457.12
484.027	459.12
484.245	473.12
484.463	469.12
484.681	466.12
484.9	447.12
485.118	461.12
485.336	471.12
485.554	465.12
485.772	479.12
485.99	485.12
486.209	475.12
486.427	473.12
486.645	478.12
486.863	504.12
487.081	517.12
487.299	518.12
487.517	496.12
487.735	491.12
487.953	485.12
488.171	488.12
488.389	490.12
488.607	476.12
488.825	478.12
489.043	504.12
489.261	491.12
489.479	506.12
489.696	504.12
489.914	477.12
490.132	498.12
490.35	529.12
490.568	511.12
490.786	553.12
491.003	527.12
491.221	523.12
491.439	567.12
491.657	561.12
491.874	583.12
492.092	550.12
492.31	569.12
492.527	568.12
492.745	577.12
492.963	567.12
493.18	564.12
493.398	579.12
493.615	576.12
493.833	578.12
494.05	557.12
494.268	577.12
494.485	581.12
494.703	574.12
494.92	559.12
495.138	573.12
495.355	590.12
495.573	571.12
495.79	569.12
496.008	607.12
496.225	602.12
496.442	580.12
496.66	583.12
496.877	582.12
497.094	588.12
497.312	596.12
497.529	599.12
497.746	605.12
497.963	593.12
498.181	606.12
498.398	621.12
498.615	629.12
498.832	632.12
499.049	642.12
499.267	665.12
499.484	652.12
499.701	671.12
499.918	673.12
500.135	688.12
500.352	709.12
500.569	742.12
500.786	745.12
501.003	731.12
501.22	711.12
501.437	687.12
501.654	726.12
501.871	703.12
502.088	674.12
