Data from 1961.PennyLincolnUp.Lamp.En5.5.200Scan.071719.P1._HRD10591_13-48-19-058.txt Node
Date: Thu Jul 18 13:48:19 EDT 2019
User: cochatt
Spectrometer: HR+D1059
Trigger mode: 1
Integration Time (sec): 1.000000E-1
Scans to average: 1
Electric dark correction enabled: true
Nonlinearity correction enabled: false
Boxcar width: 0
XAxis mode: Wavelengths
Number of Pixels in Spectrum: 2048
>>>>>Begin Spectral Data<<<<<
223.165	-32.5
223.4	-32.5
223.635	-32.5
223.869	-21.5
224.104	-16.5
224.338	-14.5
224.573	-11.5
224.808	-10.5
225.042	-4.5
225.277	-1.5
225.511	-5.5
225.746	0.5
225.98	11.5
226.215	7.5
226.449	21.5
226.683	9.5
226.918	29.5
227.152	38.5
227.387	42.5
227.621	42.5
227.856	51.5
228.09	41.5
228.324	49.5
228.559	60.5
228.793	67.5
229.027	86.5
229.262	93.5
229.496	99.5
229.73	123.5
229.964	135.5
230.199	130.5
230.433	102.5
230.667	108.5
230.901	106.5
231.136	101.5
231.37	103.5
231.604	103.5
231.838	96.5
232.072	98.5
232.306	107.5
232.541	111.5
232.775	105.5
233.009	109.5
233.243	103.5
233.477	115.5
233.711	107.5
233.945	106.5
234.179	105.5
234.413	114.5
234.647	107.5
234.881	106.5
235.115	108.5
235.349	110.5
235.583	112.5
235.817	117.5
236.051	115.5
236.285	119.5
236.519	116.5
236.753	122.5
236.987	153.5
237.221	165.5
237.455	208.5
237.689	167.5
237.922	131.5
238.156	118.5
238.39	125.5
238.624	105.5
238.858	114.5
239.091	119.5
239.325	130.5
239.559	107.5
239.793	114.5
240.027	127.5
240.26	135.5
240.494	146.5
240.728	143.5
240.961	135.5
241.195	143.5
241.429	129.5
241.662	123.5
241.896	116.5
242.13	130.5
242.363	113.5
242.597	127.5
242.83	132.5
243.064	137.5
243.298	129.5
243.531	142.5
243.765	126.5
243.998	116.5
244.232	116.5
244.465	121.5
244.699	130.5
244.932	113.5
245.166	115.5
245.399	126.5
245.633	116.5
245.866	124.5
246.099	129.5
246.333	131.5
246.566	124.5
246.8	140.5
247.033	146.5
247.266	135.5
247.5	149.5
247.733	156.5
247.966	145.5
248.2	165.5
248.433	135.5
248.666	151.5
248.899	158.5
249.133	174.5
249.366	175.5
249.599	170.5
249.832	164.5
250.066	162.5
250.299	161.5
250.532	171.5
250.765	179.5
250.998	189.5
251.231	193.5
251.465	183.5
251.698	175.5
251.931	174.5
252.164	173.5
252.397	168.5
252.63	166.5
252.863	165.5
253.096	174.5
253.329	185.5
253.562	196.5
253.795	190.5
254.028	197.5
254.261	204.5
254.494	197.5
254.727	204.5
254.96	219.5
255.193	223.5
255.426	221.5
255.659	191.5
255.892	193.5
256.124	192.5
256.357	198.5
256.59	191.5
256.823	184.5
257.056	182.5
257.289	180.5
257.521	198.5
257.754	181.5
257.987	179.5
258.22	172.5
258.452	167.5
258.685	150.5
258.918	175.5
259.151	169.5
259.383	182.5
259.616	184.5
259.849	197.5
260.081	189.5
260.314	218.5
260.547	229.5
260.779	206.5
261.012	195.5
261.244	195.5
261.477	187.5
261.71	198.5
261.942	208.5
262.175	212.5
262.407	190.5
262.64	195.5
262.872	187.5
263.105	178.5
263.337	181.5
263.57	187.5
263.802	185.5
264.035	181.5
264.267	179.5
264.499	169.5
264.732	185.5
264.964	191.5
265.197	181.5
265.429	177.5
265.661	161.5
265.894	184.5
266.126	173.5
266.358	183.5
266.591	167.5
266.823	189.5
267.055	198.5
267.287	207.5
267.52	190.5
267.752	196.5
267.984	187.5
268.216	183.5
268.448	209.5
268.681	204.5
268.913	197.5
269.145	215.5
269.377	235.5
269.609	239.5
269.841	230.5
270.073	230.5
270.306	227.5
270.538	271.5
270.77	262.5
271.002	258.5
271.234	236.5
271.466	251.5
271.698	263.5
271.93	282.5
272.162	265.5
272.394	265.5
272.626	242.5
272.858	253.5
273.09	239.5
273.322	222.5
273.553	228.5
273.785	231.5
274.017	223.5
274.249	230.5
274.481	228.5
274.713	226.5
274.945	239.5
275.176	205.5
275.408	226.5
275.64	224.5
275.872	218.5
276.104	222.5
276.335	219.5
276.567	212.5
276.799	226.5
277.031	254.5
277.262	265.5
277.494	275.5
277.726	257.5
277.957	226.5
278.189	245.5
278.421	220.5
278.652	225.5
278.884	229.5
279.115	223.5
279.347	237.5
279.579	219.5
279.81	222.5
280.042	221.5
280.273	238.5
280.505	209.5
280.736	217.5
280.968	220.5
281.199	208.5
281.431	213.5
281.662	237.5
281.894	229.5
282.125	229.5
282.356	229.5
282.588	279.5
282.819	276.5
283.051	219.5
283.282	234.5
283.513	237.5
283.745	212.5
283.976	229.5
284.207	222.5
284.439	240.5
284.67	226.5
284.901	207.5
285.132	219.5
285.364	232.5
285.595	226.5
285.826	234.5
286.057	242.5
286.288	232.5
286.52	222.5
286.751	211.5
286.982	234.5
287.213	217.5
287.444	221.5
287.675	226.5
287.906	231.5
288.138	253.5
288.369	241.5
288.6	253.5
288.831	219.5
289.062	229.5
289.293	237.5
289.524	241.5
289.755	242.5
289.986	233.5
290.217	228.5
290.448	233.5
290.679	225.5
290.91	233.5
291.141	244.5
291.371	243.5
291.602	234.5
291.833	230.5
292.064	220.5
292.295	227.5
292.526	234.5
292.757	240.5
292.987	259.5
293.218	239.5
293.449	230.5
293.68	232.5
293.91	231.5
294.141	226.5
294.372	235.5
294.603	225.5
294.833	238.5
295.064	249.5
295.295	230.5
295.525	244.5
295.756	231.5
295.987	260.5
296.217	267.5
296.448	270.5
296.679	253.5
296.909	230.5
297.14	236.5
297.37	229.5
297.601	241.5
297.831	230.5
298.062	223.5
298.292	247.5
298.523	241.5
298.753	248.5
298.984	237.5
299.214	238.5
299.445	244.5
299.675	255.5
299.905	259.5
300.136	245.5
300.366	237.5
300.597	237.5
300.827	268.5
301.057	255.5
301.288	275.5
301.518	273.5
301.748	255.5
301.979	261.5
302.209	263.5
302.439	248.5
302.669	246.5
302.9	256.5
303.13	253.5
303.36	268.5
303.59	264.5
303.82	253.5
304.051	276.5
304.281	282.5
304.511	270.5
304.741	269.5
304.971	267.5
305.201	269.5
305.431	258.5
305.661	257.5
305.891	283.5
306.121	265.5
306.352	284.5
306.582	286.5
306.812	270.5
307.042	285.5
307.272	292.5
307.502	263.5
307.731	269.5
307.961	281.5
308.191	265.5
308.421	288.5
308.651	287.5
308.881	279.5
309.111	279.5
309.341	301.5
309.571	296.5
309.8	293.5
310.03	287.5
310.26	306.5
310.49	304.5
310.72	322.5
310.949	334.5
311.179	332.5
311.409	329.5
311.639	317.5
311.868	307.5
312.098	311.5
312.328	325.5
312.557	330.5
312.787	357.5
313.017	354.5
313.246	334.5
313.476	318.5
313.706	311.5
313.935	311.5
314.165	330.5
314.394	330.5
314.624	323.5
314.853	339.5
315.083	338.5
315.312	327.5
315.542	310.5
315.771	302.5
316.001	301.5
316.23	302.5
316.46	289.5
316.689	294.5
316.919	306.5
317.148	330.5
317.377	329.5
317.607	337.5
317.836	322.5
318.065	330.5
318.295	301.5
318.524	301.5
318.753	289.5
318.983	327.5
319.212	312.5
319.441	322.5
319.67	328.5
319.9	337.5
320.129	301.5
320.358	318.5
320.587	319.5
320.816	327.5
321.046	340.5
321.275	353.5
321.504	318.5
321.733	355.5
321.962	384.5
322.191	361.5
322.42	387.5
322.649	381.5
322.878	405.5
323.108	403.5
323.337	426.5
323.566	439.5
323.795	475.5
324.024	566.5
324.253	695.5
324.482	982.5
324.71	1637.5
324.939	2217.5
325.168	1849.5
325.397	951.5
325.626	643.5
325.855	526.5
326.084	485.5
326.313	472.5
326.542	475.5
326.77	536.5
326.999	636.5
327.228	912.5
327.457	1370.5
327.686	1626.5
327.914	1099.5
328.143	691.5
328.372	622.5
328.6	575.5
328.829	542.5
329.058	545.5
329.287	532.5
329.515	511.5
329.744	484.5
329.972	457.5
330.201	472.5
330.43	533.5
330.658	556.5
330.887	588.5
331.115	533.5
331.344	469.5
331.572	433.5
331.801	435.5
332.03	439.5
332.258	413.5
332.486	389.5
332.715	369.5
332.943	381.5
333.172	378.5
333.4	358.5
333.629	367.5
333.857	393.5
334.085	409.5
334.314	443.5
334.542	483.5
334.771	481.5
334.999	441.5
335.227	390.5
335.455	392.5
335.684	378.5
335.912	356.5
336.14	362.5
336.369	385.5
336.597	377.5
336.825	374.5
337.053	379.5
337.281	353.5
337.51	337.5
337.738	375.5
337.966	362.5
338.194	371.5
338.422	385.5
338.65	367.5
338.878	349.5
339.106	337.5
339.334	352.5
339.562	347.5
339.79	351.5
340.018	342.5
340.246	349.5
340.474	365.5
340.702	365.5
340.93	350.5
341.158	355.5
341.386	350.5
341.614	378.5
341.842	325.5
342.07	362.5
342.298	357.5
342.526	333.5
342.754	337.5
342.981	344.5
343.209	334.5
343.437	332.5
343.665	332.5
343.893	354.5
344.12	344.5
344.348	354.5
344.576	364.5
344.804	365.5
345.031	378.5
345.259	383.5
345.487	363.5
345.714	362.5
345.942	337.5
346.17	341.5
346.397	346.5
346.625	357.5
346.853	345.5
347.08	361.5
347.308	342.5
347.535	345.5
347.763	363.5
347.99	354.5
348.218	376.5
348.445	353.5
348.673	366.5
348.9	361.5
349.128	344.5
349.355	338.5
349.583	321.5
349.81	326.5
350.037	318.5
350.265	327.5
350.492	324.5
350.72	341.5
350.947	338.5
351.174	364.5
351.402	353.5
351.629	359.5
351.856	365.5
352.083	372.5
352.311	364.5
352.538	379.5
352.765	389.5
352.992	363.5
353.22	352.5
353.447	350.5
353.674	354.5
353.901	326.5
354.128	314.5
354.355	316.5
354.583	309.5
354.81	310.5
355.037	310.5
355.264	318.5
355.491	319.5
355.718	319.5
355.945	315.5
356.172	329.5
356.399	332.5
356.626	313.5
356.853	301.5
357.08	308.5
357.307	337.5
357.534	299.5
357.761	291.5
357.988	307.5
358.215	319.5
358.441	330.5
358.668	307.5
358.895	337.5
359.122	330.5
359.349	324.5
359.576	322.5
359.802	360.5
360.029	397.5
360.256	419.5
360.483	395.5
360.709	372.5
360.936	332.5
361.163	347.5
361.39	341.5
361.616	356.5
361.843	343.5
362.07	340.5
362.296	354.5
362.523	348.5
362.749	371.5
362.976	350.5
363.203	347.5
363.429	335.5
363.656	334.5
363.882	337.5
364.109	335.5
364.335	339.5
364.562	333.5
364.788	325.5
365.015	338.5
365.241	322.5
365.468	329.5
365.694	347.5
365.92	330.5
366.147	339.5
366.373	331.5
366.599	346.5
366.826	300.5
367.052	327.5
367.278	319.5
367.505	332.5
367.731	330.5
367.957	336.5
368.184	337.5
368.41	308.5
368.636	350.5
368.862	354.5
369.089	319.5
369.315	315.5
369.541	309.5
369.767	332.5
369.993	329.5
370.219	309.5
370.445	319.5
370.672	340.5
370.898	342.5
371.124	321.5
371.35	324.5
371.576	328.5
371.802	325.5
372.028	311.5
372.254	319.5
372.48	321.5
372.706	318.5
372.932	325.5
373.158	316.5
373.384	329.5
373.61	338.5
373.835	329.5
374.061	309.5
374.287	321.5
374.513	329.5
374.739	336.5
374.965	303.5
375.191	325.5
375.416	323.5
375.642	323.5
375.868	310.5
376.094	313.5
376.319	305.5
376.545	299.5
376.771	330.5
376.997	325.5
377.222	320.5
377.448	314.5
377.674	311.5
377.899	305.5
378.125	314.5
378.35	309.5
378.576	325.5
378.802	311.5
379.027	307.5
379.253	302.5
379.478	309.5
379.704	309.5
379.929	313.5
380.155	323.5
380.38	313.5
380.606	332.5
380.831	329.5
381.057	330.5
381.282	310.5
381.507	307.5
381.733	310.5
381.958	319.5
382.184	298.5
382.409	313.5
382.634	321.5
382.86	332.5
383.085	336.5
383.31	317.5
383.535	325.5
383.761	321.5
383.986	325.5
384.211	344.5
384.436	346.5
384.662	318.5
384.887	340.5
385.112	340.5
385.337	322.5
385.562	354.5
385.787	342.5
386.013	327.5
386.238	353.5
386.463	346.5
386.688	358.5
386.913	334.5
387.138	327.5
387.363	343.5
387.588	328.5
387.813	343.5
388.038	330.5
388.263	355.5
388.488	337.5
388.713	329.5
388.938	332.5
389.163	341.5
389.387	353.5
389.612	329.5
389.837	348.5
390.062	334.5
390.287	334.5
390.512	346.5
390.736	355.5
390.961	344.5
391.186	351.5
391.411	347.5
391.636	355.5
391.86	340.5
392.085	351.5
392.31	361.5
392.534	343.5
392.759	343.5
392.984	338.5
393.208	343.5
393.433	346.5
393.658	342.5
393.882	359.5
394.107	343.5
394.331	350.5
394.556	341.5
394.78	350.5
395.005	356.5
395.229	348.5
395.454	361.5
395.678	355.5
395.903	379.5
396.127	386.5
396.352	391.5
396.576	369.5
396.801	361.5
397.025	373.5
397.249	349.5
397.474	363.5
397.698	346.5
397.922	377.5
398.147	375.5
398.371	407.5
398.595	402.5
398.82	393.5
399.044	368.5
399.268	397.5
399.492	408.5
399.717	428.5
399.941	441.5
400.165	467.5
400.389	485.5
400.613	434.5
400.837	397.5
401.062	390.5
401.286	412.5
401.51	411.5
401.734	398.5
401.958	397.5
402.182	398.5
402.406	411.5
402.63	419.5
402.854	381.5
403.078	405.5
403.302	403.5
403.526	395.5
403.75	409.5
403.974	408.5
404.198	395.5
404.422	404.5
404.645	413.5
404.869	418.5
405.093	448.5
405.317	481.5
405.541	498.5
405.765	469.5
405.988	442.5
406.212	449.5
406.436	459.5
406.66	464.5
406.883	438.5
407.107	448.5
407.331	498.5
407.555	549.5
407.778	539.5
408.002	494.5
408.226	489.5
408.449	465.5
408.673	438.5
408.896	486.5
409.12	510.5
409.344	472.5
409.567	427.5
409.791	413.5
410.014	413.5
410.238	401.5
410.461	411.5
410.685	422.5
410.908	425.5
411.132	439.5
411.355	459.5
411.578	480.5
411.802	412.5
412.025	409.5
412.249	407.5
412.472	458.5
412.695	491.5
412.919	470.5
413.142	445.5
413.365	399.5
413.589	393.5
413.812	397.5
414.035	410.5
414.258	403.5
414.482	382.5
414.705	399.5
414.928	378.5
415.151	381.5
415.374	393.5
415.597	384.5
415.821	381.5
416.044	423.5
416.267	401.5
416.49	405.5
416.713	377.5
416.936	377.5
417.159	371.5
417.382	411.5
417.605	390.5
417.828	408.5
418.051	400.5
418.274	393.5
418.497	357.5
418.72	377.5
418.943	379.5
419.166	403.5
419.389	415.5
419.611	423.5
419.834	399.5
420.057	417.5
420.28	415.5
420.503	403.5
420.726	421.5
420.948	409.5
421.171	461.5
421.394	471.5
421.617	417.5
421.839	395.5
422.062	403.5
422.285	420.5
422.507	471.5
422.73	545.5
422.953	500.5
423.175	461.5
423.398	413.5
423.621	429.5
423.843	428.5
424.066	422.5
424.288	426.5
424.511	457.5
424.733	513.5
424.956	567.5
425.178	568.5
425.401	549.5
425.623	566.5
425.846	503.5
426.068	427.5
426.291	446.5
426.513	457.5
426.735	464.5
426.958	490.5
427.18	561.5
427.402	672.5
427.625	725.5
427.847	670.5
428.069	579.5
428.292	497.5
428.514	475.5
428.736	424.5
428.958	448.5
429.181	418.5
429.403	419.5
429.625	415.5
429.847	435.5
430.069	519.5
430.292	498.5
430.514	426.5
430.736	417.5
430.958	412.5
431.18	377.5
431.402	387.5
431.624	399.5
431.846	394.5
432.068	384.5
432.29	405.5
432.512	385.5
432.734	397.5
432.956	409.5
433.178	409.5
433.4	415.5
433.622	403.5
433.844	393.5
434.066	401.5
434.287	410.5
434.509	399.5
434.731	393.5
434.953	386.5
435.175	418.5
435.397	410.5
435.618	454.5
435.84	492.5
436.062	572.5
436.284	630.5
436.505	549.5
436.727	479.5
436.949	424.5
437.17	410.5
437.392	424.5
437.614	412.5
437.835	493.5
438.057	561.5
438.278	643.5
438.5	644.5
438.721	687.5
438.943	640.5
439.165	533.5
439.386	473.5
439.608	488.5
439.829	468.5
440.05	510.5
440.272	547.5
440.493	500.5
440.715	445.5
440.936	449.5
441.158	421.5
441.379	433.5
441.6	457.5
441.822	439.5
442.043	484.5
442.264	579.5
442.486	595.5
442.707	496.5
442.928	460.5
443.149	462.5
443.371	511.5
443.592	531.5
443.813	604.5
444.034	648.5
444.255	536.5
444.476	462.5
444.698	443.5
444.919	430.5
445.14	545.5
445.361	506.5
445.582	484.5
445.803	568.5
446.024	649.5
446.245	637.5
446.466	604.5
446.687	521.5
446.908	467.5
447.129	424.5
447.35	407.5
447.571	435.5
447.792	430.5
448.013	437.5
448.234	448.5
448.455	504.5
448.675	591.5
448.896	676.5
449.117	572.5
449.338	573.5
449.559	644.5
449.779	693.5
450	581.5
450.221	492.5
450.442	440.5
450.662	428.5
450.883	418.5
451.104	442.5
451.324	439.5
451.545	409.5
451.766	412.5
451.986	390.5
452.207	382.5
452.428	386.5
452.648	387.5
452.869	399.5
453.089	407.5
453.31	394.5
453.53	391.5
453.751	397.5
453.971	380.5
454.192	412.5
454.412	413.5
454.633	393.5
454.853	393.5
455.073	381.5
455.294	390.5
455.514	462.5
455.734	458.5
455.955	397.5
456.175	383.5
456.395	367.5
456.616	353.5
456.836	354.5
457.056	347.5
457.276	349.5
457.497	369.5
457.717	364.5
457.937	353.5
458.157	370.5
458.377	369.5
458.598	398.5
458.818	462.5
459.038	514.5
459.258	539.5
459.478	442.5
459.698	401.5
459.918	378.5
460.138	407.5
460.358	388.5
460.578	371.5
460.798	392.5
461.018	397.5
461.238	381.5
461.458	405.5
461.678	371.5
461.898	390.5
462.118	388.5
462.338	397.5
462.558	391.5
462.777	394.5
462.997	389.5
463.217	409.5
463.437	407.5
463.657	394.5
463.876	405.5
464.096	422.5
464.316	401.5
464.536	404.5
464.755	432.5
464.975	435.5
465.195	482.5
465.414	578.5
465.634	491.5
465.854	446.5
466.073	414.5
466.293	396.5
466.512	393.5
466.732	359.5
466.951	400.5
467.171	399.5
467.391	388.5
467.61	405.5
467.829	413.5
468.049	395.5
468.268	414.5
468.488	389.5
468.707	371.5
468.927	382.5
469.146	381.5
469.365	388.5
469.585	388.5
469.804	374.5
470.023	402.5
470.243	389.5
470.462	392.5
470.681	424.5
470.901	409.5
471.12	395.5
471.339	407.5
471.558	392.5
471.777	401.5
471.997	399.5
472.216	397.5
472.435	438.5
472.654	430.5
472.873	403.5
473.092	408.5
473.311	385.5
473.53	403.5
473.749	413.5
473.968	432.5
474.187	545.5
474.406	558.5
474.625	467.5
474.844	411.5
475.063	415.5
475.282	403.5
475.501	377.5
475.72	400.5
475.939	401.5
476.158	398.5
476.377	412.5
476.596	409.5
476.814	408.5
477.033	409.5
477.252	409.5
477.471	408.5
477.69	409.5
477.908	411.5
478.127	419.5
478.346	418.5
478.564	411.5
478.783	437.5
479.002	441.5
479.22	451.5
479.439	452.5
479.658	474.5
479.876	483.5
480.095	479.5
480.313	502.5
480.532	493.5
480.751	480.5
480.969	488.5
481.188	568.5
481.406	629.5
481.624	535.5
481.843	468.5
482.061	481.5
482.28	471.5
482.498	474.5
482.717	476.5
482.935	466.5
483.153	457.5
483.372	456.5
483.59	469.5
483.808	459.5
484.027	467.5
484.245	478.5
484.463	451.5
484.681	478.5
484.9	463.5
485.118	456.5
485.336	468.5
485.554	493.5
485.772	498.5
485.99	485.5
486.209	484.5
486.427	471.5
486.645	497.5
486.863	521.5
487.081	493.5
487.299	490.5
487.517	494.5
487.735	485.5
487.953	501.5
488.171	494.5
488.389	509.5
488.607	509.5
488.825	497.5
489.043	514.5
489.261	498.5
489.479	510.5
489.696	509.5
489.914	517.5
490.132	513.5
490.35	512.5
490.568	527.5
490.786	536.5
491.003	539.5
491.221	539.5
491.439	540.5
491.657	545.5
491.874	561.5
492.092	562.5
492.31	571.5
492.527	558.5
492.745	558.5
492.963	560.5
493.18	561.5
493.398	567.5
493.615	579.5
493.833	585.5
494.05	570.5
494.268	581.5
494.485	577.5
494.703	587.5
494.92	578.5
495.138	579.5
495.355	583.5
495.573	605.5
495.79	575.5
496.008	595.5
496.225	587.5
496.442	583.5
496.66	602.5
496.877	587.5
497.094	597.5
497.312	570.5
497.529	605.5
497.746	611.5
497.963	605.5
498.181	615.5
498.398	631.5
498.615	654.5
498.832	665.5
499.049	653.5
499.267	661.5
499.484	663.5
499.701	667.5
499.918	673.5
500.135	703.5
500.352	713.5
500.569	735.5
500.786	737.5
501.003	707.5
501.22	713.5
501.437	706.5
501.654	689.5
501.871	706.5
502.088	694.5
502.305	667.5
502.522	678.5
502.739	648.5
502.956	622.5
503.172	606.5
503.389	614.5
503.606	617.5
503.823	614.5
504.04	617.5
504.256	613.5
504.473	592.5
504.69	589.5
504.907	581.5
505.123	585.5
505.34	581.5
505.557	578.5
505.773	573.5
505.99	575.5
506.207	582.5
506.423	586.5
506.64	577.5
506.856	554.5
507.073	564.5
507.289	564.5
507.506	564.5
507.722	574.5
507.939	590.5
508.155	573.5
508.372	560.5
508.588	581.5
508.805	543.5
509.021	529.5
509.238	545.5
509.454	566.5
509.67	541.5
509.887	543.5
510.103	547.5
510.319	544.5
510.536	670.5
510.752	1183.5
510.968	952.5
511.184	587.5
511.401	550.5
511.617	553.5
511.833	553.5
512.049	533.5
512.265	531.5
512.481	556.5
512.698	533.5
512.914	545.5
513.13	529.5
513.346	532.5
513.562	513.5
513.778	551.5
513.994	527.5
514.21	555.5
514.426	581.5
514.642	627.5
514.858	651.5
515.074	681.5
515.29	854.5
515.506	1291.5
515.721	1063.5
515.937	681.5
516.153	628.5
516.369	585.5
516.585	554.5
516.801	550.5
517.016	538.5
517.232	546.5
517.448	543.5
517.664	535.5
517.879	526.5
518.095	533.5
518.311	545.5
518.527	532.5
518.742	536.5
518.958	530.5
519.173	533.5
519.389	532.5
519.605	541.5
519.82	535.5
