Data from 1961.PennyLincolnUp.Lamp.En5.5.200Scan.071719.P1._HRD10591_13-48-00-058.txt Node
Date: Thu Jul 18 13:48:00 EDT 2019
User: cochatt
Spectrometer: HR+D1059
Trigger mode: 1
Integration Time (sec): 1.000000E-1
Scans to average: 1
Electric dark correction enabled: true
Nonlinearity correction enabled: false
Boxcar width: 0
XAxis mode: Wavelengths
Number of Pixels in Spectrum: 2048
>>>>>Begin Spectral Data<<<<<
223.165	-12.38
223.4	-12.38
223.635	-12.38
223.869	-29.38
224.104	-36.38
224.338	-6.38
224.573	-23.38
224.808	-13.38
225.042	2.62
225.277	6.62
225.511	-1.38
225.746	6.62
225.98	2.62
226.215	21.62
226.449	15.62
226.683	13.62
226.918	16.62
227.152	36.62
227.387	26.62
227.621	43.62
227.856	37.62
228.09	38.62
228.324	57.62
228.559	66.62
228.793	68.62
229.027	99.62
229.262	112.62
229.496	122.62
229.73	106.62
229.964	146.62
230.199	123.62
230.433	114.62
230.667	115.62
230.901	108.62
231.136	102.62
231.37	115.62
231.604	104.62
231.838	103.62
232.072	89.62
232.306	112.62
232.541	102.62
232.775	103.62
233.009	114.62
233.243	102.62
233.477	112.62
233.711	107.62
233.945	106.62
234.179	108.62
234.413	107.62
234.647	123.62
234.881	103.62
235.115	110.62
235.349	118.62
235.583	108.62
235.817	120.62
236.051	114.62
236.285	124.62
236.519	107.62
236.753	127.62
236.987	148.62
237.221	182.62
237.455	221.62
237.689	173.62
237.922	160.62
238.156	121.62
238.39	119.62
238.624	110.62
238.858	118.62
239.091	116.62
239.325	126.62
239.559	108.62
239.793	114.62
240.027	122.62
240.26	136.62
240.494	140.62
240.728	132.62
240.961	132.62
241.195	133.62
241.429	128.62
241.662	120.62
241.896	121.62
242.13	121.62
242.363	132.62
242.597	125.62
242.83	118.62
243.064	120.62
243.298	114.62
243.531	119.62
243.765	132.62
243.998	120.62
244.232	128.62
244.465	130.62
244.699	117.62
244.932	128.62
245.166	128.62
245.399	121.62
245.633	126.62
245.866	136.62
246.099	126.62
246.333	132.62
246.566	133.62
246.8	130.62
247.033	131.62
247.266	137.62
247.5	137.62
247.733	139.62
247.966	138.62
248.2	158.62
248.433	125.62
248.666	141.62
248.899	156.62
249.133	177.62
249.366	191.62
249.599	168.62
249.832	177.62
250.066	161.62
250.299	165.62
250.532	185.62
250.765	188.62
250.998	182.62
251.231	188.62
251.465	185.62
251.698	188.62
251.931	186.62
252.164	164.62
252.397	156.62
252.63	166.62
252.863	184.62
253.096	203.62
253.329	183.62
253.562	196.62
253.795	203.62
254.028	194.62
254.261	182.62
254.494	202.62
254.727	226.62
254.96	235.62
255.193	240.62
255.426	213.62
255.659	210.62
255.892	192.62
256.124	204.62
256.357	196.62
256.59	201.62
256.823	194.62
257.056	177.62
257.289	183.62
257.521	183.62
257.754	193.62
257.987	181.62
258.22	180.62
258.452	184.62
258.685	183.62
258.918	181.62
259.151	178.62
259.383	195.62
259.616	205.62
259.849	197.62
260.081	211.62
260.314	212.62
260.547	221.62
260.779	204.62
261.012	210.62
261.244	181.62
261.477	188.62
261.71	204.62
261.942	181.62
262.175	205.62
262.407	202.62
262.64	190.62
262.872	190.62
263.105	185.62
263.337	195.62
263.57	176.62
263.802	182.62
264.035	184.62
264.267	184.62
264.499	188.62
264.732	195.62
264.964	192.62
265.197	170.62
265.429	172.62
265.661	173.62
265.894	184.62
266.126	208.62
266.358	173.62
266.591	189.62
266.823	193.62
267.055	194.62
267.287	190.62
267.52	183.62
267.752	182.62
267.984	194.62
268.216	196.62
268.448	199.62
268.681	201.62
268.913	203.62
269.145	221.62
269.377	224.62
269.609	227.62
269.841	228.62
270.073	223.62
270.306	260.62
270.538	269.62
270.77	274.62
271.002	274.62
271.234	241.62
271.466	246.62
271.698	253.62
271.93	257.62
272.162	265.62
272.394	270.62
272.626	249.62
272.858	255.62
273.09	233.62
273.322	228.62
273.553	225.62
273.785	220.62
274.017	228.62
274.249	221.62
274.481	226.62
274.713	231.62
274.945	252.62
275.176	219.62
275.408	227.62
275.64	220.62
275.872	232.62
276.104	222.62
276.335	212.62
276.567	226.62
276.799	248.62
277.031	260.62
277.262	274.62
277.494	272.62
277.726	244.62
277.957	244.62
278.189	229.62
278.421	238.62
278.652	232.62
278.884	227.62
279.115	213.62
279.347	199.62
279.579	213.62
279.81	214.62
280.042	217.62
280.273	232.62
280.505	215.62
280.736	208.62
280.968	206.62
281.199	220.62
281.431	231.62
281.662	219.62
281.894	229.62
282.125	224.62
282.356	259.62
282.588	259.62
282.819	254.62
283.051	243.62
283.282	211.62
283.513	218.62
283.745	222.62
283.976	232.62
284.207	255.62
284.439	222.62
284.67	221.62
284.901	236.62
285.132	226.62
285.364	232.62
285.595	236.62
285.826	210.62
286.057	236.62
286.288	237.62
286.52	242.62
286.751	221.62
286.982	236.62
287.213	227.62
287.444	237.62
287.675	237.62
287.906	238.62
288.138	249.62
288.369	256.62
288.6	242.62
288.831	250.62
289.062	245.62
289.293	253.62
289.524	231.62
289.755	227.62
289.986	240.62
290.217	241.62
290.448	232.62
290.679	232.62
290.91	233.62
291.141	242.62
291.371	262.62
291.602	261.62
291.833	232.62
292.064	254.62
292.295	230.62
292.526	239.62
292.757	239.62
292.987	240.62
293.218	245.62
293.449	250.62
293.68	248.62
293.91	240.62
294.141	234.62
294.372	230.62
294.603	249.62
294.833	244.62
295.064	233.62
295.295	252.62
295.525	230.62
295.756	231.62
295.987	255.62
296.217	269.62
296.448	284.62
296.679	263.62
296.909	242.62
297.14	258.62
297.37	249.62
297.601	249.62
297.831	249.62
298.062	243.62
298.292	243.62
298.523	262.62
298.753	222.62
298.984	255.62
299.214	235.62
299.445	256.62
299.675	246.62
299.905	250.62
300.136	246.62
300.366	253.62
300.597	246.62
300.827	250.62
301.057	269.62
301.288	280.62
301.518	266.62
301.748	242.62
301.979	274.62
302.209	253.62
302.439	258.62
302.669	278.62
302.9	268.62
303.13	256.62
303.36	261.62
303.59	274.62
303.82	282.62
304.051	299.62
304.281	272.62
304.511	279.62
304.741	265.62
304.971	268.62
305.201	272.62
305.431	281.62
305.661	268.62
305.891	242.62
306.121	275.62
306.352	281.62
306.582	274.62
306.812	283.62
307.042	267.62
307.272	286.62
307.502	284.62
307.731	262.62
307.961	281.62
308.191	275.62
308.421	277.62
308.651	272.62
308.881	275.62
309.111	291.62
309.341	289.62
309.571	291.62
309.8	317.62
310.03	316.62
310.26	331.62
310.49	325.62
310.72	335.62
310.949	358.62
311.179	359.62
311.409	333.62
311.639	328.62
311.868	320.62
312.098	328.62
312.328	328.62
312.557	357.62
312.787	363.62
313.017	358.62
313.246	335.62
313.476	312.62
313.706	329.62
313.935	330.62
314.165	342.62
314.394	342.62
314.624	347.62
314.853	318.62
315.083	321.62
315.312	319.62
315.542	323.62
315.771	313.62
316.001	316.62
316.23	306.62
316.46	315.62
316.689	320.62
316.919	332.62
317.148	333.62
317.377	329.62
317.607	320.62
317.836	320.62
318.065	334.62
318.295	301.62
318.524	319.62
318.753	308.62
318.983	333.62
319.212	326.62
319.441	319.62
319.67	338.62
319.9	340.62
320.129	314.62
320.358	320.62
320.587	326.62
320.816	348.62
321.046	337.62
321.275	330.62
321.504	339.62
321.733	341.62
321.962	364.62
322.191	380.62
322.42	386.62
322.649	398.62
322.878	423.62
323.108	421.62
323.337	439.62
323.566	466.62
323.795	498.62
324.024	544.62
324.253	686.62
324.482	996.62
324.71	1595.62
324.939	2192.62
325.168	1861.62
325.397	954.62
325.626	614.62
325.855	535.62
326.084	480.62
326.313	457.62
326.542	470.62
326.77	504.62
326.999	621.62
327.228	912.62
327.457	1379.62
327.686	1631.62
327.914	1088.62
328.143	702.62
328.372	618.62
328.6	541.62
328.829	548.62
329.058	541.62
329.287	566.62
329.515	536.62
329.744	489.62
329.972	465.62
330.201	499.62
330.43	540.62
330.658	571.62
330.887	570.62
331.115	560.62
331.344	479.62
331.572	443.62
331.801	452.62
332.03	440.62
332.258	414.62
332.486	392.62
332.715	380.62
332.943	376.62
333.172	380.62
333.4	395.62
333.629	393.62
333.857	403.62
334.085	410.62
334.314	430.62
334.542	452.62
334.771	498.62
334.999	458.62
335.227	412.62
335.455	363.62
335.684	389.62
335.912	368.62
336.14	364.62
336.369	372.62
336.597	372.62
336.825	374.62
337.053	361.62
337.281	373.62
337.51	378.62
337.738	365.62
337.966	386.62
338.194	362.62
338.422	376.62
338.65	346.62
338.878	382.62
339.106	368.62
339.334	366.62
339.562	363.62
339.79	363.62
340.018	346.62
340.246	356.62
340.474	368.62
340.702	374.62
340.93	356.62
341.158	340.62
341.386	348.62
341.614	374.62
341.842	365.62
342.07	349.62
342.298	360.62
342.526	345.62
342.754	342.62
342.981	328.62
343.209	333.62
343.437	350.62
343.665	348.62
343.893	355.62
344.12	355.62
344.348	365.62
344.576	356.62
344.804	358.62
345.031	365.62
345.259	375.62
345.487	361.62
345.714	370.62
345.942	366.62
346.17	354.62
346.397	353.62
346.625	373.62
346.853	354.62
347.08	351.62
347.308	367.62
347.535	382.62
347.763	368.62
347.99	357.62
348.218	368.62
348.445	375.62
348.673	368.62
348.9	351.62
349.128	346.62
349.355	343.62
349.583	354.62
349.81	341.62
350.037	354.62
350.265	324.62
350.492	331.62
350.72	328.62
350.947	348.62
351.174	353.62
351.402	364.62
351.629	352.62
351.856	348.62
352.083	359.62
352.311	361.62
352.538	378.62
352.765	376.62
352.992	352.62
353.22	362.62
353.447	348.62
353.674	339.62
353.901	328.62
354.128	331.62
354.355	338.62
354.583	322.62
354.81	309.62
355.037	334.62
355.264	341.62
355.491	328.62
355.718	322.62
355.945	319.62
356.172	332.62
356.399	308.62
356.626	327.62
356.853	325.62
357.08	309.62
357.307	317.62
357.534	325.62
357.761	334.62
357.988	316.62
358.215	302.62
358.441	318.62
358.668	312.62
358.895	328.62
359.122	314.62
359.349	338.62
359.576	347.62
359.802	384.62
360.029	416.62
360.256	409.62
360.483	362.62
360.709	357.62
360.936	355.62
361.163	368.62
361.39	362.62
361.616	364.62
361.843	360.62
362.07	360.62
362.296	346.62
362.523	350.62
362.749	343.62
362.976	357.62
363.203	350.62
363.429	322.62
363.656	339.62
363.882	335.62
364.109	331.62
364.335	347.62
364.562	350.62
364.788	300.62
365.015	329.62
365.241	338.62
365.468	348.62
365.694	333.62
365.92	341.62
366.147	318.62
366.373	340.62
366.599	318.62
366.826	325.62
367.052	331.62
367.278	326.62
367.505	328.62
367.731	336.62
367.957	339.62
368.184	330.62
368.41	333.62
368.636	351.62
368.862	346.62
369.089	337.62
369.315	331.62
369.541	339.62
369.767	331.62
369.993	327.62
370.219	326.62
370.445	334.62
370.672	349.62
370.898	322.62
371.124	324.62
371.35	337.62
371.576	349.62
371.802	325.62
372.028	335.62
372.254	325.62
372.48	321.62
372.706	347.62
372.932	343.62
373.158	333.62
373.384	306.62
373.61	340.62
373.835	316.62
374.061	320.62
374.287	328.62
374.513	331.62
374.739	325.62
374.965	333.62
375.191	306.62
375.416	326.62
375.642	328.62
375.868	332.62
376.094	321.62
376.319	305.62
376.545	307.62
376.771	314.62
376.997	321.62
377.222	310.62
377.448	326.62
377.674	318.62
377.899	321.62
378.125	321.62
378.35	322.62
378.576	332.62
378.802	320.62
379.027	328.62
379.253	332.62
379.478	323.62
379.704	318.62
379.929	321.62
380.155	324.62
380.38	332.62
380.606	331.62
380.831	324.62
381.057	332.62
381.282	334.62
381.507	333.62
381.733	325.62
381.958	325.62
382.184	322.62
382.409	320.62
382.634	325.62
382.86	338.62
383.085	329.62
383.31	337.62
383.535	326.62
383.761	338.62
383.986	341.62
384.211	333.62
384.436	344.62
384.662	356.62
384.887	347.62
385.112	353.62
385.337	358.62
385.562	351.62
385.787	344.62
386.013	357.62
386.238	354.62
386.463	355.62
386.688	352.62
386.913	329.62
387.138	350.62
387.363	325.62
387.588	358.62
387.813	336.62
388.038	338.62
388.263	366.62
388.488	354.62
388.713	342.62
388.938	345.62
389.163	341.62
389.387	346.62
389.612	337.62
389.837	346.62
390.062	342.62
390.287	345.62
390.512	329.62
390.736	345.62
390.961	349.62
391.186	340.62
391.411	339.62
391.636	359.62
391.86	338.62
392.085	354.62
392.31	357.62
392.534	364.62
392.759	370.62
392.984	349.62
393.208	354.62
393.433	346.62
393.658	352.62
393.882	339.62
394.107	348.62
394.331	363.62
394.556	365.62
394.78	362.62
395.005	357.62
395.229	348.62
395.454	372.62
395.678	364.62
395.903	364.62
396.127	365.62
396.352	373.62
396.576	372.62
396.801	363.62
397.025	354.62
397.249	378.62
397.474	366.62
397.698	368.62
397.922	376.62
398.147	386.62
398.371	392.62
398.595	377.62
398.82	386.62
399.044	403.62
399.268	398.62
399.492	452.62
399.717	428.62
399.941	460.62
400.165	474.62
400.389	473.62
400.613	461.62
400.837	428.62
401.062	402.62
401.286	420.62
401.51	417.62
401.734	401.62
401.958	409.62
402.182	405.62
402.406	411.62
402.63	405.62
402.854	396.62
403.078	418.62
403.302	418.62
403.526	410.62
403.75	405.62
403.974	406.62
404.198	414.62
404.422	397.62
404.645	417.62
404.869	439.62
405.093	462.62
405.317	478.62
405.541	510.62
405.765	475.62
405.988	441.62
406.212	475.62
406.436	466.62
406.66	482.62
406.883	465.62
407.107	462.62
407.331	500.62
407.555	554.62
407.778	536.62
408.002	486.62
408.226	455.62
408.449	456.62
408.673	468.62
408.896	491.62
409.12	509.62
409.344	477.62
409.567	445.62
409.791	433.62
410.014	433.62
410.238	421.62
410.461	438.62
410.685	421.62
410.908	453.62
411.132	466.62
411.355	485.62
411.578	469.62
411.802	409.62
412.025	423.62
412.249	443.62
412.472	446.62
412.695	508.62
412.919	484.62
413.142	436.62
413.365	425.62
413.589	404.62
413.812	410.62
414.035	400.62
414.258	401.62
414.482	386.62
414.705	389.62
414.928	403.62
415.151	410.62
415.374	404.62
415.597	399.62
415.821	376.62
416.044	388.62
416.267	385.62
416.49	397.62
416.713	379.62
416.936	395.62
417.159	398.62
417.382	397.62
417.605	406.62
417.828	388.62
418.051	410.62
418.274	406.62
418.497	414.62
418.72	385.62
418.943	383.62
419.166	397.62
419.389	416.62
419.611	423.62
419.834	409.62
420.057	435.62
420.28	402.62
420.503	398.62
420.726	421.62
420.948	404.62
421.171	459.62
421.394	512.62
421.617	440.62
421.839	429.62
422.062	403.62
422.285	432.62
422.507	464.62
422.73	549.62
422.953	512.62
423.175	453.62
423.398	448.62
423.621	437.62
423.843	473.62
424.066	443.62
424.288	445.62
424.511	458.62
424.733	518.62
424.956	594.62
425.178	577.62
425.401	564.62
425.623	560.62
425.846	504.62
426.068	453.62
426.291	466.62
426.513	458.62
426.735	465.62
426.958	491.62
427.18	598.62
427.402	660.62
427.625	749.62
427.847	674.62
428.069	570.62
428.292	522.62
428.514	445.62
428.736	456.62
428.958	445.62
429.181	426.62
429.403	423.62
429.625	432.62
429.847	478.62
430.069	508.62
430.292	477.62
430.514	445.62
430.736	420.62
430.958	425.62
431.18	418.62
431.402	400.62
431.624	387.62
431.846	404.62
432.068	391.62
432.29	397.62
432.512	412.62
432.734	418.62
432.956	393.62
433.178	409.62
433.4	414.62
433.622	401.62
433.844	404.62
434.066	380.62
434.287	388.62
434.509	398.62
434.731	395.62
434.953	423.62
435.175	439.62
435.397	461.62
435.618	452.62
435.84	518.62
436.062	583.62
436.284	626.62
436.505	539.62
436.727	469.62
436.949	459.62
437.17	439.62
437.392	449.62
437.614	450.62
437.835	498.62
438.057	574.62
438.278	624.62
438.5	648.62
438.721	676.62
438.943	660.62
439.165	553.62
439.386	490.62
439.608	482.62
439.829	476.62
440.05	514.62
440.272	546.62
440.493	515.62
440.715	477.62
440.936	446.62
441.158	446.62
441.379	434.62
441.6	438.62
441.822	468.62
442.043	493.62
442.264	563.62
442.486	609.62
442.707	535.62
442.928	499.62
443.149	483.62
443.371	479.62
443.592	534.62
443.813	600.62
444.034	668.62
444.255	551.62
444.476	484.62
444.698	462.62
444.919	474.62
445.14	560.62
445.361	526.62
445.582	509.62
445.803	572.62
446.024	636.62
446.245	669.62
446.466	610.62
446.687	514.62
446.908	476.62
447.129	445.62
447.35	454.62
447.571	434.62
447.792	430.62
448.013	444.62
448.234	444.62
448.455	503.62
448.675	606.62
448.896	666.62
449.117	570.62
449.338	548.62
449.559	666.62
449.779	712.62
450	575.62
450.221	476.62
450.442	446.62
450.662	427.62
450.883	434.62
451.104	459.62
451.324	448.62
451.545	446.62
451.766	396.62
451.986	404.62
452.207	397.62
452.428	389.62
452.648	389.62
452.869	403.62
453.089	405.62
453.31	387.62
453.53	380.62
453.751	390.62
453.971	406.62
454.192	412.62
454.412	398.62
454.633	401.62
454.853	407.62
455.073	383.62
455.294	427.62
455.514	473.62
455.734	453.62
455.955	407.62
456.175	372.62
456.395	368.62
456.616	377.62
456.836	371.62
457.056	365.62
457.276	347.62
457.497	372.62
457.717	374.62
457.937	374.62
458.157	388.62
458.377	384.62
458.598	404.62
458.818	459.62
459.038	543.62
459.258	549.62
459.478	467.62
459.698	422.62
459.918	414.62
460.138	401.62
460.358	418.62
460.578	399.62
460.798	414.62
461.018	404.62
461.238	388.62
461.458	396.62
461.678	395.62
461.898	400.62
462.118	376.62
462.338	404.62
462.558	415.62
462.777	398.62
462.997	406.62
463.217	410.62
463.437	411.62
463.657	429.62
463.876	437.62
464.096	425.62
464.316	436.62
464.536	433.62
464.755	424.62
464.975	424.62
465.195	485.62
465.414	571.62
465.634	518.62
465.854	452.62
466.073	409.62
466.293	416.62
466.512	390.62
466.732	395.62
466.951	403.62
467.171	402.62
467.391	392.62
467.61	399.62
467.829	413.62
468.049	422.62
468.268	435.62
468.488	412.62
468.707	398.62
468.927	383.62
469.146	396.62
469.365	393.62
469.585	397.62
469.804	392.62
470.023	427.62
470.243	391.62
470.462	405.62
470.681	416.62
470.901	404.62
471.12	401.62
471.339	406.62
471.558	406.62
471.777	414.62
471.997	385.62
472.216	394.62
472.435	437.62
472.654	441.62
472.873	402.62
473.092	405.62
473.311	411.62
473.53	409.62
473.749	424.62
473.968	440.62
474.187	547.62
474.406	551.62
474.625	449.62
474.844	440.62
475.063	428.62
475.282	433.62
475.501	394.62
475.72	420.62
475.939	405.62
476.158	417.62
476.377	416.62
476.596	435.62
476.814	436.62
477.033	417.62
477.252	434.62
477.471	426.62
477.69	415.62
477.908	420.62
478.127	440.62
478.346	445.62
478.564	435.62
478.783	439.62
479.002	454.62
479.22	446.62
479.439	469.62
479.658	490.62
479.876	498.62
480.095	468.62
480.313	508.62
480.532	510.62
480.751	481.62
480.969	500.62
481.188	580.62
481.406	642.62
481.624	552.62
481.843	510.62
482.061	477.62
482.28	492.62
482.498	469.62
482.717	480.62
482.935	501.62
483.153	471.62
483.372	450.62
483.59	490.62
483.808	464.62
484.027	459.62
484.245	473.62
484.463	480.62
484.681	482.62
484.9	485.62
485.118	471.62
485.336	475.62
485.554	489.62
485.772	513.62
485.99	469.62
486.209	470.62
486.427	488.62
486.645	508.62
486.863	540.62
487.081	523.62
487.299	492.62
487.517	516.62
487.735	499.62
487.953	510.62
488.171	487.62
488.389	500.62
488.607	500.62
488.825	508.62
489.043	504.62
489.261	521.62
489.479	515.62
489.696	520.62
489.914	541.62
490.132	538.62
490.35	527.62
490.568	546.62
490.786	535.62
491.003	553.62
491.221	565.62
491.439	564.62
491.657	543.62
491.874	561.62
492.092	596.62
492.31	567.62
492.527	582.62
492.745	571.62
492.963	586.62
493.18	572.62
493.398	589.62
493.615	576.62
493.833	592.62
494.05	611.62
494.268	585.62
494.485	597.62
494.703	572.62
494.92	571.62
495.138	588.62
495.355	602.62
495.573	573.62
495.79	573.62
496.008	608.62
496.225	593.62
496.442	589.62
496.66	608.62
496.877	600.62
497.094	617.62
497.312	601.62
497.529	595.62
497.746	598.62
497.963	620.62
498.181	638.62
498.398	643.62
498.615	630.62
498.832	659.62
499.049	664.62
499.267	684.62
499.484	675.62
499.701	707.62
499.918	702.62
500.135	729.62
500.352	756.62
500.569	730.62
500.786	730.62
501.003	724.62
501.22	741.62
501.437	718.62
501.654	744.62
501.871	742.62
