Data from 1961.PennyLincolnUp.Lamp.En5.5.200Scan.071719.P1._HRD10591_13-49-01-066.txt Node
Date: Thu Jul 18 13:49:01 EDT 2019
User: cochatt
Spectrometer: HR+D1059
Trigger mode: 1
Integration Time (sec): 1.000000E-1
Scans to average: 1
Electric dark correction enabled: true
Nonlinearity correction enabled: false
Boxcar width: 0
XAxis mode: Wavelengths
Number of Pixels in Spectrum: 2048
>>>>>Begin Spectral Data<<<<<
223.165	-7.38
223.4	-7.38
223.635	-7.38
223.869	-14.38
224.104	-19.38
224.338	-25.38
224.573	-13.38
224.808	-9.38
225.042	-11.38
225.277	3.62
225.511	-8.38
225.746	2.62
225.98	-0.38
226.215	10.62
226.449	10.62
226.683	26.62
226.918	23.62
227.152	31.62
227.387	32.62
227.621	40.62
227.856	54.62
228.09	45.62
228.324	55.62
228.559	45.62
228.793	75.62
229.027	94.62
229.262	99.62
229.496	113.62
229.73	110.62
229.964	142.62
230.199	133.62
230.433	106.62
230.667	112.62
230.901	107.62
231.136	100.62
231.37	98.62
231.604	115.62
231.838	106.62
232.072	109.62
232.306	99.62
232.541	121.62
232.775	124.62
233.009	114.62
233.243	104.62
233.477	105.62
233.711	119.62
233.945	103.62
234.179	101.62
234.413	104.62
234.647	126.62
234.881	113.62
235.115	115.62
235.349	113.62
235.583	111.62
235.817	114.62
236.051	115.62
236.285	116.62
236.519	128.62
236.753	113.62
236.987	146.62
237.221	162.62
237.455	214.62
237.689	179.62
237.922	119.62
238.156	124.62
238.39	111.62
238.624	106.62
238.858	116.62
239.091	123.62
239.325	118.62
239.559	111.62
239.793	117.62
240.027	134.62
240.26	123.62
240.494	137.62
240.728	138.62
240.961	135.62
241.195	132.62
241.429	116.62
241.662	120.62
241.896	115.62
242.13	111.62
242.363	106.62
242.597	107.62
242.83	122.62
243.064	122.62
243.298	138.62
243.531	122.62
243.765	126.62
243.998	123.62
244.232	125.62
244.465	126.62
244.699	135.62
244.932	121.62
245.166	131.62
245.399	131.62
245.633	131.62
245.866	111.62
246.099	121.62
246.333	139.62
246.566	127.62
246.8	139.62
247.033	138.62
247.266	154.62
247.5	144.62
247.733	137.62
247.966	163.62
248.2	160.62
248.433	153.62
248.666	151.62
248.899	174.62
249.133	167.62
249.366	186.62
249.599	186.62
249.832	155.62
250.066	170.62
250.299	169.62
250.532	166.62
250.765	168.62
250.998	174.62
251.231	185.62
251.465	197.62
251.698	193.62
251.931	149.62
252.164	174.62
252.397	151.62
252.63	170.62
252.863	181.62
253.096	177.62
253.329	190.62
253.562	199.62
253.795	185.62
254.028	194.62
254.261	181.62
254.494	196.62
254.727	223.62
254.96	252.62
255.193	233.62
255.426	221.62
255.659	213.62
255.892	203.62
256.124	221.62
256.357	206.62
256.59	206.62
256.823	185.62
257.056	189.62
257.289	177.62
257.521	167.62
257.754	174.62
257.987	185.62
258.22	180.62
258.452	189.62
258.685	179.62
258.918	174.62
259.151	181.62
259.383	197.62
259.616	167.62
259.849	191.62
260.081	209.62
260.314	213.62
260.547	213.62
260.779	203.62
261.012	208.62
261.244	194.62
261.477	184.62
261.71	199.62
261.942	201.62
262.175	218.62
262.407	213.62
262.64	189.62
262.872	177.62
263.105	180.62
263.337	173.62
263.57	185.62
263.802	190.62
264.035	189.62
264.267	178.62
264.499	181.62
264.732	176.62
264.964	187.62
265.197	185.62
265.429	189.62
265.661	194.62
265.894	173.62
266.126	179.62
266.358	177.62
266.591	188.62
266.823	187.62
267.055	194.62
267.287	183.62
267.52	186.62
267.752	190.62
267.984	188.62
268.216	192.62
268.448	195.62
268.681	204.62
268.913	224.62
269.145	226.62
269.377	237.62
269.609	247.62
269.841	222.62
270.073	221.62
270.306	257.62
270.538	262.62
270.77	261.62
271.002	242.62
271.234	244.62
271.466	240.62
271.698	269.62
271.93	268.62
272.162	279.62
272.394	280.62
272.626	247.62
272.858	253.62
273.09	227.62
273.322	237.62
273.553	229.62
273.785	229.62
274.017	228.62
274.249	227.62
274.481	217.62
274.713	231.62
274.945	239.62
275.176	218.62
275.408	229.62
275.64	217.62
275.872	231.62
276.104	225.62
276.335	215.62
276.567	240.62
276.799	248.62
277.031	260.62
277.262	256.62
277.494	276.62
277.726	257.62
277.957	230.62
278.189	254.62
278.421	234.62
278.652	229.62
278.884	236.62
279.115	226.62
279.347	208.62
279.579	224.62
279.81	221.62
280.042	216.62
280.273	214.62
280.505	242.62
280.736	240.62
280.968	239.62
281.199	221.62
281.431	202.62
281.662	245.62
281.894	229.62
282.125	229.62
282.356	231.62
282.588	251.62
282.819	242.62
283.051	232.62
283.282	230.62
283.513	250.62
283.745	242.62
283.976	231.62
284.207	256.62
284.439	217.62
284.67	228.62
284.901	233.62
285.132	233.62
285.364	205.62
285.595	221.62
285.826	208.62
286.057	224.62
286.288	214.62
286.52	227.62
286.751	229.62
286.982	237.62
287.213	227.62
287.444	241.62
287.675	237.62
287.906	240.62
288.138	249.62
288.369	250.62
288.6	249.62
288.831	241.62
289.062	222.62
289.293	241.62
289.524	237.62
289.755	225.62
289.986	242.62
290.217	231.62
290.448	233.62
290.679	236.62
290.91	234.62
291.141	217.62
291.371	234.62
291.602	240.62
291.833	231.62
292.064	239.62
292.295	254.62
292.526	217.62
292.757	248.62
292.987	237.62
293.218	233.62
293.449	237.62
293.68	233.62
293.91	246.62
294.141	232.62
294.372	234.62
294.603	237.62
294.833	237.62
295.064	237.62
295.295	239.62
295.525	243.62
295.756	234.62
295.987	263.62
296.217	278.62
296.448	280.62
296.679	245.62
296.909	253.62
297.14	248.62
297.37	241.62
297.601	226.62
297.831	245.62
298.062	235.62
298.292	253.62
298.523	245.62
298.753	235.62
298.984	246.62
299.214	265.62
299.445	237.62
299.675	262.62
299.905	246.62
300.136	245.62
300.366	263.62
300.597	263.62
300.827	258.62
301.057	265.62
301.288	273.62
301.518	283.62
301.748	271.62
301.979	271.62
302.209	257.62
302.439	286.62
302.669	270.62
302.9	252.62
303.13	251.62
303.36	267.62
303.59	265.62
303.82	291.62
304.051	279.62
304.281	266.62
304.511	273.62
304.741	277.62
304.971	272.62
305.201	273.62
305.431	279.62
305.661	281.62
305.891	276.62
306.121	281.62
306.352	269.62
306.582	271.62
306.812	268.62
307.042	286.62
307.272	275.62
307.502	282.62
307.731	265.62
307.961	284.62
308.191	270.62
308.421	275.62
308.651	283.62
308.881	293.62
309.111	277.62
309.341	285.62
309.571	292.62
309.8	299.62
310.03	306.62
310.26	325.62
310.49	317.62
310.72	329.62
310.949	344.62
311.179	342.62
311.409	320.62
311.639	297.62
311.868	326.62
312.098	334.62
312.328	318.62
312.557	336.62
312.787	368.62
313.017	359.62
313.246	346.62
313.476	320.62
313.706	314.62
313.935	336.62
314.165	342.62
314.394	332.62
314.624	335.62
314.853	319.62
315.083	336.62
315.312	328.62
315.542	321.62
315.771	298.62
316.001	304.62
316.23	325.62
316.46	309.62
316.689	321.62
316.919	326.62
317.148	341.62
317.377	344.62
317.607	332.62
317.836	331.62
318.065	320.62
318.295	308.62
318.524	310.62
318.753	312.62
318.983	315.62
319.212	339.62
319.441	325.62
319.67	333.62
319.9	355.62
320.129	329.62
320.358	319.62
320.587	337.62
320.816	346.62
321.046	345.62
321.275	330.62
321.504	341.62
321.733	361.62
321.962	368.62
322.191	371.62
322.42	385.62
322.649	394.62
322.878	441.62
323.108	407.62
323.337	461.62
323.566	460.62
323.795	510.62
324.024	559.62
324.253	680.62
324.482	1064.62
324.71	1671.62
324.939	2323.62
325.168	1923.62
325.397	987.62
325.626	655.62
325.855	533.62
326.084	486.62
326.313	490.62
326.542	491.62
326.77	534.62
326.999	664.62
327.228	969.62
327.457	1445.62
327.686	1725.62
327.914	1119.62
328.143	711.62
328.372	622.62
328.6	563.62
328.829	523.62
329.058	544.62
329.287	541.62
329.515	534.62
329.744	496.62
329.972	472.62
330.201	505.62
330.43	542.62
330.658	585.62
330.887	593.62
331.115	574.62
331.344	458.62
331.572	442.62
331.801	444.62
332.03	422.62
332.258	405.62
332.486	413.62
332.715	398.62
332.943	391.62
333.172	409.62
333.4	409.62
333.629	402.62
333.857	405.62
334.085	420.62
334.314	447.62
334.542	480.62
334.771	470.62
334.999	437.62
335.227	415.62
335.455	381.62
335.684	384.62
335.912	379.62
336.14	365.62
336.369	362.62
336.597	381.62
336.825	385.62
337.053	385.62
337.281	369.62
337.51	366.62
337.738	347.62
337.966	369.62
338.194	371.62
338.422	380.62
338.65	354.62
338.878	356.62
339.106	338.62
339.334	368.62
339.562	360.62
339.79	352.62
340.018	361.62
340.246	351.62
340.474	381.62
340.702	355.62
340.93	353.62
341.158	343.62
341.386	354.62
341.614	355.62
341.842	354.62
342.07	353.62
342.298	343.62
342.526	331.62
342.754	348.62
342.981	351.62
343.209	352.62
343.437	353.62
343.665	356.62
343.893	357.62
344.12	344.62
344.348	380.62
344.576	350.62
344.804	351.62
345.031	379.62
345.259	387.62
345.487	378.62
345.714	369.62
345.942	346.62
346.17	350.62
346.397	350.62
346.625	358.62
346.853	355.62
347.08	361.62
347.308	350.62
347.535	360.62
347.763	375.62
347.99	364.62
348.218	376.62
348.445	377.62
348.673	354.62
348.9	365.62
349.128	342.62
349.355	335.62
349.583	326.62
349.81	337.62
350.037	335.62
350.265	338.62
350.492	339.62
350.72	341.62
350.947	361.62
351.174	347.62
351.402	358.62
351.629	360.62
351.856	365.62
352.083	369.62
352.311	379.62
352.538	394.62
352.765	359.62
352.992	358.62
353.22	354.62
353.447	342.62
353.674	347.62
353.901	328.62
354.128	324.62
354.355	342.62
354.583	317.62
354.81	329.62
355.037	325.62
355.264	311.62
355.491	306.62
355.718	324.62
355.945	325.62
356.172	307.62
356.399	332.62
356.626	311.62
356.853	301.62
357.08	334.62
357.307	314.62
357.534	323.62
357.761	335.62
357.988	319.62
358.215	320.62
358.441	327.62
358.668	339.62
358.895	328.62
359.122	340.62
359.349	344.62
359.576	365.62
359.802	375.62
360.029	417.62
360.256	426.62
360.483	372.62
360.709	362.62
360.936	359.62
361.163	352.62
361.39	367.62
361.616	357.62
361.843	365.62
362.07	353.62
362.296	368.62
362.523	341.62
362.749	367.62
362.976	350.62
363.203	344.62
363.429	315.62
363.656	369.62
363.882	339.62
364.109	326.62
364.335	317.62
364.562	354.62
364.788	335.62
365.015	329.62
365.241	321.62
365.468	339.62
365.694	340.62
365.92	359.62
366.147	345.62
366.373	312.62
366.599	338.62
366.826	323.62
367.052	306.62
367.278	329.62
367.505	320.62
367.731	320.62
367.957	326.62
368.184	350.62
368.41	338.62
368.636	355.62
368.862	344.62
369.089	343.62
369.315	342.62
369.541	330.62
369.767	294.62
369.993	325.62
370.219	337.62
370.445	320.62
370.672	341.62
370.898	322.62
371.124	314.62
371.35	314.62
371.576	331.62
371.802	310.62
372.028	313.62
372.254	305.62
372.48	330.62
372.706	308.62
372.932	309.62
373.158	327.62
373.384	328.62
373.61	324.62
373.835	336.62
374.061	327.62
374.287	351.62
374.513	355.62
374.739	329.62
374.965	318.62
375.191	351.62
375.416	332.62
375.642	333.62
375.868	331.62
376.094	319.62
376.319	327.62
376.545	310.62
376.771	316.62
376.997	312.62
377.222	322.62
377.448	306.62
377.674	320.62
377.899	311.62
378.125	309.62
378.35	319.62
378.576	318.62
378.802	310.62
379.027	310.62
379.253	330.62
379.478	311.62
379.704	323.62
379.929	330.62
380.155	321.62
380.38	315.62
380.606	320.62
380.831	309.62
381.057	320.62
381.282	312.62
381.507	316.62
381.733	335.62
381.958	314.62
382.184	322.62
382.409	327.62
382.634	338.62
382.86	335.62
383.085	319.62
383.31	326.62
383.535	337.62
383.761	326.62
383.986	323.62
384.211	340.62
384.436	325.62
384.662	326.62
384.887	341.62
385.112	335.62
385.337	347.62
385.562	345.62
385.787	339.62
386.013	377.62
386.238	343.62
386.463	368.62
386.688	356.62
386.913	324.62
387.138	346.62
387.363	344.62
387.588	342.62
387.813	363.62
388.038	342.62
388.263	334.62
388.488	345.62
388.713	348.62
388.938	351.62
389.163	352.62
389.387	343.62
389.612	348.62
389.837	361.62
390.062	343.62
390.287	359.62
390.512	349.62
390.736	351.62
390.961	352.62
391.186	340.62
391.411	366.62
391.636	356.62
391.86	333.62
392.085	342.62
392.31	359.62
392.534	377.62
392.759	357.62
392.984	367.62
393.208	353.62
393.433	366.62
393.658	347.62
393.882	347.62
394.107	358.62
394.331	353.62
394.556	342.62
394.78	350.62
395.005	357.62
395.229	355.62
395.454	349.62
395.678	358.62
395.903	364.62
396.127	377.62
396.352	383.62
396.576	367.62
396.801	359.62
397.025	358.62
397.249	347.62
397.474	369.62
397.698	376.62
397.922	371.62
398.147	387.62
398.371	382.62
398.595	391.62
398.82	375.62
399.044	380.62
399.268	382.62
399.492	393.62
399.717	423.62
399.941	445.62
400.165	468.62
400.389	489.62
400.613	431.62
400.837	418.62
401.062	414.62
401.286	403.62
401.51	397.62
401.734	386.62
401.958	413.62
402.182	391.62
402.406	407.62
402.63	416.62
402.854	393.62
403.078	400.62
403.302	409.62
403.526	414.62
403.75	404.62
403.974	410.62
404.198	395.62
404.422	407.62
404.645	417.62
404.869	439.62
405.093	435.62
405.317	478.62
405.541	504.62
405.765	447.62
405.988	458.62
406.212	457.62
406.436	477.62
406.66	501.62
406.883	473.62
407.107	473.62
407.331	495.62
407.555	561.62
407.778	539.62
408.002	496.62
408.226	477.62
408.449	453.62
408.673	448.62
408.896	463.62
409.12	489.62
409.344	480.62
409.567	429.62
409.791	426.62
410.014	414.62
410.238	434.62
410.461	415.62
410.685	413.62
410.908	432.62
411.132	461.62
411.355	491.62
411.578	482.62
411.802	441.62
412.025	433.62
412.249	419.62
412.472	438.62
412.695	487.62
412.919	481.62
413.142	427.62
413.365	390.62
413.589	410.62
413.812	410.62
414.035	401.62
414.258	394.62
414.482	394.62
414.705	383.62
414.928	389.62
415.151	383.62
415.374	387.62
415.597	374.62
415.821	397.62
416.044	385.62
416.267	382.62
416.49	380.62
416.713	403.62
416.936	395.62
417.159	385.62
417.382	397.62
417.605	394.62
417.828	407.62
418.051	402.62
418.274	427.62
418.497	400.62
418.72	385.62
418.943	379.62
419.166	400.62
419.389	409.62
419.611	427.62
419.834	417.62
420.057	405.62
420.28	431.62
420.503	416.62
420.726	421.62
420.948	433.62
421.171	470.62
421.394	478.62
421.617	441.62
421.839	405.62
422.062	425.62
422.285	429.62
422.507	463.62
422.73	536.62
422.953	513.62
423.175	452.62
423.398	435.62
423.621	432.62
423.843	456.62
424.066	443.62
424.288	457.62
424.511	463.62
424.733	509.62
424.956	577.62
425.178	547.62
425.401	573.62
425.623	572.62
425.846	500.62
426.068	470.62
426.291	447.62
426.513	451.62
426.735	477.62
426.958	488.62
427.18	569.62
427.402	687.62
427.625	755.62
427.847	683.62
428.069	612.62
428.292	523.62
428.514	469.62
428.736	452.62
428.958	430.62
429.181	410.62
429.403	438.62
429.625	440.62
429.847	456.62
430.069	513.62
430.292	513.62
430.514	440.62
430.736	435.62
430.958	405.62
431.18	425.62
431.402	417.62
431.624	401.62
431.846	400.62
432.068	396.62
432.29	402.62
432.512	409.62
432.734	407.62
432.956	403.62
433.178	402.62
433.4	416.62
433.622	407.62
433.844	403.62
434.066	394.62
434.287	404.62
434.509	400.62
434.731	421.62
434.953	437.62
435.175	431.62
435.397	454.62
435.618	470.62
435.84	493.62
436.062	584.62
436.284	631.62
436.505	536.62
436.727	493.62
436.949	451.62
437.17	455.62
437.392	418.62
437.614	445.62
437.835	495.62
438.057	561.62
438.278	655.62
438.5	643.62
438.721	699.62
438.943	666.62
439.165	541.62
439.386	490.62
439.608	501.62
439.829	498.62
440.05	514.62
440.272	533.62
440.493	531.62
440.715	467.62
440.936	459.62
441.158	451.62
441.379	433.62
441.6	428.62
441.822	465.62
442.043	514.62
442.264	579.62
442.486	618.62
442.707	529.62
442.928	472.62
443.149	470.62
443.371	497.62
443.592	562.62
443.813	636.62
444.034	661.62
444.255	561.62
444.476	495.62
444.698	480.62
444.919	463.62
445.14	538.62
445.361	524.62
445.582	518.62
445.803	598.62
446.024	655.62
446.245	686.62
446.466	612.62
446.687	513.62
446.908	478.62
447.129	431.62
447.35	425.62
447.571	452.62
447.792	445.62
448.013	443.62
448.234	459.62
448.455	496.62
448.675	586.62
448.896	677.62
449.117	589.62
449.338	574.62
449.559	658.62
449.779	727.62
450	591.62
450.221	507.62
450.442	429.62
450.662	445.62
450.883	451.62
451.104	464.62
451.324	439.62
451.545	426.62
451.766	371.62
451.986	408.62
452.207	392.62
452.428	393.62
452.648	385.62
452.869	387.62
453.089	385.62
453.31	406.62
453.53	390.62
453.751	384.62
453.971	393.62
454.192	417.62
454.412	416.62
454.633	395.62
454.853	380.62
455.073	394.62
455.294	417.62
455.514	479.62
455.734	454.62
455.955	404.62
456.175	375.62
456.395	358.62
456.616	354.62
456.836	374.62
457.056	360.62
457.276	356.62
457.497	358.62
457.717	369.62
457.937	359.62
458.157	365.62
458.377	395.62
458.598	386.62
458.818	463.62
459.038	554.62
459.258	559.62
459.478	464.62
459.698	418.62
459.918	403.62
460.138	379.62
460.358	421.62
460.578	413.62
460.798	419.62
461.018	401.62
461.238	386.62
461.458	383.62
461.678	403.62
461.898	409.62
462.118	402.62
462.338	401.62
462.558	390.62
462.777	409.62
462.997	419.62
463.217	401.62
463.437	433.62
463.657	419.62
463.876	418.62
464.096	429.62
464.316	435.62
464.536	435.62
464.755	415.62
464.975	443.62
465.195	511.62
465.414	584.62
465.634	483.62
465.854	425.62
466.073	436.62
466.293	418.62
466.512	393.62
466.732	398.62
466.951	406.62
467.171	421.62
467.391	410.62
467.61	416.62
467.829	423.62
468.049	419.62
468.268	413.62
468.488	401.62
468.707	394.62
468.927	387.62
469.146	384.62
469.365	371.62
469.585	376.62
469.804	395.62
470.023	406.62
470.243	399.62
470.462	400.62
470.681	408.62
470.901	419.62
471.12	418.62
471.339	427.62
471.558	394.62
471.777	410.62
471.997	402.62
472.216	414.62
472.435	468.62
472.654	442.62
472.873	420.62
473.092	404.62
473.311	398.62
473.53	420.62
473.749	408.62
473.968	459.62
474.187	563.62
474.406	554.62
474.625	463.62
474.844	425.62
475.063	406.62
475.282	417.62
475.501	418.62
475.72	424.62
475.939	403.62
476.158	431.62
476.377	416.62
476.596	397.62
476.814	438.62
477.033	420.62
477.252	439.62
477.471	424.62
477.69	432.62
477.908	437.62
478.127	436.62
478.346	433.62
478.564	436.62
478.783	423.62
479.002	463.62
479.22	445.62
479.439	447.62
479.658	467.62
479.876	477.62
480.095	493.62
480.313	507.62
480.532	512.62
480.751	483.62
480.969	483.62
481.188	581.62
481.406	638.62
481.624	530.62
481.843	513.62
482.061	491.62
482.28	494.62
482.498	493.62
482.717	487.62
482.935	478.62
483.153	457.62
483.372	482.62
483.59	485.62
483.808	467.62
484.027	497.62
484.245	485.62
484.463	453.62
484.681	470.62
484.9	472.62
485.118	467.62
485.336	474.62
485.554	473.62
485.772	479.62
485.99	486.62
486.209	486.62
486.427	493.62
486.645	535.62
486.863	526.62
487.081	510.62
487.299	514.62
487.517	520.62
487.735	524.62
487.953	509.62
488.171	490.62
488.389	511.62
488.607	520.62
488.825	509.62
489.043	504.62
489.261	512.62
489.479	513.62
489.696	512.62
489.914	516.62
490.132	544.62
490.35	513.62
490.568	530.62
490.786	542.62
491.003	545.62
491.221	553.62
491.439	575.62
491.657	573.62
491.874	588.62
492.092	574.62
492.31	597.62
492.527	579.62
492.745	568.62
492.963	578.62
493.18	581.62
493.398	570.62
493.615	607.62
493.833	600.62
494.05	622.62
494.268	586.62
494.485	579.62
494.703	611.62
494.92	601.62
495.138	602.62
495.355	587.62
495.573	590.62
495.79	591.62
496.008	621.62
496.225	589.62
496.442	610.62
496.66	603.62
496.877	598.62
497.094	612.62
497.312	632.62
497.529	623.62
497.746	633.62
497.963	623.62
498.181	629.62
498.398	641.62
498.615	662.62
498.832	648.62
499.049	659.62
499.267	659.62
499.484	670.62
499.701	698.62
499.918	719.62
500.135	737.62
500.352	738.62
500.569	763.62
500.786	731.62
501.003	743.62
501.22	737.62
501.437	730.62
501.654	711.62
501.871	745.62
502.088	705.62
