Data from 1961.PennyLincolnUp.Lamp.En5.5.200Scan.071719.P1._HRD10591_13-47-24-058.txt Node
Date: Thu Jul 18 13:47:24 EDT 2019
User: cochatt
Spectrometer: HR+D1059
Trigger mode: 1
Integration Time (sec): 1.000000E-1
Scans to average: 1
Electric dark correction enabled: true
Nonlinearity correction enabled: false
Boxcar width: 0
XAxis mode: Wavelengths
Number of Pixels in Spectrum: 2048
>>>>>Begin Spectral Data<<<<<
223.165	-20.62
223.4	-20.62
223.635	-20.62
223.869	-17.62
224.104	-18.62
224.338	-4.62
224.573	-11.62
224.808	-5.62
225.042	-12.62
225.277	-8.62
225.511	-17.62
225.746	-12.62
225.98	19.38
226.215	25.38
226.449	20.38
226.683	19.38
226.918	24.38
227.152	21.38
227.387	38.38
227.621	27.38
227.856	45.38
228.09	53.38
228.324	34.38
228.559	59.38
228.793	67.38
229.027	79.38
229.262	98.38
229.496	113.38
229.73	125.38
229.964	141.38
230.199	127.38
230.433	97.38
230.667	104.38
230.901	102.38
231.136	102.38
231.37	104.38
231.604	103.38
231.838	91.38
232.072	109.38
232.306	101.38
232.541	99.38
232.775	102.38
233.009	102.38
233.243	89.38
233.477	104.38
233.711	99.38
233.945	101.38
234.179	104.38
234.413	108.38
234.647	111.38
234.881	110.38
235.115	94.38
235.349	98.38
235.583	98.38
235.817	117.38
236.051	123.38
236.285	123.38
236.519	110.38
236.753	116.38
236.987	128.38
237.221	154.38
237.455	206.38
237.689	181.38
237.922	121.38
238.156	122.38
238.39	124.38
238.624	115.38
238.858	100.38
239.091	106.38
239.325	103.38
239.559	103.38
239.793	108.38
240.027	122.38
240.26	120.38
240.494	124.38
240.728	131.38
240.961	128.38
241.195	105.38
241.429	128.38
241.662	124.38
241.896	124.38
242.13	110.38
242.363	105.38
242.597	109.38
242.83	120.38
243.064	111.38
243.298	108.38
243.531	130.38
243.765	119.38
243.998	137.38
244.232	120.38
244.465	127.38
244.699	116.38
244.932	119.38
245.166	110.38
245.399	133.38
245.633	109.38
245.866	132.38
246.099	109.38
246.333	123.38
246.566	115.38
246.8	131.38
247.033	125.38
247.266	140.38
247.5	137.38
247.733	137.38
247.966	149.38
248.2	145.38
248.433	133.38
248.666	143.38
248.899	150.38
249.133	153.38
249.366	168.38
249.599	168.38
249.832	143.38
250.066	143.38
250.299	167.38
250.532	161.38
250.765	170.38
250.998	182.38
251.231	182.38
251.465	169.38
251.698	176.38
251.931	155.38
252.164	171.38
252.397	176.38
252.63	168.38
252.863	173.38
253.096	164.38
253.329	171.38
253.562	182.38
253.795	188.38
254.028	193.38
254.261	196.38
254.494	189.38
254.727	198.38
254.96	236.38
255.193	216.38
255.426	191.38
255.659	192.38
255.892	205.38
256.124	186.38
256.357	184.38
256.59	201.38
256.823	194.38
257.056	163.38
257.289	175.38
257.521	183.38
257.754	169.38
257.987	163.38
258.22	175.38
258.452	175.38
258.685	177.38
258.918	170.38
259.151	173.38
259.383	174.38
259.616	183.38
259.849	183.38
260.081	201.38
260.314	204.38
260.547	210.38
260.779	214.38
261.012	191.38
261.244	184.38
261.477	178.38
261.71	184.38
261.942	185.38
262.175	189.38
262.407	187.38
262.64	188.38
262.872	179.38
263.105	180.38
263.337	181.38
263.57	180.38
263.802	170.38
264.035	167.38
264.267	168.38
264.499	175.38
264.732	177.38
264.964	170.38
265.197	159.38
265.429	159.38
265.661	162.38
265.894	174.38
266.126	177.38
266.358	184.38
266.591	173.38
266.823	157.38
267.055	183.38
267.287	185.38
267.52	168.38
267.752	185.38
267.984	182.38
268.216	186.38
268.448	182.38
268.681	191.38
268.913	193.38
269.145	215.38
269.377	221.38
269.609	219.38
269.841	209.38
270.073	216.38
270.306	232.38
270.538	249.38
270.77	255.38
271.002	254.38
271.234	224.38
271.466	249.38
271.698	239.38
271.93	242.38
272.162	258.38
272.394	270.38
272.626	237.38
272.858	231.38
273.09	227.38
273.322	211.38
273.553	208.38
273.785	204.38
274.017	191.38
274.249	205.38
274.481	208.38
274.713	213.38
274.945	211.38
275.176	223.38
275.408	207.38
275.64	213.38
275.872	194.38
276.104	201.38
276.335	214.38
276.567	203.38
276.799	235.38
277.031	237.38
277.262	247.38
277.494	243.38
277.726	231.38
277.957	227.38
278.189	219.38
278.421	224.38
278.652	190.38
278.884	213.38
279.115	199.38
279.347	209.38
279.579	198.38
279.81	201.38
280.042	219.38
280.273	219.38
280.505	212.38
280.736	186.38
280.968	206.38
281.199	208.38
281.431	191.38
281.662	196.38
281.894	208.38
282.125	233.38
282.356	236.38
282.588	262.38
282.819	231.38
283.051	237.38
283.282	205.38
283.513	216.38
283.745	213.38
283.976	216.38
284.207	216.38
284.439	215.38
284.67	214.38
284.901	215.38
285.132	231.38
285.364	201.38
285.595	223.38
285.826	223.38
286.057	203.38
286.288	213.38
286.52	223.38
286.751	213.38
286.982	218.38
287.213	204.38
287.444	214.38
287.675	236.38
287.906	232.38
288.138	254.38
288.369	257.38
288.6	240.38
288.831	221.38
289.062	228.38
289.293	212.38
289.524	211.38
289.755	225.38
289.986	206.38
290.217	245.38
290.448	218.38
290.679	211.38
290.91	229.38
291.141	220.38
291.371	215.38
291.602	220.38
291.833	233.38
292.064	224.38
292.295	229.38
292.526	243.38
292.757	226.38
292.987	233.38
293.218	248.38
293.449	220.38
293.68	219.38
293.91	217.38
294.141	230.38
294.372	230.38
294.603	243.38
294.833	223.38
295.064	220.38
295.295	224.38
295.525	219.38
295.756	239.38
295.987	257.38
296.217	268.38
296.448	273.38
296.679	218.38
296.909	223.38
297.14	230.38
297.37	232.38
297.601	246.38
297.831	227.38
298.062	227.38
298.292	238.38
298.523	244.38
298.753	237.38
298.984	237.38
299.214	241.38
299.445	223.38
299.675	255.38
299.905	255.38
300.136	249.38
300.366	245.38
300.597	236.38
300.827	250.38
301.057	244.38
301.288	252.38
301.518	246.38
301.748	239.38
301.979	256.38
302.209	285.38
302.439	254.38
302.669	245.38
302.9	273.38
303.13	256.38
303.36	232.38
303.59	271.38
303.82	264.38
304.051	261.38
304.281	240.38
304.511	251.38
304.741	261.38
304.971	249.38
305.201	264.38
305.431	251.38
305.661	253.38
305.891	240.38
306.121	256.38
306.352	244.38
306.582	257.38
306.812	259.38
307.042	244.38
307.272	261.38
307.502	250.38
307.731	258.38
307.961	235.38
308.191	262.38
308.421	286.38
308.651	267.38
308.881	265.38
309.111	256.38
309.341	275.38
309.571	269.38
309.8	296.38
310.03	290.38
310.26	294.38
310.49	306.38
310.72	311.38
310.949	338.38
311.179	329.38
311.409	299.38
311.639	302.38
311.868	301.38
312.098	292.38
312.328	309.38
312.557	323.38
312.787	324.38
313.017	316.38
313.246	311.38
313.476	284.38
313.706	293.38
313.935	309.38
314.165	320.38
314.394	315.38
314.624	300.38
314.853	332.38
315.083	300.38
315.312	289.38
315.542	290.38
315.771	296.38
316.001	312.38
316.23	287.38
316.46	288.38
316.689	284.38
316.919	309.38
317.148	309.38
317.377	318.38
317.607	309.38
317.836	307.38
318.065	307.38
318.295	291.38
318.524	296.38
318.753	304.38
318.983	294.38
319.212	309.38
319.441	320.38
319.67	289.38
319.9	296.38
320.129	292.38
320.358	305.38
320.587	320.38
320.816	321.38
321.046	335.38
321.275	313.38
321.504	320.38
321.733	341.38
321.962	328.38
322.191	348.38
322.42	370.38
322.649	352.38
322.878	373.38
323.108	384.38
323.337	394.38
323.566	445.38
323.795	467.38
324.024	513.38
324.253	646.38
324.482	939.38
324.71	1482.38
324.939	2042.38
325.168	1758.38
325.397	917.38
325.626	593.38
325.855	499.38
326.084	451.38
326.313	438.38
326.542	434.38
326.77	508.38
326.999	574.38
327.228	841.38
327.457	1271.38
327.686	1493.38
327.914	1021.38
328.143	669.38
328.372	569.38
328.6	540.38
328.829	474.38
329.058	508.38
329.287	525.38
329.515	477.38
329.744	444.38
329.972	428.38
330.201	441.38
330.43	507.38
330.658	533.38
330.887	537.38
331.115	531.38
331.344	445.38
331.572	420.38
331.801	413.38
332.03	406.38
332.258	393.38
332.486	366.38
332.715	371.38
332.943	348.38
333.172	363.38
333.4	363.38
333.629	356.38
333.857	373.38
334.085	372.38
334.314	390.38
334.542	448.38
334.771	463.38
334.999	406.38
335.227	400.38
335.455	347.38
335.684	363.38
335.912	360.38
336.14	357.38
336.369	349.38
336.597	356.38
336.825	361.38
337.053	352.38
337.281	369.38
337.51	349.38
337.738	360.38
337.966	351.38
338.194	353.38
338.422	339.38
338.65	347.38
338.878	345.38
339.106	333.38
339.334	330.38
339.562	339.38
339.79	349.38
340.018	338.38
340.246	333.38
340.474	361.38
340.702	327.38
340.93	349.38
341.158	344.38
341.386	343.38
341.614	324.38
341.842	344.38
342.07	349.38
342.298	335.38
342.526	323.38
342.754	335.38
342.981	319.38
343.209	304.38
343.437	327.38
343.665	335.38
343.893	326.38
344.12	333.38
344.348	349.38
344.576	328.38
344.804	349.38
345.031	365.38
345.259	371.38
345.487	350.38
345.714	339.38
345.942	344.38
346.17	332.38
346.397	334.38
346.625	308.38
346.853	316.38
347.08	335.38
347.308	335.38
347.535	334.38
347.763	345.38
347.99	345.38
348.218	344.38
348.445	340.38
348.673	346.38
348.9	346.38
349.128	307.38
349.355	322.38
349.583	325.38
349.81	324.38
350.037	326.38
350.265	327.38
350.492	320.38
350.72	310.38
350.947	309.38
351.174	334.38
351.402	341.38
351.629	340.38
351.856	332.38
352.083	332.38
352.311	350.38
352.538	335.38
352.765	359.38
352.992	341.38
353.22	333.38
353.447	327.38
353.674	321.38
353.901	317.38
354.128	293.38
354.355	315.38
354.583	318.38
354.81	311.38
355.037	313.38
355.264	301.38
355.491	288.38
355.718	315.38
355.945	299.38
356.172	318.38
356.399	299.38
356.626	343.38
356.853	309.38
357.08	285.38
357.307	325.38
357.534	297.38
357.761	303.38
357.988	315.38
358.215	286.38
358.441	293.38
358.668	305.38
358.895	306.38
359.122	299.38
359.349	313.38
359.576	345.38
359.802	352.38
360.029	367.38
360.256	387.38
360.483	379.38
360.709	355.38
360.936	325.38
361.163	347.38
361.39	339.38
361.616	338.38
361.843	337.38
362.07	346.38
362.296	346.38
362.523	337.38
362.749	351.38
362.976	312.38
363.203	349.38
363.429	306.38
363.656	317.38
363.882	320.38
364.109	328.38
364.335	307.38
364.562	321.38
364.788	314.38
365.015	315.38
365.241	324.38
365.468	335.38
365.694	316.38
365.92	307.38
366.147	327.38
366.373	289.38
366.599	305.38
366.826	315.38
367.052	314.38
367.278	296.38
367.505	298.38
367.731	307.38
367.957	303.38
368.184	326.38
368.41	324.38
368.636	319.38
368.862	332.38
369.089	343.38
369.315	330.38
369.541	325.38
369.767	319.38
369.993	317.38
370.219	302.38
370.445	327.38
370.672	307.38
370.898	283.38
371.124	307.38
371.35	316.38
371.576	308.38
371.802	335.38
372.028	296.38
372.254	304.38
372.48	308.38
372.706	317.38
372.932	308.38
373.158	301.38
373.384	315.38
373.61	315.38
373.835	320.38
374.061	313.38
374.287	317.38
374.513	299.38
374.739	296.38
374.965	292.38
375.191	302.38
375.416	316.38
375.642	300.38
375.868	310.38
376.094	302.38
376.319	298.38
376.545	323.38
376.771	320.38
376.997	304.38
377.222	320.38
377.448	304.38
377.674	300.38
377.899	309.38
378.125	305.38
378.35	301.38
378.576	289.38
378.802	309.38
379.027	323.38
379.253	309.38
379.478	318.38
379.704	334.38
379.929	307.38
380.155	304.38
380.38	288.38
380.606	298.38
380.831	313.38
381.057	334.38
381.282	316.38
381.507	305.38
381.733	299.38
381.958	290.38
382.184	310.38
382.409	310.38
382.634	334.38
382.86	321.38
383.085	315.38
383.31	321.38
383.535	321.38
383.761	329.38
383.986	325.38
384.211	316.38
384.436	303.38
384.662	313.38
384.887	315.38
385.112	331.38
385.337	315.38
385.562	324.38
385.787	321.38
386.013	344.38
386.238	341.38
386.463	338.38
386.688	331.38
386.913	337.38
387.138	324.38
387.363	336.38
387.588	317.38
387.813	317.38
388.038	333.38
388.263	336.38
388.488	330.38
388.713	325.38
388.938	323.38
389.163	334.38
389.387	329.38
389.612	326.38
389.837	333.38
390.062	344.38
390.287	312.38
390.512	313.38
390.736	325.38
390.961	324.38
391.186	327.38
391.411	344.38
391.636	344.38
391.86	325.38
392.085	342.38
392.31	340.38
392.534	337.38
392.759	350.38
392.984	336.38
393.208	346.38
393.433	331.38
393.658	342.38
393.882	323.38
394.107	340.38
394.331	333.38
394.556	324.38
394.78	351.38
395.005	337.38
395.229	333.38
395.454	334.38
395.678	351.38
395.903	353.38
396.127	360.38
396.352	365.38
396.576	366.38
396.801	333.38
397.025	339.38
397.249	345.38
397.474	343.38
397.698	349.38
397.922	347.38
398.147	378.38
398.371	387.38
398.595	365.38
398.82	361.38
399.044	381.38
399.268	386.38
399.492	386.38
399.717	399.38
399.941	431.38
400.165	447.38
400.389	458.38
400.613	434.38
400.837	418.38
401.062	380.38
401.286	411.38
401.51	391.38
401.734	373.38
401.958	371.38
402.182	377.38
402.406	404.38
402.63	391.38
402.854	397.38
403.078	399.38
403.302	399.38
403.526	386.38
403.75	386.38
403.974	393.38
404.198	399.38
404.422	374.38
404.645	408.38
404.869	435.38
405.093	433.38
405.317	460.38
405.541	491.38
405.765	444.38
405.988	417.38
406.212	441.38
406.436	425.38
406.66	430.38
406.883	422.38
407.107	448.38
407.331	477.38
407.555	527.38
407.778	516.38
408.002	487.38
408.226	461.38
408.449	434.38
408.673	417.38
408.896	453.38
409.12	494.38
409.344	461.38
409.567	423.38
409.791	423.38
410.014	405.38
410.238	388.38
410.461	417.38
410.685	403.38
410.908	432.38
411.132	431.38
411.355	467.38
411.578	468.38
411.802	413.38
412.025	402.38
412.249	423.38
412.472	429.38
412.695	456.38
412.919	443.38
413.142	422.38
413.365	406.38
413.589	392.38
413.812	392.38
414.035	381.38
414.258	381.38
414.482	373.38
414.705	382.38
414.928	367.38
415.151	393.38
415.374	361.38
415.597	345.38
415.821	367.38
416.044	377.38
416.267	392.38
416.49	381.38
416.713	371.38
416.936	382.38
417.159	393.38
417.382	391.38
417.605	383.38
417.828	393.38
418.051	393.38
418.274	386.38
418.497	383.38
418.72	369.38
418.943	387.38
419.166	397.38
419.389	409.38
419.611	406.38
419.834	388.38
420.057	412.38
420.28	394.38
420.503	412.38
420.726	394.38
420.948	400.38
421.171	429.38
421.394	462.38
421.617	431.38
421.839	388.38
422.062	387.38
422.285	394.38
422.507	457.38
422.73	515.38
422.953	507.38
423.175	433.38
423.398	412.38
423.621	412.38
423.843	431.38
424.066	423.38
424.288	430.38
424.511	438.38
424.733	485.38
424.956	542.38
425.178	548.38
425.401	513.38
425.623	533.38
425.846	464.38
426.068	429.38
426.291	433.38
426.513	422.38
426.735	449.38
426.958	483.38
427.18	550.38
427.402	640.38
427.625	709.38
427.847	647.38
428.069	555.38
428.292	491.38
428.514	445.38
428.736	431.38
428.958	419.38
429.181	415.38
429.403	418.38
429.625	432.38
429.847	443.38
430.069	490.38
430.292	481.38
430.514	427.38
430.736	417.38
430.958	391.38
431.18	373.38
431.402	398.38
431.624	395.38
431.846	371.38
432.068	390.38
432.29	396.38
432.512	367.38
432.734	387.38
432.956	381.38
433.178	409.38
433.4	406.38
433.622	379.38
433.844	385.38
434.066	386.38
434.287	398.38
434.509	365.38
434.731	371.38
434.953	388.38
435.175	397.38
435.397	433.38
435.618	433.38
435.84	455.38
436.062	546.38
436.284	611.38
436.505	479.38
436.727	461.38
436.949	404.38
437.17	400.38
437.392	413.38
437.614	426.38
437.835	465.38
438.057	534.38
438.278	605.38
438.5	606.38
438.721	648.38
438.943	646.38
439.165	520.38
439.386	459.38
439.608	443.38
439.829	460.38
440.05	488.38
440.272	517.38
440.493	509.38
440.715	451.38
440.936	421.38
441.158	423.38
441.379	408.38
441.6	415.38
441.822	456.38
442.043	474.38
442.264	557.38
442.486	561.38
442.707	503.38
442.928	419.38
443.149	437.38
443.371	463.38
443.592	498.38
443.813	589.38
444.034	619.38
444.255	508.38
444.476	467.38
444.698	449.38
444.919	412.38
445.14	536.38
445.361	488.38
445.582	471.38
445.803	553.38
446.024	644.38
446.245	632.38
446.466	566.38
446.687	480.38
446.908	440.38
447.129	440.38
447.35	448.38
447.571	406.38
447.792	398.38
448.013	414.38
448.234	422.38
448.455	467.38
448.675	597.38
448.896	642.38
449.117	545.38
449.338	555.38
449.559	611.38
449.779	669.38
450	549.38
450.221	470.38
450.442	421.38
450.662	409.38
450.883	439.38
451.104	446.38
451.324	405.38
451.545	403.38
451.766	373.38
451.986	376.38
452.207	391.38
452.428	346.38
452.648	389.38
452.869	364.38
453.089	387.38
453.31	375.38
453.53	389.38
453.751	373.38
453.971	372.38
454.192	398.38
454.412	380.38
454.633	379.38
454.853	372.38
455.073	382.38
455.294	411.38
455.514	455.38
455.734	436.38
455.955	375.38
456.175	359.38
456.395	355.38
456.616	341.38
456.836	332.38
457.056	336.38
457.276	330.38
457.497	359.38
457.717	347.38
457.937	347.38
458.157	344.38
458.377	368.38
458.598	380.38
458.818	431.38
459.038	508.38
459.258	533.38
459.478	437.38
459.698	387.38
459.918	393.38
460.138	377.38
460.358	381.38
460.578	377.38
460.798	368.38
461.018	377.38
461.238	385.38
461.458	381.38
461.678	388.38
461.898	373.38
462.118	384.38
462.338	392.38
462.558	408.38
462.777	393.38
462.997	398.38
463.217	417.38
463.437	399.38
463.657	392.38
463.876	400.38
464.096	390.38
464.316	402.38
464.536	396.38
464.755	423.38
464.975	407.38
465.195	456.38
465.414	527.38
465.634	464.38
465.854	431.38
466.073	417.38
466.293	375.38
466.512	387.38
466.732	400.38
466.951	376.38
467.171	367.38
467.391	393.38
467.61	391.38
467.829	389.38
468.049	396.38
468.268	377.38
468.488	385.38
468.707	373.38
468.927	373.38
469.146	370.38
469.365	374.38
469.585	360.38
469.804	370.38
470.023	379.38
470.243	382.38
470.462	394.38
470.681	416.38
470.901	393.38
471.12	390.38
471.339	389.38
471.558	394.38
471.777	376.38
471.997	379.38
472.216	396.38
472.435	446.38
472.654	420.38
472.873	395.38
473.092	397.38
473.311	382.38
473.53	381.38
473.749	393.38
473.968	403.38
474.187	524.38
474.406	532.38
474.625	438.38
474.844	402.38
475.063	394.38
475.282	377.38
475.501	381.38
475.72	397.38
475.939	387.38
476.158	383.38
476.377	394.38
476.596	385.38
476.814	388.38
477.033	405.38
477.252	413.38
477.471	421.38
477.69	420.38
477.908	405.38
478.127	406.38
478.346	414.38
478.564	411.38
478.783	404.38
479.002	417.38
479.22	419.38
479.439	443.38
479.658	464.38
479.876	443.38
480.095	454.38
480.313	482.38
480.532	468.38
480.751	464.38
480.969	470.38
481.188	550.38
481.406	587.38
481.624	494.38
481.843	496.38
482.061	473.38
482.28	485.38
482.498	451.38
482.717	442.38
482.935	437.38
483.153	461.38
483.372	445.38
483.59	476.38
483.808	431.38
484.027	454.38
484.245	469.38
484.463	459.38
484.681	441.38
484.9	455.38
485.118	452.38
485.336	459.38
485.554	462.38
485.772	471.38
485.99	467.38
486.209	456.38
486.427	474.38
486.645	487.38
486.863	506.38
487.081	483.38
487.299	472.38
487.517	464.38
487.735	452.38
487.953	476.38
488.171	472.38
488.389	488.38
488.607	461.38
488.825	466.38
489.043	482.38
489.261	482.38
489.479	509.38
489.696	477.38
489.914	480.38
490.132	509.38
490.35	515.38
490.568	521.38
490.786	506.38
491.003	514.38
491.221	528.38
491.439	528.38
491.657	522.38
491.874	561.38
492.092	547.38
492.31	543.38
492.527	550.38
492.745	552.38
492.963	568.38
493.18	544.38
493.398	551.38
493.615	557.38
493.833	582.38
494.05	563.38
494.268	578.38
494.485	558.38
494.703	542.38
494.92	570.38
495.138	571.38
495.355	558.38
495.573	589.38
495.79	563.38
496.008	572.38
496.225	589.38
496.442	576.38
496.66	578.38
496.877	574.38
497.094	578.38
497.312	579.38
497.529	593.38
497.746	598.38
497.963	594.38
498.181	616.38
498.398	611.38
498.615	594.38
498.832	627.38
499.049	624.38
499.267	641.38
499.484	672.38
499.701	681.38
499.918	679.38
500.135	708.38
500.352	711.38
500.569	723.38
500.786	732.38
501.003	720.38
501.22	693.38
501.437	695.38
501.654	700.38
501.871	697.38
502.088	692.38
