Data from 1961.PennyLincolnUp.Lamp.En5.5.200Scan.071719.P1._HRD10591_13-49-16-057.txt Node
Date: Thu Jul 18 13:49:16 EDT 2019
User: cochatt
Spectrometer: HR+D1059
Trigger mode: 1
Integration Time (sec): 1.000000E-1
Scans to average: 1
Electric dark correction enabled: true
Nonlinearity correction enabled: false
Boxcar width: 0
XAxis mode: Wavelengths
Number of Pixels in Spectrum: 2048
>>>>>Begin Spectral Data<<<<<
223.165	-12.5
223.4	-12.5
223.635	-12.5
223.869	-18.5
224.104	-7.5
224.338	-15.5
224.573	-11.5
224.808	-22.5
225.042	-4.5
225.277	-10.5
225.511	3.5
225.746	-12.5
225.98	11.5
226.215	14.5
226.449	6.5
226.683	12.5
226.918	32.5
227.152	34.5
227.387	39.5
227.621	23.5
227.856	36.5
228.09	43.5
228.324	45.5
228.559	67.5
228.793	55.5
229.027	95.5
229.262	105.5
229.496	124.5
229.73	134.5
229.964	157.5
230.199	122.5
230.433	109.5
230.667	109.5
230.901	102.5
231.136	120.5
231.37	100.5
231.604	108.5
231.838	108.5
232.072	118.5
232.306	104.5
232.541	117.5
232.775	105.5
233.009	107.5
233.243	116.5
233.477	102.5
233.711	95.5
233.945	114.5
234.179	124.5
234.413	108.5
234.647	119.5
234.881	117.5
235.115	111.5
235.349	134.5
235.583	115.5
235.817	123.5
236.051	121.5
236.285	115.5
236.519	113.5
236.753	137.5
236.987	144.5
237.221	177.5
237.455	229.5
237.689	184.5
237.922	125.5
238.156	116.5
238.39	121.5
238.624	113.5
238.858	105.5
239.091	123.5
239.325	118.5
239.559	114.5
239.793	105.5
240.027	116.5
240.26	149.5
240.494	144.5
240.728	144.5
240.961	131.5
241.195	121.5
241.429	135.5
241.662	129.5
241.896	128.5
242.13	126.5
242.363	118.5
242.597	131.5
242.83	140.5
243.064	125.5
243.298	117.5
243.531	128.5
243.765	125.5
243.998	124.5
244.232	122.5
244.465	134.5
244.699	121.5
244.932	119.5
245.166	135.5
245.399	144.5
245.633	141.5
245.866	143.5
246.099	126.5
246.333	141.5
246.566	134.5
246.8	149.5
247.033	145.5
247.266	151.5
247.5	137.5
247.733	157.5
247.966	161.5
248.2	146.5
248.433	160.5
248.666	153.5
248.899	167.5
249.133	183.5
249.366	202.5
249.599	169.5
249.832	165.5
250.066	166.5
250.299	166.5
250.532	162.5
250.765	185.5
250.998	208.5
251.231	208.5
251.465	186.5
251.698	186.5
251.931	158.5
252.164	182.5
252.397	179.5
252.63	177.5
252.863	188.5
253.096	171.5
253.329	194.5
253.562	217.5
253.795	185.5
254.028	201.5
254.261	205.5
254.494	203.5
254.727	234.5
254.96	266.5
255.193	260.5
255.426	229.5
255.659	214.5
255.892	217.5
256.124	211.5
256.357	203.5
256.59	203.5
256.823	186.5
257.056	198.5
257.289	182.5
257.521	190.5
257.754	194.5
257.987	185.5
258.22	188.5
258.452	180.5
258.685	198.5
258.918	187.5
259.151	196.5
259.383	202.5
259.616	208.5
259.849	179.5
260.081	201.5
260.314	211.5
260.547	227.5
260.779	196.5
261.012	207.5
261.244	198.5
261.477	205.5
261.71	215.5
261.942	209.5
262.175	196.5
262.407	198.5
262.64	195.5
262.872	198.5
263.105	180.5
263.337	201.5
263.57	187.5
263.802	176.5
264.035	181.5
264.267	173.5
264.499	183.5
264.732	185.5
264.964	178.5
265.197	195.5
265.429	197.5
265.661	191.5
265.894	206.5
266.126	198.5
266.358	195.5
266.591	193.5
266.823	201.5
267.055	199.5
267.287	191.5
267.52	192.5
267.752	193.5
267.984	194.5
268.216	205.5
268.448	204.5
268.681	207.5
268.913	211.5
269.145	215.5
269.377	245.5
269.609	238.5
269.841	253.5
270.073	246.5
270.306	244.5
270.538	269.5
270.77	269.5
271.002	260.5
271.234	233.5
271.466	255.5
271.698	272.5
271.93	277.5
272.162	273.5
272.394	271.5
272.626	269.5
272.858	245.5
273.09	258.5
273.322	221.5
273.553	227.5
273.785	233.5
274.017	241.5
274.249	237.5
274.481	237.5
274.713	238.5
274.945	256.5
275.176	226.5
275.408	243.5
275.64	226.5
275.872	211.5
276.104	234.5
276.335	233.5
276.567	237.5
276.799	262.5
277.031	263.5
277.262	282.5
277.494	285.5
277.726	263.5
277.957	256.5
278.189	237.5
278.421	249.5
278.652	241.5
278.884	243.5
279.115	242.5
279.347	239.5
279.579	241.5
279.81	238.5
280.042	224.5
280.273	231.5
280.505	227.5
280.736	232.5
280.968	228.5
281.199	219.5
281.431	229.5
281.662	227.5
281.894	224.5
282.125	221.5
282.356	249.5
282.588	276.5
282.819	288.5
283.051	241.5
283.282	230.5
283.513	247.5
283.745	230.5
283.976	222.5
284.207	241.5
284.439	234.5
284.67	248.5
284.901	230.5
285.132	249.5
285.364	241.5
285.595	236.5
285.826	231.5
286.057	238.5
286.288	241.5
286.52	228.5
286.751	239.5
286.982	227.5
287.213	222.5
287.444	241.5
287.675	230.5
287.906	254.5
288.138	259.5
288.369	257.5
288.6	262.5
288.831	267.5
289.062	262.5
289.293	261.5
289.524	242.5
289.755	257.5
289.986	230.5
290.217	260.5
290.448	262.5
290.679	244.5
290.91	268.5
291.141	231.5
291.371	236.5
291.602	238.5
291.833	248.5
292.064	241.5
292.295	245.5
292.526	237.5
292.757	236.5
292.987	239.5
293.218	238.5
293.449	231.5
293.68	244.5
293.91	253.5
294.141	255.5
294.372	237.5
294.603	229.5
294.833	253.5
295.064	280.5
295.295	245.5
295.525	253.5
295.756	257.5
295.987	249.5
296.217	296.5
296.448	305.5
296.679	254.5
296.909	252.5
297.14	246.5
297.37	255.5
297.601	262.5
297.831	248.5
298.062	255.5
298.292	271.5
298.523	255.5
298.753	241.5
298.984	244.5
299.214	270.5
299.445	253.5
299.675	252.5
299.905	252.5
300.136	263.5
300.366	260.5
300.597	261.5
300.827	285.5
301.057	266.5
301.288	283.5
301.518	269.5
301.748	267.5
301.979	284.5
302.209	273.5
302.439	271.5
302.669	293.5
302.9	273.5
303.13	269.5
303.36	277.5
303.59	307.5
303.82	293.5
304.051	303.5
304.281	282.5
304.511	285.5
304.741	279.5
304.971	262.5
305.201	260.5
305.431	250.5
305.661	282.5
305.891	280.5
306.121	280.5
306.352	296.5
306.582	281.5
306.812	268.5
307.042	274.5
307.272	290.5
307.502	281.5
307.731	270.5
307.961	300.5
308.191	276.5
308.421	287.5
308.651	274.5
308.881	299.5
309.111	277.5
309.341	305.5
309.571	297.5
309.8	337.5
310.03	319.5
310.26	352.5
310.49	345.5
310.72	334.5
310.949	366.5
311.179	336.5
311.409	347.5
311.639	352.5
311.868	343.5
312.098	334.5
312.328	337.5
312.557	371.5
312.787	369.5
313.017	364.5
313.246	322.5
313.476	339.5
313.706	345.5
313.935	337.5
314.165	360.5
314.394	365.5
314.624	375.5
314.853	345.5
315.083	342.5
315.312	344.5
315.542	324.5
315.771	309.5
316.001	321.5
316.23	322.5
316.46	326.5
316.689	363.5
316.919	329.5
317.148	333.5
317.377	346.5
317.607	352.5
317.836	329.5
318.065	344.5
318.295	331.5
318.524	346.5
318.753	330.5
318.983	328.5
319.212	332.5
319.441	341.5
319.67	346.5
319.9	327.5
320.129	341.5
320.358	355.5
320.587	334.5
320.816	348.5
321.046	371.5
321.275	375.5
321.504	340.5
321.733	377.5
321.962	365.5
322.191	393.5
322.42	397.5
322.649	434.5
322.878	441.5
323.108	437.5
323.337	457.5
323.566	467.5
323.795	533.5
324.024	583.5
324.253	722.5
324.482	1111.5
324.71	1703.5
324.939	2395.5
325.168	2010.5
325.397	1040.5
325.626	683.5
325.855	569.5
326.084	503.5
326.313	497.5
326.542	498.5
326.77	555.5
326.999	670.5
327.228	999.5
327.457	1506.5
327.686	1786.5
327.914	1147.5
328.143	734.5
328.372	649.5
328.6	612.5
328.829	573.5
329.058	586.5
329.287	581.5
329.515	523.5
329.744	504.5
329.972	482.5
330.201	519.5
330.43	551.5
330.658	587.5
330.887	607.5
331.115	605.5
331.344	470.5
331.572	453.5
331.801	482.5
332.03	457.5
332.258	444.5
332.486	421.5
332.715	402.5
332.943	393.5
333.172	408.5
333.4	426.5
333.629	426.5
333.857	422.5
334.085	454.5
334.314	452.5
334.542	494.5
334.771	510.5
334.999	435.5
335.227	437.5
335.455	391.5
335.684	381.5
335.912	391.5
336.14	382.5
336.369	379.5
336.597	398.5
336.825	403.5
337.053	387.5
337.281	379.5
337.51	372.5
337.738	399.5
337.966	369.5
338.194	383.5
338.422	387.5
338.65	377.5
338.878	383.5
339.106	372.5
339.334	389.5
339.562	366.5
339.79	371.5
340.018	379.5
340.246	390.5
340.474	404.5
340.702	357.5
340.93	364.5
341.158	370.5
341.386	381.5
341.614	379.5
341.842	385.5
342.07	376.5
342.298	360.5
342.526	364.5
342.754	364.5
342.981	354.5
343.209	357.5
343.437	352.5
343.665	357.5
343.893	358.5
344.12	364.5
344.348	378.5
344.576	385.5
344.804	378.5
345.031	383.5
345.259	391.5
345.487	393.5
345.714	399.5
345.942	378.5
346.17	364.5
346.397	339.5
346.625	365.5
346.853	374.5
347.08	382.5
347.308	364.5
347.535	376.5
347.763	373.5
347.99	378.5
348.218	386.5
348.445	395.5
348.673	390.5
348.9	380.5
349.128	350.5
349.355	361.5
349.583	340.5
349.81	350.5
350.037	347.5
350.265	355.5
350.492	335.5
350.72	350.5
350.947	364.5
351.174	382.5
351.402	380.5
351.629	374.5
351.856	375.5
352.083	375.5
352.311	404.5
352.538	394.5
352.765	385.5
352.992	389.5
353.22	403.5
353.447	357.5
353.674	374.5
353.901	350.5
354.128	354.5
354.355	346.5
354.583	326.5
354.81	336.5
355.037	325.5
355.264	332.5
355.491	312.5
355.718	306.5
355.945	317.5
356.172	347.5
356.399	336.5
356.626	335.5
356.853	334.5
357.08	334.5
357.307	327.5
357.534	311.5
357.761	324.5
357.988	330.5
358.215	335.5
358.441	321.5
358.668	348.5
358.895	350.5
359.122	350.5
359.349	349.5
359.576	375.5
359.802	401.5
360.029	426.5
360.256	437.5
360.483	407.5
360.709	397.5
360.936	379.5
361.163	382.5
361.39	373.5
361.616	374.5
361.843	359.5
362.07	359.5
362.296	371.5
362.523	381.5
362.749	361.5
362.976	349.5
363.203	356.5
363.429	349.5
363.656	347.5
363.882	347.5
364.109	343.5
364.335	353.5
364.562	351.5
364.788	359.5
365.015	372.5
365.241	368.5
365.468	358.5
365.694	359.5
365.92	372.5
366.147	367.5
366.373	360.5
366.599	336.5
366.826	343.5
367.052	343.5
367.278	352.5
367.505	346.5
367.731	335.5
367.957	332.5
368.184	349.5
368.41	354.5
368.636	363.5
368.862	321.5
369.089	354.5
369.315	329.5
369.541	331.5
369.767	341.5
369.993	348.5
370.219	344.5
370.445	350.5
370.672	330.5
370.898	318.5
371.124	334.5
371.35	338.5
371.576	341.5
371.802	341.5
372.028	333.5
372.254	345.5
372.48	345.5
372.706	342.5
372.932	342.5
373.158	346.5
373.384	351.5
373.61	329.5
373.835	339.5
374.061	317.5
374.287	345.5
374.513	318.5
374.739	348.5
374.965	347.5
375.191	314.5
375.416	363.5
375.642	356.5
375.868	339.5
376.094	339.5
376.319	325.5
376.545	325.5
376.771	342.5
376.997	344.5
377.222	329.5
377.448	345.5
377.674	337.5
377.899	344.5
378.125	338.5
378.35	313.5
378.576	329.5
378.802	332.5
379.027	313.5
379.253	334.5
379.478	324.5
379.704	335.5
379.929	347.5
380.155	323.5
380.38	350.5
380.606	360.5
380.831	339.5
381.057	347.5
381.282	345.5
381.507	342.5
381.733	329.5
381.958	344.5
382.184	321.5
382.409	341.5
382.634	343.5
382.86	345.5
383.085	339.5
383.31	350.5
383.535	353.5
383.761	359.5
383.986	336.5
384.211	341.5
384.436	339.5
384.662	345.5
384.887	339.5
385.112	341.5
385.337	349.5
385.562	343.5
385.787	364.5
386.013	369.5
386.238	373.5
386.463	378.5
386.688	378.5
386.913	361.5
387.138	351.5
387.363	348.5
387.588	357.5
387.813	348.5
388.038	341.5
388.263	342.5
388.488	361.5
388.713	357.5
388.938	362.5
389.163	360.5
389.387	351.5
389.612	349.5
389.837	354.5
390.062	339.5
390.287	373.5
390.512	355.5
390.736	353.5
390.961	362.5
391.186	377.5
391.411	342.5
391.636	363.5
391.86	374.5
392.085	365.5
392.31	369.5
392.534	354.5
392.759	356.5
392.984	356.5
393.208	349.5
393.433	357.5
393.658	373.5
393.882	351.5
394.107	350.5
394.331	365.5
394.556	355.5
394.78	370.5
395.005	358.5
395.229	363.5
395.454	364.5
395.678	379.5
395.903	389.5
396.127	401.5
396.352	376.5
396.576	381.5
396.801	364.5
397.025	395.5
397.249	385.5
397.474	391.5
397.698	393.5
397.922	399.5
398.147	428.5
398.371	408.5
398.595	392.5
398.82	400.5
399.044	389.5
399.268	407.5
399.492	415.5
399.717	444.5
399.941	473.5
400.165	510.5
400.389	504.5
400.613	454.5
400.837	430.5
401.062	404.5
401.286	427.5
401.51	416.5
401.734	407.5
401.958	423.5
402.182	407.5
402.406	431.5
402.63	419.5
402.854	416.5
403.078	419.5
403.302	443.5
403.526	432.5
403.75	435.5
403.974	410.5
404.198	444.5
404.422	435.5
404.645	431.5
404.869	427.5
405.093	474.5
405.317	494.5
405.541	533.5
405.765	494.5
405.988	433.5
406.212	471.5
406.436	486.5
406.66	498.5
406.883	473.5
407.107	493.5
407.331	519.5
407.555	558.5
407.778	569.5
408.002	541.5
408.226	487.5
408.449	486.5
408.673	489.5
408.896	496.5
409.12	517.5
409.344	509.5
409.567	456.5
409.791	441.5
410.014	447.5
410.238	441.5
410.461	422.5
410.685	453.5
410.908	469.5
411.132	484.5
411.355	502.5
411.578	485.5
411.802	425.5
412.025	434.5
412.249	444.5
412.472	477.5
412.695	495.5
412.919	497.5
413.142	459.5
413.365	440.5
413.589	452.5
413.812	405.5
414.035	407.5
414.258	416.5
414.482	421.5
414.705	410.5
414.928	421.5
415.151	406.5
415.374	419.5
415.597	416.5
415.821	394.5
416.044	415.5
416.267	407.5
416.49	412.5
416.713	384.5
416.936	413.5
417.159	398.5
417.382	428.5
417.605	419.5
417.828	427.5
418.051	437.5
418.274	411.5
418.497	409.5
418.72	421.5
418.943	403.5
419.166	419.5
419.389	460.5
419.611	445.5
419.834	423.5
420.057	421.5
420.28	421.5
420.503	439.5
420.726	401.5
420.948	458.5
421.171	509.5
421.394	499.5
421.617	447.5
421.839	420.5
422.062	457.5
422.285	445.5
422.507	485.5
422.73	547.5
422.953	505.5
423.175	500.5
423.398	441.5
423.621	448.5
423.843	475.5
424.066	490.5
424.288	468.5
424.511	466.5
424.733	538.5
424.956	595.5
425.178	599.5
425.401	573.5
425.623	626.5
425.846	518.5
426.068	489.5
426.291	477.5
426.513	469.5
426.735	485.5
426.958	519.5
427.18	609.5
427.402	716.5
427.625	774.5
427.847	715.5
428.069	610.5
428.292	527.5
428.514	492.5
428.736	477.5
428.958	457.5
429.181	459.5
429.403	440.5
429.625	468.5
429.847	481.5
430.069	540.5
430.292	538.5
430.514	444.5
430.736	451.5
430.958	434.5
431.18	415.5
431.402	433.5
431.624	411.5
431.846	393.5
432.068	393.5
432.29	411.5
432.512	438.5
432.734	435.5
432.956	435.5
433.178	435.5
433.4	442.5
433.622	422.5
433.844	421.5
434.066	413.5
434.287	415.5
434.509	437.5
434.731	427.5
434.953	424.5
435.175	436.5
435.397	449.5
435.618	471.5
435.84	529.5
436.062	621.5
436.284	677.5
436.505	534.5
436.727	491.5
436.949	466.5
437.17	441.5
437.392	461.5
437.614	470.5
437.835	484.5
438.057	621.5
438.278	698.5
438.5	686.5
438.721	713.5
438.943	675.5
439.165	548.5
439.386	521.5
439.608	489.5
439.829	525.5
440.05	540.5
440.272	557.5
440.493	538.5
440.715	482.5
440.936	445.5
441.158	456.5
441.379	431.5
441.6	437.5
441.822	478.5
442.043	534.5
442.264	601.5
442.486	637.5
442.707	526.5
442.928	509.5
443.149	513.5
443.371	534.5
443.592	567.5
443.813	671.5
444.034	705.5
444.255	551.5
444.476	520.5
444.698	487.5
444.919	483.5
445.14	538.5
445.361	511.5
445.582	522.5
445.803	590.5
446.024	695.5
446.245	703.5
446.466	627.5
446.687	547.5
446.908	475.5
447.129	460.5
447.35	453.5
447.571	464.5
447.792	446.5
448.013	461.5
448.234	481.5
448.455	531.5
448.675	610.5
448.896	702.5
449.117	594.5
449.338	596.5
449.559	689.5
449.779	724.5
450	587.5
450.221	506.5
450.442	469.5
450.662	452.5
450.883	467.5
451.104	480.5
451.324	480.5
451.545	434.5
451.766	426.5
451.986	405.5
452.207	409.5
452.428	411.5
452.648	400.5
452.869	418.5
453.089	426.5
453.31	441.5
453.53	417.5
453.751	404.5
453.971	402.5
454.192	432.5
454.412	431.5
454.633	415.5
454.853	417.5
455.073	399.5
455.294	434.5
455.514	489.5
455.734	477.5
455.955	405.5
456.175	389.5
456.395	368.5
456.616	346.5
456.836	379.5
457.056	373.5
457.276	355.5
457.497	373.5
457.717	369.5
457.937	377.5
458.157	393.5
458.377	385.5
458.598	423.5
458.818	474.5
459.038	583.5
459.258	567.5
459.478	487.5
459.698	421.5
459.918	429.5
460.138	424.5
460.358	412.5
460.578	409.5
460.798	403.5
461.018	419.5
461.238	410.5
461.458	412.5
461.678	410.5
461.898	425.5
462.118	417.5
462.338	435.5
462.558	424.5
462.777	424.5
462.997	448.5
463.217	432.5
463.437	436.5
463.657	450.5
463.876	434.5
464.096	430.5
464.316	425.5
464.536	461.5
464.755	451.5
464.975	455.5
465.195	501.5
465.414	567.5
465.634	503.5
465.854	460.5
466.073	445.5
466.293	428.5
466.512	423.5
466.732	429.5
466.951	417.5
467.171	412.5
467.391	418.5
467.61	424.5
467.829	424.5
468.049	411.5
468.268	430.5
468.488	403.5
468.707	395.5
468.927	400.5
469.146	398.5
469.365	397.5
469.585	398.5
469.804	392.5
470.023	415.5
470.243	407.5
470.462	417.5
470.681	445.5
470.901	460.5
471.12	428.5
471.339	427.5
471.558	413.5
471.777	439.5
471.997	433.5
472.216	431.5
472.435	473.5
472.654	453.5
472.873	418.5
473.092	425.5
473.311	425.5
473.53	420.5
473.749	417.5
473.968	464.5
474.187	579.5
474.406	578.5
474.625	477.5
474.844	453.5
475.063	442.5
475.282	416.5
475.501	418.5
475.72	422.5
475.939	410.5
476.158	413.5
476.377	418.5
476.596	415.5
476.814	435.5
477.033	441.5
477.252	437.5
477.471	438.5
477.69	442.5
477.908	431.5
478.127	433.5
478.346	446.5
478.564	429.5
478.783	438.5
479.002	474.5
479.22	474.5
479.439	474.5
479.658	514.5
479.876	502.5
480.095	504.5
480.313	516.5
480.532	509.5
480.751	521.5
480.969	526.5
481.188	601.5
481.406	635.5
481.624	555.5
481.843	538.5
482.061	506.5
482.28	495.5
482.498	498.5
482.717	493.5
482.935	488.5
483.153	498.5
483.372	506.5
483.59	494.5
483.808	477.5
484.027	493.5
484.245	483.5
484.463	511.5
484.681	508.5
484.9	489.5
485.118	527.5
485.336	516.5
485.554	499.5
485.772	493.5
485.99	526.5
486.209	519.5
486.427	521.5
486.645	535.5
486.863	552.5
487.081	553.5
487.299	528.5
487.517	546.5
487.735	535.5
487.953	535.5
488.171	537.5
488.389	515.5
488.607	518.5
488.825	519.5
489.043	530.5
489.261	542.5
489.479	538.5
489.696	549.5
489.914	535.5
490.132	525.5
490.35	558.5
490.568	558.5
490.786	563.5
491.003	578.5
491.221	586.5
491.439	590.5
491.657	601.5
491.874	606.5
492.092	600.5
492.31	585.5
492.527	606.5
492.745	606.5
492.963	587.5
493.18	588.5
493.398	619.5
493.615	634.5
493.833	627.5
494.05	623.5
494.268	613.5
494.485	598.5
494.703	593.5
494.92	630.5
495.138	631.5
495.355	627.5
495.573	625.5
495.79	618.5
496.008	609.5
496.225	613.5
496.442	622.5
496.66	621.5
496.877	631.5
497.094	650.5
497.312	663.5
497.529	647.5
497.746	655.5
497.963	677.5
498.181	674.5
498.398	662.5
498.615	691.5
498.832	690.5
499.049	668.5
499.267	686.5
499.484	718.5
499.701	717.5
499.918	733.5
500.135	747.5
500.352	756.5
500.569	775.5
500.786	781.5
501.003	775.5
501.22	766.5
501.437	755.5
501.654	762.5
501.871	729.5
502.088	733.5
502.305	711.5
502.522	700.5
502.739	682.5
502.956	656.5
503.172	661.5
503.389	658.5
503.606	683.5
503.823	641.5
504.04	622.5
504.256	616.5
504.473	638.5
504.69	596.5
504.907	632.5
505.123	628.5
505.34	625.5
505.557	597.5
505.773	617.5
505.99	578.5
506.207	598.5
506.423	629.5
506.64	588.5
506.856	592.5
507.073	604.5
507.289	600.5
507.506	589.5
507.722	597.5
507.939	619.5
508.155	614.5
508.372	574.5
508.588	563.5
508.805	571.5
509.021	593.5
509.238	611.5
509.454	601.5
509.67	597.5
509.887	591.5
510.103	580.5
510.319	603.5
510.536	734.5
510.752	1246.5
510.968	985.5
511.184	614.5
511.401	575.5
511.617	582.5
511.833	583.5
512.049	567.5
512.265	556.5
512.481	554.5
512.698	552.5
512.914	540.5
513.13	563.5
513.346	565.5
513.562	567.5
513.778	551.5
513.994	559.5
514.21	579.5
514.426	641.5
514.642	647.5
514.858	704.5
515.074	739.5
515.29	895.5
515.506	1355.5
515.721	1098.5
515.937	727.5
516.153	635.5
516.369	613.5
516.585	602.5
516.801	603.5
517.016	571.5
517.232	596.5
517.448	541.5
517.664	581.5
517.879	561.5
518.095	557.5
518.311	567.5
518.527	543.5
518.742	567.5
518.958	538.5
519.173	561.5
519.389	565.5
519.605	566.5
519.82	563.5
