Data from 1961.PennyLincolnUp.Lamp.En5.5.200Scan.071719.P1._HRD10591_13-47-43-057.txt Node
Date: Thu Jul 18 13:47:43 EDT 2019
User: cochatt
Spectrometer: HR+D1059
Trigger mode: 1
Integration Time (sec): 1.000000E-1
Scans to average: 1
Electric dark correction enabled: true
Nonlinearity correction enabled: false
Boxcar width: 0
XAxis mode: Wavelengths
Number of Pixels in Spectrum: 2048
>>>>>Begin Spectral Data<<<<<
223.165	-23.06
223.4	-23.06
223.635	-23.06
223.869	-11.06
224.104	-24.06
224.338	-5.06
224.573	-12.06
224.808	-19.06
225.042	-14.06
225.277	-4.06
225.511	0.94
225.746	1.94
225.98	25.94
226.215	3.94
226.449	7.94
226.683	24.94
226.918	12.94
227.152	33.94
227.387	24.94
227.621	33.94
227.856	51.94
228.09	54.94
228.324	47.94
228.559	40.94
228.793	64.94
229.027	89.94
229.262	100.94
229.496	100.94
229.73	116.94
229.964	138.94
230.199	119.94
230.433	125.94
230.667	113.94
230.901	104.94
231.136	108.94
231.37	103.94
231.604	92.94
231.838	102.94
232.072	107.94
232.306	102.94
232.541	98.94
232.775	100.94
233.009	97.94
233.243	116.94
233.477	103.94
233.711	103.94
233.945	97.94
234.179	111.94
234.413	109.94
234.647	121.94
234.881	104.94
235.115	97.94
235.349	101.94
235.583	97.94
235.817	99.94
236.051	107.94
236.285	97.94
236.519	106.94
236.753	112.94
236.987	123.94
237.221	169.94
237.455	196.94
237.689	152.94
237.922	112.94
238.156	115.94
238.39	124.94
238.624	92.94
238.858	120.94
239.091	93.94
239.325	104.94
239.559	123.94
239.793	111.94
240.027	121.94
240.26	124.94
240.494	128.94
240.728	140.94
240.961	118.94
241.195	125.94
241.429	117.94
241.662	118.94
241.896	125.94
242.13	120.94
242.363	115.94
242.597	118.94
242.83	104.94
243.064	117.94
243.298	121.94
243.531	120.94
243.765	122.94
243.998	112.94
244.232	127.94
244.465	122.94
244.699	124.94
244.932	127.94
245.166	117.94
245.399	139.94
245.633	126.94
245.866	119.94
246.099	113.94
246.333	125.94
246.566	126.94
246.8	139.94
247.033	132.94
247.266	141.94
247.5	141.94
247.733	128.94
247.966	144.94
248.2	134.94
248.433	149.94
248.666	145.94
248.899	165.94
249.133	181.94
249.366	175.94
249.599	164.94
249.832	175.94
250.066	165.94
250.299	149.94
250.532	165.94
250.765	168.94
250.998	183.94
251.231	168.94
251.465	184.94
251.698	171.94
251.931	156.94
252.164	157.94
252.397	162.94
252.63	164.94
252.863	166.94
253.096	167.94
253.329	186.94
253.562	187.94
253.795	174.94
254.028	183.94
254.261	169.94
254.494	187.94
254.727	194.94
254.96	209.94
255.193	211.94
255.426	214.94
255.659	186.94
255.892	187.94
256.124	196.94
256.357	187.94
256.59	178.94
256.823	166.94
257.056	189.94
257.289	177.94
257.521	166.94
257.754	160.94
257.987	157.94
258.22	173.94
258.452	170.94
258.685	176.94
258.918	177.94
259.151	175.94
259.383	171.94
259.616	189.94
259.849	182.94
260.081	182.94
260.314	225.94
260.547	208.94
260.779	185.94
261.012	203.94
261.244	186.94
261.477	183.94
261.71	177.94
261.942	181.94
262.175	186.94
262.407	185.94
262.64	157.94
262.872	181.94
263.105	171.94
263.337	179.94
263.57	164.94
263.802	165.94
264.035	186.94
264.267	162.94
264.499	172.94
264.732	164.94
264.964	172.94
265.197	181.94
265.429	164.94
265.661	175.94
265.894	161.94
266.126	187.94
266.358	180.94
266.591	163.94
266.823	149.94
267.055	196.94
267.287	174.94
267.52	187.94
267.752	183.94
267.984	175.94
268.216	181.94
268.448	175.94
268.681	194.94
268.913	199.94
269.145	209.94
269.377	223.94
269.609	204.94
269.841	192.94
270.073	211.94
270.306	217.94
270.538	257.94
270.77	248.94
271.002	231.94
271.234	244.94
271.466	232.94
271.698	231.94
271.93	234.94
272.162	246.94
272.394	249.94
272.626	229.94
272.858	232.94
273.09	223.94
273.322	220.94
273.553	193.94
273.785	213.94
274.017	212.94
274.249	224.94
274.481	184.94
274.713	195.94
274.945	203.94
275.176	207.94
275.408	215.94
275.64	220.94
275.872	201.94
276.104	207.94
276.335	219.94
276.567	211.94
276.799	223.94
277.031	239.94
277.262	252.94
277.494	252.94
277.726	218.94
277.957	223.94
278.189	216.94
278.421	210.94
278.652	206.94
278.884	218.94
279.115	212.94
279.347	192.94
279.579	200.94
279.81	217.94
280.042	213.94
280.273	212.94
280.505	211.94
280.736	192.94
280.968	228.94
281.199	209.94
281.431	191.94
281.662	217.94
281.894	197.94
282.125	193.94
282.356	224.94
282.588	249.94
282.819	245.94
283.051	229.94
283.282	222.94
283.513	197.94
283.745	211.94
283.976	200.94
284.207	196.94
284.439	213.94
284.67	205.94
284.901	218.94
285.132	197.94
285.364	204.94
285.595	203.94
285.826	199.94
286.057	228.94
286.288	224.94
286.52	211.94
286.751	213.94
286.982	217.94
287.213	216.94
287.444	225.94
287.675	235.94
287.906	214.94
288.138	248.94
288.369	223.94
288.6	246.94
288.831	230.94
289.062	212.94
289.293	222.94
289.524	202.94
289.755	209.94
289.986	203.94
290.217	218.94
290.448	227.94
290.679	229.94
290.91	223.94
291.141	222.94
291.371	215.94
291.602	204.94
291.833	210.94
292.064	207.94
292.295	219.94
292.526	233.94
292.757	209.94
292.987	220.94
293.218	216.94
293.449	230.94
293.68	212.94
293.91	207.94
294.141	214.94
294.372	208.94
294.603	220.94
294.833	230.94
295.064	228.94
295.295	203.94
295.525	227.94
295.756	232.94
295.987	240.94
296.217	263.94
296.448	268.94
296.679	230.94
296.909	243.94
297.14	220.94
297.37	226.94
297.601	228.94
297.831	234.94
298.062	223.94
298.292	239.94
298.523	226.94
298.753	235.94
298.984	242.94
299.214	245.94
299.445	227.94
299.675	237.94
299.905	232.94
300.136	245.94
300.366	235.94
300.597	233.94
300.827	254.94
301.057	250.94
301.288	260.94
301.518	254.94
301.748	249.94
301.979	241.94
302.209	252.94
302.439	248.94
302.669	269.94
302.9	248.94
303.13	230.94
303.36	271.94
303.59	253.94
303.82	257.94
304.051	263.94
304.281	244.94
304.511	253.94
304.741	250.94
304.971	255.94
305.201	246.94
305.431	236.94
305.661	259.94
305.891	247.94
306.121	258.94
306.352	269.94
306.582	265.94
306.812	255.94
307.042	240.94
307.272	247.94
307.502	279.94
307.731	241.94
307.961	263.94
308.191	243.94
308.421	263.94
308.651	271.94
308.881	257.94
309.111	261.94
309.341	272.94
309.571	290.94
309.8	293.94
310.03	293.94
310.26	273.94
310.49	290.94
310.72	286.94
310.949	307.94
311.179	329.94
311.409	295.94
311.639	295.94
311.868	292.94
312.098	311.94
312.328	307.94
312.557	327.94
312.787	333.94
313.017	320.94
313.246	293.94
313.476	294.94
313.706	312.94
313.935	296.94
314.165	311.94
314.394	327.94
314.624	314.94
314.853	291.94
315.083	283.94
315.312	299.94
315.542	299.94
315.771	290.94
316.001	258.94
316.23	292.94
316.46	293.94
316.689	281.94
316.919	288.94
317.148	299.94
317.377	315.94
317.607	312.94
317.836	306.94
318.065	294.94
318.295	273.94
318.524	293.94
318.753	291.94
318.983	272.94
319.212	300.94
319.441	315.94
319.67	313.94
319.9	312.94
320.129	294.94
320.358	291.94
320.587	293.94
320.816	303.94
321.046	333.94
321.275	322.94
321.504	339.94
321.733	309.94
321.962	331.94
322.191	355.94
322.42	355.94
322.649	389.94
322.878	371.94
323.108	379.94
323.337	411.94
323.566	434.94
323.795	465.94
324.024	489.94
324.253	617.94
324.482	924.94
324.71	1413.94
324.939	1996.94
325.168	1675.94
325.397	905.94
325.626	598.94
325.855	485.94
326.084	458.94
326.313	447.94
326.542	426.94
326.77	477.94
326.999	573.94
327.228	825.94
327.457	1239.94
327.686	1474.94
327.914	992.94
328.143	641.94
328.372	580.94
328.6	520.94
328.829	503.94
329.058	487.94
329.287	518.94
329.515	455.94
329.744	446.94
329.972	442.94
330.201	453.94
330.43	496.94
330.658	529.94
330.887	514.94
331.115	509.94
331.344	421.94
331.572	420.94
331.801	400.94
332.03	395.94
332.258	357.94
332.486	353.94
332.715	361.94
332.943	344.94
333.172	351.94
333.4	361.94
333.629	367.94
333.857	380.94
334.085	391.94
334.314	400.94
334.542	422.94
334.771	426.94
334.999	407.94
335.227	378.94
335.455	388.94
335.684	329.94
335.912	359.94
336.14	346.94
336.369	339.94
336.597	356.94
336.825	366.94
337.053	344.94
337.281	345.94
337.51	348.94
337.738	339.94
337.966	329.94
338.194	347.94
338.422	347.94
338.65	338.94
338.878	316.94
339.106	335.94
339.334	344.94
339.562	335.94
339.79	342.94
340.018	339.94
340.246	322.94
340.474	331.94
340.702	322.94
340.93	324.94
341.158	337.94
341.386	350.94
341.614	350.94
341.842	351.94
342.07	322.94
342.298	335.94
342.526	341.94
342.754	291.94
342.981	315.94
343.209	325.94
343.437	320.94
343.665	331.94
343.893	299.94
344.12	340.94
344.348	328.94
344.576	331.94
344.804	345.94
345.031	346.94
345.259	364.94
345.487	338.94
345.714	340.94
345.942	328.94
346.17	327.94
346.397	341.94
346.625	341.94
346.853	315.94
347.08	345.94
347.308	314.94
347.535	339.94
347.763	340.94
347.99	335.94
348.218	323.94
348.445	339.94
348.673	338.94
348.9	339.94
349.128	325.94
349.355	313.94
349.583	326.94
349.81	311.94
350.037	290.94
350.265	328.94
350.492	305.94
350.72	326.94
350.947	321.94
351.174	329.94
351.402	346.94
351.629	344.94
351.856	333.94
352.083	321.94
352.311	331.94
352.538	328.94
352.765	355.94
352.992	346.94
353.22	336.94
353.447	336.94
353.674	321.94
353.901	321.94
354.128	311.94
354.355	303.94
354.583	294.94
354.81	320.94
355.037	292.94
355.264	314.94
355.491	297.94
355.718	297.94
355.945	299.94
356.172	291.94
356.399	282.94
356.626	290.94
356.853	288.94
357.08	292.94
357.307	299.94
357.534	299.94
357.761	314.94
357.988	303.94
358.215	296.94
358.441	312.94
358.668	296.94
358.895	299.94
359.122	297.94
359.349	323.94
359.576	315.94
359.802	343.94
360.029	367.94
360.256	374.94
360.483	377.94
360.709	339.94
360.936	318.94
361.163	334.94
361.39	331.94
361.616	345.94
361.843	331.94
362.07	324.94
362.296	334.94
362.523	324.94
362.749	330.94
362.976	324.94
363.203	340.94
363.429	300.94
363.656	312.94
363.882	308.94
364.109	304.94
364.335	312.94
364.562	309.94
364.788	317.94
365.015	305.94
365.241	332.94
365.468	303.94
365.694	309.94
365.92	318.94
366.147	317.94
366.373	292.94
366.599	312.94
366.826	310.94
367.052	302.94
367.278	321.94
367.505	303.94
367.731	306.94
367.957	297.94
368.184	323.94
368.41	330.94
368.636	322.94
368.862	301.94
369.089	300.94
369.315	313.94
369.541	300.94
369.767	287.94
369.993	309.94
370.219	301.94
370.445	313.94
370.672	309.94
370.898	293.94
371.124	312.94
371.35	287.94
371.576	278.94
371.802	301.94
372.028	297.94
372.254	298.94
372.48	311.94
372.706	307.94
372.932	280.94
373.158	308.94
373.384	321.94
373.61	316.94
373.835	299.94
374.061	275.94
374.287	319.94
374.513	305.94
374.739	312.94
374.965	310.94
375.191	309.94
375.416	303.94
375.642	303.94
375.868	321.94
376.094	293.94
376.319	320.94
376.545	306.94
376.771	287.94
376.997	298.94
377.222	309.94
377.448	322.94
377.674	297.94
377.899	305.94
378.125	296.94
378.35	285.94
378.576	303.94
378.802	314.94
379.027	321.94
379.253	286.94
379.478	289.94
379.704	304.94
379.929	291.94
380.155	305.94
380.38	324.94
380.606	311.94
380.831	323.94
381.057	316.94
381.282	297.94
381.507	291.94
381.733	301.94
381.958	297.94
382.184	319.94
382.409	291.94
382.634	303.94
382.86	298.94
383.085	308.94
383.31	306.94
383.535	316.94
383.761	320.94
383.986	308.94
384.211	321.94
384.436	314.94
384.662	321.94
384.887	323.94
385.112	332.94
385.337	328.94
385.562	328.94
385.787	311.94
386.013	329.94
386.238	330.94
386.463	333.94
386.688	321.94
386.913	320.94
387.138	316.94
387.363	320.94
387.588	324.94
387.813	339.94
388.038	339.94
388.263	321.94
388.488	333.94
388.713	329.94
388.938	329.94
389.163	326.94
389.387	305.94
389.612	294.94
389.837	312.94
390.062	338.94
390.287	319.94
390.512	322.94
390.736	311.94
390.961	314.94
391.186	327.94
391.411	331.94
391.636	348.94
391.86	314.94
392.085	333.94
392.31	329.94
392.534	314.94
392.759	343.94
392.984	337.94
393.208	332.94
393.433	313.94
393.658	319.94
393.882	341.94
394.107	338.94
394.331	344.94
394.556	347.94
394.78	331.94
395.005	317.94
395.229	354.94
395.454	346.94
395.678	333.94
395.903	354.94
396.127	364.94
396.352	364.94
396.576	353.94
396.801	347.94
397.025	343.94
397.249	374.94
397.474	372.94
397.698	356.94
397.922	364.94
398.147	360.94
398.371	362.94
398.595	370.94
398.82	352.94
399.044	346.94
399.268	352.94
399.492	381.94
399.717	394.94
399.941	397.94
400.165	416.94
400.389	436.94
400.613	409.94
400.837	393.94
401.062	381.94
401.286	376.94
401.51	373.94
401.734	382.94
401.958	371.94
402.182	367.94
402.406	361.94
402.63	375.94
402.854	371.94
403.078	380.94
403.302	386.94
403.526	387.94
403.75	393.94
403.974	394.94
404.198	397.94
404.422	367.94
404.645	383.94
404.869	403.94
405.093	412.94
405.317	453.94
405.541	475.94
405.765	421.94
405.988	402.94
406.212	413.94
406.436	435.94
406.66	443.94
406.883	426.94
407.107	437.94
407.331	461.94
407.555	511.94
407.778	515.94
408.002	460.94
408.226	417.94
408.449	443.94
408.673	440.94
408.896	471.94
409.12	469.94
409.344	444.94
409.567	422.94
409.791	385.94
410.014	378.94
410.238	378.94
410.461	392.94
410.685	398.94
410.908	409.94
411.132	439.94
411.355	451.94
411.578	423.94
411.802	379.94
412.025	390.94
412.249	394.94
412.472	398.94
412.695	433.94
412.919	421.94
413.142	398.94
413.365	390.94
413.589	391.94
413.812	371.94
414.035	378.94
414.258	364.94
414.482	386.94
414.705	367.94
414.928	359.94
415.151	358.94
415.374	357.94
415.597	349.94
415.821	356.94
416.044	373.94
416.267	385.94
416.49	361.94
416.713	352.94
416.936	368.94
417.159	368.94
417.382	374.94
417.605	372.94
417.828	378.94
418.051	368.94
418.274	371.94
418.497	374.94
418.72	363.94
418.943	348.94
419.166	337.94
419.389	380.94
419.611	375.94
419.834	397.94
420.057	385.94
420.28	375.94
420.503	372.94
420.726	379.94
420.948	390.94
421.171	433.94
421.394	455.94
421.617	403.94
421.839	400.94
422.062	391.94
422.285	399.94
422.507	450.94
422.73	485.94
422.953	502.94
423.175	435.94
423.398	407.94
423.621	392.94
423.843	433.94
424.066	423.94
424.288	420.94
424.511	432.94
424.733	465.94
424.956	552.94
425.178	534.94
425.401	528.94
425.623	526.94
425.846	469.94
426.068	429.94
426.291	407.94
426.513	415.94
426.735	436.94
426.958	467.94
427.18	534.94
427.402	617.94
427.625	721.94
427.847	617.94
428.069	562.94
428.292	483.94
428.514	435.94
428.736	414.94
428.958	401.94
429.181	395.94
429.403	397.94
429.625	413.94
429.847	440.94
430.069	474.94
430.292	476.94
430.514	388.94
430.736	410.94
430.958	395.94
431.18	381.94
431.402	388.94
431.624	360.94
431.846	374.94
432.068	359.94
432.29	383.94
432.512	382.94
432.734	398.94
432.956	389.94
433.178	397.94
433.4	384.94
433.622	375.94
433.844	377.94
434.066	380.94
434.287	370.94
434.509	387.94
434.731	375.94
434.953	380.94
435.175	408.94
435.397	444.94
435.618	407.94
435.84	471.94
436.062	532.94
436.284	597.94
436.505	484.94
436.727	437.94
436.949	427.94
437.17	403.94
437.392	395.94
437.614	397.94
437.835	449.94
438.057	513.94
438.278	587.94
438.5	611.94
438.721	638.94
438.943	610.94
439.165	492.94
439.386	454.94
439.608	454.94
439.829	440.94
440.05	486.94
440.272	507.94
440.493	444.94
440.715	417.94
440.936	411.94
441.158	429.94
441.379	410.94
441.6	425.94
441.822	405.94
442.043	447.94
442.264	517.94
442.486	558.94
442.707	475.94
442.928	433.94
443.149	453.94
443.371	458.94
443.592	517.94
443.813	585.94
444.034	583.94
444.255	517.94
444.476	456.94
444.698	450.94
444.919	424.94
445.14	541.94
445.361	496.94
445.582	462.94
445.803	517.94
446.024	605.94
446.245	594.94
446.466	565.94
446.687	476.94
446.908	447.94
447.129	417.94
447.35	389.94
447.571	400.94
447.792	401.94
448.013	407.94
448.234	417.94
448.455	467.94
448.675	554.94
448.896	654.94
449.117	557.94
449.338	529.94
449.559	613.94
449.779	662.94
450	531.94
450.221	477.94
450.442	411.94
450.662	417.94
450.883	416.94
451.104	418.94
451.324	417.94
451.545	377.94
451.766	373.94
451.986	369.94
452.207	371.94
452.428	357.94
452.648	373.94
452.869	373.94
453.089	369.94
453.31	387.94
453.53	361.94
453.751	362.94
453.971	367.94
454.192	371.94
454.412	373.94
454.633	376.94
454.853	342.94
455.073	356.94
455.294	377.94
455.514	434.94
455.734	426.94
455.955	363.94
456.175	353.94
456.395	359.94
456.616	333.94
456.836	342.94
457.056	348.94
457.276	342.94
457.497	342.94
457.717	343.94
457.937	339.94
458.157	336.94
458.377	337.94
458.598	368.94
458.818	424.94
459.038	496.94
459.258	497.94
459.478	429.94
459.698	389.94
459.918	377.94
460.138	364.94
460.358	370.94
460.578	382.94
460.798	362.94
461.018	390.94
461.238	357.94
461.458	360.94
461.678	336.94
461.898	349.94
462.118	386.94
462.338	387.94
462.558	380.94
462.777	376.94
462.997	388.94
463.217	393.94
463.437	413.94
463.657	378.94
463.876	370.94
464.096	376.94
464.316	383.94
464.536	389.94
464.755	391.94
464.975	413.94
465.195	457.94
465.414	521.94
465.634	451.94
465.854	420.94
466.073	407.94
466.293	384.94
466.512	375.94
466.732	359.94
466.951	348.94
467.171	360.94
467.391	371.94
467.61	383.94
467.829	403.94
468.049	391.94
468.268	378.94
468.488	380.94
468.707	371.94
468.927	342.94
469.146	355.94
469.365	351.94
469.585	373.94
469.804	377.94
470.023	388.94
470.243	381.94
470.462	369.94
470.681	399.94
470.901	387.94
471.12	370.94
471.339	371.94
471.558	348.94
471.777	379.94
471.997	371.94
472.216	392.94
472.435	428.94
472.654	431.94
472.873	399.94
473.092	362.94
473.311	383.94
473.53	387.94
473.749	375.94
473.968	409.94
474.187	519.94
474.406	517.94
474.625	407.94
474.844	385.94
475.063	386.94
475.282	376.94
475.501	368.94
475.72	380.94
475.939	377.94
476.158	380.94
476.377	396.94
476.596	386.94
476.814	394.94
477.033	408.94
477.252	397.94
477.471	415.94
477.69	405.94
477.908	385.94
478.127	411.94
478.346	395.94
478.564	388.94
478.783	408.94
479.002	415.94
479.22	420.94
479.439	425.94
479.658	438.94
479.876	472.94
480.095	447.94
480.313	470.94
480.532	464.94
480.751	452.94
480.969	467.94
481.188	548.94
481.406	566.94
481.624	499.94
481.843	454.94
482.061	451.94
482.28	431.94
482.498	451.94
482.717	445.94
482.935	436.94
483.153	451.94
483.372	437.94
483.59	437.94
483.808	442.94
484.027	433.94
484.245	440.94
484.463	426.94
484.681	439.94
484.9	457.94
485.118	455.94
485.336	441.94
485.554	449.94
485.772	450.94
485.99	452.94
486.209	455.94
486.427	460.94
486.645	453.94
486.863	491.94
487.081	476.94
487.299	459.94
487.517	465.94
487.735	456.94
487.953	459.94
488.171	468.94
488.389	466.94
488.607	472.94
488.825	471.94
489.043	466.94
489.261	483.94
489.479	470.94
489.696	491.94
489.914	488.94
490.132	461.94
490.35	479.94
490.568	487.94
490.786	496.94
491.003	499.94
491.221	502.94
491.439	521.94
491.657	505.94
491.874	546.94
492.092	513.94
492.31	539.94
492.527	543.94
492.745	531.94
492.963	533.94
493.18	547.94
493.398	561.94
493.615	546.94
493.833	557.94
494.05	532.94
494.268	542.94
494.485	532.94
494.703	549.94
494.92	554.94
495.138	555.94
495.355	556.94
495.573	540.94
495.79	561.94
496.008	547.94
496.225	555.94
496.442	549.94
496.66	548.94
496.877	566.94
497.094	564.94
497.312	527.94
497.529	561.94
497.746	575.94
497.963	580.94
498.181	589.94
498.398	601.94
498.615	597.94
498.832	603.94
499.049	611.94
499.267	616.94
499.484	624.94
499.701	631.94
499.918	635.94
500.135	645.94
500.352	658.94
500.569	694.94
500.786	691.94
501.003	697.94
501.22	683.94
501.437	663.94
501.654	659.94
501.871	693.94
502.088	667.94
