Data from 1961.PennyLincolnUp.Lamp.En5.5.200Scan.071719.P1._HRD10591_13-47-07-057.txt Node
Date: Thu Jul 18 13:47:07 EDT 2019
User: cochatt
Spectrometer: HR+D1059
Trigger mode: 1
Integration Time (sec): 1.000000E-1
Scans to average: 1
Electric dark correction enabled: true
Nonlinearity correction enabled: false
Boxcar width: 0
XAxis mode: Wavelengths
Number of Pixels in Spectrum: 2048
>>>>>Begin Spectral Data<<<<<
223.165	-15.19
223.4	-15.19
223.635	-15.19
223.869	-20.19
224.104	-19.19
224.338	-26.19
224.573	2.81
224.808	-10.19
225.042	-4.19
225.277	-7.19
225.511	-7.19
225.746	4.81
225.98	3.81
226.215	19.81
226.449	11.81
226.683	21.81
226.918	23.81
227.152	20.81
227.387	41.81
227.621	37.81
227.856	50.81
228.09	54.81
228.324	41.81
228.559	66.81
228.793	71.81
229.027	86.81
229.262	101.81
229.496	97.81
229.73	109.81
229.964	131.81
230.199	128.81
230.433	108.81
230.667	112.81
230.901	105.81
231.136	99.81
231.37	104.81
231.604	106.81
231.838	86.81
232.072	92.81
232.306	102.81
232.541	103.81
232.775	95.81
233.009	96.81
233.243	99.81
233.477	113.81
233.711	112.81
233.945	120.81
234.179	112.81
234.413	107.81
234.647	95.81
234.881	109.81
235.115	107.81
235.349	105.81
235.583	116.81
235.817	105.81
236.051	91.81
236.285	115.81
236.519	121.81
236.753	118.81
236.987	124.81
237.221	147.81
237.455	191.81
237.689	163.81
237.922	123.81
238.156	122.81
238.39	109.81
238.624	109.81
238.858	107.81
239.091	116.81
239.325	118.81
239.559	120.81
239.793	126.81
240.027	134.81
240.26	128.81
240.494	135.81
240.728	137.81
240.961	133.81
241.195	133.81
241.429	124.81
241.662	131.81
241.896	122.81
242.13	124.81
242.363	108.81
242.597	119.81
242.83	131.81
243.064	124.81
243.298	121.81
243.531	121.81
243.765	119.81
243.998	123.81
244.232	123.81
244.465	123.81
244.699	124.81
244.932	112.81
245.166	132.81
245.399	116.81
245.633	130.81
245.866	123.81
246.099	112.81
246.333	129.81
246.566	131.81
246.8	132.81
247.033	134.81
247.266	123.81
247.5	142.81
247.733	147.81
247.966	132.81
248.2	129.81
248.433	132.81
248.666	139.81
248.899	152.81
249.133	177.81
249.366	180.81
249.599	164.81
249.832	162.81
250.066	160.81
250.299	155.81
250.532	161.81
250.765	161.81
250.998	176.81
251.231	181.81
251.465	179.81
251.698	163.81
251.931	172.81
252.164	168.81
252.397	162.81
252.63	161.81
252.863	176.81
253.096	179.81
253.329	177.81
253.562	174.81
253.795	167.81
254.028	181.81
254.261	179.81
254.494	180.81
254.727	213.81
254.96	197.81
255.193	215.81
255.426	205.81
255.659	190.81
255.892	195.81
256.124	183.81
256.357	185.81
256.59	168.81
256.823	174.81
257.056	184.81
257.289	160.81
257.521	161.81
257.754	173.81
257.987	176.81
258.22	168.81
258.452	166.81
258.685	159.81
258.918	176.81
259.151	175.81
259.383	177.81
259.616	183.81
259.849	191.81
260.081	187.81
260.314	200.81
260.547	223.81
260.779	193.81
261.012	187.81
261.244	191.81
261.477	172.81
261.71	181.81
261.942	174.81
262.175	182.81
262.407	192.81
262.64	180.81
262.872	165.81
263.105	165.81
263.337	173.81
263.57	177.81
263.802	171.81
264.035	167.81
264.267	168.81
264.499	157.81
264.732	177.81
264.964	170.81
265.197	160.81
265.429	165.81
265.661	179.81
265.894	163.81
266.126	175.81
266.358	176.81
266.591	158.81
266.823	175.81
267.055	175.81
267.287	178.81
267.52	180.81
267.752	192.81
267.984	175.81
268.216	180.81
268.448	189.81
268.681	187.81
268.913	205.81
269.145	219.81
269.377	197.81
269.609	213.81
269.841	233.81
270.073	208.81
270.306	229.81
270.538	252.81
270.77	247.81
271.002	234.81
271.234	226.81
271.466	238.81
271.698	233.81
271.93	253.81
272.162	247.81
272.394	241.81
272.626	233.81
272.858	224.81
273.09	215.81
273.322	202.81
273.553	205.81
273.785	203.81
274.017	203.81
274.249	200.81
274.481	202.81
274.713	202.81
274.945	209.81
275.176	201.81
275.408	195.81
275.64	209.81
275.872	220.81
276.104	213.81
276.335	225.81
276.567	212.81
276.799	225.81
277.031	234.81
277.262	249.81
277.494	232.81
277.726	235.81
277.957	236.81
278.189	243.81
278.421	212.81
278.652	214.81
278.884	207.81
279.115	213.81
279.347	209.81
279.579	229.81
279.81	215.81
280.042	209.81
280.273	203.81
280.505	202.81
280.736	213.81
280.968	225.81
281.199	225.81
281.431	199.81
281.662	201.81
281.894	203.81
282.125	218.81
282.356	231.81
282.588	237.81
282.819	235.81
283.051	205.81
283.282	224.81
283.513	217.81
283.745	218.81
283.976	221.81
284.207	232.81
284.439	215.81
284.67	205.81
284.901	216.81
285.132	212.81
285.364	224.81
285.595	209.81
285.826	212.81
286.057	224.81
286.288	212.81
286.52	217.81
286.751	223.81
286.982	230.81
287.213	220.81
287.444	218.81
287.675	224.81
287.906	211.81
288.138	226.81
288.369	220.81
288.6	219.81
288.831	213.81
289.062	237.81
289.293	221.81
289.524	211.81
289.755	219.81
289.986	215.81
290.217	208.81
290.448	228.81
290.679	227.81
290.91	202.81
291.141	223.81
291.371	221.81
291.602	214.81
291.833	224.81
292.064	225.81
292.295	237.81
292.526	227.81
292.757	212.81
292.987	218.81
293.218	221.81
293.449	213.81
293.68	214.81
293.91	202.81
294.141	232.81
294.372	225.81
294.603	223.81
294.833	223.81
295.064	227.81
295.295	220.81
295.525	225.81
295.756	215.81
295.987	236.81
296.217	263.81
296.448	269.81
296.679	236.81
296.909	242.81
297.14	220.81
297.37	226.81
297.601	234.81
297.831	227.81
298.062	233.81
298.292	224.81
298.523	220.81
298.753	215.81
298.984	242.81
299.214	240.81
299.445	234.81
299.675	241.81
299.905	233.81
300.136	227.81
300.366	227.81
300.597	226.81
300.827	230.81
301.057	244.81
301.288	265.81
301.518	239.81
301.748	255.81
301.979	239.81
302.209	247.81
302.439	246.81
302.669	251.81
302.9	253.81
303.13	252.81
303.36	238.81
303.59	253.81
303.82	255.81
304.051	252.81
304.281	242.81
304.511	232.81
304.741	241.81
304.971	232.81
305.201	255.81
305.431	234.81
305.661	258.81
305.891	244.81
306.121	262.81
306.352	251.81
306.582	257.81
306.812	250.81
307.042	269.81
307.272	255.81
307.502	257.81
307.731	269.81
307.961	256.81
308.191	255.81
308.421	273.81
308.651	266.81
308.881	279.81
309.111	268.81
309.341	258.81
309.571	287.81
309.8	282.81
310.03	285.81
310.26	276.81
310.49	301.81
310.72	292.81
310.949	306.81
311.179	300.81
311.409	296.81
311.639	292.81
311.868	292.81
312.098	304.81
312.328	290.81
312.557	299.81
312.787	313.81
313.017	311.81
313.246	298.81
313.476	296.81
313.706	290.81
313.935	277.81
314.165	306.81
314.394	307.81
314.624	311.81
314.853	298.81
315.083	289.81
315.312	281.81
315.542	287.81
315.771	287.81
316.001	290.81
316.23	278.81
316.46	273.81
316.689	297.81
316.919	288.81
317.148	294.81
317.377	306.81
317.607	299.81
317.836	283.81
318.065	281.81
318.295	295.81
318.524	298.81
318.753	281.81
318.983	289.81
319.212	294.81
319.441	300.81
319.67	312.81
319.9	304.81
320.129	312.81
320.358	307.81
320.587	303.81
320.816	307.81
321.046	320.81
321.275	311.81
321.504	313.81
321.733	312.81
321.962	319.81
322.191	336.81
322.42	335.81
322.649	332.81
322.878	365.81
323.108	387.81
323.337	402.81
323.566	402.81
323.795	441.81
324.024	484.81
324.253	589.81
324.482	872.81
324.71	1321.81
324.939	1840.81
325.168	1552.81
325.397	820.81
325.626	553.81
325.855	476.81
326.084	432.81
326.313	424.81
326.542	444.81
326.77	450.81
326.999	556.81
327.228	747.81
327.457	1157.81
327.686	1344.81
327.914	911.81
328.143	625.81
328.372	525.81
328.6	504.81
328.829	475.81
329.058	481.81
329.287	475.81
329.515	451.81
329.744	413.81
329.972	428.81
330.201	435.81
330.43	473.81
330.658	454.81
330.887	506.81
331.115	503.81
331.344	423.81
331.572	384.81
331.801	391.81
332.03	383.81
332.258	371.81
332.486	368.81
332.715	354.81
332.943	351.81
333.172	337.81
333.4	363.81
333.629	354.81
333.857	373.81
334.085	363.81
334.314	385.81
334.542	409.81
334.771	443.81
334.999	397.81
335.227	349.81
335.455	354.81
335.684	344.81
335.912	341.81
336.14	337.81
336.369	339.81
336.597	340.81
336.825	344.81
337.053	328.81
337.281	336.81
337.51	306.81
337.738	326.81
337.966	341.81
338.194	325.81
338.422	354.81
338.65	337.81
338.878	327.81
339.106	304.81
339.334	331.81
339.562	310.81
339.79	344.81
340.018	324.81
340.246	330.81
340.474	332.81
340.702	336.81
340.93	330.81
341.158	313.81
341.386	314.81
341.614	321.81
341.842	327.81
342.07	343.81
342.298	316.81
342.526	332.81
342.754	307.81
342.981	312.81
343.209	309.81
343.437	319.81
343.665	327.81
343.893	321.81
344.12	318.81
344.348	327.81
344.576	314.81
344.804	327.81
345.031	339.81
345.259	348.81
345.487	352.81
345.714	331.81
345.942	340.81
346.17	309.81
346.397	338.81
346.625	324.81
346.853	332.81
347.08	329.81
347.308	329.81
347.535	323.81
347.763	346.81
347.99	323.81
348.218	330.81
348.445	328.81
348.673	323.81
348.9	328.81
349.128	329.81
349.355	292.81
349.583	313.81
349.81	320.81
350.037	306.81
350.265	314.81
350.492	320.81
350.72	286.81
350.947	303.81
351.174	338.81
351.402	343.81
351.629	330.81
351.856	317.81
352.083	321.81
352.311	348.81
352.538	328.81
352.765	345.81
352.992	328.81
353.22	345.81
353.447	326.81
353.674	341.81
353.901	296.81
354.128	319.81
354.355	311.81
354.583	304.81
354.81	303.81
355.037	295.81
355.264	305.81
355.491	299.81
355.718	291.81
355.945	291.81
356.172	290.81
356.399	303.81
356.626	287.81
356.853	297.81
357.08	300.81
357.307	297.81
357.534	293.81
357.761	315.81
357.988	298.81
358.215	285.81
358.441	290.81
358.668	298.81
358.895	293.81
359.122	282.81
359.349	331.81
359.576	325.81
359.802	338.81
360.029	365.81
360.256	386.81
360.483	358.81
360.709	337.81
360.936	318.81
361.163	343.81
361.39	332.81
361.616	319.81
361.843	313.81
362.07	334.81
362.296	335.81
362.523	341.81
362.749	344.81
362.976	307.81
363.203	310.81
363.429	307.81
363.656	323.81
363.882	306.81
364.109	304.81
364.335	310.81
364.562	312.81
364.788	303.81
365.015	307.81
365.241	288.81
365.468	314.81
365.694	307.81
365.92	330.81
366.147	314.81
366.373	297.81
366.599	310.81
366.826	299.81
367.052	313.81
367.278	286.81
367.505	309.81
367.731	309.81
367.957	307.81
368.184	291.81
368.41	301.81
368.636	294.81
368.862	323.81
369.089	316.81
369.315	311.81
369.541	311.81
369.767	308.81
369.993	314.81
370.219	306.81
370.445	312.81
370.672	298.81
370.898	312.81
371.124	307.81
371.35	296.81
371.576	283.81
371.802	293.81
372.028	314.81
372.254	311.81
372.48	304.81
372.706	306.81
372.932	302.81
373.158	290.81
373.384	300.81
373.61	296.81
373.835	324.81
374.061	305.81
374.287	312.81
374.513	295.81
374.739	292.81
374.965	300.81
375.191	304.81
375.416	289.81
375.642	310.81
375.868	325.81
376.094	299.81
376.319	295.81
376.545	296.81
376.771	300.81
376.997	303.81
377.222	292.81
377.448	299.81
377.674	308.81
377.899	296.81
378.125	313.81
378.35	293.81
378.576	283.81
378.802	302.81
379.027	315.81
379.253	296.81
379.478	291.81
379.704	309.81
379.929	296.81
380.155	294.81
380.38	313.81
380.606	305.81
380.831	320.81
381.057	309.81
381.282	306.81
381.507	304.81
381.733	304.81
381.958	295.81
382.184	297.81
382.409	323.81
382.634	309.81
382.86	331.81
383.085	310.81
383.31	307.81
383.535	321.81
383.761	317.81
383.986	308.81
384.211	330.81
384.436	316.81
384.662	311.81
384.887	298.81
385.112	312.81
385.337	329.81
385.562	327.81
385.787	316.81
386.013	329.81
386.238	321.81
386.463	332.81
386.688	340.81
386.913	312.81
387.138	321.81
387.363	321.81
387.588	308.81
387.813	316.81
388.038	319.81
388.263	314.81
388.488	325.81
388.713	339.81
388.938	327.81
389.163	339.81
389.387	319.81
389.612	327.81
389.837	306.81
390.062	317.81
390.287	324.81
390.512	309.81
390.736	329.81
390.961	323.81
391.186	327.81
391.411	313.81
391.636	339.81
391.86	327.81
392.085	328.81
392.31	332.81
392.534	317.81
392.759	314.81
392.984	328.81
393.208	341.81
393.433	333.81
393.658	352.81
393.882	328.81
394.107	327.81
394.331	341.81
394.556	332.81
394.78	338.81
395.005	348.81
395.229	323.81
395.454	329.81
395.678	334.81
395.903	331.81
396.127	361.81
396.352	350.81
396.576	351.81
396.801	356.81
397.025	329.81
397.249	369.81
397.474	336.81
397.698	332.81
397.922	368.81
398.147	375.81
398.371	346.81
398.595	370.81
398.82	364.81
399.044	371.81
399.268	367.81
399.492	374.81
399.717	392.81
399.941	425.81
400.165	440.81
400.389	441.81
400.613	433.81
400.837	376.81
401.062	384.81
401.286	380.81
401.51	374.81
401.734	377.81
401.958	355.81
402.182	385.81
402.406	375.81
402.63	380.81
402.854	379.81
403.078	368.81
403.302	381.81
403.526	380.81
403.75	370.81
403.974	389.81
404.198	389.81
404.422	372.81
404.645	395.81
404.869	401.81
405.093	423.81
405.317	444.81
405.541	461.81
405.765	442.81
405.988	419.81
406.212	412.81
406.436	436.81
406.66	451.81
406.883	431.81
407.107	417.81
407.331	472.81
407.555	505.81
407.778	509.81
408.002	474.81
408.226	433.81
408.449	438.81
408.673	423.81
408.896	431.81
409.12	482.81
409.344	468.81
409.567	406.81
409.791	378.81
410.014	375.81
410.238	386.81
410.461	385.81
410.685	404.81
410.908	426.81
411.132	435.81
411.355	463.81
411.578	415.81
411.802	392.81
412.025	376.81
412.249	406.81
412.472	402.81
412.695	438.81
412.919	460.81
413.142	384.81
413.365	393.81
413.589	393.81
413.812	375.81
414.035	373.81
414.258	351.81
414.482	367.81
414.705	385.81
414.928	393.81
415.151	367.81
415.374	379.81
415.597	353.81
415.821	367.81
416.044	359.81
416.267	360.81
416.49	350.81
416.713	381.81
416.936	365.81
417.159	364.81
417.382	367.81
417.605	359.81
417.828	379.81
418.051	396.81
418.274	385.81
418.497	365.81
418.72	369.81
418.943	367.81
419.166	377.81
419.389	396.81
419.611	393.81
419.834	376.81
420.057	395.81
420.28	390.81
420.503	375.81
420.726	389.81
420.948	404.81
421.171	424.81
421.394	449.81
421.617	401.81
421.839	392.81
422.062	379.81
422.285	409.81
422.507	432.81
422.73	495.81
422.953	475.81
423.175	428.81
423.398	409.81
423.621	413.81
423.843	406.81
424.066	393.81
424.288	423.81
424.511	455.81
424.733	471.81
424.956	521.81
425.178	521.81
425.401	512.81
425.623	535.81
425.846	438.81
426.068	435.81
426.291	428.81
426.513	420.81
426.735	412.81
426.958	451.81
427.18	525.81
427.402	619.81
427.625	667.81
427.847	600.81
428.069	548.81
428.292	481.81
428.514	439.81
428.736	398.81
428.958	395.81
429.181	405.81
429.403	370.81
429.625	418.81
429.847	429.81
430.069	452.81
430.292	474.81
430.514	405.81
430.736	403.81
430.958	405.81
431.18	369.81
431.402	392.81
431.624	369.81
431.846	375.81
432.068	362.81
432.29	379.81
432.512	374.81
432.734	377.81
432.956	378.81
433.178	395.81
433.4	400.81
433.622	398.81
433.844	384.81
434.066	361.81
434.287	369.81
434.509	370.81
434.731	395.81
434.953	372.81
435.175	393.81
435.397	424.81
435.618	419.81
435.84	476.81
436.062	522.81
436.284	548.81
436.505	481.81
436.727	439.81
436.949	403.81
437.17	392.81
437.392	405.81
437.614	415.81
437.835	450.81
438.057	518.81
438.278	595.81
438.5	581.81
438.721	647.81
438.943	587.81
439.165	483.81
439.386	463.81
439.608	441.81
439.829	425.81
440.05	466.81
440.272	507.81
440.493	442.81
440.715	411.81
440.936	391.81
441.158	384.81
441.379	389.81
441.6	396.81
441.822	432.81
442.043	447.81
442.264	528.81
442.486	545.81
442.707	468.81
442.928	447.81
443.149	456.81
443.371	464.81
443.592	490.81
443.813	566.81
444.034	593.81
444.255	478.81
444.476	451.81
444.698	424.81
444.919	413.81
445.14	493.81
445.361	464.81
445.582	482.81
445.803	514.81
446.024	608.81
446.245	623.81
446.466	554.81
446.687	488.81
446.908	431.81
447.129	416.81
447.35	397.81
447.571	427.81
447.792	412.81
448.013	404.81
448.234	435.81
448.455	453.81
448.675	577.81
448.896	622.81
449.117	555.81
449.338	485.81
449.559	605.81
449.779	623.81
450	535.81
450.221	457.81
450.442	407.81
450.662	404.81
450.883	391.81
451.104	420.81
451.324	411.81
451.545	399.81
451.766	370.81
451.986	358.81
452.207	334.81
452.428	359.81
452.648	364.81
452.869	359.81
453.089	375.81
453.31	400.81
453.53	369.81
453.751	356.81
453.971	376.81
454.192	388.81
454.412	385.81
454.633	366.81
454.853	373.81
455.073	385.81
455.294	393.81
455.514	420.81
455.734	402.81
455.955	350.81
456.175	363.81
456.395	344.81
456.616	338.81
456.836	337.81
457.056	359.81
457.276	349.81
457.497	342.81
457.717	338.81
457.937	357.81
458.157	350.81
458.377	341.81
458.598	381.81
458.818	435.81
459.038	500.81
459.258	488.81
459.478	428.81
459.698	384.81
459.918	388.81
460.138	390.81
460.358	384.81
460.578	373.81
460.798	381.81
461.018	384.81
461.238	395.81
461.458	360.81
461.678	366.81
461.898	364.81
462.118	376.81
462.338	396.81
462.558	388.81
462.777	373.81
462.997	400.81
463.217	390.81
463.437	389.81
463.657	383.81
463.876	391.81
464.096	422.81
464.316	393.81
464.536	404.81
464.755	393.81
464.975	423.81
465.195	450.81
465.414	511.81
465.634	451.81
465.854	415.81
466.073	408.81
466.293	381.81
466.512	375.81
466.732	365.81
466.951	354.81
467.171	387.81
467.391	376.81
467.61	385.81
467.829	399.81
468.049	394.81
468.268	385.81
468.488	359.81
468.707	346.81
468.927	360.81
469.146	338.81
469.365	353.81
469.585	376.81
469.804	376.81
470.023	372.81
470.243	383.81
470.462	403.81
470.681	392.81
470.901	388.81
471.12	380.81
471.339	353.81
471.558	371.81
471.777	372.81
471.997	376.81
472.216	380.81
472.435	432.81
472.654	415.81
472.873	376.81
473.092	383.81
473.311	369.81
473.53	406.81
473.749	391.81
473.968	437.81
474.187	495.81
474.406	529.81
474.625	415.81
474.844	394.81
475.063	379.81
475.282	377.81
475.501	389.81
475.72	391.81
475.939	396.81
476.158	395.81
476.377	395.81
476.596	401.81
476.814	382.81
477.033	398.81
477.252	398.81
477.471	378.81
477.69	403.81
477.908	413.81
478.127	417.81
478.346	397.81
478.564	424.81
478.783	415.81
479.002	412.81
479.22	443.81
479.439	442.81
479.658	446.81
479.876	427.81
480.095	437.81
480.313	466.81
480.532	476.81
480.751	449.81
480.969	472.81
481.188	524.81
481.406	584.81
481.624	488.81
481.843	472.81
482.061	428.81
482.28	434.81
482.498	433.81
482.717	460.81
482.935	444.81
483.153	441.81
483.372	437.81
483.59	452.81
483.808	447.81
484.027	436.81
484.245	441.81
484.463	459.81
484.681	451.81
484.9	446.81
485.118	457.81
485.336	435.81
485.554	451.81
485.772	456.81
485.99	445.81
486.209	439.81
486.427	472.81
486.645	463.81
486.863	468.81
487.081	476.81
487.299	479.81
487.517	480.81
487.735	467.81
487.953	471.81
488.171	448.81
488.389	466.81
488.607	475.81
488.825	481.81
489.043	466.81
489.261	467.81
489.479	471.81
489.696	479.81
489.914	484.81
490.132	487.81
490.35	480.81
490.568	495.81
490.786	498.81
491.003	476.81
491.221	524.81
491.439	515.81
491.657	539.81
491.874	549.81
492.092	523.81
492.31	528.81
492.527	551.81
492.745	561.81
492.963	538.81
493.18	554.81
493.398	539.81
493.615	540.81
493.833	519.81
494.05	548.81
494.268	570.81
494.485	551.81
494.703	546.81
494.92	560.81
495.138	560.81
495.355	549.81
495.573	568.81
495.79	559.81
496.008	565.81
496.225	527.81
496.442	538.81
496.66	567.81
496.877	578.81
497.094	554.81
497.312	554.81
497.529	573.81
497.746	575.81
497.963	585.81
498.181	575.81
498.398	585.81
498.615	608.81
498.832	628.81
499.049	599.81
499.267	629.81
499.484	641.81
499.701	644.81
499.918	651.81
500.135	715.81
500.352	699.81
500.569	705.81
500.786	693.81
501.003	710.81
501.22	684.81
501.437	674.81
501.654	679.81
501.871	661.81
502.088	662.81
