Data from 1961.PennyLincolnUp.Lamp.En5.5.200Scan.071719.P1._HRD10591_13-48-38-059.txt Node
Date: Thu Jul 18 13:48:38 EDT 2019
User: cochatt
Spectrometer: HR+D1059
Trigger mode: 1
Integration Time (sec): 1.000000E-1
Scans to average: 1
Electric dark correction enabled: true
Nonlinearity correction enabled: false
Boxcar width: 0
XAxis mode: Wavelengths
Number of Pixels in Spectrum: 2048
>>>>>Begin Spectral Data<<<<<
223.165	-12.06
223.4	-12.06
223.635	-12.06
223.869	-22.06
224.104	-13.06
224.338	-17.06
224.573	-8.06
224.808	-5.06
225.042	-11.06
225.277	9.94
225.511	4.94
225.746	-5.06
225.98	2.94
226.215	0.94
226.449	15.94
226.683	23.94
226.918	13.94
227.152	20.94
227.387	30.94
227.621	31.94
227.856	44.94
228.09	35.94
228.324	46.94
228.559	54.94
228.793	57.94
229.027	78.94
229.262	89.94
229.496	108.94
229.73	130.94
229.964	144.94
230.199	121.94
230.433	111.94
230.667	111.94
230.901	107.94
231.136	107.94
231.37	108.94
231.604	93.94
231.838	105.94
232.072	112.94
232.306	119.94
232.541	103.94
232.775	98.94
233.009	97.94
233.243	100.94
233.477	89.94
233.711	108.94
233.945	114.94
234.179	102.94
234.413	110.94
234.647	87.94
234.881	100.94
235.115	99.94
235.349	94.94
235.583	117.94
235.817	99.94
236.051	108.94
236.285	113.94
236.519	112.94
236.753	119.94
236.987	130.94
237.221	145.94
237.455	220.94
237.689	159.94
237.922	121.94
238.156	115.94
238.39	113.94
238.624	112.94
238.858	100.94
239.091	110.94
239.325	120.94
239.559	118.94
239.793	111.94
240.027	99.94
240.26	120.94
240.494	131.94
240.728	126.94
240.961	137.94
241.195	123.94
241.429	119.94
241.662	113.94
241.896	109.94
242.13	112.94
242.363	115.94
242.597	99.94
242.83	108.94
243.064	119.94
243.298	115.94
243.531	123.94
243.765	113.94
243.998	136.94
244.232	112.94
244.465	115.94
244.699	128.94
244.932	139.94
245.166	108.94
245.399	131.94
245.633	118.94
245.866	118.94
246.099	122.94
246.333	130.94
246.566	114.94
246.8	127.94
247.033	128.94
247.266	137.94
247.5	131.94
247.733	141.94
247.966	156.94
248.2	134.94
248.433	143.94
248.666	165.94
248.899	156.94
249.133	183.94
249.366	179.94
249.599	163.94
249.832	158.94
250.066	151.94
250.299	155.94
250.532	165.94
250.765	186.94
250.998	210.94
251.231	181.94
251.465	183.94
251.698	164.94
251.931	179.94
252.164	186.94
252.397	178.94
252.63	167.94
252.863	183.94
253.096	167.94
253.329	202.94
253.562	198.94
253.795	183.94
254.028	193.94
254.261	196.94
254.494	186.94
254.727	217.94
254.96	224.94
255.193	214.94
255.426	237.94
255.659	212.94
255.892	188.94
256.124	197.94
256.357	199.94
256.59	188.94
256.823	178.94
257.056	184.94
257.289	160.94
257.521	184.94
257.754	175.94
257.987	167.94
258.22	187.94
258.452	165.94
258.685	158.94
258.918	182.94
259.151	174.94
259.383	173.94
259.616	188.94
259.849	186.94
260.081	216.94
260.314	220.94
260.547	218.94
260.779	205.94
261.012	204.94
261.244	191.94
261.477	189.94
261.71	185.94
261.942	184.94
262.175	195.94
262.407	189.94
262.64	182.94
262.872	159.94
263.105	194.94
263.337	178.94
263.57	190.94
263.802	204.94
264.035	175.94
264.267	180.94
264.499	178.94
264.732	188.94
264.964	177.94
265.197	181.94
265.429	157.94
265.661	184.94
265.894	181.94
266.126	187.94
266.358	178.94
266.591	168.94
266.823	186.94
267.055	188.94
267.287	187.94
267.52	182.94
267.752	188.94
267.984	182.94
268.216	190.94
268.448	174.94
268.681	180.94
268.913	208.94
269.145	229.94
269.377	229.94
269.609	220.94
269.841	209.94
270.073	208.94
270.306	225.94
270.538	256.94
270.77	254.94
271.002	247.94
271.234	247.94
271.466	262.94
271.698	257.94
271.93	283.94
272.162	276.94
272.394	267.94
272.626	246.94
272.858	239.94
273.09	236.94
273.322	225.94
273.553	220.94
273.785	214.94
274.017	232.94
274.249	228.94
274.481	221.94
274.713	225.94
274.945	241.94
275.176	224.94
275.408	232.94
275.64	221.94
275.872	235.94
276.104	221.94
276.335	243.94
276.567	250.94
276.799	240.94
277.031	250.94
277.262	254.94
277.494	263.94
277.726	242.94
277.957	228.94
278.189	240.94
278.421	226.94
278.652	225.94
278.884	226.94
279.115	215.94
279.347	217.94
279.579	236.94
279.81	230.94
280.042	214.94
280.273	215.94
280.505	216.94
280.736	222.94
280.968	215.94
281.199	219.94
281.431	221.94
281.662	195.94
281.894	207.94
282.125	226.94
282.356	255.94
282.588	267.94
282.819	264.94
283.051	214.94
283.282	222.94
283.513	226.94
283.745	216.94
283.976	222.94
284.207	230.94
284.439	236.94
284.67	220.94
284.901	214.94
285.132	201.94
285.364	230.94
285.595	226.94
285.826	204.94
286.057	218.94
286.288	232.94
286.52	227.94
286.751	224.94
286.982	240.94
287.213	210.94
287.444	236.94
287.675	239.94
287.906	232.94
288.138	237.94
288.369	250.94
288.6	260.94
288.831	233.94
289.062	243.94
289.293	238.94
289.524	232.94
289.755	240.94
289.986	229.94
290.217	231.94
290.448	238.94
290.679	246.94
290.91	243.94
291.141	224.94
291.371	236.94
291.602	255.94
291.833	229.94
292.064	233.94
292.295	232.94
292.526	236.94
292.757	231.94
292.987	220.94
293.218	211.94
293.449	234.94
293.68	237.94
293.91	220.94
294.141	226.94
294.372	242.94
294.603	234.94
294.833	234.94
295.064	236.94
295.295	236.94
295.525	229.94
295.756	248.94
295.987	233.94
296.217	253.94
296.448	271.94
296.679	235.94
296.909	236.94
297.14	248.94
297.37	240.94
297.601	254.94
297.831	248.94
298.062	231.94
298.292	246.94
298.523	272.94
298.753	238.94
298.984	245.94
299.214	262.94
299.445	243.94
299.675	260.94
299.905	245.94
300.136	243.94
300.366	238.94
300.597	234.94
300.827	248.94
301.057	259.94
301.288	264.94
301.518	275.94
301.748	249.94
301.979	254.94
302.209	274.94
302.439	269.94
302.669	258.94
302.9	269.94
303.13	270.94
303.36	290.94
303.59	255.94
303.82	270.94
304.051	289.94
304.281	269.94
304.511	271.94
304.741	252.94
304.971	264.94
305.201	252.94
305.431	254.94
305.661	278.94
305.891	275.94
306.121	267.94
306.352	275.94
306.582	266.94
306.812	284.94
307.042	262.94
307.272	280.94
307.502	286.94
307.731	267.94
307.961	273.94
308.191	259.94
308.421	282.94
308.651	265.94
308.881	280.94
309.111	277.94
309.341	279.94
309.571	293.94
309.8	293.94
310.03	314.94
310.26	304.94
310.49	291.94
310.72	315.94
310.949	322.94
311.179	342.94
311.409	316.94
311.639	305.94
311.868	315.94
312.098	317.94
312.328	324.94
312.557	341.94
312.787	356.94
313.017	384.94
313.246	308.94
313.476	322.94
313.706	344.94
313.935	318.94
314.165	350.94
314.394	342.94
314.624	317.94
314.853	325.94
315.083	318.94
315.312	323.94
315.542	307.94
315.771	300.94
316.001	300.94
316.23	295.94
316.46	311.94
316.689	321.94
316.919	316.94
317.148	315.94
317.377	320.94
317.607	314.94
317.836	332.94
318.065	310.94
318.295	309.94
318.524	318.94
318.753	310.94
318.983	328.94
319.212	319.94
319.441	322.94
319.67	330.94
319.9	314.94
320.129	304.94
320.358	312.94
320.587	323.94
320.816	346.94
321.046	340.94
321.275	343.94
321.504	346.94
321.733	339.94
321.962	360.94
322.191	353.94
322.42	351.94
322.649	384.94
322.878	392.94
323.108	402.94
323.337	428.94
323.566	452.94
323.795	502.94
324.024	543.94
324.253	687.94
324.482	1038.94
324.71	1643.94
324.939	2271.94
325.168	1878.94
325.397	963.94
325.626	630.94
325.855	514.94
326.084	494.94
326.313	477.94
326.542	484.94
326.77	503.94
326.999	623.94
327.228	904.94
327.457	1410.94
327.686	1642.94
327.914	1076.94
328.143	708.94
328.372	614.94
328.6	578.94
328.829	537.94
329.058	549.94
329.287	554.94
329.515	492.94
329.744	468.94
329.972	456.94
330.201	490.94
330.43	515.94
330.658	572.94
330.887	568.94
331.115	547.94
331.344	459.94
331.572	442.94
331.801	425.94
332.03	417.94
332.258	422.94
332.486	396.94
332.715	379.94
332.943	364.94
333.172	387.94
333.4	384.94
333.629	389.94
333.857	416.94
334.085	419.94
334.314	427.94
334.542	478.94
334.771	484.94
334.999	450.94
335.227	406.94
335.455	378.94
335.684	357.94
335.912	370.94
336.14	351.94
336.369	362.94
336.597	383.94
336.825	367.94
337.053	351.94
337.281	372.94
337.51	371.94
337.738	372.94
337.966	341.94
338.194	362.94
338.422	370.94
338.65	350.94
338.878	359.94
339.106	364.94
339.334	352.94
339.562	365.94
339.79	334.94
340.018	362.94
340.246	357.94
340.474	348.94
340.702	355.94
340.93	342.94
341.158	347.94
341.386	355.94
341.614	350.94
341.842	358.94
342.07	337.94
342.298	351.94
342.526	365.94
342.754	336.94
342.981	324.94
343.209	319.94
343.437	337.94
343.665	325.94
343.893	342.94
344.12	367.94
344.348	351.94
344.576	343.94
344.804	353.94
345.031	364.94
345.259	382.94
345.487	355.94
345.714	369.94
345.942	346.94
346.17	368.94
346.397	348.94
346.625	365.94
346.853	336.94
347.08	348.94
347.308	319.94
347.535	352.94
347.763	350.94
347.99	362.94
348.218	364.94
348.445	365.94
348.673	355.94
348.9	346.94
349.128	346.94
349.355	318.94
349.583	339.94
349.81	330.94
350.037	326.94
350.265	334.94
350.492	334.94
350.72	334.94
350.947	340.94
351.174	344.94
351.402	354.94
351.629	364.94
351.856	374.94
352.083	359.94
352.311	370.94
352.538	364.94
352.765	369.94
352.992	365.94
353.22	345.94
353.447	364.94
353.674	342.94
353.901	311.94
354.128	340.94
354.355	318.94
354.583	346.94
354.81	341.94
355.037	318.94
355.264	318.94
355.491	319.94
355.718	320.94
355.945	321.94
356.172	316.94
356.399	336.94
356.626	330.94
356.853	318.94
357.08	307.94
357.307	310.94
357.534	323.94
357.761	311.94
357.988	327.94
358.215	330.94
358.441	310.94
358.668	335.94
358.895	331.94
359.122	336.94
359.349	347.94
359.576	363.94
359.802	366.94
360.029	429.94
360.256	416.94
360.483	374.94
360.709	333.94
360.936	346.94
361.163	357.94
361.39	343.94
361.616	363.94
361.843	337.94
362.07	346.94
362.296	346.94
362.523	334.94
362.749	320.94
362.976	355.94
363.203	335.94
363.429	347.94
363.656	338.94
363.882	319.94
364.109	348.94
364.335	333.94
364.562	324.94
364.788	342.94
365.015	321.94
365.241	328.94
365.468	332.94
365.694	322.94
365.92	347.94
366.147	327.94
366.373	319.94
366.599	329.94
366.826	334.94
367.052	300.94
367.278	322.94
367.505	318.94
367.731	314.94
367.957	328.94
368.184	340.94
368.41	355.94
368.636	345.94
368.862	329.94
369.089	323.94
369.315	326.94
369.541	304.94
369.767	317.94
369.993	308.94
370.219	322.94
370.445	328.94
370.672	309.94
370.898	303.94
371.124	314.94
371.35	298.94
371.576	318.94
371.802	318.94
372.028	308.94
372.254	327.94
372.48	344.94
372.706	323.94
372.932	332.94
373.158	307.94
373.384	306.94
373.61	307.94
373.835	324.94
374.061	320.94
374.287	328.94
374.513	328.94
374.739	331.94
374.965	338.94
375.191	334.94
375.416	335.94
375.642	303.94
375.868	310.94
376.094	309.94
376.319	311.94
376.545	307.94
376.771	325.94
376.997	315.94
377.222	308.94
377.448	294.94
377.674	318.94
377.899	304.94
378.125	327.94
378.35	321.94
378.576	307.94
378.802	307.94
379.027	310.94
379.253	311.94
379.478	314.94
379.704	314.94
379.929	328.94
380.155	317.94
380.38	320.94
380.606	310.94
380.831	331.94
381.057	340.94
381.282	332.94
381.507	319.94
381.733	314.94
381.958	319.94
382.184	316.94
382.409	316.94
382.634	325.94
382.86	316.94
383.085	331.94
383.31	319.94
383.535	318.94
383.761	329.94
383.986	341.94
384.211	330.94
384.436	327.94
384.662	322.94
384.887	316.94
385.112	326.94
385.337	328.94
385.562	336.94
385.787	336.94
386.013	350.94
386.238	370.94
386.463	336.94
386.688	347.94
386.913	331.94
387.138	334.94
387.363	330.94
387.588	322.94
387.813	324.94
388.038	327.94
388.263	342.94
388.488	337.94
388.713	332.94
388.938	352.94
389.163	357.94
389.387	344.94
389.612	332.94
389.837	351.94
390.062	334.94
390.287	354.94
390.512	332.94
390.736	326.94
390.961	358.94
391.186	351.94
391.411	333.94
391.636	349.94
391.86	341.94
392.085	365.94
392.31	375.94
392.534	363.94
392.759	349.94
392.984	335.94
393.208	332.94
393.433	339.94
393.658	354.94
393.882	346.94
394.107	347.94
394.331	332.94
394.556	344.94
394.78	349.94
395.005	346.94
395.229	354.94
395.454	367.94
395.678	354.94
395.903	372.94
396.127	384.94
396.352	387.94
396.576	354.94
396.801	342.94
397.025	362.94
397.249	362.94
397.474	374.94
397.698	364.94
397.922	377.94
398.147	389.94
398.371	374.94
398.595	387.94
398.82	371.94
399.044	391.94
399.268	398.94
399.492	420.94
399.717	417.94
399.941	454.94
400.165	480.94
400.389	493.94
400.613	446.94
400.837	415.94
401.062	401.94
401.286	393.94
401.51	411.94
401.734	403.94
401.958	402.94
402.182	405.94
402.406	415.94
402.63	403.94
402.854	404.94
403.078	405.94
403.302	421.94
403.526	411.94
403.75	383.94
403.974	432.94
404.198	415.94
404.422	396.94
404.645	405.94
404.869	432.94
405.093	459.94
405.317	476.94
405.541	508.94
405.765	437.94
405.988	446.94
406.212	435.94
406.436	469.94
406.66	480.94
406.883	444.94
407.107	470.94
407.331	506.94
407.555	566.94
407.778	536.94
408.002	502.94
408.226	460.94
408.449	475.94
408.673	449.94
408.896	467.94
409.12	516.94
409.344	479.94
409.567	434.94
409.791	434.94
410.014	413.94
410.238	394.94
410.461	414.94
410.685	410.94
410.908	429.94
411.132	453.94
411.355	471.94
411.578	465.94
411.802	418.94
412.025	436.94
412.249	438.94
412.472	443.94
412.695	462.94
412.919	459.94
413.142	450.94
413.365	399.94
413.589	386.94
413.812	384.94
414.035	387.94
414.258	395.94
414.482	391.94
414.705	386.94
414.928	374.94
415.151	408.94
415.374	391.94
415.597	381.94
415.821	371.94
416.044	362.94
416.267	377.94
416.49	393.94
416.713	380.94
416.936	392.94
417.159	411.94
417.382	398.94
417.605	396.94
417.828	391.94
418.051	404.94
418.274	395.94
418.497	396.94
418.72	396.94
418.943	382.94
419.166	392.94
419.389	405.94
419.611	420.94
419.834	423.94
420.057	424.94
420.28	411.94
420.503	410.94
420.726	396.94
420.948	436.94
421.171	456.94
421.394	469.94
421.617	446.94
421.839	404.94
422.062	423.94
422.285	402.94
422.507	478.94
422.73	549.94
422.953	509.94
423.175	456.94
423.398	463.94
423.621	411.94
423.843	439.94
424.066	454.94
424.288	459.94
424.511	486.94
424.733	510.94
424.956	567.94
425.178	567.94
425.401	547.94
425.623	579.94
425.846	490.94
426.068	464.94
426.291	452.94
426.513	464.94
426.735	476.94
426.958	513.94
427.18	570.94
427.402	682.94
427.625	723.94
427.847	653.94
428.069	574.94
428.292	516.94
428.514	469.94
428.736	451.94
428.958	435.94
429.181	426.94
429.403	416.94
429.625	430.94
429.847	461.94
430.069	520.94
430.292	510.94
430.514	451.94
430.736	421.94
430.958	416.94
431.18	386.94
431.402	398.94
431.624	373.94
431.846	370.94
432.068	386.94
432.29	393.94
432.512	396.94
432.734	396.94
432.956	400.94
433.178	422.94
433.4	421.94
433.622	391.94
433.844	395.94
434.066	390.94
434.287	378.94
434.509	395.94
434.731	385.94
434.953	405.94
435.175	413.94
435.397	430.94
435.618	439.94
435.84	482.94
436.062	580.94
436.284	593.94
436.505	526.94
436.727	492.94
436.949	448.94
437.17	412.94
437.392	434.94
437.614	434.94
437.835	475.94
438.057	567.94
438.278	636.94
438.5	652.94
438.721	692.94
438.943	672.94
439.165	563.94
439.386	506.94
439.608	462.94
439.829	465.94
440.05	497.94
440.272	554.94
440.493	530.94
440.715	463.94
440.936	425.94
441.158	440.94
441.379	430.94
441.6	432.94
441.822	467.94
442.043	499.94
442.264	563.94
442.486	582.94
442.707	524.94
442.928	487.94
443.149	496.94
443.371	509.94
443.592	544.94
443.813	622.94
444.034	638.94
444.255	526.94
444.476	476.94
444.698	451.94
444.919	455.94
445.14	543.94
445.361	499.94
445.582	517.94
445.803	568.94
446.024	663.94
446.245	658.94
446.466	599.94
446.687	502.94
446.908	454.94
447.129	424.94
447.35	431.94
447.571	419.94
447.792	432.94
448.013	434.94
448.234	464.94
448.455	487.94
448.675	578.94
448.896	668.94
449.117	559.94
449.338	540.94
449.559	638.94
449.779	712.94
450	572.94
450.221	472.94
450.442	445.94
450.662	423.94
450.883	448.94
451.104	467.94
451.324	456.94
451.545	422.94
451.766	419.94
451.986	382.94
452.207	383.94
452.428	390.94
452.648	397.94
452.869	388.94
453.089	381.94
453.31	411.94
453.53	390.94
453.751	387.94
453.971	404.94
454.192	400.94
454.412	413.94
454.633	408.94
454.853	384.94
455.073	375.94
455.294	430.94
455.514	486.94
455.734	461.94
455.955	397.94
456.175	374.94
456.395	364.94
456.616	359.94
456.836	347.94
457.056	358.94
457.276	376.94
457.497	370.94
457.717	342.94
457.937	380.94
458.157	337.94
458.377	388.94
458.598	388.94
458.818	461.94
459.038	564.94
459.258	538.94
459.478	458.94
459.698	388.94
459.918	385.94
460.138	396.94
460.358	378.94
460.578	407.94
460.798	406.94
461.018	411.94
461.238	386.94
461.458	379.94
461.678	397.94
461.898	398.94
462.118	394.94
462.338	392.94
462.558	390.94
462.777	426.94
462.997	412.94
463.217	402.94
463.437	426.94
463.657	405.94
463.876	414.94
464.096	426.94
464.316	438.94
464.536	420.94
464.755	430.94
464.975	434.94
465.195	484.94
465.414	551.94
465.634	476.94
465.854	442.94
466.073	431.94
466.293	429.94
466.512	404.94
466.732	404.94
466.951	388.94
467.171	385.94
467.391	404.94
467.61	391.94
467.829	430.94
468.049	397.94
468.268	402.94
468.488	394.94
468.707	368.94
468.927	374.94
469.146	365.94
469.365	369.94
469.585	390.94
469.804	386.94
470.023	395.94
470.243	396.94
470.462	410.94
470.681	423.94
470.901	416.94
471.12	420.94
471.339	387.94
471.558	400.94
471.777	399.94
471.997	393.94
472.216	397.94
472.435	443.94
472.654	424.94
472.873	394.94
473.092	387.94
473.311	398.94
473.53	400.94
473.749	409.94
473.968	480.94
474.187	548.94
474.406	571.94
474.625	475.94
474.844	406.94
475.063	412.94
475.282	397.94
475.501	383.94
475.72	399.94
475.939	404.94
476.158	417.94
476.377	412.94
476.596	409.94
476.814	420.94
477.033	427.94
477.252	444.94
477.471	405.94
477.69	438.94
477.908	423.94
478.127	446.94
478.346	436.94
478.564	421.94
478.783	426.94
479.002	442.94
479.22	443.94
479.439	452.94
479.658	482.94
479.876	490.94
480.095	487.94
480.313	500.94
480.532	498.94
480.751	488.94
480.969	514.94
481.188	583.94
481.406	611.94
481.624	540.94
481.843	467.94
482.061	472.94
482.28	469.94
482.498	466.94
482.717	480.94
482.935	491.94
483.153	478.94
483.372	466.94
483.59	475.94
483.808	462.94
484.027	455.94
484.245	467.94
484.463	466.94
484.681	463.94
484.9	462.94
485.118	491.94
485.336	469.94
485.554	459.94
485.772	465.94
485.99	495.94
486.209	466.94
486.427	483.94
486.645	525.94
486.863	540.94
487.081	528.94
487.299	487.94
487.517	498.94
487.735	491.94
487.953	501.94
488.171	498.94
488.389	490.94
488.607	509.94
488.825	531.94
489.043	505.94
489.261	526.94
489.479	492.94
489.696	513.94
489.914	517.94
490.132	502.94
490.35	525.94
490.568	540.94
490.786	547.94
491.003	515.94
491.221	532.94
491.439	570.94
491.657	570.94
491.874	557.94
492.092	569.94
492.31	581.94
492.527	569.94
492.745	572.94
492.963	574.94
493.18	568.94
493.398	574.94
493.615	581.94
493.833	595.94
494.05	562.94
494.268	604.94
494.485	586.94
494.703	582.94
494.92	586.94
495.138	582.94
495.355	603.94
495.573	606.94
495.79	596.94
496.008	584.94
496.225	591.94
496.442	596.94
496.66	606.94
496.877	593.94
497.094	612.94
497.312	604.94
497.529	629.94
497.746	620.94
497.963	642.94
498.181	655.94
498.398	624.94
498.615	627.94
498.832	640.94
499.049	648.94
499.267	659.94
499.484	672.94
499.701	679.94
499.918	705.94
500.135	724.94
500.352	742.94
500.569	731.94
500.786	707.94
501.003	739.94
501.22	727.94
501.437	734.94
501.654	719.94
501.871	732.94
502.088	711.94
