Data from 1961.PennyLincolnUp.Lamp.En5.5.200Scan.071719.P1._HRD10591_13-46-11-058.txt Node
Date: Thu Jul 18 13:46:11 EDT 2019
User: cochatt
Spectrometer: HR+D1059
Trigger mode: 1
Integration Time (sec): 1.000000E-1
Scans to average: 1
Electric dark correction enabled: true
Nonlinearity correction enabled: false
Boxcar width: 0
XAxis mode: Wavelengths
Number of Pixels in Spectrum: 2048
>>>>>Begin Spectral Data<<<<<
223.165	-7.25
223.4	-7.25
223.635	-7.25
223.869	-28.25
224.104	-21.25
224.338	-11.25
224.573	-3.25
224.808	-20.25
225.042	-19.25
225.277	-2.25
225.511	-5.25
225.746	16.75
225.98	6.75
226.215	18.75
226.449	11.75
226.683	18.75
226.918	27.75
227.152	17.75
227.387	14.75
227.621	28.75
227.856	42.75
228.09	27.75
228.324	59.75
228.559	63.75
228.793	62.75
229.027	79.75
229.262	77.75
229.496	92.75
229.73	106.75
229.964	102.75
230.199	94.75
230.433	82.75
230.667	92.75
230.901	98.75
231.136	87.75
231.37	92.75
231.604	102.75
231.838	78.75
232.072	86.75
232.306	91.75
232.541	94.75
232.775	110.75
233.009	103.75
233.243	95.75
233.477	112.75
233.711	111.75
233.945	102.75
234.179	92.75
234.413	99.75
234.647	93.75
234.881	93.75
235.115	88.75
235.349	97.75
235.583	90.75
235.817	90.75
236.051	102.75
236.285	108.75
236.519	106.75
236.753	109.75
236.987	131.75
237.221	133.75
237.455	143.75
237.689	126.75
237.922	103.75
238.156	110.75
238.39	94.75
238.624	86.75
238.858	93.75
239.091	112.75
239.325	98.75
239.559	98.75
239.793	96.75
240.027	102.75
240.26	114.75
240.494	116.75
240.728	109.75
240.961	98.75
241.195	111.75
241.429	106.75
241.662	115.75
241.896	104.75
242.13	97.75
242.363	91.75
242.597	114.75
242.83	118.75
243.064	87.75
243.298	121.75
243.531	110.75
243.765	117.75
243.998	110.75
244.232	100.75
244.465	106.75
244.699	120.75
244.932	113.75
245.166	126.75
245.399	126.75
245.633	107.75
245.866	119.75
246.099	97.75
246.333	114.75
246.566	118.75
246.8	102.75
247.033	119.75
247.266	114.75
247.5	116.75
247.733	125.75
247.966	112.75
248.2	128.75
248.433	124.75
248.666	136.75
248.899	117.75
249.133	128.75
249.366	123.75
249.599	136.75
249.832	122.75
250.066	135.75
250.299	138.75
250.532	136.75
250.765	130.75
250.998	145.75
251.231	149.75
251.465	148.75
251.698	134.75
251.931	129.75
252.164	147.75
252.397	131.75
252.63	146.75
252.863	138.75
253.096	153.75
253.329	146.75
253.562	147.75
253.795	149.75
254.028	147.75
254.261	141.75
254.494	164.75
254.727	170.75
254.96	172.75
255.193	166.75
255.426	160.75
255.659	143.75
255.892	147.75
256.124	167.75
256.357	156.75
256.59	169.75
256.823	150.75
257.056	150.75
257.289	147.75
257.521	156.75
257.754	151.75
257.987	148.75
258.22	146.75
258.452	133.75
258.685	157.75
258.918	165.75
259.151	143.75
259.383	147.75
259.616	157.75
259.849	146.75
260.081	148.75
260.314	148.75
260.547	155.75
260.779	158.75
261.012	167.75
261.244	158.75
261.477	150.75
261.71	144.75
261.942	153.75
262.175	153.75
262.407	130.75
262.64	142.75
262.872	143.75
263.105	146.75
263.337	144.75
263.57	141.75
263.802	144.75
264.035	139.75
264.267	148.75
264.499	137.75
264.732	139.75
264.964	146.75
265.197	152.75
265.429	126.75
265.661	159.75
265.894	129.75
266.126	139.75
266.358	141.75
266.591	139.75
266.823	148.75
267.055	143.75
267.287	148.75
267.52	152.75
267.752	143.75
267.984	150.75
268.216	137.75
268.448	158.75
268.681	170.75
268.913	146.75
269.145	160.75
269.377	158.75
269.609	175.75
269.841	183.75
270.073	172.75
270.306	174.75
270.538	180.75
270.77	183.75
271.002	188.75
271.234	187.75
271.466	194.75
271.698	198.75
271.93	191.75
272.162	196.75
272.394	201.75
272.626	184.75
272.858	172.75
273.09	187.75
273.322	172.75
273.553	172.75
273.785	172.75
274.017	173.75
274.249	157.75
274.481	168.75
274.713	187.75
274.945	165.75
275.176	165.75
275.408	146.75
275.64	166.75
275.872	161.75
276.104	166.75
276.335	176.75
276.567	191.75
276.799	167.75
277.031	178.75
277.262	190.75
277.494	196.75
277.726	195.75
277.957	200.75
278.189	170.75
278.421	151.75
278.652	181.75
278.884	160.75
279.115	163.75
279.347	176.75
279.579	158.75
279.81	169.75
280.042	175.75
280.273	179.75
280.505	178.75
280.736	180.75
280.968	179.75
281.199	174.75
281.431	177.75
281.662	167.75
281.894	161.75
282.125	174.75
282.356	175.75
282.588	193.75
282.819	206.75
283.051	184.75
283.282	189.75
283.513	175.75
283.745	162.75
283.976	178.75
284.207	184.75
284.439	172.75
284.67	189.75
284.901	197.75
285.132	188.75
285.364	186.75
285.595	187.75
285.826	187.75
286.057	183.75
286.288	174.75
286.52	179.75
286.751	155.75
286.982	179.75
287.213	188.75
287.444	167.75
287.675	168.75
287.906	181.75
288.138	188.75
288.369	192.75
288.6	189.75
288.831	182.75
289.062	197.75
289.293	182.75
289.524	173.75
289.755	191.75
289.986	192.75
290.217	167.75
290.448	168.75
290.679	189.75
290.91	203.75
291.141	187.75
291.371	181.75
291.602	171.75
291.833	198.75
292.064	189.75
292.295	180.75
292.526	188.75
292.757	183.75
292.987	192.75
293.218	176.75
293.449	195.75
293.68	172.75
293.91	202.75
294.141	172.75
294.372	171.75
294.603	179.75
294.833	191.75
295.064	186.75
295.295	186.75
295.525	180.75
295.756	204.75
295.987	191.75
296.217	195.75
296.448	189.75
296.679	190.75
296.909	197.75
297.14	197.75
297.37	193.75
297.601	182.75
297.831	192.75
298.062	194.75
298.292	192.75
298.523	198.75
298.753	203.75
298.984	194.75
299.214	194.75
299.445	208.75
299.675	188.75
299.905	181.75
300.136	202.75
300.366	197.75
300.597	203.75
300.827	202.75
301.057	196.75
301.288	195.75
301.518	202.75
301.748	199.75
301.979	208.75
302.209	205.75
302.439	208.75
302.669	198.75
302.9	189.75
303.13	208.75
303.36	203.75
303.59	201.75
303.82	214.75
304.051	207.75
304.281	208.75
304.511	208.75
304.741	205.75
304.971	205.75
305.201	207.75
305.431	209.75
305.661	201.75
305.891	205.75
306.121	227.75
306.352	215.75
306.582	204.75
306.812	182.75
307.042	219.75
307.272	211.75
307.502	196.75
307.731	212.75
307.961	208.75
308.191	206.75
308.421	197.75
308.651	220.75
308.881	198.75
309.111	209.75
309.341	201.75
309.571	220.75
309.8	209.75
310.03	205.75
310.26	218.75
310.49	216.75
310.72	223.75
310.949	225.75
311.179	246.75
311.409	223.75
311.639	226.75
311.868	232.75
312.098	232.75
312.328	230.75
312.557	232.75
312.787	226.75
313.017	233.75
313.246	233.75
313.476	224.75
313.706	224.75
313.935	238.75
314.165	238.75
314.394	241.75
314.624	239.75
314.853	241.75
315.083	239.75
315.312	219.75
315.542	233.75
315.771	222.75
316.001	228.75
316.23	220.75
316.46	228.75
316.689	219.75
316.919	225.75
317.148	232.75
317.377	258.75
317.607	255.75
317.836	254.75
318.065	260.75
318.295	252.75
318.524	227.75
318.753	231.75
318.983	243.75
319.212	238.75
319.441	244.75
319.67	250.75
319.9	237.75
320.129	229.75
320.358	238.75
320.587	233.75
320.816	223.75
321.046	267.75
321.275	238.75
321.504	237.75
321.733	248.75
321.962	258.75
322.191	231.75
322.42	270.75
322.649	268.75
322.878	255.75
323.108	285.75
323.337	282.75
323.566	278.75
323.795	299.75
324.024	327.75
324.253	382.75
324.482	566.75
324.71	822.75
324.939	1129.75
325.168	964.75
325.397	490.75
325.626	360.75
325.855	318.75
326.084	300.75
326.313	299.75
326.542	292.75
326.77	319.75
326.999	365.75
327.228	516.75
327.457	730.75
327.686	856.75
327.914	531.75
328.143	402.75
328.372	357.75
328.6	318.75
328.829	320.75
329.058	321.75
329.287	327.75
329.515	313.75
329.744	286.75
329.972	302.75
330.201	314.75
330.43	315.75
330.658	314.75
330.887	327.75
331.115	330.75
331.344	285.75
331.572	278.75
331.801	300.75
332.03	278.75
332.258	274.75
332.486	271.75
332.715	268.75
332.943	255.75
333.172	272.75
333.4	273.75
333.629	275.75
333.857	287.75
334.085	300.75
334.314	283.75
334.542	298.75
334.771	308.75
334.999	300.75
335.227	282.75
335.455	271.75
335.684	274.75
335.912	282.75
336.14	279.75
336.369	285.75
336.597	257.75
336.825	255.75
337.053	262.75
337.281	272.75
337.51	278.75
337.738	290.75
337.966	287.75
338.194	267.75
338.422	280.75
338.65	273.75
338.878	261.75
339.106	240.75
339.334	267.75
339.562	255.75
339.79	271.75
340.018	274.75
340.246	272.75
340.474	256.75
340.702	257.75
340.93	257.75
341.158	269.75
341.386	259.75
341.614	274.75
341.842	280.75
342.07	282.75
342.298	245.75
342.526	245.75
342.754	264.75
342.981	261.75
343.209	273.75
343.437	242.75
343.665	258.75
343.893	266.75
344.12	269.75
344.348	279.75
344.576	266.75
344.804	274.75
345.031	282.75
345.259	255.75
345.487	276.75
345.714	290.75
345.942	253.75
346.17	261.75
346.397	271.75
346.625	254.75
346.853	254.75
347.08	252.75
347.308	269.75
347.535	259.75
347.763	253.75
347.99	274.75
348.218	254.75
348.445	265.75
348.673	267.75
348.9	253.75
349.128	257.75
349.355	254.75
349.583	250.75
349.81	251.75
350.037	247.75
350.265	256.75
350.492	260.75
350.72	261.75
350.947	254.75
351.174	277.75
351.402	252.75
351.629	270.75
351.856	247.75
352.083	260.75
352.311	232.75
352.538	273.75
352.765	274.75
352.992	267.75
353.22	250.75
353.447	261.75
353.674	252.75
353.901	263.75
354.128	254.75
354.355	255.75
354.583	228.75
354.81	242.75
355.037	231.75
355.264	238.75
355.491	236.75
355.718	237.75
355.945	248.75
356.172	245.75
356.399	254.75
356.626	250.75
356.853	244.75
357.08	253.75
357.307	254.75
357.534	258.75
357.761	254.75
357.988	237.75
358.215	244.75
358.441	244.75
358.668	258.75
358.895	243.75
359.122	268.75
359.349	236.75
359.576	245.75
359.802	287.75
360.029	289.75
360.256	286.75
360.483	285.75
360.709	258.75
360.936	254.75
361.163	260.75
361.39	235.75
361.616	258.75
361.843	260.75
362.07	270.75
362.296	268.75
362.523	267.75
362.749	262.75
362.976	254.75
363.203	264.75
363.429	241.75
363.656	273.75
363.882	247.75
364.109	257.75
364.335	252.75
364.562	248.75
364.788	260.75
365.015	256.75
365.241	259.75
365.468	258.75
365.694	246.75
365.92	245.75
366.147	250.75
366.373	262.75
366.599	260.75
366.826	235.75
367.052	244.75
367.278	256.75
367.505	254.75
367.731	249.75
367.957	256.75
368.184	262.75
368.41	258.75
368.636	261.75
368.862	265.75
369.089	263.75
369.315	261.75
369.541	246.75
369.767	255.75
369.993	262.75
370.219	268.75
370.445	267.75
370.672	256.75
370.898	260.75
371.124	255.75
371.35	255.75
371.576	262.75
371.802	258.75
372.028	256.75
372.254	259.75
372.48	264.75
372.706	268.75
372.932	273.75
373.158	254.75
373.384	276.75
373.61	261.75
373.835	261.75
374.061	258.75
374.287	258.75
374.513	257.75
374.739	271.75
374.965	258.75
375.191	255.75
375.416	273.75
375.642	260.75
375.868	284.75
376.094	262.75
376.319	272.75
376.545	258.75
376.771	272.75
376.997	253.75
377.222	251.75
377.448	267.75
377.674	268.75
377.899	247.75
378.125	266.75
378.35	241.75
378.576	244.75
378.802	261.75
379.027	244.75
379.253	259.75
379.478	254.75
379.704	276.75
379.929	262.75
380.155	260.75
380.38	277.75
380.606	254.75
380.831	240.75
381.057	263.75
381.282	272.75
381.507	257.75
381.733	289.75
381.958	264.75
382.184	271.75
382.409	281.75
382.634	286.75
382.86	285.75
383.085	279.75
383.31	275.75
383.535	274.75
383.761	281.75
383.986	298.75
384.211	276.75
384.436	271.75
384.662	284.75
384.887	285.75
385.112	286.75
385.337	272.75
385.562	279.75
385.787	289.75
386.013	293.75
386.238	301.75
386.463	285.75
386.688	279.75
386.913	282.75
387.138	283.75
387.363	281.75
387.588	285.75
387.813	289.75
388.038	292.75
388.263	293.75
388.488	291.75
388.713	283.75
388.938	296.75
389.163	296.75
389.387	292.75
389.612	278.75
389.837	276.75
390.062	265.75
390.287	285.75
390.512	272.75
390.736	272.75
390.961	273.75
391.186	267.75
391.411	281.75
391.636	276.75
391.86	284.75
392.085	300.75
392.31	308.75
392.534	277.75
392.759	277.75
392.984	285.75
393.208	300.75
393.433	316.75
393.658	310.75
393.882	284.75
394.107	284.75
394.331	302.75
394.556	295.75
394.78	294.75
395.005	286.75
395.229	304.75
395.454	304.75
395.678	315.75
395.903	305.75
396.127	308.75
396.352	312.75
396.576	296.75
396.801	295.75
397.025	309.75
397.249	319.75
397.474	301.75
397.698	303.75
397.922	326.75
398.147	312.75
398.371	311.75
398.595	318.75
398.82	308.75
399.044	304.75
399.268	337.75
399.492	343.75
399.717	341.75
399.941	367.75
400.165	374.75
400.389	375.75
400.613	351.75
400.837	350.75
401.062	300.75
401.286	334.75
401.51	319.75
401.734	314.75
401.958	334.75
402.182	315.75
402.406	308.75
402.63	319.75
402.854	321.75
403.078	314.75
403.302	337.75
403.526	339.75
403.75	325.75
403.974	334.75
404.198	334.75
404.422	330.75
404.645	336.75
404.869	327.75
405.093	342.75
405.317	364.75
405.541	375.75
405.765	372.75
405.988	357.75
406.212	344.75
406.436	357.75
406.66	356.75
406.883	362.75
407.107	376.75
407.331	393.75
407.555	416.75
407.778	443.75
408.002	382.75
408.226	356.75
408.449	349.75
408.673	355.75
408.896	392.75
409.12	408.75
409.344	375.75
409.567	352.75
409.791	328.75
410.014	345.75
410.238	347.75
410.461	345.75
410.685	344.75
410.908	351.75
411.132	370.75
411.355	394.75
411.578	396.75
411.802	343.75
412.025	330.75
412.249	367.75
412.472	355.75
412.695	378.75
412.919	369.75
413.142	335.75
413.365	344.75
413.589	347.75
413.812	326.75
414.035	337.75
414.258	340.75
414.482	316.75
414.705	322.75
414.928	318.75
415.151	309.75
415.374	329.75
415.597	313.75
415.821	291.75
416.044	305.75
416.267	311.75
416.49	307.75
416.713	306.75
416.936	312.75
417.159	320.75
417.382	296.75
417.605	336.75
417.828	335.75
418.051	326.75
418.274	320.75
418.497	314.75
418.72	319.75
418.943	303.75
419.166	333.75
419.389	340.75
419.611	336.75
419.834	368.75
420.057	315.75
420.28	326.75
420.503	330.75
420.726	352.75
420.948	337.75
421.171	354.75
421.394	382.75
421.617	348.75
421.839	335.75
422.062	329.75
422.285	341.75
422.507	374.75
422.73	418.75
422.953	398.75
423.175	371.75
423.398	336.75
423.621	342.75
423.843	362.75
424.066	341.75
424.288	333.75
424.511	376.75
424.733	388.75
424.956	413.75
425.178	430.75
425.401	405.75
425.623	432.75
425.846	374.75
426.068	356.75
426.291	346.75
426.513	355.75
426.735	348.75
426.958	381.75
427.18	428.75
427.402	518.75
427.625	564.75
427.847	492.75
428.069	428.75
428.292	372.75
428.514	350.75
428.736	329.75
428.958	352.75
429.181	308.75
429.403	317.75
429.625	309.75
429.847	342.75
430.069	376.75
430.292	383.75
430.514	363.75
430.736	328.75
430.958	323.75
431.18	327.75
431.402	306.75
431.624	317.75
431.846	316.75
432.068	315.75
432.29	312.75
432.512	326.75
432.734	317.75
432.956	324.75
433.178	322.75
433.4	311.75
433.622	328.75
433.844	331.75
434.066	321.75
434.287	323.75
434.509	319.75
434.731	336.75
434.953	343.75
435.175	345.75
435.397	323.75
435.618	350.75
435.84	367.75
436.062	449.75
436.284	458.75
436.505	402.75
436.727	343.75
436.949	335.75
437.17	324.75
437.392	321.75
437.614	345.75
437.835	351.75
438.057	415.75
438.278	455.75
438.5	474.75
438.721	489.75
438.943	487.75
439.165	411.75
439.386	368.75
439.608	379.75
439.829	359.75
440.05	378.75
440.272	391.75
440.493	385.75
440.715	331.75
440.936	334.75
441.158	355.75
441.379	332.75
441.6	364.75
441.822	368.75
442.043	382.75
442.264	426.75
442.486	444.75
442.707	399.75
442.928	348.75
443.149	351.75
443.371	378.75
443.592	400.75
443.813	446.75
444.034	498.75
444.255	403.75
444.476	384.75
444.698	351.75
444.919	345.75
445.14	453.75
445.361	413.75
445.582	369.75
445.803	442.75
446.024	479.75
446.245	473.75
446.466	437.75
446.687	409.75
446.908	359.75
447.129	342.75
447.35	338.75
447.571	350.75
447.792	339.75
448.013	332.75
448.234	353.75
448.455	362.75
448.675	440.75
448.896	517.75
449.117	449.75
449.338	416.75
449.559	465.75
449.779	546.75
450	435.75
450.221	366.75
450.442	339.75
450.662	323.75
450.883	342.75
451.104	323.75
451.324	330.75
451.545	307.75
451.766	308.75
451.986	290.75
452.207	314.75
452.428	318.75
452.648	306.75
452.869	310.75
453.089	288.75
453.31	316.75
453.53	306.75
453.751	312.75
453.971	299.75
454.192	288.75
454.412	310.75
454.633	314.75
454.853	315.75
455.073	288.75
455.294	309.75
455.514	353.75
455.734	351.75
455.955	311.75
456.175	294.75
456.395	285.75
456.616	302.75
456.836	296.75
457.056	287.75
457.276	295.75
457.497	284.75
457.717	283.75
457.937	307.75
458.157	294.75
458.377	305.75
458.598	312.75
458.818	343.75
459.038	374.75
459.258	382.75
459.478	365.75
459.698	334.75
459.918	321.75
460.138	316.75
460.358	301.75
460.578	323.75
460.798	314.75
461.018	332.75
461.238	325.75
461.458	338.75
461.678	326.75
461.898	346.75
462.118	319.75
462.338	332.75
462.558	321.75
462.777	350.75
462.997	349.75
463.217	364.75
463.437	351.75
463.657	346.75
463.876	358.75
464.096	350.75
464.316	346.75
464.536	341.75
464.755	360.75
464.975	344.75
465.195	348.75
465.414	389.75
465.634	362.75
465.854	337.75
466.073	328.75
466.293	319.75
466.512	320.75
466.732	319.75
466.951	315.75
467.171	310.75
467.391	309.75
467.61	321.75
467.829	315.75
468.049	323.75
468.268	311.75
468.488	282.75
468.707	306.75
468.927	295.75
469.146	310.75
469.365	310.75
469.585	309.75
469.804	335.75
470.023	320.75
470.243	313.75
470.462	323.75
470.681	317.75
470.901	317.75
471.12	316.75
471.339	318.75
471.558	320.75
471.777	311.75
471.997	327.75
472.216	343.75
472.435	336.75
472.654	329.75
472.873	330.75
473.092	314.75
473.311	327.75
473.53	325.75
473.749	332.75
473.968	365.75
474.187	393.75
474.406	407.75
474.625	364.75
474.844	347.75
475.063	327.75
475.282	313.75
475.501	322.75
475.72	339.75
475.939	339.75
476.158	322.75
476.377	344.75
476.596	328.75
476.814	337.75
477.033	354.75
477.252	329.75
477.471	347.75
477.69	340.75
477.908	355.75
478.127	347.75
478.346	351.75
478.564	344.75
478.783	343.75
479.002	382.75
479.22	364.75
479.439	362.75
479.658	366.75
479.876	358.75
480.095	392.75
480.313	386.75
480.532	367.75
480.751	389.75
480.969	380.75
481.188	414.75
481.406	412.75
481.624	408.75
481.843	390.75
482.061	381.75
482.28	370.75
482.498	370.75
482.717	368.75
482.935	372.75
483.153	370.75
483.372	371.75
483.59	404.75
483.808	367.75
484.027	386.75
484.245	386.75
484.463	375.75
484.681	390.75
484.9	370.75
485.118	380.75
485.336	381.75
485.554	386.75
485.772	378.75
485.99	378.75
486.209	376.75
486.427	393.75
486.645	414.75
486.863	420.75
487.081	408.75
487.299	423.75
487.517	397.75
487.735	422.75
487.953	411.75
488.171	402.75
488.389	390.75
488.607	429.75
488.825	415.75
489.043	395.75
489.261	412.75
489.479	388.75
489.696	399.75
489.914	414.75
490.132	410.75
490.35	386.75
490.568	412.75
490.786	424.75
491.003	434.75
491.221	417.75
491.439	438.75
491.657	456.75
491.874	435.75
492.092	440.75
492.31	445.75
492.527	446.75
492.745	443.75
492.963	446.75
493.18	468.75
493.398	475.75
493.615	458.75
493.833	456.75
494.05	464.75
494.268	455.75
494.485	461.75
494.703	461.75
494.92	466.75
495.138	431.75
495.355	450.75
495.573	461.75
495.79	462.75
496.008	490.75
496.225	461.75
496.442	467.75
496.66	484.75
496.877	469.75
497.094	486.75
497.312	507.75
497.529	466.75
497.746	483.75
497.963	493.75
498.181	516.75
498.398	507.75
498.615	526.75
498.832	527.75
499.049	566.75
499.267	530.75
499.484	574.75
499.701	576.75
499.918	580.75
500.135	587.75
500.352	619.75
500.569	619.75
500.786	624.75
501.003	609.75
501.22	603.75
501.437	603.75
501.654	558.75
501.871	574.75
502.088	570.75
502.305	539.75
502.522	542.75
