Data from 1961.PennyLincolnUp.Lamp.En5.5.200Scan.071719.P1._HRD10591_13-48-44-058.txt Node
Date: Thu Jul 18 13:48:44 EDT 2019
User: cochatt
Spectrometer: HR+D1059
Trigger mode: 1
Integration Time (sec): 1.000000E-1
Scans to average: 1
Electric dark correction enabled: true
Nonlinearity correction enabled: false
Boxcar width: 0
XAxis mode: Wavelengths
Number of Pixels in Spectrum: 2048
>>>>>Begin Spectral Data<<<<<
223.165	-13.56
223.4	-13.56
223.635	-13.56
223.869	-16.56
224.104	-22.56
224.338	-17.56
224.573	-18.56
224.808	-9.56
225.042	-0.56
225.277	-10.56
225.511	-9.56
225.746	-1.56
225.98	7.44
226.215	9.44
226.449	28.44
226.683	11.44
226.918	27.44
227.152	36.44
227.387	35.44
227.621	38.44
227.856	31.44
228.09	38.44
228.324	38.44
228.559	50.44
228.793	70.44
229.027	95.44
229.262	100.44
229.496	105.44
229.73	133.44
229.964	137.44
230.199	122.44
230.433	110.44
230.667	117.44
230.901	91.44
231.136	105.44
231.37	105.44
231.604	105.44
231.838	109.44
232.072	118.44
232.306	115.44
232.541	111.44
232.775	106.44
233.009	108.44
233.243	107.44
233.477	114.44
233.711	106.44
233.945	91.44
234.179	109.44
234.413	119.44
234.647	98.44
234.881	114.44
235.115	106.44
235.349	120.44
235.583	115.44
235.817	112.44
236.051	109.44
236.285	109.44
236.519	118.44
236.753	111.44
236.987	137.44
237.221	173.44
237.455	214.44
237.689	180.44
237.922	134.44
238.156	123.44
238.39	133.44
238.624	126.44
238.858	117.44
239.091	121.44
239.325	102.44
239.559	117.44
239.793	105.44
240.027	127.44
240.26	141.44
240.494	129.44
240.728	137.44
240.961	128.44
241.195	137.44
241.429	131.44
241.662	135.44
241.896	110.44
242.13	111.44
242.363	116.44
242.597	126.44
242.83	126.44
243.064	120.44
243.298	122.44
243.531	125.44
243.765	123.44
243.998	116.44
244.232	119.44
244.465	129.44
244.699	128.44
244.932	145.44
245.166	127.44
245.399	137.44
245.633	127.44
245.866	125.44
246.099	125.44
246.333	140.44
246.566	132.44
246.8	133.44
247.033	138.44
247.266	133.44
247.5	139.44
247.733	131.44
247.966	126.44
248.2	149.44
248.433	158.44
248.666	157.44
248.899	159.44
249.133	179.44
249.366	199.44
249.599	177.44
249.832	161.44
250.066	136.44
250.299	162.44
250.532	178.44
250.765	179.44
250.998	199.44
251.231	198.44
251.465	178.44
251.698	185.44
251.931	184.44
252.164	161.44
252.397	160.44
252.63	166.44
252.863	168.44
253.096	207.44
253.329	177.44
253.562	194.44
253.795	197.44
254.028	194.44
254.261	185.44
254.494	203.44
254.727	225.44
254.96	253.44
255.193	236.44
255.426	216.44
255.659	203.44
255.892	192.44
256.124	204.44
256.357	218.44
256.59	192.44
256.823	206.44
257.056	198.44
257.289	186.44
257.521	167.44
257.754	184.44
257.987	171.44
258.22	177.44
258.452	181.44
258.685	175.44
258.918	187.44
259.151	190.44
259.383	163.44
259.616	198.44
259.849	185.44
260.081	192.44
260.314	223.44
260.547	218.44
260.779	220.44
261.012	202.44
261.244	207.44
261.477	191.44
261.71	182.44
261.942	188.44
262.175	203.44
262.407	204.44
262.64	179.44
262.872	189.44
263.105	194.44
263.337	194.44
263.57	185.44
263.802	190.44
264.035	177.44
264.267	177.44
264.499	169.44
264.732	193.44
264.964	197.44
265.197	180.44
265.429	171.44
265.661	189.44
265.894	186.44
266.126	175.44
266.358	179.44
266.591	192.44
266.823	171.44
267.055	181.44
267.287	195.44
267.52	188.44
267.752	175.44
267.984	188.44
268.216	194.44
268.448	191.44
268.681	206.44
268.913	203.44
269.145	210.44
269.377	243.44
269.609	223.44
269.841	240.44
270.073	227.44
270.306	261.44
270.538	273.44
270.77	266.44
271.002	262.44
271.234	244.44
271.466	234.44
271.698	253.44
271.93	272.44
272.162	258.44
272.394	276.44
272.626	264.44
272.858	244.44
273.09	235.44
273.322	221.44
273.553	244.44
273.785	233.44
274.017	224.44
274.249	222.44
274.481	223.44
274.713	238.44
274.945	234.44
275.176	233.44
275.408	215.44
275.64	225.44
275.872	208.44
276.104	214.44
276.335	227.44
276.567	222.44
276.799	227.44
277.031	270.44
277.262	280.44
277.494	258.44
277.726	245.44
277.957	265.44
278.189	242.44
278.421	237.44
278.652	219.44
278.884	230.44
279.115	224.44
279.347	215.44
279.579	207.44
279.81	219.44
280.042	213.44
280.273	233.44
280.505	237.44
280.736	229.44
280.968	237.44
281.199	234.44
281.431	211.44
281.662	224.44
281.894	233.44
282.125	237.44
282.356	245.44
282.588	254.44
282.819	249.44
283.051	238.44
283.282	223.44
283.513	219.44
283.745	251.44
283.976	229.44
284.207	233.44
284.439	244.44
284.67	229.44
284.901	237.44
285.132	239.44
285.364	212.44
285.595	230.44
285.826	229.44
286.057	254.44
286.288	226.44
286.52	229.44
286.751	248.44
286.982	232.44
287.213	238.44
287.444	229.44
287.675	237.44
287.906	239.44
288.138	236.44
288.369	263.44
288.6	265.44
288.831	239.44
289.062	237.44
289.293	243.44
289.524	225.44
289.755	244.44
289.986	229.44
290.217	228.44
290.448	241.44
290.679	240.44
290.91	228.44
291.141	232.44
291.371	233.44
291.602	249.44
291.833	224.44
292.064	234.44
292.295	243.44
292.526	240.44
292.757	237.44
292.987	236.44
293.218	230.44
293.449	245.44
293.68	239.44
293.91	247.44
294.141	237.44
294.372	239.44
294.603	220.44
294.833	240.44
295.064	231.44
295.295	234.44
295.525	258.44
295.756	265.44
295.987	253.44
296.217	277.44
296.448	281.44
296.679	263.44
296.909	238.44
297.14	253.44
297.37	267.44
297.601	254.44
297.831	254.44
298.062	245.44
298.292	257.44
298.523	243.44
298.753	261.44
298.984	243.44
299.214	257.44
299.445	269.44
299.675	258.44
299.905	249.44
300.136	256.44
300.366	265.44
300.597	258.44
300.827	256.44
301.057	258.44
301.288	278.44
301.518	272.44
301.748	266.44
301.979	280.44
302.209	274.44
302.439	266.44
302.669	261.44
302.9	257.44
303.13	256.44
303.36	276.44
303.59	280.44
303.82	265.44
304.051	260.44
304.281	284.44
304.511	281.44
304.741	266.44
304.971	271.44
305.201	279.44
305.431	272.44
305.661	262.44
305.891	283.44
306.121	281.44
306.352	271.44
306.582	295.44
306.812	273.44
307.042	261.44
307.272	274.44
307.502	272.44
307.731	285.44
307.961	285.44
308.191	264.44
308.421	277.44
308.651	266.44
308.881	291.44
309.111	283.44
309.341	293.44
309.571	309.44
309.8	298.44
310.03	311.44
310.26	337.44
310.49	328.44
310.72	328.44
310.949	329.44
311.179	363.44
311.409	330.44
311.639	325.44
311.868	327.44
312.098	322.44
312.328	333.44
312.557	357.44
312.787	340.44
313.017	343.44
313.246	326.44
313.476	335.44
313.706	319.44
313.935	328.44
314.165	342.44
314.394	352.44
314.624	321.44
314.853	350.44
315.083	337.44
315.312	336.44
315.542	296.44
315.771	312.44
316.001	303.44
316.23	331.44
316.46	306.44
316.689	314.44
316.919	331.44
317.148	341.44
317.377	328.44
317.607	340.44
317.836	342.44
318.065	327.44
318.295	316.44
318.524	331.44
318.753	335.44
318.983	319.44
319.212	322.44
319.441	340.44
319.67	342.44
319.9	318.44
320.129	323.44
320.358	338.44
320.587	334.44
320.816	341.44
321.046	331.44
321.275	370.44
321.504	337.44
321.733	349.44
321.962	369.44
322.191	365.44
322.42	388.44
322.649	406.44
322.878	403.44
323.108	419.44
323.337	460.44
323.566	479.44
323.795	527.44
324.024	559.44
324.253	718.44
324.482	1046.44
324.71	1645.44
324.939	2301.44
325.168	1894.44
325.397	977.44
325.626	642.44
325.855	524.44
326.084	471.44
326.313	485.44
326.542	478.44
326.77	545.44
326.999	668.44
327.228	920.44
327.457	1434.44
327.686	1691.44
327.914	1148.44
328.143	697.44
328.372	637.44
328.6	593.44
328.829	563.44
329.058	555.44
329.287	554.44
329.515	519.44
329.744	490.44
329.972	473.44
330.201	503.44
330.43	555.44
330.658	566.44
330.887	591.44
331.115	561.44
331.344	484.44
331.572	445.44
331.801	450.44
332.03	438.44
332.258	423.44
332.486	399.44
332.715	395.44
332.943	393.44
333.172	405.44
333.4	390.44
333.629	397.44
333.857	410.44
334.085	415.44
334.314	451.44
334.542	486.44
334.771	490.44
334.999	448.44
335.227	405.44
335.455	389.44
335.684	386.44
335.912	395.44
336.14	377.44
336.369	377.44
336.597	371.44
336.825	384.44
337.053	365.44
337.281	367.44
337.51	365.44
337.738	368.44
337.966	365.44
338.194	395.44
338.422	387.44
338.65	367.44
338.878	379.44
339.106	376.44
339.334	361.44
339.562	363.44
339.79	366.44
340.018	360.44
340.246	338.44
340.474	381.44
340.702	354.44
340.93	368.44
341.158	356.44
341.386	377.44
341.614	369.44
341.842	382.44
342.07	374.44
342.298	367.44
342.526	354.44
342.754	356.44
342.981	353.44
343.209	342.44
343.437	357.44
343.665	346.44
343.893	360.44
344.12	355.44
344.348	361.44
344.576	355.44
344.804	382.44
345.031	373.44
345.259	379.44
345.487	387.44
345.714	386.44
345.942	345.44
346.17	365.44
346.397	349.44
346.625	338.44
346.853	342.44
347.08	359.44
347.308	346.44
347.535	366.44
347.763	392.44
347.99	370.44
348.218	368.44
348.445	391.44
348.673	344.44
348.9	364.44
349.128	354.44
349.355	360.44
349.583	349.44
349.81	346.44
350.037	330.44
350.265	346.44
350.492	344.44
350.72	341.44
350.947	353.44
351.174	359.44
351.402	362.44
351.629	376.44
351.856	342.44
352.083	360.44
352.311	367.44
352.538	377.44
352.765	377.44
352.992	358.44
353.22	344.44
353.447	337.44
353.674	359.44
353.901	339.44
354.128	340.44
354.355	325.44
354.583	346.44
354.81	332.44
355.037	321.44
355.264	305.44
355.491	310.44
355.718	318.44
355.945	326.44
356.172	336.44
356.399	306.44
356.626	315.44
356.853	320.44
357.08	324.44
357.307	330.44
357.534	334.44
357.761	304.44
357.988	301.44
358.215	312.44
358.441	325.44
358.668	316.44
358.895	328.44
359.122	331.44
359.349	335.44
359.576	369.44
359.802	379.44
360.029	411.44
360.256	428.44
360.483	391.44
360.709	358.44
360.936	360.44
361.163	362.44
361.39	353.44
361.616	355.44
361.843	361.44
362.07	349.44
362.296	360.44
362.523	350.44
362.749	351.44
362.976	340.44
363.203	346.44
363.429	340.44
363.656	344.44
363.882	335.44
364.109	339.44
364.335	330.44
364.562	333.44
364.788	334.44
365.015	339.44
365.241	323.44
365.468	337.44
365.694	361.44
365.92	347.44
366.147	325.44
366.373	340.44
366.599	337.44
366.826	342.44
367.052	331.44
367.278	324.44
367.505	319.44
367.731	334.44
367.957	329.44
368.184	342.44
368.41	362.44
368.636	345.44
368.862	340.44
369.089	337.44
369.315	321.44
369.541	329.44
369.767	334.44
369.993	325.44
370.219	343.44
370.445	346.44
370.672	341.44
370.898	320.44
371.124	325.44
371.35	329.44
371.576	310.44
371.802	341.44
372.028	325.44
372.254	295.44
372.48	327.44
372.706	331.44
372.932	319.44
373.158	325.44
373.384	323.44
373.61	365.44
373.835	315.44
374.061	338.44
374.287	342.44
374.513	356.44
374.739	333.44
374.965	318.44
375.191	317.44
375.416	330.44
375.642	351.44
375.868	333.44
376.094	328.44
376.319	328.44
376.545	331.44
376.771	321.44
376.997	340.44
377.222	322.44
377.448	325.44
377.674	337.44
377.899	330.44
378.125	328.44
378.35	339.44
378.576	337.44
378.802	312.44
379.027	314.44
379.253	342.44
379.478	335.44
379.704	337.44
379.929	320.44
380.155	331.44
380.38	333.44
380.606	308.44
380.831	326.44
381.057	330.44
381.282	351.44
381.507	313.44
381.733	337.44
381.958	326.44
382.184	341.44
382.409	338.44
382.634	329.44
382.86	342.44
383.085	335.44
383.31	341.44
383.535	345.44
383.761	340.44
383.986	314.44
384.211	338.44
384.436	330.44
384.662	340.44
384.887	358.44
385.112	358.44
385.337	350.44
385.562	342.44
385.787	343.44
386.013	381.44
386.238	372.44
386.463	354.44
386.688	358.44
386.913	337.44
387.138	339.44
387.363	360.44
387.588	353.44
387.813	341.44
388.038	354.44
388.263	352.44
388.488	358.44
388.713	357.44
388.938	338.44
389.163	365.44
389.387	355.44
389.612	375.44
389.837	343.44
390.062	369.44
390.287	349.44
390.512	339.44
390.736	351.44
390.961	356.44
391.186	343.44
391.411	341.44
391.636	340.44
391.86	364.44
392.085	347.44
392.31	345.44
392.534	358.44
392.759	374.44
392.984	355.44
393.208	345.44
393.433	358.44
393.658	372.44
393.882	349.44
394.107	368.44
394.331	337.44
394.556	363.44
394.78	349.44
395.005	347.44
395.229	370.44
395.454	352.44
395.678	360.44
395.903	371.44
396.127	403.44
396.352	379.44
396.576	371.44
396.801	367.44
397.025	356.44
397.249	377.44
397.474	386.44
397.698	365.44
397.922	394.44
398.147	389.44
398.371	415.44
398.595	385.44
398.82	391.44
399.044	396.44
399.268	406.44
399.492	414.44
399.717	435.44
399.941	459.44
400.165	468.44
400.389	500.44
400.613	458.44
400.837	432.44
401.062	414.44
401.286	416.44
401.51	405.44
401.734	410.44
401.958	385.44
402.182	415.44
402.406	430.44
402.63	424.44
402.854	407.44
403.078	413.44
403.302	407.44
403.526	424.44
403.75	421.44
403.974	415.44
404.198	421.44
404.422	423.44
404.645	425.44
404.869	436.44
405.093	459.44
405.317	488.44
405.541	523.44
405.765	464.44
405.988	435.44
406.212	458.44
406.436	464.44
406.66	486.44
406.883	475.44
407.107	469.44
407.331	505.44
407.555	563.44
407.778	540.44
408.002	505.44
408.226	467.44
408.449	461.44
408.673	461.44
408.896	484.44
409.12	506.44
409.344	489.44
409.567	450.44
409.791	420.44
410.014	416.44
410.238	421.44
410.461	422.44
410.685	434.44
410.908	415.44
411.132	464.44
411.355	510.44
411.578	471.44
411.802	443.44
412.025	421.44
412.249	425.44
412.472	450.44
412.695	495.44
412.919	463.44
413.142	439.44
413.365	428.44
413.589	407.44
413.812	407.44
414.035	409.44
414.258	375.44
414.482	396.44
414.705	375.44
414.928	400.44
415.151	391.44
415.374	390.44
415.597	410.44
415.821	390.44
416.044	402.44
416.267	373.44
416.49	415.44
416.713	378.44
416.936	401.44
417.159	404.44
417.382	383.44
417.605	405.44
417.828	410.44
418.051	415.44
418.274	403.44
418.497	400.44
418.72	396.44
418.943	399.44
419.166	415.44
419.389	417.44
419.611	435.44
419.834	420.44
420.057	422.44
420.28	441.44
420.503	416.44
420.726	431.44
420.948	435.44
421.171	477.44
421.394	481.44
421.617	442.44
421.839	439.44
422.062	416.44
422.285	462.44
422.507	474.44
422.73	534.44
422.953	530.44
423.175	470.44
423.398	427.44
423.621	446.44
423.843	471.44
424.066	449.44
424.288	465.44
424.511	480.44
424.733	514.44
424.956	583.44
425.178	582.44
425.401	557.44
425.623	598.44
425.846	487.44
426.068	474.44
426.291	455.44
426.513	479.44
426.735	474.44
426.958	518.44
427.18	579.44
427.402	696.44
427.625	781.44
427.847	699.44
428.069	594.44
428.292	522.44
428.514	472.44
428.736	466.44
428.958	447.44
429.181	438.44
429.403	439.44
429.625	431.44
429.847	493.44
430.069	543.44
430.292	529.44
430.514	446.44
430.736	432.44
430.958	422.44
431.18	409.44
431.402	387.44
431.624	380.44
431.846	394.44
432.068	396.44
432.29	406.44
432.512	387.44
432.734	397.44
432.956	416.44
433.178	427.44
433.4	425.44
433.622	429.44
433.844	400.44
434.066	387.44
434.287	395.44
434.509	400.44
434.731	423.44
434.953	407.44
435.175	415.44
435.397	462.44
435.618	461.44
435.84	523.44
436.062	595.44
436.284	652.44
436.505	514.44
436.727	478.44
436.949	448.44
437.17	444.44
437.392	458.44
437.614	466.44
437.835	493.44
438.057	571.44
438.278	644.44
438.5	651.44
438.721	708.44
438.943	651.44
439.165	554.44
439.386	513.44
439.608	479.44
439.829	474.44
440.05	506.44
440.272	559.44
440.493	526.44
440.715	478.44
440.936	454.44
441.158	434.44
441.379	437.44
441.6	486.44
441.822	478.44
442.043	505.44
442.264	585.44
442.486	604.44
442.707	520.44
442.928	510.44
443.149	511.44
443.371	513.44
443.592	546.44
443.813	605.44
444.034	671.44
444.255	565.44
444.476	503.44
444.698	467.44
444.919	473.44
445.14	561.44
445.361	533.44
445.582	534.44
445.803	581.44
446.024	661.44
446.245	683.44
446.466	610.44
446.687	519.44
446.908	484.44
447.129	455.44
447.35	443.44
447.571	434.44
447.792	440.44
448.013	436.44
448.234	445.44
448.455	513.44
448.675	600.44
448.896	713.44
449.117	599.44
449.338	552.44
449.559	664.44
449.779	736.44
450	572.44
450.221	514.44
450.442	457.44
450.662	443.44
450.883	452.44
451.104	467.44
451.324	451.44
451.545	413.44
451.766	412.44
451.986	400.44
452.207	393.44
452.428	392.44
452.648	386.44
452.869	413.44
453.089	414.44
453.31	413.44
453.53	391.44
453.751	388.44
453.971	409.44
454.192	411.44
454.412	415.44
454.633	387.44
454.853	391.44
455.073	418.44
455.294	447.44
455.514	495.44
455.734	469.44
455.955	412.44
456.175	386.44
456.395	374.44
456.616	370.44
456.836	365.44
457.056	361.44
457.276	361.44
457.497	371.44
457.717	369.44
457.937	387.44
458.157	365.44
458.377	388.44
458.598	399.44
458.818	482.44
459.038	552.44
459.258	546.44
459.478	451.44
459.698	432.44
459.918	388.44
460.138	409.44
460.358	389.44
460.578	412.44
460.798	413.44
461.018	393.44
461.238	402.44
461.458	400.44
461.678	394.44
461.898	405.44
462.118	383.44
462.338	411.44
462.558	413.44
462.777	416.44
462.997	402.44
463.217	382.44
463.437	422.44
463.657	408.44
463.876	412.44
464.096	415.44
464.316	433.44
464.536	435.44
464.755	456.44
464.975	415.44
465.195	477.44
465.414	577.44
465.634	519.44
465.854	445.44
466.073	420.44
466.293	393.44
466.512	408.44
466.732	407.44
466.951	385.44
467.171	387.44
467.391	396.44
467.61	409.44
467.829	406.44
468.049	423.44
468.268	423.44
468.488	392.44
468.707	396.44
468.927	380.44
469.146	386.44
469.365	381.44
469.585	387.44
469.804	384.44
470.023	393.44
470.243	400.44
470.462	407.44
470.681	438.44
470.901	437.44
471.12	407.44
471.339	402.44
471.558	410.44
471.777	407.44
471.997	409.44
472.216	414.44
472.435	462.44
472.654	448.44
472.873	432.44
473.092	418.44
473.311	393.44
473.53	403.44
473.749	408.44
473.968	460.44
474.187	558.44
474.406	565.44
474.625	464.44
474.844	421.44
475.063	410.44
475.282	417.44
475.501	420.44
475.72	401.44
475.939	406.44
476.158	413.44
476.377	421.44
476.596	406.44
476.814	437.44
477.033	431.44
477.252	437.44
477.471	421.44
477.69	445.44
477.908	422.44
478.127	465.44
478.346	434.44
478.564	444.44
478.783	443.44
479.002	446.44
479.22	459.44
479.439	475.44
479.658	483.44
479.876	493.44
480.095	496.44
480.313	529.44
480.532	493.44
480.751	495.44
480.969	510.44
481.188	570.44
481.406	634.44
481.624	550.44
481.843	521.44
482.061	499.44
482.28	480.44
482.498	487.44
482.717	470.44
482.935	498.44
483.153	474.44
483.372	486.44
483.59	459.44
483.808	485.44
484.027	469.44
484.245	479.44
484.463	498.44
484.681	479.44
484.9	489.44
485.118	483.44
485.336	480.44
485.554	477.44
485.772	493.44
485.99	485.44
486.209	496.44
486.427	487.44
486.645	498.44
486.863	527.44
487.081	513.44
487.299	518.44
487.517	541.44
487.735	522.44
487.953	526.44
488.171	494.44
488.389	503.44
488.607	514.44
488.825	494.44
489.043	513.44
489.261	519.44
489.479	523.44
489.696	529.44
489.914	540.44
490.132	536.44
490.35	535.44
490.568	553.44
490.786	544.44
491.003	546.44
491.221	571.44
491.439	545.44
491.657	586.44
491.874	595.44
492.092	563.44
492.31	573.44
492.527	596.44
492.745	583.44
492.963	580.44
493.18	581.44
493.398	596.44
493.615	619.44
493.833	606.44
494.05	591.44
494.268	574.44
494.485	588.44
494.703	605.44
494.92	606.44
495.138	597.44
495.355	609.44
495.573	627.44
495.79	597.44
496.008	607.44
496.225	586.44
496.442	621.44
496.66	629.44
496.877	597.44
497.094	616.44
497.312	610.44
497.529	625.44
497.746	632.44
497.963	631.44
498.181	644.44
498.398	662.44
498.615	666.44
498.832	679.44
499.049	675.44
499.267	675.44
499.484	690.44
499.701	721.44
499.918	714.44
500.135	743.44
500.352	758.44
500.569	789.44
500.786	767.44
501.003	745.44
501.22	775.44
501.437	733.44
501.654	729.44
501.871	721.44
