Data from 1961.PennyLincolnUp.Lamp.En5.5.200Scan.071719.P1._HRD10591_13-46-56-059.txt Node
Date: Thu Jul 18 13:46:56 EDT 2019
User: cochatt
Spectrometer: HR+D1059
Trigger mode: 1
Integration Time (sec): 1.000000E-1
Scans to average: 1
Electric dark correction enabled: true
Nonlinearity correction enabled: false
Boxcar width: 0
XAxis mode: Wavelengths
Number of Pixels in Spectrum: 2048
>>>>>Begin Spectral Data<<<<<
223.165	-15.75
223.4	-15.75
223.635	-15.75
223.869	-25.75
224.104	-21.75
224.338	-2.75
224.573	-6.75
224.808	-25.75
225.042	-2.75
225.277	-0.75
225.511	1.25
225.746	5.25
225.98	4.25
226.215	4.25
226.449	15.25
226.683	17.25
226.918	30.25
227.152	24.25
227.387	29.25
227.621	38.25
227.856	50.25
228.09	42.25
228.324	52.25
228.559	45.25
228.793	54.25
229.027	85.25
229.262	103.25
229.496	96.25
229.73	110.25
229.964	133.25
230.199	121.25
230.433	105.25
230.667	106.25
230.901	124.25
231.136	87.25
231.37	95.25
231.604	102.25
231.838	103.25
232.072	111.25
232.306	106.25
232.541	106.25
232.775	111.25
233.009	104.25
233.243	102.25
233.477	109.25
233.711	98.25
233.945	98.25
234.179	97.25
234.413	110.25
234.647	90.25
234.881	112.25
235.115	104.25
235.349	104.25
235.583	111.25
235.817	93.25
236.051	114.25
236.285	101.25
236.519	107.25
236.753	121.25
236.987	125.25
237.221	139.25
237.455	196.25
237.689	147.25
237.922	122.25
238.156	105.25
238.39	117.25
238.624	113.25
238.858	94.25
239.091	91.25
239.325	95.25
239.559	110.25
239.793	102.25
240.027	111.25
240.26	113.25
240.494	129.25
240.728	111.25
240.961	129.25
241.195	133.25
241.429	115.25
241.662	119.25
241.896	108.25
242.13	115.25
242.363	117.25
242.597	106.25
242.83	125.25
243.064	115.25
243.298	123.25
243.531	120.25
243.765	105.25
243.998	95.25
244.232	118.25
244.465	116.25
244.699	119.25
244.932	123.25
245.166	125.25
245.399	115.25
245.633	125.25
245.866	109.25
246.099	101.25
246.333	117.25
246.566	121.25
246.8	110.25
247.033	125.25
247.266	123.25
247.5	134.25
247.733	137.25
247.966	131.25
248.2	144.25
248.433	136.25
248.666	136.25
248.899	144.25
249.133	158.25
249.366	174.25
249.599	157.25
249.832	142.25
250.066	142.25
250.299	147.25
250.532	155.25
250.765	155.25
250.998	164.25
251.231	179.25
251.465	175.25
251.698	172.25
251.931	166.25
252.164	161.25
252.397	153.25
252.63	150.25
252.863	147.25
253.096	181.25
253.329	162.25
253.562	179.25
253.795	162.25
254.028	186.25
254.261	165.25
254.494	170.25
254.727	208.25
254.96	218.25
255.193	191.25
255.426	181.25
255.659	177.25
255.892	177.25
256.124	175.25
256.357	181.25
256.59	177.25
256.823	159.25
257.056	166.25
257.289	169.25
257.521	165.25
257.754	185.25
257.987	157.25
258.22	154.25
258.452	148.25
258.685	155.25
258.918	149.25
259.151	166.25
259.383	166.25
259.616	150.25
259.849	157.25
260.081	177.25
260.314	196.25
260.547	197.25
260.779	199.25
261.012	179.25
261.244	159.25
261.477	160.25
261.71	150.25
261.942	181.25
262.175	181.25
262.407	179.25
262.64	169.25
262.872	166.25
263.105	185.25
263.337	169.25
263.57	157.25
263.802	176.25
264.035	162.25
264.267	163.25
264.499	153.25
264.732	175.25
264.964	184.25
265.197	170.25
265.429	161.25
265.661	157.25
265.894	186.25
266.126	169.25
266.358	161.25
266.591	167.25
266.823	177.25
267.055	165.25
267.287	171.25
267.52	173.25
267.752	165.25
267.984	190.25
268.216	175.25
268.448	191.25
268.681	172.25
268.913	166.25
269.145	199.25
269.377	199.25
269.609	187.25
269.841	202.25
270.073	202.25
270.306	206.25
270.538	236.25
270.77	226.25
271.002	240.25
271.234	226.25
271.466	219.25
271.698	207.25
271.93	228.25
272.162	243.25
272.394	228.25
272.626	217.25
272.858	210.25
273.09	197.25
273.322	207.25
273.553	193.25
273.785	199.25
274.017	193.25
274.249	209.25
274.481	205.25
274.713	202.25
274.945	207.25
275.176	187.25
275.408	198.25
275.64	199.25
275.872	190.25
276.104	183.25
276.335	199.25
276.567	223.25
276.799	209.25
277.031	225.25
277.262	241.25
277.494	224.25
277.726	219.25
277.957	226.25
278.189	197.25
278.421	194.25
278.652	178.25
278.884	202.25
279.115	205.25
279.347	194.25
279.579	198.25
279.81	215.25
280.042	202.25
280.273	190.25
280.505	209.25
280.736	191.25
280.968	189.25
281.199	195.25
281.431	207.25
281.662	202.25
281.894	193.25
282.125	213.25
282.356	219.25
282.588	226.25
282.819	213.25
283.051	195.25
283.282	203.25
283.513	212.25
283.745	195.25
283.976	193.25
284.207	208.25
284.439	223.25
284.67	217.25
284.901	185.25
285.132	197.25
285.364	197.25
285.595	221.25
285.826	195.25
286.057	203.25
286.288	216.25
286.52	222.25
286.751	214.25
286.982	203.25
287.213	198.25
287.444	224.25
287.675	228.25
287.906	225.25
288.138	223.25
288.369	225.25
288.6	213.25
288.831	220.25
289.062	214.25
289.293	203.25
289.524	216.25
289.755	202.25
289.986	202.25
290.217	203.25
290.448	214.25
290.679	209.25
290.91	200.25
291.141	230.25
291.371	221.25
291.602	225.25
291.833	225.25
292.064	223.25
292.295	200.25
292.526	210.25
292.757	223.25
292.987	212.25
293.218	233.25
293.449	219.25
293.68	204.25
293.91	223.25
294.141	209.25
294.372	212.25
294.603	206.25
294.833	226.25
295.064	217.25
295.295	225.25
295.525	217.25
295.756	225.25
295.987	243.25
296.217	252.25
296.448	261.25
296.679	216.25
296.909	232.25
297.14	224.25
297.37	234.25
297.601	230.25
297.831	223.25
298.062	227.25
298.292	223.25
298.523	243.25
298.753	220.25
298.984	239.25
299.214	239.25
299.445	239.25
299.675	225.25
299.905	221.25
300.136	220.25
300.366	221.25
300.597	227.25
300.827	212.25
301.057	223.25
301.288	245.25
301.518	232.25
301.748	233.25
301.979	235.25
302.209	237.25
302.439	218.25
302.669	230.25
302.9	253.25
303.13	249.25
303.36	239.25
303.59	241.25
303.82	259.25
304.051	237.25
304.281	248.25
304.511	237.25
304.741	240.25
304.971	231.25
305.201	218.25
305.431	231.25
305.661	239.25
305.891	224.25
306.121	249.25
306.352	264.25
306.582	246.25
306.812	246.25
307.042	243.25
307.272	241.25
307.502	262.25
307.731	241.25
307.961	259.25
308.191	253.25
308.421	246.25
308.651	255.25
308.881	251.25
309.111	249.25
309.341	245.25
309.571	265.25
309.8	263.25
310.03	260.25
310.26	291.25
310.49	282.25
310.72	290.25
310.949	303.25
311.179	295.25
311.409	297.25
311.639	292.25
311.868	273.25
312.098	286.25
312.328	285.25
312.557	283.25
312.787	297.25
313.017	311.25
313.246	299.25
313.476	273.25
313.706	270.25
313.935	290.25
314.165	292.25
314.394	311.25
314.624	318.25
314.853	292.25
315.083	288.25
315.312	272.25
315.542	294.25
315.771	265.25
316.001	287.25
316.23	280.25
316.46	270.25
316.689	276.25
316.919	289.25
317.148	280.25
317.377	291.25
317.607	278.25
317.836	296.25
318.065	291.25
318.295	293.25
318.524	288.25
318.753	281.25
318.983	281.25
319.212	288.25
319.441	282.25
319.67	296.25
319.9	279.25
320.129	286.25
320.358	290.25
320.587	281.25
320.816	288.25
321.046	291.25
321.275	305.25
321.504	304.25
321.733	297.25
321.962	303.25
322.191	333.25
322.42	328.25
322.649	333.25
322.878	356.25
323.108	347.25
323.337	378.25
323.566	383.25
323.795	417.25
324.024	454.25
324.253	547.25
324.482	785.25
324.71	1209.25
324.939	1716.25
325.168	1467.25
325.397	757.25
325.626	541.25
325.855	447.25
326.084	417.25
326.313	388.25
326.542	397.25
326.77	449.25
326.999	533.25
327.228	745.25
327.457	1094.25
327.686	1243.25
327.914	866.25
328.143	570.25
328.372	518.25
328.6	469.25
328.829	445.25
329.058	458.25
329.287	458.25
329.515	415.25
329.744	415.25
329.972	407.25
330.201	421.25
330.43	453.25
330.658	465.25
330.887	470.25
331.115	460.25
331.344	397.25
331.572	376.25
331.801	383.25
332.03	379.25
332.258	367.25
332.486	344.25
332.715	342.25
332.943	339.25
333.172	352.25
333.4	321.25
333.629	346.25
333.857	357.25
334.085	367.25
334.314	384.25
334.542	392.25
334.771	427.25
334.999	383.25
335.227	353.25
335.455	349.25
335.684	358.25
335.912	324.25
336.14	325.25
336.369	343.25
336.597	335.25
336.825	342.25
337.053	326.25
337.281	322.25
337.51	329.25
337.738	328.25
337.966	325.25
338.194	335.25
338.422	344.25
338.65	325.25
338.878	314.25
339.106	330.25
339.334	320.25
339.562	323.25
339.79	308.25
340.018	315.25
340.246	325.25
340.474	328.25
340.702	323.25
340.93	309.25
341.158	337.25
341.386	347.25
341.614	319.25
341.842	313.25
342.07	295.25
342.298	299.25
342.526	286.25
342.754	323.25
342.981	301.25
343.209	319.25
343.437	301.25
343.665	314.25
343.893	317.25
344.12	309.25
344.348	321.25
344.576	321.25
344.804	332.25
345.031	326.25
345.259	343.25
345.487	334.25
345.714	326.25
345.942	318.25
346.17	315.25
346.397	318.25
346.625	317.25
346.853	306.25
347.08	310.25
347.308	324.25
347.535	333.25
347.763	343.25
347.99	320.25
348.218	310.25
348.445	327.25
348.673	330.25
348.9	303.25
349.128	318.25
349.355	281.25
349.583	305.25
349.81	299.25
350.037	305.25
350.265	306.25
350.492	298.25
350.72	299.25
350.947	312.25
351.174	296.25
351.402	325.25
351.629	321.25
351.856	318.25
352.083	305.25
352.311	334.25
352.538	326.25
352.765	329.25
352.992	331.25
353.22	314.25
353.447	306.25
353.674	307.25
353.901	314.25
354.128	303.25
354.355	284.25
354.583	295.25
354.81	300.25
355.037	296.25
355.264	289.25
355.491	296.25
355.718	294.25
355.945	298.25
356.172	284.25
356.399	305.25
356.626	301.25
356.853	309.25
357.08	302.25
357.307	290.25
357.534	294.25
357.761	280.25
357.988	297.25
358.215	305.25
358.441	292.25
358.668	303.25
358.895	301.25
359.122	299.25
359.349	321.25
359.576	301.25
359.802	348.25
360.029	351.25
360.256	354.25
360.483	352.25
360.709	319.25
360.936	320.25
361.163	303.25
361.39	332.25
361.616	298.25
361.843	325.25
362.07	307.25
362.296	307.25
362.523	306.25
362.749	322.25
362.976	285.25
363.203	318.25
363.429	295.25
363.656	293.25
363.882	309.25
364.109	295.25
364.335	289.25
364.562	293.25
364.788	304.25
365.015	289.25
365.241	288.25
365.468	313.25
365.694	309.25
365.92	295.25
366.147	290.25
366.373	285.25
366.599	295.25
366.826	303.25
367.052	291.25
367.278	307.25
367.505	308.25
367.731	305.25
367.957	299.25
368.184	308.25
368.41	309.25
368.636	311.25
368.862	322.25
369.089	319.25
369.315	292.25
369.541	290.25
369.767	308.25
369.993	289.25
370.219	292.25
370.445	298.25
370.672	298.25
370.898	308.25
371.124	287.25
371.35	306.25
371.576	290.25
371.802	290.25
372.028	286.25
372.254	284.25
372.48	295.25
372.706	290.25
372.932	289.25
373.158	298.25
373.384	304.25
373.61	309.25
373.835	312.25
374.061	306.25
374.287	289.25
374.513	301.25
374.739	314.25
374.965	320.25
375.191	301.25
375.416	295.25
375.642	287.25
375.868	301.25
376.094	298.25
376.319	316.25
376.545	294.25
376.771	289.25
376.997	309.25
377.222	293.25
377.448	298.25
377.674	288.25
377.899	288.25
378.125	289.25
378.35	293.25
378.576	273.25
378.802	281.25
379.027	294.25
379.253	305.25
379.478	301.25
379.704	286.25
379.929	311.25
380.155	306.25
380.38	287.25
380.606	286.25
380.831	311.25
381.057	298.25
381.282	301.25
381.507	273.25
381.733	285.25
381.958	286.25
382.184	302.25
382.409	303.25
382.634	279.25
382.86	311.25
383.085	315.25
383.31	296.25
383.535	311.25
383.761	296.25
383.986	305.25
384.211	305.25
384.436	309.25
384.662	321.25
384.887	331.25
385.112	301.25
385.337	305.25
385.562	303.25
385.787	300.25
386.013	328.25
386.238	330.25
386.463	330.25
386.688	338.25
386.913	339.25
387.138	305.25
387.363	311.25
387.588	338.25
387.813	341.25
388.038	321.25
388.263	315.25
388.488	310.25
388.713	310.25
388.938	324.25
389.163	305.25
389.387	326.25
389.612	301.25
389.837	308.25
390.062	325.25
390.287	322.25
390.512	319.25
390.736	315.25
390.961	321.25
391.186	321.25
391.411	321.25
391.636	321.25
391.86	312.25
392.085	322.25
392.31	318.25
392.534	315.25
392.759	323.25
392.984	312.25
393.208	338.25
393.433	326.25
393.658	322.25
393.882	324.25
394.107	315.25
394.331	322.25
394.556	327.25
394.78	336.25
395.005	340.25
395.229	313.25
395.454	319.25
395.678	328.25
395.903	339.25
396.127	330.25
396.352	340.25
396.576	344.25
396.801	350.25
397.025	335.25
397.249	328.25
397.474	305.25
397.698	335.25
397.922	352.25
398.147	339.25
398.371	377.25
398.595	361.25
398.82	357.25
399.044	361.25
399.268	360.25
399.492	358.25
399.717	391.25
399.941	404.25
400.165	416.25
400.389	445.25
400.613	396.25
400.837	383.25
401.062	365.25
401.286	373.25
401.51	372.25
401.734	377.25
401.958	373.25
402.182	370.25
402.406	365.25
402.63	371.25
402.854	367.25
403.078	382.25
403.302	379.25
403.526	390.25
403.75	327.25
403.974	367.25
404.198	383.25
404.422	366.25
404.645	387.25
404.869	409.25
405.093	406.25
405.317	446.25
405.541	469.25
405.765	433.25
405.988	388.25
406.212	408.25
406.436	409.25
406.66	420.25
406.883	382.25
407.107	423.25
407.331	455.25
407.555	511.25
407.778	484.25
408.002	443.25
408.226	417.25
408.449	394.25
408.673	434.25
408.896	436.25
409.12	471.25
409.344	458.25
409.567	405.25
409.791	407.25
410.014	387.25
410.238	381.25
410.461	378.25
410.685	384.25
410.908	402.25
411.132	413.25
411.355	448.25
411.578	430.25
411.802	386.25
412.025	399.25
412.249	399.25
412.472	400.25
412.695	405.25
412.919	423.25
413.142	403.25
413.365	363.25
413.589	367.25
413.812	360.25
414.035	379.25
414.258	373.25
414.482	369.25
414.705	356.25
414.928	363.25
415.151	354.25
415.374	362.25
415.597	349.25
415.821	348.25
416.044	372.25
416.267	368.25
416.49	374.25
416.713	350.25
416.936	363.25
417.159	363.25
417.382	367.25
417.605	376.25
417.828	379.25
418.051	369.25
418.274	375.25
418.497	367.25
418.72	354.25
418.943	355.25
419.166	373.25
419.389	371.25
419.611	383.25
419.834	373.25
420.057	375.25
420.28	379.25
420.503	369.25
420.726	373.25
420.948	391.25
421.171	406.25
421.394	417.25
421.617	393.25
421.839	378.25
422.062	395.25
422.285	403.25
422.507	431.25
422.73	485.25
422.953	473.25
423.175	404.25
423.398	376.25
423.621	406.25
423.843	406.25
424.066	407.25
424.288	412.25
424.511	424.25
424.733	451.25
424.956	530.25
425.178	499.25
425.401	499.25
425.623	530.25
425.846	424.25
426.068	427.25
426.291	400.25
426.513	416.25
426.735	432.25
426.958	453.25
427.18	499.25
427.402	600.25
427.625	658.25
427.847	569.25
428.069	510.25
428.292	463.25
428.514	411.25
428.736	408.25
428.958	401.25
429.181	391.25
429.403	358.25
429.625	395.25
429.847	433.25
430.069	458.25
430.292	452.25
430.514	414.25
430.736	390.25
430.958	362.25
431.18	374.25
431.402	371.25
431.624	369.25
431.846	370.25
432.068	362.25
432.29	385.25
432.512	373.25
432.734	372.25
432.956	342.25
433.178	389.25
433.4	384.25
433.622	369.25
433.844	374.25
434.066	354.25
434.287	356.25
434.509	384.25
434.731	389.25
434.953	375.25
435.175	407.25
435.397	401.25
435.618	437.25
435.84	468.25
436.062	496.25
436.284	555.25
436.505	467.25
436.727	425.25
436.949	410.25
437.17	383.25
437.392	376.25
437.614	406.25
437.835	410.25
438.057	495.25
438.278	574.25
438.5	561.25
438.721	609.25
438.943	590.25
439.165	450.25
439.386	427.25
439.608	416.25
439.829	422.25
440.05	458.25
440.272	476.25
440.493	446.25
440.715	408.25
440.936	409.25
441.158	389.25
441.379	398.25
441.6	408.25
441.822	422.25
442.043	442.25
442.264	488.25
442.486	527.25
442.707	462.25
442.928	431.25
443.149	431.25
443.371	445.25
443.592	486.25
443.813	523.25
444.034	585.25
444.255	493.25
444.476	449.25
444.698	424.25
444.919	415.25
445.14	531.25
445.361	498.25
445.582	445.25
445.803	496.25
446.024	551.25
446.245	565.25
446.466	514.25
446.687	444.25
446.908	421.25
447.129	405.25
447.35	392.25
447.571	385.25
447.792	385.25
448.013	378.25
448.234	398.25
448.455	444.25
448.675	544.25
448.896	600.25
449.117	509.25
449.338	497.25
449.559	578.25
449.779	611.25
450	497.25
450.221	443.25
450.442	405.25
450.662	382.25
450.883	391.25
451.104	416.25
451.324	378.25
451.545	382.25
451.766	369.25
451.986	368.25
452.207	361.25
452.428	336.25
452.648	332.25
452.869	362.25
453.089	354.25
453.31	347.25
453.53	359.25
453.751	355.25
453.971	367.25
454.192	383.25
454.412	377.25
454.633	360.25
454.853	337.25
455.073	344.25
455.294	369.25
455.514	439.25
455.734	398.25
455.955	358.25
456.175	337.25
456.395	309.25
456.616	337.25
456.836	338.25
457.056	321.25
457.276	326.25
457.497	333.25
457.717	329.25
457.937	330.25
458.157	347.25
458.377	335.25
458.598	358.25
458.818	389.25
459.038	475.25
459.258	466.25
459.478	396.25
459.698	365.25
459.918	382.25
460.138	360.25
460.358	369.25
460.578	365.25
460.798	367.25
461.018	380.25
461.238	363.25
461.458	363.25
461.678	347.25
461.898	361.25
462.118	365.25
462.338	383.25
462.558	380.25
462.777	385.25
462.997	382.25
463.217	400.25
463.437	403.25
463.657	391.25
463.876	381.25
464.096	390.25
464.316	370.25
464.536	377.25
464.755	395.25
464.975	410.25
465.195	437.25
465.414	512.25
465.634	450.25
465.854	399.25
466.073	393.25
466.293	385.25
466.512	384.25
466.732	365.25
466.951	369.25
467.171	375.25
467.391	361.25
467.61	365.25
467.829	381.25
468.049	369.25
468.268	373.25
468.488	330.25
468.707	344.25
468.927	360.25
469.146	348.25
469.365	353.25
469.585	357.25
469.804	365.25
470.023	371.25
470.243	345.25
470.462	377.25
470.681	411.25
470.901	377.25
471.12	369.25
471.339	361.25
471.558	363.25
471.777	346.25
471.997	360.25
472.216	358.25
472.435	402.25
472.654	403.25
472.873	386.25
473.092	372.25
473.311	350.25
473.53	373.25
473.749	369.25
473.968	405.25
474.187	469.25
474.406	477.25
474.625	378.25
474.844	377.25
475.063	363.25
475.282	356.25
475.501	365.25
475.72	381.25
475.939	361.25
476.158	368.25
476.377	375.25
476.596	382.25
476.814	381.25
477.033	386.25
477.252	387.25
477.471	385.25
477.69	386.25
477.908	417.25
478.127	395.25
478.346	401.25
478.564	393.25
478.783	398.25
479.002	406.25
479.22	401.25
479.439	416.25
479.658	440.25
479.876	448.25
480.095	429.25
480.313	434.25
480.532	433.25
480.751	453.25
480.969	449.25
481.188	498.25
481.406	558.25
481.624	479.25
481.843	454.25
482.061	439.25
482.28	415.25
482.498	422.25
482.717	413.25
482.935	435.25
483.153	426.25
483.372	428.25
483.59	418.25
483.808	404.25
484.027	412.25
484.245	422.25
484.463	443.25
484.681	409.25
484.9	440.25
485.118	443.25
485.336	437.25
485.554	450.25
485.772	439.25
485.99	451.25
486.209	440.25
486.427	456.25
486.645	442.25
486.863	478.25
487.081	455.25
487.299	472.25
487.517	473.25
487.735	451.25
487.953	462.25
488.171	439.25
488.389	477.25
488.607	469.25
488.825	450.25
489.043	415.25
489.261	456.25
489.479	469.25
489.696	479.25
489.914	484.25
490.132	458.25
490.35	466.25
490.568	465.25
490.786	487.25
491.003	482.25
491.221	473.25
491.439	505.25
491.657	512.25
491.874	505.25
492.092	533.25
492.31	505.25
492.527	520.25
492.745	507.25
492.963	515.25
493.18	509.25
493.398	535.25
493.615	533.25
493.833	535.25
494.05	510.25
494.268	530.25
494.485	529.25
494.703	523.25
494.92	530.25
495.138	528.25
495.355	526.25
495.573	520.25
495.79	564.25
496.008	539.25
496.225	515.25
496.442	519.25
496.66	535.25
496.877	540.25
497.094	543.25
497.312	547.25
497.529	570.25
497.746	540.25
497.963	565.25
498.181	567.25
498.398	570.25
498.615	577.25
498.832	613.25
499.049	581.25
499.267	617.25
499.484	633.25
499.701	649.25
499.918	658.25
500.135	669.25
500.352	679.25
500.569	706.25
500.786	689.25
501.003	690.25
501.22	676.25
501.437	659.25
501.654	641.25
501.871	638.25
502.088	637.25
