Data from 1961.PennyLincolnUp.Lamp.En5.5.200Scan.071719.P1._HRD10591_13-45-49-058.txt Node
Date: Thu Jul 18 13:45:49 EDT 2019
User: cochatt
Spectrometer: HR+D1059
Trigger mode: 1
Integration Time (sec): 1.000000E-1
Scans to average: 1
Electric dark correction enabled: true
Nonlinearity correction enabled: false
Boxcar width: 0
XAxis mode: Wavelengths
Number of Pixels in Spectrum: 2048
>>>>>Begin Spectral Data<<<<<
223.165	-5.38
223.4	-5.38
223.635	-5.38
223.869	-26.38
224.104	-27.38
224.338	-4.38
224.573	-9.38
224.808	-21.38
225.042	-16.38
225.277	-3.38
225.511	-5.38
225.746	11.62
225.98	15.62
226.215	9.62
226.449	20.62
226.683	12.62
226.918	27.62
227.152	21.62
227.387	29.62
227.621	38.62
227.856	39.62
228.09	56.62
228.324	58.62
228.559	46.62
228.793	68.62
229.027	82.62
229.262	79.62
229.496	87.62
229.73	89.62
229.964	104.62
230.199	99.62
230.433	88.62
230.667	88.62
230.901	87.62
231.136	103.62
231.37	102.62
231.604	78.62
231.838	90.62
232.072	91.62
232.306	90.62
232.541	101.62
232.775	100.62
233.009	92.62
233.243	95.62
233.477	101.62
233.711	103.62
233.945	98.62
234.179	103.62
234.413	100.62
234.647	100.62
234.881	96.62
235.115	105.62
235.349	92.62
235.583	114.62
235.817	102.62
236.051	110.62
236.285	116.62
236.519	102.62
236.753	92.62
236.987	114.62
237.221	129.62
237.455	152.62
237.689	121.62
237.922	112.62
238.156	102.62
238.39	118.62
238.624	115.62
238.858	94.62
239.091	97.62
239.325	90.62
239.559	113.62
239.793	99.62
240.027	119.62
240.26	102.62
240.494	115.62
240.728	110.62
240.961	101.62
241.195	109.62
241.429	123.62
241.662	129.62
241.896	106.62
242.13	117.62
242.363	114.62
242.597	126.62
242.83	118.62
243.064	117.62
243.298	112.62
243.531	115.62
243.765	114.62
243.998	114.62
244.232	117.62
244.465	103.62
244.699	119.62
244.932	118.62
245.166	122.62
245.399	118.62
245.633	113.62
245.866	121.62
246.099	112.62
246.333	113.62
246.566	126.62
246.8	127.62
247.033	106.62
247.266	120.62
247.5	131.62
247.733	135.62
247.966	129.62
248.2	132.62
248.433	131.62
248.666	135.62
248.899	128.62
249.133	129.62
249.366	152.62
249.599	154.62
249.832	126.62
250.066	125.62
250.299	128.62
250.532	158.62
250.765	135.62
250.998	153.62
251.231	155.62
251.465	147.62
251.698	149.62
251.931	138.62
252.164	158.62
252.397	151.62
252.63	138.62
252.863	142.62
253.096	150.62
253.329	161.62
253.562	146.62
253.795	166.62
254.028	167.62
254.261	156.62
254.494	141.62
254.727	178.62
254.96	169.62
255.193	175.62
255.426	161.62
255.659	165.62
255.892	174.62
256.124	152.62
256.357	162.62
256.59	171.62
256.823	153.62
257.056	152.62
257.289	155.62
257.521	155.62
257.754	147.62
257.987	151.62
258.22	165.62
258.452	160.62
258.685	146.62
258.918	146.62
259.151	168.62
259.383	171.62
259.616	148.62
259.849	169.62
260.081	162.62
260.314	183.62
260.547	178.62
260.779	172.62
261.012	171.62
261.244	168.62
261.477	167.62
261.71	159.62
261.942	170.62
262.175	169.62
262.407	177.62
262.64	159.62
262.872	167.62
263.105	172.62
263.337	166.62
263.57	160.62
263.802	158.62
264.035	165.62
264.267	171.62
264.499	167.62
264.732	186.62
264.964	165.62
265.197	164.62
265.429	174.62
265.661	176.62
265.894	157.62
266.126	160.62
266.358	158.62
266.591	170.62
266.823	162.62
267.055	172.62
267.287	192.62
267.52	161.62
267.752	178.62
267.984	156.62
268.216	156.62
268.448	167.62
268.681	177.62
268.913	178.62
269.145	184.62
269.377	193.62
269.609	190.62
269.841	170.62
270.073	203.62
270.306	192.62
270.538	217.62
270.77	215.62
271.002	195.62
271.234	207.62
271.466	188.62
271.698	209.62
271.93	219.62
272.162	206.62
272.394	209.62
272.626	216.62
272.858	209.62
273.09	211.62
273.322	210.62
273.553	193.62
273.785	195.62
274.017	193.62
274.249	219.62
274.481	201.62
274.713	187.62
274.945	188.62
275.176	197.62
275.408	195.62
275.64	209.62
275.872	203.62
276.104	190.62
276.335	200.62
276.567	196.62
276.799	211.62
277.031	191.62
277.262	227.62
277.494	224.62
277.726	194.62
277.957	198.62
278.189	202.62
278.421	210.62
278.652	197.62
278.884	197.62
279.115	201.62
279.347	217.62
279.579	205.62
279.81	215.62
280.042	219.62
280.273	210.62
280.505	202.62
280.736	219.62
280.968	211.62
281.199	203.62
281.431	194.62
281.662	208.62
281.894	216.62
282.125	218.62
282.356	207.62
282.588	228.62
282.819	224.62
283.051	223.62
283.282	208.62
283.513	218.62
283.745	225.62
283.976	219.62
284.207	223.62
284.439	211.62
284.67	218.62
284.901	208.62
285.132	217.62
285.364	209.62
285.595	215.62
285.826	205.62
286.057	202.62
286.288	225.62
286.52	218.62
286.751	216.62
286.982	204.62
287.213	218.62
287.444	217.62
287.675	212.62
287.906	234.62
288.138	224.62
288.369	248.62
288.6	232.62
288.831	220.62
289.062	221.62
289.293	217.62
289.524	218.62
289.755	227.62
289.986	214.62
290.217	226.62
290.448	224.62
290.679	221.62
290.91	230.62
291.141	215.62
291.371	235.62
291.602	226.62
291.833	227.62
292.064	232.62
292.295	248.62
292.526	229.62
292.757	231.62
292.987	228.62
293.218	218.62
293.449	230.62
293.68	219.62
293.91	212.62
294.141	225.62
294.372	233.62
294.603	232.62
294.833	231.62
295.064	230.62
295.295	229.62
295.525	238.62
295.756	238.62
295.987	230.62
296.217	244.62
296.448	262.62
296.679	244.62
296.909	248.62
297.14	230.62
297.37	232.62
297.601	246.62
297.831	229.62
298.062	230.62
298.292	246.62
298.523	244.62
298.753	272.62
298.984	230.62
299.214	238.62
299.445	244.62
299.675	244.62
299.905	234.62
300.136	249.62
300.366	242.62
300.597	253.62
300.827	247.62
301.057	247.62
301.288	241.62
301.518	256.62
301.748	271.62
301.979	258.62
302.209	246.62
302.439	251.62
302.669	251.62
302.9	251.62
303.13	248.62
303.36	259.62
303.59	242.62
303.82	271.62
304.051	252.62
304.281	285.62
304.511	268.62
304.741	258.62
304.971	257.62
305.201	255.62
305.431	258.62
305.661	243.62
305.891	255.62
306.121	268.62
306.352	257.62
306.582	273.62
306.812	263.62
307.042	258.62
307.272	242.62
307.502	253.62
307.731	260.62
307.961	276.62
308.191	275.62
308.421	260.62
308.651	258.62
308.881	273.62
309.111	259.62
309.341	268.62
309.571	261.62
309.8	265.62
310.03	268.62
310.26	260.62
310.49	275.62
310.72	290.62
310.949	270.62
311.179	274.62
311.409	277.62
311.639	263.62
311.868	253.62
312.098	266.62
312.328	281.62
312.557	293.62
312.787	286.62
313.017	262.62
313.246	281.62
313.476	274.62
313.706	277.62
313.935	279.62
314.165	292.62
314.394	299.62
314.624	290.62
314.853	283.62
315.083	288.62
315.312	293.62
315.542	293.62
315.771	290.62
316.001	281.62
316.23	292.62
316.46	286.62
316.689	283.62
316.919	280.62
317.148	312.62
317.377	278.62
317.607	303.62
317.836	291.62
318.065	299.62
318.295	283.62
318.524	281.62
318.753	289.62
318.983	296.62
319.212	290.62
319.441	287.62
319.67	281.62
319.9	280.62
320.129	274.62
320.358	298.62
320.587	294.62
320.816	315.62
321.046	315.62
321.275	289.62
321.504	289.62
321.733	295.62
321.962	302.62
322.191	320.62
322.42	299.62
322.649	320.62
322.878	326.62
323.108	300.62
323.337	339.62
323.566	318.62
323.795	343.62
324.024	362.62
324.253	409.62
324.482	554.62
324.71	774.62
324.939	995.62
325.168	834.62
325.397	464.62
325.626	369.62
325.855	338.62
326.084	337.62
326.313	322.62
326.542	337.62
326.77	358.62
326.999	408.62
327.228	469.62
327.457	669.62
327.686	734.62
327.914	539.62
328.143	397.62
328.372	363.62
328.6	353.62
328.829	362.62
329.058	350.62
329.287	324.62
329.515	338.62
329.744	328.62
329.972	348.62
330.201	331.62
330.43	355.62
330.658	364.62
330.887	365.62
331.115	348.62
331.344	348.62
331.572	332.62
331.801	335.62
332.03	329.62
332.258	339.62
332.486	330.62
332.715	318.62
332.943	322.62
333.172	335.62
333.4	317.62
333.629	331.62
333.857	321.62
334.085	341.62
334.314	360.62
334.542	356.62
334.771	372.62
334.999	351.62
335.227	335.62
335.455	351.62
335.684	332.62
335.912	317.62
336.14	327.62
336.369	339.62
336.597	332.62
336.825	336.62
337.053	328.62
337.281	324.62
337.51	319.62
337.738	333.62
337.966	321.62
338.194	341.62
338.422	328.62
338.65	298.62
338.878	323.62
339.106	323.62
339.334	322.62
339.562	314.62
339.79	315.62
340.018	318.62
340.246	304.62
340.474	316.62
340.702	327.62
340.93	332.62
341.158	303.62
341.386	316.62
341.614	302.62
341.842	299.62
342.07	314.62
342.298	279.62
342.526	308.62
342.754	308.62
342.981	315.62
343.209	310.62
343.437	321.62
343.665	316.62
343.893	330.62
344.12	326.62
344.348	321.62
344.576	345.62
344.804	340.62
345.031	327.62
345.259	323.62
345.487	292.62
345.714	296.62
345.942	296.62
346.17	300.62
346.397	292.62
346.625	307.62
346.853	304.62
347.08	294.62
347.308	299.62
347.535	307.62
347.763	279.62
347.99	294.62
348.218	290.62
348.445	303.62
348.673	284.62
348.9	333.62
349.128	288.62
349.355	294.62
349.583	295.62
349.81	275.62
350.037	303.62
350.265	294.62
350.492	296.62
350.72	282.62
350.947	292.62
351.174	286.62
351.402	288.62
351.629	294.62
351.856	307.62
352.083	299.62
352.311	302.62
352.538	305.62
352.765	288.62
352.992	313.62
353.22	296.62
353.447	303.62
353.674	291.62
353.901	304.62
354.128	284.62
354.355	279.62
354.583	290.62
354.81	291.62
355.037	291.62
355.264	287.62
355.491	282.62
355.718	287.62
355.945	303.62
356.172	285.62
356.399	273.62
356.626	304.62
356.853	279.62
357.08	290.62
357.307	291.62
357.534	276.62
357.761	274.62
357.988	284.62
358.215	291.62
358.441	291.62
358.668	298.62
358.895	280.62
359.122	304.62
359.349	299.62
359.576	283.62
359.802	291.62
360.029	303.62
360.256	295.62
360.483	293.62
360.709	293.62
360.936	279.62
361.163	286.62
361.39	278.62
361.616	283.62
361.843	271.62
362.07	287.62
362.296	281.62
362.523	287.62
362.749	274.62
362.976	300.62
363.203	286.62
363.429	274.62
363.656	282.62
363.882	294.62
364.109	278.62
364.335	306.62
364.562	287.62
364.788	272.62
365.015	283.62
365.241	290.62
365.468	294.62
365.694	300.62
365.92	283.62
366.147	303.62
366.373	280.62
366.599	259.62
366.826	294.62
367.052	300.62
367.278	289.62
367.505	300.62
367.731	284.62
367.957	289.62
368.184	274.62
368.41	277.62
368.636	278.62
368.862	287.62
369.089	279.62
369.315	314.62
369.541	294.62
369.767	283.62
369.993	268.62
370.219	272.62
370.445	292.62
370.672	297.62
370.898	299.62
371.124	283.62
371.35	288.62
371.576	296.62
371.802	293.62
372.028	278.62
372.254	287.62
372.48	277.62
372.706	280.62
372.932	305.62
373.158	289.62
373.384	286.62
373.61	296.62
373.835	301.62
374.061	280.62
374.287	295.62
374.513	285.62
374.739	282.62
374.965	288.62
375.191	291.62
375.416	291.62
375.642	275.62
375.868	274.62
376.094	291.62
376.319	287.62
376.545	295.62
376.771	304.62
376.997	290.62
377.222	280.62
377.448	285.62
377.674	271.62
377.899	280.62
378.125	291.62
378.35	286.62
378.576	292.62
378.802	280.62
379.027	275.62
379.253	283.62
379.478	265.62
379.704	278.62
379.929	291.62
380.155	290.62
380.38	282.62
380.606	280.62
380.831	284.62
381.057	299.62
381.282	286.62
381.507	288.62
381.733	303.62
381.958	300.62
382.184	297.62
382.409	288.62
382.634	289.62
382.86	292.62
383.085	314.62
383.31	301.62
383.535	298.62
383.761	310.62
383.986	300.62
384.211	297.62
384.436	304.62
384.662	296.62
384.887	291.62
385.112	306.62
385.337	303.62
385.562	307.62
385.787	310.62
386.013	304.62
386.238	311.62
386.463	335.62
386.688	300.62
386.913	304.62
387.138	307.62
387.363	326.62
387.588	309.62
387.813	330.62
388.038	297.62
388.263	324.62
388.488	311.62
388.713	304.62
388.938	322.62
389.163	308.62
389.387	304.62
389.612	302.62
389.837	321.62
390.062	331.62
390.287	310.62
390.512	320.62
390.736	314.62
390.961	312.62
391.186	311.62
391.411	312.62
391.636	308.62
391.86	316.62
392.085	312.62
392.31	320.62
392.534	312.62
392.759	323.62
392.984	317.62
393.208	299.62
393.433	315.62
393.658	325.62
393.882	303.62
394.107	313.62
394.331	319.62
394.556	303.62
394.78	308.62
395.005	312.62
395.229	306.62
395.454	318.62
395.678	321.62
395.903	331.62
396.127	334.62
396.352	339.62
396.576	321.62
396.801	319.62
397.025	326.62
397.249	336.62
397.474	315.62
397.698	318.62
397.922	313.62
398.147	339.62
398.371	344.62
398.595	350.62
398.82	341.62
399.044	339.62
399.268	358.62
399.492	388.62
399.717	392.62
399.941	381.62
400.165	430.62
400.389	415.62
400.613	380.62
400.837	368.62
401.062	352.62
401.286	362.62
401.51	340.62
401.734	325.62
401.958	351.62
402.182	351.62
402.406	337.62
402.63	342.62
402.854	352.62
403.078	336.62
403.302	333.62
403.526	352.62
403.75	328.62
403.974	356.62
404.198	360.62
404.422	364.62
404.645	350.62
404.869	355.62
405.093	358.62
405.317	389.62
405.541	396.62
405.765	362.62
405.988	354.62
406.212	376.62
406.436	384.62
406.66	377.62
406.883	384.62
407.107	369.62
407.331	404.62
407.555	411.62
407.778	420.62
408.002	418.62
408.226	393.62
408.449	363.62
408.673	368.62
408.896	399.62
409.12	405.62
409.344	375.62
409.567	364.62
409.791	351.62
410.014	346.62
410.238	334.62
410.461	350.62
410.685	354.62
410.908	364.62
411.132	377.62
411.355	374.62
411.578	374.62
411.802	351.62
412.025	346.62
412.249	350.62
412.472	345.62
412.695	368.62
412.919	374.62
413.142	344.62
413.365	350.62
413.589	351.62
413.812	324.62
414.035	327.62
414.258	340.62
414.482	330.62
414.705	348.62
414.928	336.62
415.151	320.62
415.374	343.62
415.597	326.62
415.821	336.62
416.044	320.62
416.267	327.62
416.49	320.62
416.713	318.62
416.936	327.62
417.159	314.62
417.382	327.62
417.605	318.62
417.828	336.62
418.051	340.62
418.274	330.62
418.497	335.62
418.72	306.62
418.943	321.62
419.166	336.62
419.389	352.62
419.611	344.62
419.834	323.62
420.057	321.62
420.28	332.62
420.503	324.62
420.726	321.62
420.948	346.62
421.171	361.62
421.394	353.62
421.617	348.62
421.839	341.62
422.062	351.62
422.285	344.62
422.507	372.62
422.73	396.62
422.953	389.62
423.175	368.62
423.398	332.62
423.621	335.62
423.843	357.62
424.066	356.62
424.288	359.62
424.511	376.62
424.733	376.62
424.956	408.62
425.178	399.62
425.401	375.62
425.623	390.62
425.846	358.62
426.068	347.62
426.291	350.62
426.513	346.62
426.735	355.62
426.958	366.62
427.18	386.62
427.402	467.62
427.625	504.62
427.847	428.62
428.069	411.62
428.292	356.62
428.514	328.62
428.736	336.62
428.958	322.62
429.181	308.62
429.403	328.62
429.625	326.62
429.847	322.62
430.069	371.62
430.292	361.62
430.514	327.62
430.736	300.62
430.958	331.62
431.18	322.62
431.402	331.62
431.624	305.62
431.846	306.62
432.068	318.62
432.29	316.62
432.512	314.62
432.734	318.62
432.956	323.62
433.178	310.62
433.4	313.62
433.622	333.62
433.844	327.62
434.066	311.62
434.287	324.62
434.509	314.62
434.731	324.62
434.953	318.62
435.175	307.62
435.397	335.62
435.618	346.62
435.84	355.62
436.062	395.62
436.284	425.62
436.505	372.62
436.727	336.62
436.949	318.62
437.17	319.62
437.392	327.62
437.614	326.62
437.835	350.62
438.057	371.62
438.278	425.62
438.5	425.62
438.721	463.62
438.943	439.62
439.165	357.62
439.386	342.62
439.608	342.62
439.829	337.62
440.05	362.62
440.272	353.62
440.493	347.62
440.715	326.62
440.936	304.62
441.158	326.62
441.379	331.62
441.6	319.62
441.822	345.62
442.043	353.62
442.264	382.62
442.486	413.62
442.707	366.62
442.928	342.62
443.149	344.62
443.371	350.62
443.592	347.62
443.813	418.62
444.034	443.62
444.255	388.62
444.476	347.62
444.698	338.62
444.919	354.62
445.14	488.62
445.361	415.62
445.582	359.62
445.803	368.62
446.024	412.62
446.245	426.62
446.466	377.62
446.687	360.62
446.908	336.62
447.129	303.62
447.35	326.62
447.571	309.62
447.792	300.62
448.013	312.62
448.234	324.62
448.455	351.62
448.675	390.62
448.896	450.62
449.117	379.62
449.338	370.62
449.559	447.62
449.779	466.62
450	399.62
450.221	346.62
450.442	304.62
450.662	303.62
450.883	295.62
451.104	325.62
451.324	299.62
451.545	292.62
451.766	299.62
451.986	274.62
452.207	275.62
452.428	306.62
452.648	268.62
452.869	278.62
453.089	295.62
453.31	277.62
453.53	296.62
453.751	283.62
453.971	292.62
454.192	278.62
454.412	298.62
454.633	269.62
454.853	287.62
455.073	293.62
455.294	282.62
455.514	333.62
455.734	316.62
455.955	271.62
456.175	287.62
456.395	275.62
456.616	285.62
456.836	287.62
457.056	278.62
457.276	285.62
457.497	281.62
457.717	271.62
457.937	267.62
458.157	276.62
458.377	273.62
458.598	295.62
458.818	311.62
459.038	326.62
459.258	355.62
459.478	318.62
459.698	296.62
459.918	306.62
460.138	313.62
460.358	308.62
460.578	297.62
460.798	330.62
461.018	331.62
461.238	335.62
461.458	326.62
461.678	320.62
461.898	330.62
462.118	322.62
462.338	331.62
462.558	330.62
462.777	348.62
462.997	342.62
463.217	353.62
463.437	360.62
463.657	336.62
463.876	353.62
464.096	347.62
464.316	334.62
464.536	342.62
464.755	340.62
464.975	359.62
465.195	349.62
465.414	356.62
465.634	341.62
465.854	330.62
466.073	308.62
466.293	323.62
466.512	303.62
466.732	285.62
466.951	287.62
467.171	302.62
467.391	308.62
467.61	315.62
467.829	311.62
468.049	297.62
468.268	288.62
468.488	288.62
468.707	291.62
468.927	299.62
469.146	303.62
469.365	287.62
469.585	298.62
469.804	285.62
470.023	302.62
470.243	320.62
470.462	322.62
470.681	307.62
470.901	313.62
471.12	292.62
471.339	315.62
471.558	305.62
471.777	283.62
471.997	302.62
472.216	312.62
472.435	290.62
472.654	312.62
472.873	304.62
473.092	318.62
473.311	298.62
473.53	317.62
473.749	304.62
473.968	327.62
474.187	357.62
474.406	373.62
474.625	315.62
474.844	307.62
475.063	326.62
475.282	303.62
475.501	266.62
475.72	297.62
475.939	306.62
476.158	314.62
476.377	312.62
476.596	321.62
476.814	311.62
477.033	335.62
477.252	324.62
477.471	294.62
477.69	325.62
477.908	340.62
478.127	338.62
478.346	340.62
478.564	333.62
478.783	345.62
479.002	347.62
479.22	346.62
479.439	346.62
479.658	333.62
479.876	347.62
480.095	368.62
480.313	375.62
480.532	352.62
480.751	370.62
480.969	360.62
481.188	380.62
481.406	367.62
481.624	362.62
481.843	371.62
482.061	367.62
482.28	346.62
482.498	349.62
482.717	346.62
482.935	343.62
483.153	356.62
483.372	350.62
483.59	372.62
483.808	344.62
484.027	357.62
484.245	363.62
484.463	344.62
484.681	368.62
484.9	353.62
485.118	372.62
485.336	358.62
485.554	364.62
485.772	347.62
485.99	360.62
486.209	351.62
486.427	368.62
486.645	350.62
486.863	354.62
487.081	379.62
487.299	366.62
487.517	356.62
487.735	374.62
487.953	368.62
488.171	352.62
488.389	374.62
488.607	380.62
488.825	379.62
489.043	372.62
489.261	375.62
489.479	355.62
489.696	368.62
489.914	372.62
490.132	373.62
490.35	365.62
490.568	355.62
490.786	368.62
491.003	390.62
491.221	386.62
491.439	384.62
491.657	391.62
491.874	384.62
492.092	406.62
492.31	380.62
492.527	390.62
492.745	400.62
492.963	390.62
493.18	387.62
493.398	399.62
493.615	393.62
493.833	410.62
494.05	391.62
494.268	408.62
494.485	402.62
494.703	407.62
494.92	414.62
495.138	401.62
495.355	399.62
495.573	405.62
495.79	424.62
496.008	418.62
496.225	400.62
496.442	408.62
496.66	402.62
496.877	413.62
497.094	439.62
497.312	425.62
497.529	432.62
497.746	436.62
497.963	440.62
498.181	453.62
498.398	486.62
498.615	468.62
498.832	464.62
499.049	498.62
499.267	512.62
499.484	514.62
499.701	543.62
499.918	554.62
500.135	567.62
500.352	626.62
500.569	618.62
500.786	631.62
501.003	628.62
501.22	588.62
501.437	558.62
501.654	531.62
501.871	542.62
502.088	512.62
502.305	507.62
