Data from 1961.PennyLincolnUp.Lamp.En5.5.200Scan.071719.P1._HRD10591_13-49-17-058.txt Node
Date: Thu Jul 18 13:49:17 EDT 2019
User: cochatt
Spectrometer: HR+D1059
Trigger mode: 1
Integration Time (sec): 1.000000E-1
Scans to average: 1
Electric dark correction enabled: true
Nonlinearity correction enabled: false
Boxcar width: 0
XAxis mode: Wavelengths
Number of Pixels in Spectrum: 2048
>>>>>Begin Spectral Data<<<<<
223.165	-6.44
223.4	-6.44
223.635	-6.44
223.869	-18.44
224.104	-18.44
224.338	-9.44
224.573	-21.44
224.808	-6.44
225.042	-7.44
225.277	-9.44
225.511	-5.44
225.746	-1.44
225.98	5.56
226.215	21.56
226.449	20.56
226.683	8.56
226.918	21.56
227.152	26.56
227.387	36.56
227.621	46.56
227.856	42.56
228.09	64.56
228.324	60.56
228.559	40.56
228.793	62.56
229.027	99.56
229.262	107.56
229.496	112.56
229.73	135.56
229.964	158.56
230.199	125.56
230.433	115.56
230.667	91.56
230.901	110.56
231.136	92.56
231.37	106.56
231.604	101.56
231.838	111.56
232.072	104.56
232.306	109.56
232.541	102.56
232.775	87.56
233.009	95.56
233.243	108.56
233.477	98.56
233.711	119.56
233.945	116.56
234.179	123.56
234.413	109.56
234.647	110.56
234.881	102.56
235.115	114.56
235.349	93.56
235.583	120.56
235.817	111.56
236.051	121.56
236.285	118.56
236.519	123.56
236.753	115.56
236.987	143.56
237.221	164.56
237.455	229.56
237.689	167.56
237.922	135.56
238.156	119.56
238.39	129.56
238.624	119.56
238.858	117.56
239.091	103.56
239.325	120.56
239.559	117.56
239.793	113.56
240.027	102.56
240.26	135.56
240.494	145.56
240.728	141.56
240.961	123.56
241.195	131.56
241.429	122.56
241.662	121.56
241.896	125.56
242.13	123.56
242.363	130.56
242.597	127.56
242.83	117.56
243.064	134.56
243.298	125.56
243.531	124.56
243.765	129.56
243.998	118.56
244.232	127.56
244.465	117.56
244.699	104.56
244.932	131.56
245.166	121.56
245.399	130.56
245.633	137.56
245.866	133.56
246.099	135.56
246.333	128.56
246.566	133.56
246.8	129.56
247.033	130.56
247.266	140.56
247.5	145.56
247.733	144.56
247.966	148.56
248.2	144.56
248.433	146.56
248.666	165.56
248.899	162.56
249.133	176.56
249.366	181.56
249.599	171.56
249.832	152.56
250.066	148.56
250.299	156.56
250.532	168.56
250.765	196.56
250.998	185.56
251.231	185.56
251.465	190.56
251.698	180.56
251.931	177.56
252.164	171.56
252.397	181.56
252.63	175.56
252.863	180.56
253.096	191.56
253.329	204.56
253.562	205.56
253.795	197.56
254.028	206.56
254.261	194.56
254.494	203.56
254.727	231.56
254.96	230.56
255.193	238.56
255.426	223.56
255.659	184.56
255.892	222.56
256.124	203.56
256.357	202.56
256.59	207.56
256.823	186.56
257.056	204.56
257.289	177.56
257.521	183.56
257.754	171.56
257.987	186.56
258.22	184.56
258.452	196.56
258.685	185.56
258.918	189.56
259.151	187.56
259.383	210.56
259.616	196.56
259.849	197.56
260.081	220.56
260.314	226.56
260.547	215.56
260.779	209.56
261.012	203.56
261.244	197.56
261.477	200.56
261.71	194.56
261.942	210.56
262.175	225.56
262.407	200.56
262.64	195.56
262.872	200.56
263.105	182.56
263.337	193.56
263.57	205.56
263.802	168.56
264.035	183.56
264.267	178.56
264.499	173.56
264.732	161.56
264.964	180.56
265.197	181.56
265.429	183.56
265.661	170.56
265.894	182.56
266.126	179.56
266.358	189.56
266.591	185.56
266.823	193.56
267.055	191.56
267.287	193.56
267.52	206.56
267.752	192.56
267.984	196.56
268.216	189.56
268.448	194.56
268.681	182.56
268.913	213.56
269.145	243.56
269.377	213.56
269.609	229.56
269.841	227.56
270.073	242.56
270.306	268.56
270.538	282.56
270.77	281.56
271.002	251.56
271.234	241.56
271.466	271.56
271.698	269.56
271.93	272.56
272.162	290.56
272.394	258.56
272.626	260.56
272.858	261.56
273.09	252.56
273.322	217.56
273.553	225.56
273.785	218.56
274.017	237.56
274.249	211.56
274.481	217.56
274.713	219.56
274.945	218.56
275.176	257.56
275.408	238.56
275.64	232.56
275.872	241.56
276.104	236.56
276.335	235.56
276.567	231.56
276.799	243.56
277.031	261.56
277.262	269.56
277.494	259.56
277.726	248.56
277.957	254.56
278.189	239.56
278.421	235.56
278.652	237.56
278.884	239.56
279.115	227.56
279.347	241.56
279.579	222.56
279.81	218.56
280.042	233.56
280.273	227.56
280.505	221.56
280.736	240.56
280.968	214.56
281.199	224.56
281.431	230.56
281.662	208.56
281.894	229.56
282.125	237.56
282.356	257.56
282.588	280.56
282.819	289.56
283.051	253.56
283.282	232.56
283.513	243.56
283.745	232.56
283.976	230.56
284.207	241.56
284.439	229.56
284.67	217.56
284.901	215.56
285.132	240.56
285.364	234.56
285.595	237.56
285.826	224.56
286.057	253.56
286.288	227.56
286.52	234.56
286.751	247.56
286.982	222.56
287.213	235.56
287.444	229.56
287.675	244.56
287.906	233.56
288.138	246.56
288.369	241.56
288.6	231.56
288.831	240.56
289.062	255.56
289.293	244.56
289.524	229.56
289.755	222.56
289.986	248.56
290.217	226.56
290.448	238.56
290.679	226.56
290.91	222.56
291.141	240.56
291.371	247.56
291.602	220.56
291.833	229.56
292.064	234.56
292.295	240.56
292.526	243.56
292.757	235.56
292.987	246.56
293.218	235.56
293.449	241.56
293.68	241.56
293.91	247.56
294.141	254.56
294.372	224.56
294.603	231.56
294.833	224.56
295.064	250.56
295.295	231.56
295.525	242.56
295.756	244.56
295.987	262.56
296.217	269.56
296.448	292.56
296.679	275.56
296.909	261.56
297.14	249.56
297.37	251.56
297.601	239.56
297.831	237.56
298.062	248.56
298.292	240.56
298.523	245.56
298.753	232.56
298.984	271.56
299.214	258.56
299.445	260.56
299.675	260.56
299.905	261.56
300.136	261.56
300.366	252.56
300.597	258.56
300.827	268.56
301.057	263.56
301.288	257.56
301.518	265.56
301.748	276.56
301.979	273.56
302.209	283.56
302.439	290.56
302.669	280.56
302.9	271.56
303.13	281.56
303.36	261.56
303.59	270.56
303.82	269.56
304.051	271.56
304.281	274.56
304.511	279.56
304.741	274.56
304.971	282.56
305.201	274.56
305.431	278.56
305.661	270.56
305.891	284.56
306.121	265.56
306.352	261.56
306.582	281.56
306.812	272.56
307.042	273.56
307.272	277.56
307.502	277.56
307.731	286.56
307.961	282.56
308.191	280.56
308.421	289.56
308.651	272.56
308.881	277.56
309.111	292.56
309.341	305.56
309.571	296.56
309.8	314.56
310.03	330.56
310.26	329.56
310.49	322.56
310.72	339.56
310.949	364.56
311.179	358.56
311.409	347.56
311.639	336.56
311.868	320.56
312.098	328.56
312.328	358.56
312.557	341.56
312.787	359.56
313.017	371.56
313.246	338.56
313.476	317.56
313.706	317.56
313.935	341.56
314.165	355.56
314.394	357.56
314.624	355.56
314.853	344.56
315.083	322.56
315.312	300.56
315.542	324.56
315.771	309.56
316.001	315.56
316.23	326.56
316.46	306.56
316.689	320.56
316.919	322.56
317.148	349.56
317.377	362.56
317.607	319.56
317.836	341.56
318.065	329.56
318.295	315.56
318.524	341.56
318.753	305.56
318.983	330.56
319.212	331.56
319.441	349.56
319.67	337.56
319.9	326.56
320.129	317.56
320.358	310.56
320.587	342.56
320.816	338.56
321.046	354.56
321.275	353.56
321.504	337.56
321.733	376.56
321.962	355.56
322.191	391.56
322.42	388.56
322.649	399.56
322.878	424.56
323.108	427.56
323.337	456.56
323.566	474.56
323.795	504.56
324.024	571.56
324.253	712.56
324.482	1085.56
324.71	1674.56
324.939	2395.56
325.168	1989.56
325.397	1000.56
325.626	677.56
325.855	550.56
326.084	469.56
326.313	497.56
326.542	493.56
326.77	548.56
326.999	677.56
327.228	941.56
327.457	1465.56
327.686	1759.56
327.914	1178.56
328.143	719.56
328.372	642.56
328.6	566.56
328.829	551.56
329.058	558.56
329.287	566.56
329.515	514.56
329.744	496.56
329.972	488.56
330.201	519.56
330.43	577.56
330.658	576.56
330.887	610.56
331.115	554.56
331.344	487.56
331.572	463.56
331.801	453.56
332.03	466.56
332.258	434.56
332.486	417.56
332.715	393.56
332.943	377.56
333.172	383.56
333.4	379.56
333.629	390.56
333.857	419.56
334.085	433.56
334.314	472.56
334.542	502.56
334.771	507.56
334.999	442.56
335.227	418.56
335.455	413.56
335.684	385.56
335.912	380.56
336.14	370.56
336.369	382.56
336.597	395.56
336.825	388.56
337.053	381.56
337.281	359.56
337.51	358.56
337.738	386.56
337.966	391.56
338.194	383.56
338.422	386.56
338.65	359.56
338.878	361.56
339.106	365.56
339.334	350.56
339.562	370.56
339.79	357.56
340.018	357.56
340.246	379.56
340.474	372.56
340.702	359.56
340.93	361.56
341.158	361.56
341.386	362.56
341.614	367.56
341.842	353.56
342.07	351.56
342.298	375.56
342.526	348.56
342.754	333.56
342.981	341.56
343.209	352.56
343.437	345.56
343.665	358.56
343.893	374.56
344.12	359.56
344.348	346.56
344.576	358.56
344.804	353.56
345.031	382.56
345.259	393.56
345.487	389.56
345.714	381.56
345.942	355.56
346.17	359.56
346.397	366.56
346.625	363.56
346.853	364.56
347.08	368.56
347.308	351.56
347.535	358.56
347.763	361.56
347.99	365.56
348.218	369.56
348.445	379.56
348.673	382.56
348.9	352.56
349.128	343.56
349.355	356.56
349.583	344.56
349.81	372.56
350.037	344.56
350.265	328.56
350.492	342.56
350.72	337.56
350.947	362.56
351.174	366.56
351.402	385.56
351.629	391.56
351.856	363.56
352.083	371.56
352.311	392.56
352.538	386.56
352.765	390.56
352.992	354.56
353.22	367.56
353.447	346.56
353.674	365.56
353.901	349.56
354.128	334.56
354.355	311.56
354.583	330.56
354.81	337.56
355.037	330.56
355.264	326.56
355.491	321.56
355.718	326.56
355.945	337.56
356.172	325.56
356.399	340.56
356.626	328.56
356.853	318.56
357.08	317.56
357.307	315.56
357.534	333.56
357.761	317.56
357.988	317.56
358.215	328.56
358.441	337.56
358.668	307.56
358.895	330.56
359.122	354.56
359.349	344.56
359.576	354.56
359.802	392.56
360.029	405.56
360.256	427.56
360.483	415.56
360.709	352.56
360.936	358.56
361.163	372.56
361.39	372.56
361.616	365.56
361.843	363.56
362.07	373.56
362.296	353.56
362.523	365.56
362.749	359.56
362.976	346.56
363.203	350.56
363.429	325.56
363.656	348.56
363.882	354.56
364.109	338.56
364.335	330.56
364.562	327.56
364.788	346.56
365.015	365.56
365.241	349.56
365.468	351.56
365.694	351.56
365.92	333.56
366.147	342.56
366.373	347.56
366.599	323.56
366.826	337.56
367.052	326.56
367.278	331.56
367.505	339.56
367.731	325.56
367.957	342.56
368.184	325.56
368.41	337.56
368.636	332.56
368.862	360.56
369.089	350.56
369.315	344.56
369.541	332.56
369.767	346.56
369.993	329.56
370.219	337.56
370.445	326.56
370.672	320.56
370.898	316.56
371.124	325.56
371.35	337.56
371.576	313.56
371.802	341.56
372.028	326.56
372.254	323.56
372.48	328.56
372.706	340.56
372.932	329.56
373.158	320.56
373.384	333.56
373.61	347.56
373.835	337.56
374.061	342.56
374.287	332.56
374.513	337.56
374.739	339.56
374.965	333.56
375.191	324.56
375.416	331.56
375.642	335.56
375.868	338.56
376.094	349.56
376.319	340.56
376.545	331.56
376.771	328.56
376.997	339.56
377.222	322.56
377.448	317.56
377.674	324.56
377.899	309.56
378.125	310.56
378.35	304.56
378.576	335.56
378.802	319.56
379.027	316.56
379.253	328.56
379.478	304.56
379.704	343.56
379.929	323.56
380.155	360.56
380.38	312.56
380.606	338.56
380.831	350.56
381.057	330.56
381.282	342.56
381.507	319.56
381.733	324.56
381.958	334.56
382.184	326.56
382.409	335.56
382.634	338.56
382.86	339.56
383.085	350.56
383.31	345.56
383.535	345.56
383.761	345.56
383.986	337.56
384.211	331.56
384.436	342.56
384.662	344.56
384.887	342.56
385.112	338.56
385.337	339.56
385.562	355.56
385.787	336.56
386.013	366.56
386.238	371.56
386.463	363.56
386.688	351.56
386.913	341.56
387.138	350.56
387.363	343.56
387.588	325.56
387.813	367.56
388.038	369.56
388.263	346.56
388.488	348.56
388.713	359.56
388.938	359.56
389.163	340.56
389.387	353.56
389.612	363.56
389.837	354.56
390.062	354.56
390.287	359.56
390.512	344.56
390.736	358.56
390.961	360.56
391.186	367.56
391.411	341.56
391.636	345.56
391.86	366.56
392.085	364.56
392.31	348.56
392.534	358.56
392.759	348.56
392.984	365.56
393.208	346.56
393.433	345.56
393.658	348.56
393.882	365.56
394.107	362.56
394.331	371.56
394.556	352.56
394.78	354.56
395.005	357.56
395.229	348.56
395.454	362.56
395.678	350.56
395.903	373.56
396.127	385.56
396.352	393.56
396.576	402.56
396.801	372.56
397.025	374.56
397.249	360.56
397.474	369.56
397.698	383.56
397.922	384.56
398.147	403.56
398.371	409.56
398.595	386.56
398.82	404.56
399.044	405.56
399.268	406.56
399.492	411.56
399.717	435.56
399.941	459.56
400.165	468.56
400.389	489.56
400.613	462.56
400.837	429.56
401.062	417.56
401.286	405.56
401.51	416.56
401.734	399.56
401.958	398.56
402.182	407.56
402.406	419.56
402.63	417.56
402.854	407.56
403.078	394.56
403.302	416.56
403.526	441.56
403.75	424.56
403.974	417.56
404.198	391.56
404.422	441.56
404.645	433.56
404.869	438.56
405.093	451.56
405.317	525.56
405.541	519.56
405.765	469.56
405.988	452.56
406.212	439.56
406.436	462.56
406.66	490.56
406.883	448.56
407.107	490.56
407.331	513.56
407.555	547.56
407.778	564.56
408.002	509.56
408.226	479.56
408.449	477.56
408.673	470.56
408.896	500.56
409.12	530.56
409.344	510.56
409.567	463.56
409.791	431.56
410.014	426.56
410.238	409.56
410.461	429.56
410.685	431.56
410.908	440.56
411.132	471.56
411.355	495.56
411.578	481.56
411.802	431.56
412.025	417.56
412.249	435.56
412.472	450.56
412.695	475.56
412.919	452.56
413.142	425.56
413.365	420.56
413.589	410.56
413.812	421.56
414.035	381.56
414.258	407.56
414.482	418.56
414.705	395.56
414.928	407.56
415.151	388.56
415.374	387.56
415.597	388.56
415.821	387.56
416.044	397.56
416.267	395.56
416.49	389.56
416.713	403.56
416.936	375.56
417.159	395.56
417.382	405.56
417.605	399.56
417.828	430.56
418.051	438.56
418.274	396.56
418.497	390.56
418.72	401.56
418.943	399.56
419.166	411.56
419.389	434.56
419.611	421.56
419.834	413.56
420.057	401.56
420.28	404.56
420.503	427.56
420.726	429.56
420.948	439.56
421.171	479.56
421.394	495.56
421.617	429.56
421.839	423.56
422.062	438.56
422.285	446.56
422.507	483.56
422.73	556.56
422.953	514.56
423.175	467.56
423.398	433.56
423.621	428.56
423.843	439.56
424.066	463.56
424.288	429.56
424.511	457.56
424.733	509.56
424.956	608.56
425.178	589.56
425.401	572.56
425.623	579.56
425.846	504.56
426.068	465.56
426.291	482.56
426.513	480.56
426.735	487.56
426.958	524.56
427.18	579.56
427.402	711.56
427.625	791.56
427.847	701.56
428.069	602.56
428.292	537.56
428.514	493.56
428.736	441.56
428.958	458.56
429.181	429.56
429.403	425.56
429.625	464.56
429.847	465.56
430.069	519.56
430.292	522.56
430.514	456.56
430.736	445.56
430.958	417.56
431.18	416.56
431.402	409.56
431.624	417.56
431.846	400.56
432.068	413.56
432.29	398.56
432.512	383.56
432.734	431.56
432.956	403.56
433.178	421.56
433.4	424.56
433.622	414.56
433.844	398.56
434.066	426.56
434.287	408.56
434.509	409.56
434.731	403.56
434.953	443.56
435.175	435.56
435.397	443.56
435.618	470.56
435.84	505.56
436.062	596.56
436.284	631.56
436.505	563.56
436.727	499.56
436.949	458.56
437.17	472.56
437.392	420.56
437.614	447.56
437.835	472.56
438.057	575.56
438.278	671.56
438.5	695.56
438.721	741.56
438.943	682.56
439.165	551.56
439.386	519.56
439.608	498.56
439.829	482.56
440.05	528.56
440.272	581.56
440.493	527.56
440.715	482.56
440.936	448.56
441.158	441.56
441.379	421.56
441.6	449.56
441.822	467.56
442.043	486.56
442.264	586.56
442.486	608.56
442.707	531.56
442.928	482.56
443.149	486.56
443.371	527.56
443.592	535.56
443.813	646.56
444.034	679.56
444.255	550.56
444.476	497.56
444.698	463.56
444.919	473.56
445.14	563.56
445.361	513.56
445.582	518.56
445.803	597.56
446.024	676.56
446.245	681.56
446.466	633.56
446.687	528.56
446.908	494.56
447.129	454.56
447.35	443.56
447.571	442.56
447.792	428.56
448.013	449.56
448.234	464.56
448.455	529.56
448.675	631.56
448.896	691.56
449.117	594.56
449.338	581.56
449.559	652.56
449.779	742.56
450	607.56
450.221	485.56
450.442	457.56
450.662	453.56
450.883	458.56
451.104	464.56
451.324	471.56
451.545	440.56
451.766	429.56
451.986	406.56
452.207	391.56
452.428	399.56
452.648	400.56
452.869	395.56
453.089	413.56
453.31	397.56
453.53	424.56
453.751	414.56
453.971	402.56
454.192	430.56
454.412	415.56
454.633	414.56
454.853	400.56
455.073	399.56
455.294	416.56
455.514	485.56
455.734	489.56
455.955	403.56
456.175	376.56
456.395	360.56
456.616	379.56
456.836	385.56
457.056	371.56
457.276	350.56
457.497	369.56
457.717	379.56
457.937	370.56
458.157	381.56
458.377	393.56
458.598	405.56
458.818	472.56
459.038	558.56
459.258	563.56
459.478	460.56
459.698	436.56
459.918	423.56
460.138	412.56
460.358	403.56
460.578	418.56
460.798	432.56
461.018	407.56
461.238	407.56
461.458	398.56
461.678	398.56
461.898	410.56
462.118	390.56
462.338	420.56
462.558	417.56
462.777	405.56
462.997	426.56
463.217	401.56
463.437	431.56
463.657	430.56
463.876	429.56
464.096	423.56
464.316	427.56
464.536	427.56
464.755	431.56
464.975	432.56
465.195	489.56
465.414	577.56
465.634	513.56
465.854	451.56
466.073	416.56
466.293	401.56
466.512	410.56
466.732	419.56
466.951	397.56
467.171	409.56
467.391	395.56
467.61	416.56
467.829	423.56
468.049	406.56
468.268	409.56
468.488	399.56
468.707	382.56
468.927	403.56
469.146	394.56
469.365	384.56
469.585	390.56
469.804	379.56
470.023	419.56
470.243	412.56
470.462	411.56
470.681	441.56
470.901	406.56
471.12	415.56
471.339	404.56
471.558	426.56
471.777	417.56
471.997	424.56
472.216	415.56
472.435	454.56
472.654	454.56
472.873	403.56
473.092	439.56
473.311	407.56
473.53	421.56
473.749	427.56
473.968	473.56
474.187	542.56
474.406	578.56
474.625	471.56
474.844	441.56
475.063	411.56
475.282	423.56
475.501	406.56
475.72	427.56
475.939	438.56
476.158	417.56
476.377	427.56
476.596	422.56
476.814	437.56
477.033	443.56
477.252	444.56
477.471	421.56
477.69	409.56
477.908	420.56
478.127	432.56
478.346	449.56
478.564	449.56
478.783	454.56
479.002	444.56
479.22	453.56
479.439	476.56
479.658	482.56
479.876	514.56
480.095	487.56
480.313	532.56
480.532	520.56
480.751	499.56
480.969	495.56
481.188	596.56
481.406	602.56
481.624	553.56
481.843	494.56
482.061	491.56
482.28	483.56
482.498	490.56
482.717	467.56
482.935	495.56
483.153	474.56
483.372	466.56
483.59	470.56
483.808	473.56
484.027	476.56
484.245	479.56
484.463	494.56
484.681	503.56
484.9	494.56
485.118	489.56
485.336	485.56
485.554	493.56
485.772	487.56
485.99	498.56
486.209	507.56
486.427	509.56
486.645	509.56
486.863	548.56
487.081	542.56
487.299	524.56
487.517	519.56
487.735	517.56
487.953	507.56
488.171	534.56
488.389	541.56
488.607	523.56
488.825	499.56
489.043	530.56
489.261	536.56
489.479	527.56
489.696	515.56
489.914	518.56
490.132	537.56
490.35	545.56
490.568	546.56
490.786	541.56
491.003	557.56
491.221	538.56
491.439	579.56
491.657	569.56
491.874	596.56
492.092	616.56
492.31	600.56
492.527	591.56
492.745	581.56
492.963	608.56
493.18	613.56
493.398	611.56
493.615	616.56
493.833	625.56
494.05	626.56
494.268	611.56
494.485	598.56
494.703	605.56
494.92	611.56
495.138	623.56
495.355	625.56
495.573	615.56
495.79	624.56
496.008	629.56
496.225	605.56
496.442	623.56
496.66	631.56
496.877	598.56
497.094	629.56
497.312	612.56
497.529	638.56
497.746	630.56
497.963	627.56
498.181	638.56
498.398	650.56
498.615	657.56
498.832	684.56
499.049	668.56
499.267	687.56
499.484	685.56
499.701	681.56
499.918	719.56
500.135	733.56
500.352	755.56
500.569	777.56
500.786	762.56
501.003	743.56
501.22	762.56
501.437	752.56
501.654	725.56
501.871	766.56
502.088	728.56
