Data from 1961.PennyLincolnUp.Lamp.En5.5.200Scan.071719.P1._HRD10591_13-46-40-058.txt Node
Date: Thu Jul 18 13:46:40 EDT 2019
User: cochatt
Spectrometer: HR+D1059
Trigger mode: 1
Integration Time (sec): 1.000000E-1
Scans to average: 1
Electric dark correction enabled: true
Nonlinearity correction enabled: false
Boxcar width: 0
XAxis mode: Wavelengths
Number of Pixels in Spectrum: 2048
>>>>>Begin Spectral Data<<<<<
223.165	-13.06
223.4	-13.06
223.635	-13.06
223.869	-13.06
224.104	-21.06
224.338	-11.06
224.573	-23.06
224.808	-4.06
225.042	10.94
225.277	-6.06
225.511	0.94
225.746	-5.06
225.98	13.94
226.215	-2.06
226.449	-2.06
226.683	16.94
226.918	31.94
227.152	25.94
227.387	35.94
227.621	28.94
227.856	39.94
228.09	46.94
228.324	39.94
228.559	74.94
228.793	57.94
229.027	82.94
229.262	95.94
229.496	88.94
229.73	105.94
229.964	120.94
230.199	106.94
230.433	95.94
230.667	105.94
230.901	84.94
231.136	91.94
231.37	96.94
231.604	98.94
231.838	102.94
232.072	93.94
232.306	95.94
232.541	107.94
232.775	98.94
233.009	99.94
233.243	101.94
233.477	97.94
233.711	106.94
233.945	117.94
234.179	104.94
234.413	103.94
234.647	99.94
234.881	102.94
235.115	107.94
235.349	115.94
235.583	96.94
235.817	98.94
236.051	120.94
236.285	102.94
236.519	108.94
236.753	119.94
236.987	114.94
237.221	146.94
237.455	200.94
237.689	162.94
237.922	119.94
238.156	112.94
238.39	123.94
238.624	97.94
238.858	104.94
239.091	111.94
239.325	96.94
239.559	105.94
239.793	104.94
240.027	119.94
240.26	118.94
240.494	112.94
240.728	111.94
240.961	123.94
241.195	124.94
241.429	120.94
241.662	117.94
241.896	117.94
242.13	112.94
242.363	99.94
242.597	106.94
242.83	114.94
243.064	117.94
243.298	114.94
243.531	116.94
243.765	113.94
243.998	109.94
244.232	124.94
244.465	127.94
244.699	114.94
244.932	133.94
245.166	121.94
245.399	125.94
245.633	125.94
245.866	127.94
246.099	124.94
246.333	116.94
246.566	123.94
246.8	146.94
247.033	126.94
247.266	128.94
247.5	125.94
247.733	133.94
247.966	147.94
248.2	134.94
248.433	131.94
248.666	131.94
248.899	142.94
249.133	163.94
249.366	164.94
249.599	147.94
249.832	140.94
250.066	150.94
250.299	128.94
250.532	155.94
250.765	165.94
250.998	178.94
251.231	156.94
251.465	167.94
251.698	162.94
251.931	153.94
252.164	163.94
252.397	142.94
252.63	167.94
252.863	158.94
253.096	164.94
253.329	169.94
253.562	171.94
253.795	177.94
254.028	175.94
254.261	170.94
254.494	182.94
254.727	192.94
254.96	196.94
255.193	193.94
255.426	176.94
255.659	163.94
255.892	185.94
256.124	178.94
256.357	181.94
256.59	166.94
256.823	160.94
257.056	168.94
257.289	148.94
257.521	171.94
257.754	167.94
257.987	162.94
258.22	165.94
258.452	153.94
258.685	177.94
258.918	143.94
259.151	174.94
259.383	173.94
259.616	180.94
259.849	154.94
260.081	153.94
260.314	190.94
260.547	184.94
260.779	179.94
261.012	160.94
261.244	172.94
261.477	167.94
261.71	161.94
261.942	160.94
262.175	171.94
262.407	183.94
262.64	177.94
262.872	163.94
263.105	162.94
263.337	158.94
263.57	160.94
263.802	167.94
264.035	164.94
264.267	168.94
264.499	164.94
264.732	162.94
264.964	174.94
265.197	148.94
265.429	158.94
265.661	146.94
265.894	159.94
266.126	159.94
266.358	167.94
266.591	170.94
266.823	179.94
267.055	177.94
267.287	171.94
267.52	178.94
267.752	163.94
267.984	164.94
268.216	180.94
268.448	176.94
268.681	182.94
268.913	182.94
269.145	199.94
269.377	190.94
269.609	199.94
269.841	202.94
270.073	178.94
270.306	207.94
270.538	218.94
270.77	217.94
271.002	220.94
271.234	200.94
271.466	213.94
271.698	223.94
271.93	219.94
272.162	224.94
272.394	205.94
272.626	222.94
272.858	215.94
273.09	196.94
273.322	194.94
273.553	196.94
273.785	191.94
274.017	182.94
274.249	188.94
274.481	186.94
274.713	208.94
274.945	214.94
275.176	179.94
275.408	207.94
275.64	203.94
275.872	180.94
276.104	177.94
276.335	199.94
276.567	222.94
276.799	206.94
277.031	229.94
277.262	230.94
277.494	227.94
277.726	208.94
277.957	206.94
278.189	195.94
278.421	208.94
278.652	199.94
278.884	206.94
279.115	186.94
279.347	211.94
279.579	189.94
279.81	193.94
280.042	186.94
280.273	192.94
280.505	194.94
280.736	189.94
280.968	193.94
281.199	179.94
281.431	205.94
281.662	183.94
281.894	189.94
282.125	199.94
282.356	213.94
282.588	219.94
282.819	224.94
283.051	225.94
283.282	187.94
283.513	191.94
283.745	195.94
283.976	203.94
284.207	187.94
284.439	202.94
284.67	212.94
284.901	188.94
285.132	200.94
285.364	190.94
285.595	206.94
285.826	202.94
286.057	200.94
286.288	211.94
286.52	197.94
286.751	199.94
286.982	200.94
287.213	204.94
287.444	192.94
287.675	199.94
287.906	210.94
288.138	208.94
288.369	205.94
288.6	197.94
288.831	218.94
289.062	203.94
289.293	215.94
289.524	210.94
289.755	210.94
289.986	220.94
290.217	231.94
290.448	204.94
290.679	214.94
290.91	203.94
291.141	218.94
291.371	219.94
291.602	221.94
291.833	194.94
292.064	203.94
292.295	187.94
292.526	213.94
292.757	200.94
292.987	218.94
293.218	227.94
293.449	221.94
293.68	186.94
293.91	203.94
294.141	211.94
294.372	218.94
294.603	218.94
294.833	208.94
295.064	210.94
295.295	204.94
295.525	198.94
295.756	212.94
295.987	215.94
296.217	226.94
296.448	239.94
296.679	216.94
296.909	219.94
297.14	220.94
297.37	221.94
297.601	204.94
297.831	220.94
298.062	233.94
298.292	227.94
298.523	222.94
298.753	223.94
298.984	201.94
299.214	210.94
299.445	219.94
299.675	227.94
299.905	225.94
300.136	235.94
300.366	231.94
300.597	213.94
300.827	219.94
301.057	229.94
301.288	228.94
301.518	217.94
301.748	234.94
301.979	232.94
302.209	224.94
302.439	235.94
302.669	230.94
302.9	230.94
303.13	225.94
303.36	220.94
303.59	226.94
303.82	246.94
304.051	239.94
304.281	245.94
304.511	226.94
304.741	221.94
304.971	230.94
305.201	240.94
305.431	224.94
305.661	223.94
305.891	239.94
306.121	227.94
306.352	248.94
306.582	237.94
306.812	233.94
307.042	236.94
307.272	234.94
307.502	241.94
307.731	245.94
307.961	235.94
308.191	218.94
308.421	230.94
308.651	239.94
308.881	242.94
309.111	251.94
309.341	253.94
309.571	270.94
309.8	261.94
310.03	274.94
310.26	264.94
310.49	266.94
310.72	263.94
310.949	291.94
311.179	269.94
311.409	263.94
311.639	273.94
311.868	297.94
312.098	288.94
312.328	273.94
312.557	303.94
312.787	302.94
313.017	281.94
313.246	283.94
313.476	270.94
313.706	281.94
313.935	270.94
314.165	276.94
314.394	282.94
314.624	279.94
314.853	295.94
315.083	289.94
315.312	274.94
315.542	261.94
315.771	261.94
316.001	264.94
316.23	280.94
316.46	265.94
316.689	271.94
316.919	270.94
317.148	284.94
317.377	282.94
317.607	283.94
317.836	281.94
318.065	265.94
318.295	268.94
318.524	273.94
318.753	278.94
318.983	283.94
319.212	276.94
319.441	264.94
319.67	294.94
319.9	300.94
320.129	287.94
320.358	290.94
320.587	300.94
320.816	280.94
321.046	289.94
321.275	292.94
321.504	282.94
321.733	286.94
321.962	299.94
322.191	313.94
322.42	312.94
322.649	309.94
322.878	358.94
323.108	330.94
323.337	354.94
323.566	358.94
323.795	389.94
324.024	418.94
324.253	516.94
324.482	786.94
324.71	1137.94
324.939	1608.94
325.168	1353.94
325.397	706.94
325.626	495.94
325.855	408.94
326.084	383.94
326.313	351.94
326.542	406.94
326.77	409.94
326.999	496.94
327.228	695.94
327.457	992.94
327.686	1160.94
327.914	775.94
328.143	533.94
328.372	454.94
328.6	446.94
328.829	419.94
329.058	420.94
329.287	442.94
329.515	406.94
329.744	378.94
329.972	386.94
330.201	391.94
330.43	423.94
330.658	439.94
330.887	456.94
331.115	419.94
331.344	394.94
331.572	374.94
331.801	352.94
332.03	344.94
332.258	329.94
332.486	345.94
332.715	317.94
332.943	315.94
333.172	323.94
333.4	332.94
333.629	343.94
333.857	353.94
334.085	345.94
334.314	370.94
334.542	375.94
334.771	396.94
334.999	356.94
335.227	338.94
335.455	327.94
335.684	331.94
335.912	351.94
336.14	315.94
336.369	313.94
336.597	306.94
336.825	315.94
337.053	316.94
337.281	309.94
337.51	319.94
337.738	338.94
337.966	320.94
338.194	314.94
338.422	314.94
338.65	313.94
338.878	312.94
339.106	293.94
339.334	309.94
339.562	323.94
339.79	304.94
340.018	303.94
340.246	313.94
340.474	292.94
340.702	318.94
340.93	330.94
341.158	316.94
341.386	311.94
341.614	312.94
341.842	324.94
342.07	319.94
342.298	296.94
342.526	279.94
342.754	295.94
342.981	299.94
343.209	299.94
343.437	293.94
343.665	319.94
343.893	317.94
344.12	298.94
344.348	302.94
344.576	321.94
344.804	313.94
345.031	323.94
345.259	334.94
345.487	321.94
345.714	299.94
345.942	316.94
346.17	316.94
346.397	308.94
346.625	304.94
346.853	297.94
347.08	292.94
347.308	298.94
347.535	310.94
347.763	335.94
347.99	305.94
348.218	303.94
348.445	319.94
348.673	310.94
348.9	308.94
349.128	303.94
349.355	296.94
349.583	293.94
349.81	308.94
350.037	301.94
350.265	296.94
350.492	293.94
350.72	291.94
350.947	297.94
351.174	316.94
351.402	304.94
351.629	302.94
351.856	306.94
352.083	309.94
352.311	299.94
352.538	296.94
352.765	320.94
352.992	323.94
353.22	317.94
353.447	318.94
353.674	313.94
353.901	288.94
354.128	281.94
354.355	297.94
354.583	291.94
354.81	284.94
355.037	284.94
355.264	264.94
355.491	273.94
355.718	305.94
355.945	286.94
356.172	277.94
356.399	307.94
356.626	282.94
356.853	262.94
357.08	280.94
357.307	290.94
357.534	298.94
357.761	274.94
357.988	282.94
358.215	273.94
358.441	282.94
358.668	276.94
358.895	283.94
359.122	287.94
359.349	286.94
359.576	299.94
359.802	334.94
360.029	344.94
360.256	360.94
360.483	333.94
360.709	291.94
360.936	297.94
361.163	283.94
361.39	324.94
361.616	316.94
361.843	312.94
362.07	311.94
362.296	301.94
362.523	296.94
362.749	300.94
362.976	307.94
363.203	327.94
363.429	291.94
363.656	267.94
363.882	300.94
364.109	291.94
364.335	273.94
364.562	293.94
364.788	317.94
365.015	282.94
365.241	286.94
365.468	292.94
365.694	294.94
365.92	316.94
366.147	278.94
366.373	290.94
366.599	294.94
366.826	283.94
367.052	289.94
367.278	295.94
367.505	288.94
367.731	292.94
367.957	277.94
368.184	292.94
368.41	294.94
368.636	323.94
368.862	296.94
369.089	307.94
369.315	300.94
369.541	282.94
369.767	307.94
369.993	296.94
370.219	288.94
370.445	284.94
370.672	290.94
370.898	302.94
371.124	277.94
371.35	287.94
371.576	281.94
371.802	304.94
372.028	286.94
372.254	299.94
372.48	282.94
372.706	280.94
372.932	269.94
373.158	282.94
373.384	289.94
373.61	293.94
373.835	296.94
374.061	285.94
374.287	297.94
374.513	334.94
374.739	306.94
374.965	279.94
375.191	310.94
375.416	296.94
375.642	282.94
375.868	293.94
376.094	292.94
376.319	303.94
376.545	284.94
376.771	286.94
376.997	281.94
377.222	286.94
377.448	276.94
377.674	290.94
377.899	309.94
378.125	302.94
378.35	296.94
378.576	296.94
378.802	283.94
379.027	285.94
379.253	291.94
379.478	281.94
379.704	295.94
379.929	297.94
380.155	294.94
380.38	283.94
380.606	312.94
380.831	284.94
381.057	310.94
381.282	297.94
381.507	291.94
381.733	289.94
381.958	274.94
382.184	300.94
382.409	296.94
382.634	293.94
382.86	294.94
383.085	305.94
383.31	302.94
383.535	305.94
383.761	294.94
383.986	302.94
384.211	326.94
384.436	309.94
384.662	299.94
384.887	303.94
385.112	324.94
385.337	298.94
385.562	312.94
385.787	326.94
386.013	337.94
386.238	332.94
386.463	305.94
386.688	315.94
386.913	331.94
387.138	316.94
387.363	307.94
387.588	318.94
387.813	306.94
388.038	312.94
388.263	322.94
388.488	296.94
388.713	313.94
388.938	323.94
389.163	321.94
389.387	311.94
389.612	319.94
389.837	312.94
390.062	311.94
390.287	312.94
390.512	323.94
390.736	312.94
390.961	317.94
391.186	309.94
391.411	306.94
391.636	315.94
391.86	312.94
392.085	310.94
392.31	325.94
392.534	323.94
392.759	315.94
392.984	315.94
393.208	315.94
393.433	337.94
393.658	318.94
393.882	309.94
394.107	320.94
394.331	308.94
394.556	331.94
394.78	310.94
395.005	294.94
395.229	315.94
395.454	314.94
395.678	341.94
395.903	332.94
396.127	350.94
396.352	352.94
396.576	324.94
396.801	320.94
397.025	340.94
397.249	323.94
397.474	324.94
397.698	331.94
397.922	346.94
398.147	367.94
398.371	355.94
398.595	334.94
398.82	358.94
399.044	370.94
399.268	367.94
399.492	376.94
399.717	414.94
399.941	414.94
400.165	417.94
400.389	439.94
400.613	400.94
400.837	386.94
401.062	396.94
401.286	368.94
401.51	351.94
401.734	347.94
401.958	346.94
402.182	384.94
402.406	363.94
402.63	368.94
402.854	373.94
403.078	378.94
403.302	370.94
403.526	361.94
403.75	370.94
403.974	367.94
404.198	373.94
404.422	375.94
404.645	361.94
404.869	384.94
405.093	384.94
405.317	425.94
405.541	438.94
405.765	418.94
405.988	412.94
406.212	392.94
406.436	417.94
406.66	406.94
406.883	396.94
407.107	408.94
407.331	443.94
407.555	484.94
407.778	488.94
408.002	434.94
408.226	418.94
408.449	400.94
408.673	413.94
408.896	438.94
409.12	455.94
409.344	450.94
409.567	392.94
409.791	376.94
410.014	379.94
410.238	381.94
410.461	376.94
410.685	376.94
410.908	384.94
411.132	416.94
411.355	427.94
411.578	419.94
411.802	385.94
412.025	374.94
412.249	371.94
412.472	385.94
412.695	414.94
412.919	422.94
413.142	374.94
413.365	376.94
413.589	360.94
413.812	352.94
414.035	369.94
414.258	355.94
414.482	333.94
414.705	342.94
414.928	354.94
415.151	328.94
415.374	371.94
415.597	361.94
415.821	353.94
416.044	339.94
416.267	353.94
416.49	337.94
416.713	355.94
416.936	337.94
417.159	351.94
417.382	366.94
417.605	353.94
417.828	372.94
418.051	378.94
418.274	366.94
418.497	362.94
418.72	338.94
418.943	360.94
419.166	370.94
419.389	370.94
419.611	375.94
419.834	362.94
420.057	359.94
420.28	349.94
420.503	368.94
420.726	360.94
420.948	378.94
421.171	419.94
421.394	414.94
421.617	391.94
421.839	388.94
422.062	352.94
422.285	386.94
422.507	432.94
422.73	466.94
422.953	468.94
423.175	398.94
423.398	372.94
423.621	394.94
423.843	396.94
424.066	388.94
424.288	406.94
424.511	403.94
424.733	448.94
424.956	509.94
425.178	484.94
425.401	469.94
425.623	498.94
425.846	423.94
426.068	388.94
426.291	402.94
426.513	388.94
426.735	388.94
426.958	449.94
427.18	501.94
427.402	583.94
427.625	643.94
427.847	575.94
428.069	489.94
428.292	438.94
428.514	412.94
428.736	378.94
428.958	367.94
429.181	364.94
429.403	388.94
429.625	373.94
429.847	425.94
430.069	436.94
430.292	450.94
430.514	382.94
430.736	376.94
430.958	367.94
431.18	340.94
431.402	354.94
431.624	339.94
431.846	350.94
432.068	333.94
432.29	348.94
432.512	377.94
432.734	355.94
432.956	361.94
433.178	378.94
433.4	355.94
433.622	354.94
433.844	347.94
434.066	352.94
434.287	357.94
434.509	349.94
434.731	376.94
434.953	371.94
435.175	366.94
435.397	391.94
435.618	395.94
435.84	440.94
436.062	496.94
436.284	519.94
436.505	468.94
436.727	420.94
436.949	409.94
437.17	394.94
437.392	388.94
437.614	390.94
437.835	421.94
438.057	481.94
438.278	542.94
438.5	548.94
438.721	587.94
438.943	546.94
439.165	465.94
439.386	432.94
439.608	422.94
439.829	430.94
440.05	455.94
440.272	475.94
440.493	430.94
440.715	402.94
440.936	377.94
441.158	389.94
441.379	375.94
441.6	363.94
441.822	396.94
442.043	441.94
442.264	512.94
442.486	504.94
442.707	435.94
442.928	441.94
443.149	424.94
443.371	445.94
443.592	457.94
443.813	522.94
444.034	558.94
444.255	486.94
444.476	423.94
444.698	402.94
444.919	414.94
445.14	522.94
445.361	471.94
445.582	430.94
445.803	490.94
446.024	572.94
446.245	564.94
446.466	502.94
446.687	453.94
446.908	408.94
447.129	398.94
447.35	385.94
447.571	394.94
447.792	394.94
448.013	396.94
448.234	404.94
448.455	426.94
448.675	510.94
448.896	604.94
449.117	497.94
449.338	492.94
449.559	536.94
449.779	618.94
450	505.94
450.221	424.94
450.442	368.94
450.662	355.94
450.883	386.94
451.104	400.94
451.324	390.94
451.545	369.94
451.766	353.94
451.986	332.94
452.207	339.94
452.428	345.94
452.648	354.94
452.869	357.94
453.089	355.94
453.31	372.94
453.53	348.94
453.751	344.94
453.971	348.94
454.192	366.94
454.412	338.94
454.633	350.94
454.853	326.94
455.073	342.94
455.294	349.94
455.514	404.94
455.734	388.94
455.955	330.94
456.175	343.94
456.395	348.94
456.616	341.94
456.836	335.94
457.056	344.94
457.276	315.94
457.497	336.94
457.717	331.94
457.937	342.94
458.157	330.94
458.377	339.94
458.598	364.94
458.818	396.94
459.038	458.94
459.258	450.94
459.478	396.94
459.698	367.94
459.918	344.94
460.138	342.94
460.358	368.94
460.578	362.94
460.798	357.94
461.018	375.94
461.238	354.94
461.458	352.94
461.678	353.94
461.898	365.94
462.118	364.94
462.338	378.94
462.558	356.94
462.777	377.94
462.997	387.94
463.217	379.94
463.437	361.94
463.657	382.94
463.876	354.94
464.096	382.94
464.316	372.94
464.536	396.94
464.755	382.94
464.975	370.94
465.195	402.94
465.414	467.94
465.634	435.94
465.854	407.94
466.073	374.94
466.293	374.94
466.512	345.94
466.732	343.94
466.951	361.94
467.171	346.94
467.391	343.94
467.61	364.94
467.829	373.94
468.049	378.94
468.268	356.94
468.488	348.94
468.707	340.94
468.927	328.94
469.146	331.94
469.365	348.94
469.585	348.94
469.804	341.94
470.023	367.94
470.243	353.94
470.462	372.94
470.681	366.94
470.901	365.94
471.12	359.94
471.339	362.94
471.558	363.94
471.777	361.94
471.997	365.94
472.216	350.94
472.435	392.94
472.654	382.94
472.873	359.94
473.092	372.94
473.311	362.94
473.53	342.94
473.749	366.94
473.968	411.94
474.187	460.94
474.406	474.94
474.625	382.94
474.844	362.94
475.063	356.94
475.282	377.94
475.501	366.94
475.72	366.94
475.939	383.94
476.158	356.94
476.377	372.94
476.596	355.94
476.814	384.94
477.033	398.94
477.252	355.94
477.471	372.94
477.69	380.94
477.908	405.94
478.127	376.94
478.346	376.94
478.564	400.94
478.783	391.94
479.002	401.94
479.22	409.94
479.439	405.94
479.658	411.94
479.876	413.94
480.095	442.94
480.313	452.94
480.532	446.94
480.751	432.94
480.969	439.94
481.188	509.94
481.406	537.94
481.624	464.94
481.843	446.94
482.061	431.94
482.28	394.94
482.498	424.94
482.717	438.94
482.935	417.94
483.153	427.94
483.372	409.94
483.59	418.94
483.808	425.94
484.027	393.94
484.245	404.94
484.463	414.94
484.681	420.94
484.9	434.94
485.118	426.94
485.336	414.94
485.554	441.94
485.772	442.94
485.99	437.94
486.209	451.94
486.427	434.94
486.645	443.94
486.863	456.94
487.081	449.94
487.299	467.94
487.517	446.94
487.735	426.94
487.953	446.94
488.171	474.94
488.389	442.94
488.607	435.94
488.825	434.94
489.043	443.94
489.261	451.94
489.479	434.94
489.696	450.94
489.914	467.94
490.132	466.94
490.35	486.94
490.568	475.94
490.786	474.94
491.003	473.94
491.221	491.94
491.439	501.94
491.657	496.94
491.874	510.94
492.092	519.94
492.31	502.94
492.527	508.94
492.745	514.94
492.963	512.94
493.18	521.94
493.398	504.94
493.615	517.94
493.833	501.94
494.05	498.94
494.268	513.94
494.485	517.94
494.703	515.94
494.92	517.94
495.138	532.94
495.355	502.94
495.573	538.94
495.79	511.94
496.008	526.94
496.225	514.94
496.442	530.94
496.66	537.94
496.877	524.94
497.094	528.94
497.312	552.94
497.529	567.94
497.746	548.94
497.963	550.94
498.181	557.94
498.398	563.94
498.615	594.94
498.832	594.94
499.049	587.94
499.267	605.94
499.484	611.94
499.701	623.94
499.918	637.94
500.135	656.94
500.352	678.94
500.569	688.94
500.786	652.94
501.003	708.94
501.22	660.94
501.437	650.94
501.654	639.94
501.871	634.94
502.088	626.94
