Data from 1961.PennyLincolnUp.Lamp.En5.5.200Scan.071719.P1._HRD10591_13-47-52-058.txt Node
Date: Thu Jul 18 13:47:52 EDT 2019
User: cochatt
Spectrometer: HR+D1059
Trigger mode: 1
Integration Time (sec): 1.000000E-1
Scans to average: 1
Electric dark correction enabled: true
Nonlinearity correction enabled: false
Boxcar width: 0
XAxis mode: Wavelengths
Number of Pixels in Spectrum: 2048
>>>>>Begin Spectral Data<<<<<
223.165	-0.5
223.4	-0.5
223.635	-0.5
223.869	-23.5
224.104	-21.5
224.338	6.5
224.573	-7.5
224.808	-17.5
225.042	-13.5
225.277	-10.5
225.511	-6.5
225.746	14.5
225.98	15.5
226.215	9.5
226.449	-2.5
226.683	11.5
226.918	23.5
227.152	22.5
227.387	27.5
227.621	41.5
227.856	41.5
228.09	40.5
228.324	48.5
228.559	47.5
228.793	72.5
229.027	76.5
229.262	95.5
229.496	111.5
229.73	114.5
229.964	150.5
230.199	121.5
230.433	103.5
230.667	106.5
230.901	102.5
231.136	98.5
231.37	117.5
231.604	120.5
231.838	103.5
232.072	119.5
232.306	94.5
232.541	103.5
232.775	102.5
233.009	105.5
233.243	96.5
233.477	115.5
233.711	122.5
233.945	91.5
234.179	116.5
234.413	112.5
234.647	114.5
234.881	117.5
235.115	121.5
235.349	115.5
235.583	111.5
235.817	94.5
236.051	110.5
236.285	110.5
236.519	111.5
236.753	107.5
236.987	123.5
237.221	170.5
237.455	209.5
237.689	171.5
237.922	113.5
238.156	119.5
238.39	112.5
238.624	102.5
238.858	122.5
239.091	107.5
239.325	106.5
239.559	110.5
239.793	113.5
240.027	129.5
240.26	142.5
240.494	146.5
240.728	126.5
240.961	137.5
241.195	117.5
241.429	121.5
241.662	116.5
241.896	122.5
242.13	114.5
242.363	117.5
242.597	103.5
242.83	120.5
243.064	125.5
243.298	131.5
243.531	122.5
243.765	117.5
243.998	129.5
244.232	136.5
244.465	131.5
244.699	127.5
244.932	123.5
245.166	122.5
245.399	122.5
245.633	134.5
245.866	127.5
246.099	125.5
246.333	126.5
246.566	145.5
246.8	136.5
247.033	134.5
247.266	132.5
247.5	150.5
247.733	124.5
247.966	141.5
248.2	133.5
248.433	153.5
248.666	123.5
248.899	158.5
249.133	177.5
249.366	166.5
249.599	160.5
249.832	161.5
250.066	145.5
250.299	155.5
250.532	155.5
250.765	173.5
250.998	194.5
251.231	180.5
251.465	190.5
251.698	175.5
251.931	176.5
252.164	167.5
252.397	167.5
252.63	164.5
252.863	174.5
253.096	177.5
253.329	194.5
253.562	191.5
253.795	194.5
254.028	181.5
254.261	189.5
254.494	194.5
254.727	228.5
254.96	226.5
255.193	212.5
255.426	196.5
255.659	193.5
255.892	208.5
256.124	207.5
256.357	193.5
256.59	182.5
256.823	199.5
257.056	179.5
257.289	174.5
257.521	174.5
257.754	175.5
257.987	195.5
258.22	176.5
258.452	152.5
258.685	163.5
258.918	166.5
259.151	183.5
259.383	170.5
259.616	183.5
259.849	196.5
260.081	196.5
260.314	215.5
260.547	209.5
260.779	197.5
261.012	193.5
261.244	169.5
261.477	186.5
261.71	189.5
261.942	192.5
262.175	189.5
262.407	206.5
262.64	189.5
262.872	183.5
263.105	189.5
263.337	190.5
263.57	170.5
263.802	169.5
264.035	176.5
264.267	156.5
264.499	191.5
264.732	193.5
264.964	183.5
265.197	169.5
265.429	178.5
265.661	181.5
265.894	173.5
266.126	181.5
266.358	175.5
266.591	179.5
266.823	163.5
267.055	174.5
267.287	197.5
267.52	184.5
267.752	190.5
267.984	183.5
268.216	201.5
268.448	184.5
268.681	216.5
268.913	221.5
269.145	210.5
269.377	207.5
269.609	202.5
269.841	212.5
270.073	245.5
270.306	243.5
270.538	256.5
270.77	258.5
271.002	255.5
271.234	243.5
271.466	251.5
271.698	262.5
271.93	254.5
272.162	273.5
272.394	248.5
272.626	239.5
272.858	251.5
273.09	232.5
273.322	220.5
273.553	224.5
273.785	217.5
274.017	226.5
274.249	231.5
274.481	220.5
274.713	216.5
274.945	236.5
275.176	222.5
275.408	221.5
275.64	224.5
275.872	211.5
276.104	217.5
276.335	217.5
276.567	234.5
276.799	249.5
277.031	240.5
277.262	260.5
277.494	261.5
277.726	257.5
277.957	243.5
278.189	208.5
278.421	211.5
278.652	215.5
278.884	223.5
279.115	209.5
279.347	223.5
279.579	215.5
279.81	206.5
280.042	213.5
280.273	217.5
280.505	204.5
280.736	239.5
280.968	223.5
281.199	206.5
281.431	195.5
281.662	213.5
281.894	212.5
282.125	218.5
282.356	235.5
282.588	254.5
282.819	259.5
283.051	221.5
283.282	211.5
283.513	222.5
283.745	231.5
283.976	216.5
284.207	217.5
284.439	229.5
284.67	223.5
284.901	232.5
285.132	222.5
285.364	210.5
285.595	223.5
285.826	222.5
286.057	229.5
286.288	237.5
286.52	233.5
286.751	219.5
286.982	233.5
287.213	223.5
287.444	222.5
287.675	237.5
287.906	241.5
288.138	233.5
288.369	239.5
288.6	256.5
288.831	235.5
289.062	249.5
289.293	232.5
289.524	235.5
289.755	234.5
289.986	220.5
290.217	211.5
290.448	232.5
290.679	234.5
290.91	206.5
291.141	226.5
291.371	246.5
291.602	228.5
291.833	233.5
292.064	215.5
292.295	233.5
292.526	241.5
292.757	216.5
292.987	241.5
293.218	243.5
293.449	237.5
293.68	242.5
293.91	224.5
294.141	227.5
294.372	252.5
294.603	219.5
294.833	241.5
295.064	227.5
295.295	222.5
295.525	229.5
295.756	228.5
295.987	232.5
296.217	274.5
296.448	263.5
296.679	252.5
296.909	241.5
297.14	242.5
297.37	243.5
297.601	240.5
297.831	242.5
298.062	250.5
298.292	249.5
298.523	251.5
298.753	263.5
298.984	247.5
299.214	254.5
299.445	249.5
299.675	262.5
299.905	245.5
300.136	267.5
300.366	234.5
300.597	243.5
300.827	253.5
301.057	255.5
301.288	245.5
301.518	263.5
301.748	265.5
301.979	257.5
302.209	273.5
302.439	271.5
302.669	270.5
302.9	274.5
303.13	237.5
303.36	257.5
303.59	244.5
303.82	274.5
304.051	267.5
304.281	277.5
304.511	243.5
304.741	245.5
304.971	270.5
305.201	261.5
305.431	264.5
305.661	263.5
305.891	279.5
306.121	263.5
306.352	285.5
306.582	257.5
306.812	268.5
307.042	257.5
307.272	267.5
307.502	259.5
307.731	277.5
307.961	279.5
308.191	283.5
308.421	271.5
308.651	274.5
308.881	274.5
309.111	280.5
309.341	273.5
309.571	291.5
309.8	295.5
310.03	289.5
310.26	307.5
310.49	311.5
310.72	309.5
310.949	299.5
311.179	329.5
311.409	320.5
311.639	319.5
311.868	328.5
312.098	307.5
312.328	318.5
312.557	326.5
312.787	341.5
313.017	361.5
313.246	325.5
313.476	331.5
313.706	316.5
313.935	307.5
314.165	342.5
314.394	336.5
314.624	334.5
314.853	321.5
315.083	306.5
315.312	315.5
315.542	294.5
315.771	291.5
316.001	327.5
316.23	296.5
316.46	317.5
316.689	304.5
316.919	320.5
317.148	313.5
317.377	314.5
317.607	326.5
317.836	330.5
318.065	301.5
318.295	321.5
318.524	307.5
318.753	324.5
318.983	305.5
319.212	319.5
319.441	323.5
319.67	312.5
319.9	306.5
320.129	302.5
320.358	317.5
320.587	323.5
320.816	322.5
321.046	345.5
321.275	347.5
321.504	337.5
321.733	344.5
321.962	320.5
322.191	373.5
322.42	379.5
322.649	395.5
322.878	396.5
323.108	401.5
323.337	437.5
323.566	447.5
323.795	485.5
324.024	544.5
324.253	669.5
324.482	998.5
324.71	1519.5
324.939	2174.5
325.168	1841.5
325.397	957.5
325.626	625.5
325.855	529.5
326.084	454.5
326.313	453.5
326.542	466.5
326.77	517.5
326.999	637.5
327.228	893.5
327.457	1372.5
327.686	1606.5
327.914	1062.5
328.143	682.5
328.372	579.5
328.6	551.5
328.829	511.5
329.058	521.5
329.287	528.5
329.515	501.5
329.744	442.5
329.972	473.5
330.201	487.5
330.43	513.5
330.658	565.5
330.887	549.5
331.115	534.5
331.344	440.5
331.572	417.5
331.801	432.5
332.03	418.5
332.258	401.5
332.486	379.5
332.715	385.5
332.943	378.5
333.172	392.5
333.4	375.5
333.629	388.5
333.857	392.5
334.085	416.5
334.314	437.5
334.542	460.5
334.771	487.5
334.999	441.5
335.227	419.5
335.455	373.5
335.684	362.5
335.912	373.5
336.14	358.5
336.369	355.5
336.597	362.5
336.825	369.5
337.053	373.5
337.281	349.5
337.51	350.5
337.738	349.5
337.966	353.5
338.194	340.5
338.422	378.5
338.65	357.5
338.878	338.5
339.106	334.5
339.334	346.5
339.562	350.5
339.79	341.5
340.018	349.5
340.246	360.5
340.474	349.5
340.702	365.5
340.93	344.5
341.158	337.5
341.386	343.5
341.614	355.5
341.842	355.5
342.07	347.5
342.298	338.5
342.526	330.5
342.754	318.5
342.981	318.5
343.209	334.5
343.437	345.5
343.665	335.5
343.893	360.5
344.12	354.5
344.348	371.5
344.576	357.5
344.804	351.5
345.031	374.5
345.259	363.5
345.487	377.5
345.714	365.5
345.942	348.5
346.17	331.5
346.397	351.5
346.625	326.5
346.853	337.5
347.08	341.5
347.308	332.5
347.535	349.5
347.763	360.5
347.99	341.5
348.218	349.5
348.445	373.5
348.673	358.5
348.9	348.5
349.128	333.5
349.355	307.5
349.583	339.5
349.81	327.5
350.037	344.5
350.265	331.5
350.492	324.5
350.72	353.5
350.947	340.5
351.174	364.5
351.402	337.5
351.629	350.5
351.856	333.5
352.083	353.5
352.311	360.5
352.538	358.5
352.765	371.5
352.992	349.5
353.22	379.5
353.447	355.5
353.674	341.5
353.901	359.5
354.128	320.5
354.355	301.5
354.583	321.5
354.81	322.5
355.037	337.5
355.264	307.5
355.491	340.5
355.718	307.5
355.945	313.5
356.172	304.5
356.399	306.5
356.626	323.5
356.853	313.5
357.08	278.5
357.307	314.5
357.534	303.5
357.761	317.5
357.988	331.5
358.215	325.5
358.441	315.5
358.668	311.5
358.895	345.5
359.122	313.5
359.349	341.5
359.576	367.5
359.802	373.5
360.029	385.5
360.256	413.5
360.483	383.5
360.709	355.5
360.936	342.5
361.163	345.5
361.39	353.5
361.616	351.5
361.843	340.5
362.07	357.5
362.296	352.5
362.523	348.5
362.749	341.5
362.976	340.5
363.203	324.5
363.429	325.5
363.656	321.5
363.882	342.5
364.109	324.5
364.335	326.5
364.562	341.5
364.788	333.5
365.015	319.5
365.241	329.5
365.468	340.5
365.694	336.5
365.92	338.5
366.147	331.5
366.373	307.5
366.599	336.5
366.826	325.5
367.052	325.5
367.278	319.5
367.505	309.5
367.731	331.5
367.957	352.5
368.184	319.5
368.41	334.5
368.636	352.5
368.862	333.5
369.089	335.5
369.315	314.5
369.541	320.5
369.767	323.5
369.993	327.5
370.219	325.5
370.445	334.5
370.672	314.5
370.898	302.5
371.124	327.5
371.35	342.5
371.576	314.5
371.802	330.5
372.028	288.5
372.254	318.5
372.48	323.5
372.706	285.5
372.932	314.5
373.158	317.5
373.384	315.5
373.61	333.5
373.835	324.5
374.061	311.5
374.287	333.5
374.513	309.5
374.739	328.5
374.965	319.5
375.191	323.5
375.416	317.5
375.642	328.5
375.868	320.5
376.094	315.5
376.319	320.5
376.545	298.5
376.771	301.5
376.997	319.5
377.222	328.5
377.448	307.5
377.674	332.5
377.899	330.5
378.125	314.5
378.35	321.5
378.576	291.5
378.802	294.5
379.027	323.5
379.253	307.5
379.478	305.5
379.704	317.5
379.929	331.5
380.155	316.5
380.38	329.5
380.606	311.5
380.831	327.5
381.057	317.5
381.282	314.5
381.507	313.5
381.733	314.5
381.958	312.5
382.184	323.5
382.409	322.5
382.634	314.5
382.86	319.5
383.085	327.5
383.31	310.5
383.535	321.5
383.761	326.5
383.986	325.5
384.211	321.5
384.436	326.5
384.662	319.5
384.887	326.5
385.112	310.5
385.337	334.5
385.562	340.5
385.787	346.5
386.013	341.5
386.238	353.5
386.463	350.5
386.688	332.5
386.913	353.5
387.138	344.5
387.363	329.5
387.588	353.5
387.813	339.5
388.038	339.5
388.263	339.5
388.488	346.5
388.713	355.5
388.938	343.5
389.163	343.5
389.387	331.5
389.612	316.5
389.837	344.5
390.062	347.5
390.287	332.5
390.512	328.5
390.736	332.5
390.961	345.5
391.186	350.5
391.411	338.5
391.636	341.5
391.86	363.5
392.085	357.5
392.31	338.5
392.534	363.5
392.759	361.5
392.984	355.5
393.208	339.5
393.433	328.5
393.658	349.5
393.882	337.5
394.107	330.5
394.331	349.5
394.556	320.5
394.78	347.5
395.005	337.5
395.229	341.5
395.454	326.5
395.678	359.5
395.903	365.5
396.127	393.5
396.352	377.5
396.576	366.5
396.801	359.5
397.025	362.5
397.249	349.5
397.474	359.5
397.698	369.5
397.922	373.5
398.147	364.5
398.371	385.5
398.595	385.5
398.82	392.5
399.044	381.5
399.268	383.5
399.492	411.5
399.717	424.5
399.941	450.5
400.165	473.5
400.389	478.5
400.613	420.5
400.837	415.5
401.062	393.5
401.286	389.5
401.51	385.5
401.734	369.5
401.958	388.5
402.182	377.5
402.406	398.5
402.63	414.5
402.854	402.5
403.078	392.5
403.302	385.5
403.526	409.5
403.75	404.5
403.974	405.5
404.198	413.5
404.422	396.5
404.645	415.5
404.869	424.5
405.093	425.5
405.317	469.5
405.541	492.5
405.765	436.5
405.988	443.5
406.212	448.5
406.436	441.5
406.66	460.5
406.883	456.5
407.107	458.5
407.331	493.5
407.555	543.5
407.778	547.5
408.002	504.5
408.226	461.5
408.449	447.5
408.673	458.5
408.896	459.5
409.12	473.5
409.344	481.5
409.567	401.5
409.791	415.5
410.014	425.5
410.238	412.5
410.461	407.5
410.685	415.5
410.908	440.5
411.132	449.5
411.355	483.5
411.578	455.5
411.802	429.5
412.025	410.5
412.249	415.5
412.472	456.5
412.695	454.5
412.919	460.5
413.142	430.5
413.365	403.5
413.589	390.5
413.812	381.5
414.035	387.5
414.258	384.5
414.482	386.5
414.705	376.5
414.928	414.5
415.151	392.5
415.374	377.5
415.597	395.5
415.821	347.5
416.044	386.5
416.267	385.5
416.49	397.5
416.713	379.5
416.936	384.5
417.159	376.5
417.382	387.5
417.605	398.5
417.828	410.5
418.051	399.5
418.274	415.5
418.497	392.5
418.72	394.5
418.943	393.5
419.166	403.5
419.389	417.5
419.611	406.5
419.834	407.5
420.057	406.5
420.28	421.5
420.503	405.5
420.726	416.5
420.948	422.5
421.171	463.5
421.394	483.5
421.617	421.5
421.839	401.5
422.062	411.5
422.285	437.5
422.507	450.5
422.73	521.5
422.953	506.5
423.175	448.5
423.398	436.5
423.621	399.5
423.843	435.5
424.066	424.5
424.288	454.5
424.511	458.5
424.733	515.5
424.956	586.5
425.178	575.5
425.401	531.5
425.623	545.5
425.846	468.5
426.068	464.5
426.291	441.5
426.513	460.5
426.735	449.5
426.958	506.5
427.18	571.5
427.402	659.5
427.625	742.5
427.847	671.5
428.069	585.5
428.292	497.5
428.514	452.5
428.736	423.5
428.958	417.5
429.181	426.5
429.403	421.5
429.625	421.5
429.847	464.5
430.069	507.5
430.292	509.5
430.514	445.5
430.736	394.5
430.958	404.5
431.18	392.5
431.402	377.5
431.624	397.5
431.846	386.5
432.068	389.5
432.29	394.5
432.512	399.5
432.734	391.5
432.956	404.5
433.178	396.5
433.4	400.5
433.622	392.5
433.844	387.5
434.066	407.5
434.287	378.5
434.509	395.5
434.731	397.5
434.953	423.5
435.175	394.5
435.397	423.5
435.618	441.5
435.84	484.5
436.062	555.5
436.284	590.5
436.505	505.5
436.727	494.5
436.949	454.5
437.17	424.5
437.392	398.5
437.614	430.5
437.835	457.5
438.057	547.5
438.278	645.5
438.5	623.5
438.721	673.5
438.943	637.5
439.165	519.5
439.386	469.5
439.608	484.5
439.829	461.5
440.05	505.5
440.272	541.5
440.493	510.5
440.715	462.5
440.936	427.5
441.158	406.5
441.379	431.5
441.6	423.5
441.822	459.5
442.043	478.5
442.264	559.5
442.486	585.5
442.707	503.5
442.928	472.5
443.149	474.5
443.371	502.5
443.592	517.5
443.813	594.5
444.034	633.5
444.255	509.5
444.476	459.5
444.698	441.5
444.919	461.5
445.14	583.5
445.361	515.5
445.582	507.5
445.803	581.5
446.024	643.5
446.245	669.5
446.466	595.5
446.687	479.5
446.908	466.5
447.129	438.5
447.35	432.5
447.571	425.5
447.792	422.5
448.013	424.5
448.234	442.5
448.455	470.5
448.675	549.5
448.896	664.5
449.117	581.5
449.338	548.5
449.559	628.5
449.779	710.5
450	576.5
450.221	483.5
450.442	423.5
450.662	434.5
450.883	411.5
451.104	451.5
451.324	426.5
451.545	395.5
451.766	374.5
451.986	398.5
452.207	377.5
452.428	365.5
452.648	376.5
452.869	394.5
453.089	382.5
453.31	402.5
453.53	374.5
453.751	382.5
453.971	390.5
454.192	397.5
454.412	394.5
454.633	396.5
454.853	382.5
455.073	366.5
455.294	398.5
455.514	452.5
455.734	445.5
455.955	372.5
456.175	337.5
456.395	355.5
456.616	350.5
456.836	355.5
457.056	347.5
457.276	343.5
457.497	347.5
457.717	366.5
457.937	349.5
458.157	371.5
458.377	371.5
458.598	395.5
458.818	447.5
459.038	539.5
459.258	509.5
459.478	412.5
459.698	390.5
459.918	387.5
460.138	383.5
460.358	383.5
460.578	382.5
460.798	387.5
461.018	391.5
461.238	379.5
461.458	394.5
461.678	356.5
461.898	381.5
462.118	379.5
462.338	401.5
462.558	404.5
462.777	392.5
462.997	401.5
463.217	426.5
463.437	417.5
463.657	411.5
463.876	414.5
464.096	412.5
464.316	406.5
464.536	425.5
464.755	422.5
464.975	431.5
465.195	467.5
465.414	552.5
465.634	487.5
465.854	430.5
466.073	416.5
466.293	406.5
466.512	383.5
466.732	396.5
466.951	389.5
467.171	381.5
467.391	373.5
467.61	392.5
467.829	406.5
468.049	427.5
468.268	403.5
468.488	392.5
468.707	381.5
468.927	389.5
469.146	368.5
469.365	359.5
469.585	385.5
469.804	371.5
470.023	401.5
470.243	388.5
470.462	394.5
470.681	415.5
470.901	391.5
471.12	386.5
471.339	379.5
471.558	392.5
471.777	382.5
471.997	375.5
472.216	389.5
472.435	474.5
472.654	437.5
472.873	417.5
473.092	418.5
473.311	385.5
473.53	391.5
473.749	394.5
473.968	453.5
474.187	525.5
474.406	573.5
474.625	443.5
474.844	410.5
475.063	401.5
475.282	396.5
475.501	407.5
475.72	399.5
475.939	401.5
476.158	397.5
476.377	401.5
476.596	405.5
476.814	407.5
477.033	403.5
477.252	423.5
477.471	421.5
477.69	426.5
477.908	431.5
478.127	439.5
478.346	424.5
478.564	435.5
478.783	405.5
479.002	440.5
479.22	450.5
479.439	464.5
479.658	482.5
479.876	465.5
480.095	470.5
480.313	525.5
480.532	487.5
480.751	488.5
480.969	494.5
481.188	567.5
481.406	612.5
481.624	517.5
481.843	479.5
482.061	472.5
482.28	498.5
482.498	447.5
482.717	457.5
482.935	475.5
483.153	450.5
483.372	442.5
483.59	461.5
483.808	465.5
484.027	482.5
484.245	462.5
484.463	466.5
484.681	467.5
484.9	461.5
485.118	466.5
485.336	480.5
485.554	451.5
485.772	477.5
485.99	464.5
486.209	462.5
486.427	503.5
486.645	470.5
486.863	506.5
487.081	501.5
487.299	522.5
487.517	496.5
487.735	476.5
487.953	495.5
488.171	495.5
488.389	509.5
488.607	492.5
488.825	489.5
489.043	488.5
489.261	502.5
489.479	514.5
489.696	503.5
489.914	521.5
490.132	523.5
490.35	526.5
490.568	511.5
490.786	515.5
491.003	528.5
491.221	564.5
491.439	547.5
491.657	546.5
491.874	576.5
492.092	547.5
492.31	581.5
492.527	585.5
492.745	570.5
492.963	570.5
493.18	556.5
493.398	561.5
493.615	540.5
493.833	556.5
494.05	584.5
494.268	568.5
494.485	563.5
494.703	565.5
494.92	580.5
495.138	606.5
495.355	557.5
495.573	580.5
495.79	578.5
496.008	602.5
496.225	564.5
496.442	593.5
496.66	601.5
496.877	577.5
497.094	604.5
497.312	591.5
497.529	592.5
497.746	602.5
497.963	598.5
498.181	649.5
498.398	630.5
498.615	637.5
498.832	634.5
499.049	642.5
499.267	661.5
499.484	665.5
499.701	678.5
499.918	704.5
500.135	705.5
500.352	724.5
500.569	732.5
500.786	742.5
501.003	722.5
501.22	707.5
501.437	719.5
501.654	699.5
501.871	712.5
502.088	662.5
502.305	682.5
502.522	639.5
502.739	655.5
502.956	603.5
503.172	614.5
503.389	615.5
503.606	626.5
503.823	623.5
504.04	592.5
504.256	599.5
504.473	587.5
504.69	583.5
504.907	568.5
505.123	582.5
505.34	585.5
505.557	580.5
505.773	555.5
505.99	592.5
506.207	581.5
506.423	573.5
506.64	561.5
506.856	548.5
507.073	553.5
507.289	571.5
507.506	545.5
507.722	560.5
507.939	580.5
508.155	593.5
508.372	565.5
508.588	555.5
508.805	532.5
509.021	564.5
509.238	566.5
509.454	552.5
509.67	559.5
509.887	537.5
510.103	561.5
510.319	568.5
510.536	676.5
510.752	1149.5
510.968	936.5
511.184	584.5
511.401	563.5
511.617	521.5
511.833	499.5
512.049	529.5
512.265	554.5
512.481	532.5
512.698	521.5
512.914	532.5
513.13	531.5
513.346	527.5
513.562	524.5
513.778	552.5
513.994	549.5
514.21	558.5
514.426	577.5
514.642	635.5
514.858	650.5
515.074	687.5
515.29	817.5
515.506	1265.5
515.721	1008.5
515.937	695.5
516.153	616.5
516.369	599.5
516.585	571.5
516.801	566.5
517.016	547.5
517.232	568.5
517.448	537.5
517.664	544.5
517.879	536.5
518.095	527.5
518.311	550.5
518.527	522.5
518.742	530.5
518.958	482.5
519.173	522.5
519.389	530.5
519.605	542.5
519.82	542.5
520.036	555.5
