Data from 1961.PennyLincolnUp.Lamp.En5.5.200Scan.071719.P1._HRD10591_13-48-18-057.txt Node
Date: Thu Jul 18 13:48:18 EDT 2019
User: cochatt
Spectrometer: HR+D1059
Trigger mode: 1
Integration Time (sec): 1.000000E-1
Scans to average: 1
Electric dark correction enabled: true
Nonlinearity correction enabled: false
Boxcar width: 0
XAxis mode: Wavelengths
Number of Pixels in Spectrum: 2048
>>>>>Begin Spectral Data<<<<<
223.165	-0.88
223.4	-0.88
223.635	-0.88
223.869	-13.88
224.104	-16.88
224.338	-12.88
224.573	-14.88
224.808	-5.88
225.042	-18.88
225.277	-9.88
225.511	0.12
225.746	-2.88
225.98	15.12
226.215	12.12
226.449	16.12
226.683	10.12
226.918	22.12
227.152	21.12
227.387	20.12
227.621	39.12
227.856	48.12
228.09	45.12
228.324	51.12
228.559	50.12
228.793	68.12
229.027	95.12
229.262	105.12
229.496	111.12
229.73	128.12
229.964	137.12
230.199	119.12
230.433	95.12
230.667	109.12
230.901	94.12
231.136	88.12
231.37	109.12
231.604	107.12
231.838	90.12
232.072	96.12
232.306	106.12
232.541	100.12
232.775	114.12
233.009	105.12
233.243	108.12
233.477	109.12
233.711	99.12
233.945	111.12
234.179	108.12
234.413	99.12
234.647	114.12
234.881	109.12
235.115	113.12
235.349	117.12
235.583	118.12
235.817	94.12
236.051	119.12
236.285	106.12
236.519	121.12
236.753	121.12
236.987	132.12
237.221	169.12
237.455	223.12
237.689	157.12
237.922	131.12
238.156	137.12
238.39	119.12
238.624	116.12
238.858	115.12
239.091	117.12
239.325	117.12
239.559	101.12
239.793	109.12
240.027	116.12
240.26	139.12
240.494	155.12
240.728	132.12
240.961	123.12
241.195	123.12
241.429	137.12
241.662	120.12
241.896	117.12
242.13	137.12
242.363	123.12
242.597	114.12
242.83	137.12
243.064	115.12
243.298	120.12
243.531	118.12
243.765	126.12
243.998	114.12
244.232	117.12
244.465	120.12
244.699	131.12
244.932	123.12
245.166	120.12
245.399	134.12
245.633	126.12
245.866	122.12
246.099	121.12
246.333	128.12
246.566	138.12
246.8	131.12
247.033	139.12
247.266	141.12
247.5	143.12
247.733	142.12
247.966	158.12
248.2	145.12
248.433	141.12
248.666	157.12
248.899	157.12
249.133	164.12
249.366	187.12
249.599	169.12
249.832	161.12
250.066	147.12
250.299	167.12
250.532	162.12
250.765	189.12
250.998	179.12
251.231	189.12
251.465	187.12
251.698	177.12
251.931	170.12
252.164	187.12
252.397	183.12
252.63	160.12
252.863	166.12
253.096	185.12
253.329	193.12
253.562	187.12
253.795	182.12
254.028	182.12
254.261	190.12
254.494	197.12
254.727	223.12
254.96	237.12
255.193	238.12
255.426	208.12
255.659	194.12
255.892	181.12
256.124	192.12
256.357	200.12
256.59	187.12
256.823	178.12
257.056	185.12
257.289	178.12
257.521	182.12
257.754	173.12
257.987	174.12
258.22	159.12
258.452	172.12
258.685	171.12
258.918	183.12
259.151	162.12
259.383	188.12
259.616	178.12
259.849	182.12
260.081	202.12
260.314	214.12
260.547	208.12
260.779	235.12
261.012	189.12
261.244	181.12
261.477	175.12
261.71	191.12
261.942	204.12
262.175	201.12
262.407	185.12
262.64	191.12
262.872	184.12
263.105	181.12
263.337	183.12
263.57	180.12
263.802	177.12
264.035	182.12
264.267	170.12
264.499	168.12
264.732	177.12
264.964	182.12
265.197	177.12
265.429	169.12
265.661	194.12
265.894	177.12
266.126	174.12
266.358	180.12
266.591	182.12
266.823	193.12
267.055	183.12
267.287	182.12
267.52	190.12
267.752	194.12
267.984	167.12
268.216	181.12
268.448	197.12
268.681	196.12
268.913	211.12
269.145	219.12
269.377	233.12
269.609	230.12
269.841	225.12
270.073	216.12
270.306	224.12
270.538	256.12
270.77	271.12
271.002	265.12
271.234	240.12
271.466	251.12
271.698	251.12
271.93	264.12
272.162	260.12
272.394	255.12
272.626	249.12
272.858	245.12
273.09	239.12
273.322	224.12
273.553	223.12
273.785	201.12
274.017	228.12
274.249	218.12
274.481	218.12
274.713	224.12
274.945	223.12
275.176	212.12
275.408	219.12
275.64	225.12
275.872	211.12
276.104	231.12
276.335	234.12
276.567	231.12
276.799	239.12
277.031	245.12
277.262	254.12
277.494	282.12
277.726	231.12
277.957	243.12
278.189	238.12
278.421	250.12
278.652	233.12
278.884	223.12
279.115	239.12
279.347	212.12
279.579	219.12
279.81	223.12
280.042	223.12
280.273	226.12
280.505	216.12
280.736	222.12
280.968	222.12
281.199	222.12
281.431	222.12
281.662	211.12
281.894	197.12
282.125	224.12
282.356	234.12
282.588	257.12
282.819	260.12
283.051	224.12
283.282	216.12
283.513	217.12
283.745	216.12
283.976	231.12
284.207	230.12
284.439	229.12
284.67	222.12
284.901	235.12
285.132	226.12
285.364	215.12
285.595	239.12
285.826	221.12
286.057	230.12
286.288	229.12
286.52	211.12
286.751	219.12
286.982	236.12
287.213	212.12
287.444	235.12
287.675	228.12
287.906	239.12
288.138	263.12
288.369	244.12
288.6	221.12
288.831	241.12
289.062	216.12
289.293	234.12
289.524	221.12
289.755	218.12
289.986	218.12
290.217	244.12
290.448	231.12
290.679	209.12
290.91	224.12
291.141	221.12
291.371	238.12
291.602	243.12
291.833	231.12
292.064	237.12
292.295	223.12
292.526	250.12
292.757	249.12
292.987	223.12
293.218	229.12
293.449	230.12
293.68	222.12
293.91	238.12
294.141	253.12
294.372	235.12
294.603	248.12
294.833	243.12
295.064	234.12
295.295	255.12
295.525	238.12
295.756	233.12
295.987	265.12
296.217	268.12
296.448	267.12
296.679	247.12
296.909	238.12
297.14	234.12
297.37	247.12
297.601	248.12
297.831	233.12
298.062	243.12
298.292	235.12
298.523	245.12
298.753	233.12
298.984	238.12
299.214	245.12
299.445	255.12
299.675	255.12
299.905	278.12
300.136	259.12
300.366	241.12
300.597	245.12
300.827	258.12
301.057	261.12
301.288	257.12
301.518	246.12
301.748	246.12
301.979	263.12
302.209	274.12
302.439	260.12
302.669	265.12
302.9	256.12
303.13	272.12
303.36	275.12
303.59	261.12
303.82	265.12
304.051	262.12
304.281	276.12
304.511	273.12
304.741	253.12
304.971	251.12
305.201	276.12
305.431	251.12
305.661	269.12
305.891	257.12
306.121	267.12
306.352	272.12
306.582	269.12
306.812	259.12
307.042	272.12
307.272	243.12
307.502	277.12
307.731	274.12
307.961	264.12
308.191	260.12
308.421	273.12
308.651	291.12
308.881	282.12
309.111	284.12
309.341	297.12
309.571	294.12
309.8	305.12
310.03	317.12
310.26	299.12
310.49	312.12
310.72	320.12
310.949	329.12
311.179	334.12
311.409	316.12
311.639	316.12
311.868	324.12
312.098	314.12
312.328	331.12
312.557	349.12
312.787	355.12
313.017	356.12
313.246	331.12
313.476	330.12
313.706	310.12
313.935	314.12
314.165	334.12
314.394	354.12
314.624	337.12
314.853	325.12
315.083	298.12
315.312	319.12
315.542	319.12
315.771	323.12
316.001	300.12
316.23	320.12
316.46	306.12
316.689	299.12
316.919	334.12
317.148	327.12
317.377	332.12
317.607	321.12
317.836	313.12
318.065	317.12
318.295	327.12
318.524	317.12
318.753	307.12
318.983	307.12
319.212	309.12
319.441	323.12
319.67	317.12
319.9	321.12
320.129	310.12
320.358	317.12
320.587	306.12
320.816	324.12
321.046	342.12
321.275	358.12
321.504	354.12
321.733	343.12
321.962	340.12
322.191	369.12
322.42	368.12
322.649	388.12
322.878	390.12
323.108	403.12
323.337	436.12
323.566	463.12
323.795	495.12
324.024	554.12
324.253	684.12
324.482	1011.12
324.71	1575.12
324.939	2201.12
325.168	1845.12
325.397	953.12
325.626	634.12
325.855	528.12
326.084	465.12
326.313	458.12
326.542	460.12
326.77	515.12
326.999	627.12
327.228	903.12
327.457	1395.12
327.686	1621.12
327.914	1073.12
328.143	689.12
328.372	600.12
328.6	575.12
328.829	531.12
329.058	546.12
329.287	538.12
329.515	508.12
329.744	452.12
329.972	457.12
330.201	514.12
330.43	563.12
330.658	554.12
330.887	575.12
331.115	533.12
331.344	456.12
331.572	417.12
331.801	437.12
332.03	422.12
332.258	406.12
332.486	386.12
332.715	389.12
332.943	404.12
333.172	373.12
333.4	375.12
333.629	393.12
333.857	385.12
334.085	400.12
334.314	419.12
334.542	458.12
334.771	488.12
334.999	454.12
335.227	397.12
335.455	376.12
335.684	375.12
335.912	378.12
336.14	359.12
336.369	359.12
336.597	378.12
336.825	377.12
337.053	347.12
337.281	349.12
337.51	353.12
337.738	355.12
337.966	373.12
338.194	366.12
338.422	369.12
338.65	347.12
338.878	366.12
339.106	323.12
339.334	344.12
339.562	354.12
339.79	348.12
340.018	365.12
340.246	346.12
340.474	365.12
340.702	350.12
340.93	367.12
341.158	360.12
341.386	352.12
341.614	361.12
341.842	370.12
342.07	365.12
342.298	359.12
342.526	347.12
342.754	321.12
342.981	347.12
343.209	328.12
343.437	333.12
343.665	330.12
343.893	349.12
344.12	359.12
344.348	366.12
344.576	352.12
344.804	365.12
345.031	351.12
345.259	387.12
345.487	366.12
345.714	329.12
345.942	333.12
346.17	327.12
346.397	341.12
346.625	328.12
346.853	327.12
347.08	341.12
347.308	344.12
347.535	371.12
347.763	365.12
347.99	356.12
348.218	355.12
348.445	365.12
348.673	365.12
348.9	358.12
349.128	349.12
349.355	327.12
349.583	326.12
349.81	342.12
350.037	336.12
350.265	334.12
350.492	331.12
350.72	333.12
350.947	349.12
351.174	357.12
351.402	370.12
351.629	369.12
351.856	357.12
352.083	367.12
352.311	357.12
352.538	360.12
352.765	387.12
352.992	378.12
353.22	372.12
353.447	358.12
353.674	333.12
353.901	343.12
354.128	323.12
354.355	333.12
354.583	309.12
354.81	335.12
355.037	326.12
355.264	314.12
355.491	318.12
355.718	315.12
355.945	306.12
356.172	338.12
356.399	314.12
356.626	302.12
356.853	304.12
357.08	327.12
357.307	320.12
357.534	326.12
357.761	320.12
357.988	315.12
358.215	287.12
358.441	310.12
358.668	318.12
358.895	351.12
359.122	344.12
359.349	347.12
359.576	351.12
359.802	380.12
360.029	439.12
360.256	395.12
360.483	366.12
360.709	337.12
360.936	330.12
361.163	319.12
361.39	364.12
361.616	359.12
361.843	342.12
362.07	347.12
362.296	342.12
362.523	340.12
362.749	338.12
362.976	336.12
363.203	330.12
363.429	330.12
363.656	327.12
363.882	347.12
364.109	334.12
364.335	325.12
364.562	337.12
364.788	333.12
365.015	343.12
365.241	319.12
365.468	328.12
365.694	360.12
365.92	345.12
366.147	326.12
366.373	341.12
366.599	317.12
366.826	329.12
367.052	312.12
367.278	338.12
367.505	324.12
367.731	308.12
367.957	342.12
368.184	328.12
368.41	340.12
368.636	315.12
368.862	361.12
369.089	329.12
369.315	336.12
369.541	325.12
369.767	347.12
369.993	320.12
370.219	325.12
370.445	322.12
370.672	322.12
370.898	329.12
371.124	323.12
371.35	316.12
371.576	329.12
371.802	314.12
372.028	311.12
372.254	314.12
372.48	312.12
372.706	310.12
372.932	318.12
373.158	335.12
373.384	305.12
373.61	322.12
373.835	343.12
374.061	315.12
374.287	335.12
374.513	322.12
374.739	323.12
374.965	330.12
375.191	318.12
375.416	321.12
375.642	322.12
375.868	343.12
376.094	317.12
376.319	315.12
376.545	309.12
376.771	338.12
376.997	321.12
377.222	317.12
377.448	315.12
377.674	317.12
377.899	327.12
378.125	318.12
378.35	315.12
378.576	317.12
378.802	312.12
379.027	303.12
379.253	323.12
379.478	308.12
379.704	317.12
379.929	326.12
380.155	317.12
380.38	315.12
380.606	313.12
380.831	317.12
381.057	311.12
381.282	327.12
381.507	328.12
381.733	323.12
381.958	313.12
382.184	327.12
382.409	313.12
382.634	327.12
382.86	319.12
383.085	313.12
383.31	348.12
383.535	329.12
383.761	327.12
383.986	329.12
384.211	326.12
384.436	336.12
384.662	344.12
384.887	338.12
385.112	339.12
385.337	317.12
385.562	328.12
385.787	331.12
386.013	342.12
386.238	325.12
386.463	340.12
386.688	331.12
386.913	350.12
387.138	333.12
387.363	357.12
387.588	337.12
387.813	346.12
388.038	350.12
388.263	341.12
388.488	351.12
388.713	318.12
388.938	336.12
389.163	352.12
389.387	346.12
389.612	353.12
389.837	335.12
390.062	327.12
390.287	344.12
390.512	334.12
390.736	337.12
390.961	345.12
391.186	337.12
391.411	339.12
391.636	343.12
391.86	342.12
392.085	340.12
392.31	346.12
392.534	360.12
392.759	345.12
392.984	346.12
393.208	348.12
393.433	342.12
393.658	356.12
393.882	344.12
394.107	342.12
394.331	325.12
394.556	346.12
394.78	363.12
395.005	347.12
395.229	339.12
395.454	356.12
395.678	374.12
395.903	369.12
396.127	396.12
396.352	405.12
396.576	377.12
396.801	372.12
397.025	334.12
397.249	353.12
397.474	379.12
397.698	364.12
397.922	374.12
398.147	407.12
398.371	389.12
398.595	377.12
398.82	382.12
399.044	367.12
399.268	398.12
399.492	426.12
399.717	435.12
399.941	469.12
400.165	453.12
400.389	484.12
400.613	442.12
400.837	421.12
401.062	385.12
401.286	395.12
401.51	392.12
401.734	406.12
401.958	405.12
402.182	413.12
402.406	394.12
402.63	393.12
402.854	426.12
403.078	389.12
403.302	413.12
403.526	423.12
403.75	403.12
403.974	386.12
404.198	422.12
404.422	413.12
404.645	435.12
404.869	423.12
405.093	459.12
405.317	481.12
405.541	500.12
405.765	490.12
405.988	435.12
406.212	456.12
406.436	467.12
406.66	474.12
406.883	462.12
407.107	485.12
407.331	500.12
407.555	542.12
407.778	577.12
408.002	497.12
408.226	470.12
408.449	479.12
408.673	441.12
408.896	475.12
409.12	497.12
409.344	486.12
409.567	435.12
409.791	447.12
410.014	426.12
410.238	404.12
410.461	406.12
410.685	430.12
410.908	441.12
411.132	440.12
411.355	473.12
411.578	473.12
411.802	438.12
412.025	403.12
412.249	407.12
412.472	445.12
412.695	475.12
412.919	471.12
413.142	439.12
413.365	404.12
413.589	397.12
413.812	386.12
414.035	379.12
414.258	415.12
414.482	379.12
414.705	382.12
414.928	387.12
415.151	393.12
415.374	392.12
415.597	398.12
415.821	381.12
416.044	395.12
416.267	400.12
416.49	389.12
416.713	387.12
416.936	385.12
417.159	399.12
417.382	412.12
417.605	403.12
417.828	395.12
418.051	406.12
418.274	401.12
418.497	391.12
418.72	394.12
418.943	379.12
419.166	402.12
419.389	424.12
419.611	401.12
419.834	391.12
420.057	393.12
420.28	413.12
420.503	407.12
420.726	423.12
420.948	426.12
421.171	447.12
421.394	482.12
421.617	435.12
421.839	408.12
422.062	427.12
422.285	424.12
422.507	470.12
422.73	523.12
422.953	495.12
423.175	453.12
423.398	429.12
423.621	430.12
423.843	424.12
424.066	473.12
424.288	433.12
424.511	460.12
424.733	516.12
424.956	577.12
425.178	547.12
425.401	583.12
425.623	585.12
425.846	495.12
426.068	469.12
426.291	443.12
426.513	445.12
426.735	460.12
426.958	496.12
427.18	562.12
427.402	646.12
427.625	742.12
427.847	652.12
428.069	591.12
428.292	528.12
428.514	437.12
428.736	433.12
428.958	437.12
429.181	429.12
429.403	411.12
429.625	425.12
429.847	473.12
430.069	523.12
430.292	525.12
430.514	455.12
430.736	431.12
430.958	418.12
431.18	405.12
431.402	395.12
431.624	410.12
431.846	402.12
432.068	387.12
432.29	406.12
432.512	381.12
432.734	385.12
432.956	386.12
433.178	408.12
433.4	405.12
433.622	421.12
433.844	403.12
434.066	409.12
434.287	393.12
434.509	397.12
434.731	414.12
434.953	422.12
435.175	430.12
435.397	442.12
435.618	448.12
435.84	494.12
436.062	581.12
436.284	611.12
436.505	535.12
436.727	489.12
436.949	426.12
437.17	431.12
437.392	429.12
437.614	434.12
437.835	483.12
438.057	585.12
438.278	681.12
438.5	630.12
438.721	699.12
438.943	655.12
439.165	534.12
439.386	479.12
439.608	471.12
439.829	468.12
440.05	505.12
440.272	564.12
440.493	514.12
440.715	452.12
440.936	439.12
441.158	416.12
441.379	424.12
441.6	447.12
441.822	457.12
442.043	487.12
442.264	573.12
442.486	578.12
442.707	503.12
442.928	488.12
443.149	506.12
443.371	513.12
443.592	540.12
443.813	616.12
444.034	668.12
444.255	541.12
444.476	479.12
444.698	466.12
444.919	449.12
445.14	551.12
445.361	525.12
445.582	524.12
445.803	549.12
446.024	654.12
446.245	657.12
446.466	581.12
446.687	515.12
446.908	477.12
447.129	433.12
447.35	429.12
447.571	431.12
447.792	423.12
448.013	440.12
448.234	477.12
448.455	489.12
448.675	594.12
448.896	699.12
449.117	581.12
449.338	570.12
449.559	654.12
449.779	698.12
450	561.12
450.221	485.12
450.442	429.12
450.662	443.12
450.883	423.12
451.104	449.12
451.324	416.12
451.545	394.12
451.766	399.12
451.986	387.12
452.207	396.12
452.428	368.12
452.648	383.12
452.869	385.12
453.089	404.12
453.31	399.12
453.53	380.12
453.751	373.12
453.971	397.12
454.192	416.12
454.412	399.12
454.633	383.12
454.853	372.12
455.073	395.12
455.294	421.12
455.514	477.12
455.734	449.12
455.955	377.12
456.175	378.12
456.395	379.12
456.616	349.12
456.836	370.12
457.056	345.12
457.276	362.12
457.497	349.12
457.717	373.12
457.937	365.12
458.157	355.12
458.377	375.12
458.598	378.12
458.818	470.12
459.038	527.12
459.258	550.12
459.478	470.12
459.698	406.12
459.918	383.12
460.138	383.12
460.358	401.12
460.578	394.12
460.798	424.12
461.018	380.12
461.238	397.12
461.458	379.12
461.678	406.12
461.898	408.12
462.118	396.12
462.338	393.12
462.558	431.12
462.777	403.12
462.997	422.12
463.217	402.12
463.437	399.12
463.657	408.12
463.876	424.12
464.096	408.12
464.316	430.12
464.536	435.12
464.755	417.12
464.975	430.12
465.195	485.12
465.414	565.12
465.634	503.12
465.854	462.12
466.073	417.12
466.293	397.12
466.512	418.12
466.732	411.12
466.951	393.12
467.171	395.12
467.391	401.12
467.61	395.12
467.829	421.12
468.049	399.12
468.268	399.12
468.488	398.12
468.707	379.12
468.927	377.12
469.146	379.12
469.365	387.12
469.585	370.12
469.804	394.12
470.023	418.12
470.243	394.12
470.462	422.12
470.681	429.12
470.901	397.12
471.12	395.12
471.339	380.12
471.558	410.12
471.777	415.12
471.997	393.12
472.216	406.12
472.435	446.12
472.654	427.12
472.873	409.12
473.092	384.12
473.311	385.12
473.53	404.12
473.749	422.12
473.968	469.12
474.187	552.12
474.406	557.12
474.625	461.12
474.844	413.12
475.063	395.12
475.282	395.12
475.501	392.12
475.72	407.12
475.939	393.12
476.158	425.12
476.377	389.12
476.596	402.12
476.814	410.12
477.033	408.12
477.252	409.12
477.471	414.12
477.69	408.12
477.908	440.12
478.127	431.12
478.346	423.12
478.564	418.12
478.783	429.12
479.002	434.12
479.22	461.12
479.439	471.12
479.658	469.12
479.876	480.12
480.095	477.12
480.313	490.12
480.532	498.12
480.751	475.12
480.969	497.12
481.188	577.12
481.406	597.12
481.624	524.12
481.843	516.12
482.061	480.12
482.28	497.12
482.498	440.12
482.717	464.12
482.935	466.12
483.153	460.12
483.372	470.12
483.59	475.12
483.808	463.12
484.027	490.12
484.245	458.12
484.463	448.12
484.681	480.12
484.9	471.12
485.118	467.12
485.336	475.12
485.554	459.12
485.772	473.12
485.99	470.12
486.209	485.12
486.427	485.12
486.645	490.12
486.863	507.12
487.081	508.12
487.299	515.12
487.517	512.12
487.735	487.12
487.953	520.12
488.171	490.12
488.389	507.12
488.607	518.12
488.825	495.12
489.043	506.12
489.261	524.12
489.479	505.12
489.696	507.12
489.914	484.12
490.132	515.12
490.35	520.12
490.568	523.12
490.786	530.12
491.003	545.12
491.221	536.12
491.439	561.12
491.657	557.12
491.874	554.12
492.092	590.12
492.31	571.12
492.527	555.12
492.745	596.12
492.963	591.12
493.18	587.12
493.398	592.12
493.615	597.12
493.833	590.12
494.05	599.12
494.268	568.12
494.485	584.12
494.703	569.12
494.92	574.12
495.138	600.12
495.355	580.12
495.573	594.12
495.79	585.12
496.008	595.12
496.225	590.12
496.442	608.12
496.66	595.12
496.877	615.12
497.094	607.12
497.312	595.12
497.529	617.12
497.746	597.12
497.963	616.12
498.181	629.12
498.398	648.12
498.615	667.12
498.832	648.12
499.049	643.12
499.267	647.12
499.484	669.12
499.701	707.12
499.918	718.12
500.135	709.12
500.352	737.12
500.569	744.12
500.786	755.12
501.003	735.12
501.22	723.12
501.437	697.12
501.654	725.12
501.871	715.12
502.088	713.12
