Data from 1961.PennyLincolnUp.Lamp.En5.5.200Scan.071719.P1._HRD10591_13-47-35-057.txt Node
Date: Thu Jul 18 13:47:35 EDT 2019
User: cochatt
Spectrometer: HR+D1059
Trigger mode: 1
Integration Time (sec): 1.000000E-1
Scans to average: 1
Electric dark correction enabled: true
Nonlinearity correction enabled: false
Boxcar width: 0
XAxis mode: Wavelengths
Number of Pixels in Spectrum: 2048
>>>>>Begin Spectral Data<<<<<
223.165	-6.75
223.4	-6.75
223.635	-6.75
223.869	-23.75
224.104	-28.75
224.338	-8.75
224.573	-22.75
224.808	-7.75
225.042	-9.75
225.277	-4.75
225.511	6.25
225.746	0.25
225.98	5.25
226.215	7.25
226.449	14.25
226.683	13.25
226.918	27.25
227.152	39.25
227.387	42.25
227.621	31.25
227.856	51.25
228.09	38.25
228.324	47.25
228.559	66.25
228.793	59.25
229.027	76.25
229.262	106.25
229.496	95.25
229.73	124.25
229.964	134.25
230.199	114.25
230.433	90.25
230.667	105.25
230.901	107.25
231.136	106.25
231.37	110.25
231.604	121.25
231.838	108.25
232.072	113.25
232.306	112.25
232.541	98.25
232.775	120.25
233.009	106.25
233.243	104.25
233.477	99.25
233.711	100.25
233.945	117.25
234.179	109.25
234.413	98.25
234.647	110.25
234.881	115.25
235.115	101.25
235.349	112.25
235.583	101.25
235.817	112.25
236.051	120.25
236.285	108.25
236.519	110.25
236.753	114.25
236.987	130.25
237.221	168.25
237.455	196.25
237.689	168.25
237.922	134.25
238.156	134.25
238.39	121.25
238.624	120.25
238.858	115.25
239.091	114.25
239.325	119.25
239.559	121.25
239.793	133.25
240.027	128.25
240.26	129.25
240.494	149.25
240.728	142.25
240.961	118.25
241.195	128.25
241.429	140.25
241.662	132.25
241.896	124.25
242.13	114.25
242.363	120.25
242.597	127.25
242.83	115.25
243.064	121.25
243.298	132.25
243.531	124.25
243.765	118.25
243.998	117.25
244.232	116.25
244.465	116.25
244.699	130.25
244.932	133.25
245.166	121.25
245.399	135.25
245.633	129.25
245.866	136.25
246.099	125.25
246.333	139.25
246.566	130.25
246.8	139.25
247.033	133.25
247.266	132.25
247.5	141.25
247.733	140.25
247.966	137.25
248.2	140.25
248.433	168.25
248.666	139.25
248.899	167.25
249.133	158.25
249.366	176.25
249.599	148.25
249.832	168.25
250.066	175.25
250.299	148.25
250.532	160.25
250.765	164.25
250.998	180.25
251.231	218.25
251.465	190.25
251.698	181.25
251.931	175.25
252.164	176.25
252.397	160.25
252.63	173.25
252.863	188.25
253.096	172.25
253.329	176.25
253.562	186.25
253.795	185.25
254.028	196.25
254.261	195.25
254.494	178.25
254.727	209.25
254.96	224.25
255.193	234.25
255.426	218.25
255.659	207.25
255.892	191.25
256.124	201.25
256.357	192.25
256.59	183.25
256.823	177.25
257.056	187.25
257.289	180.25
257.521	185.25
257.754	167.25
257.987	169.25
258.22	173.25
258.452	177.25
258.685	182.25
258.918	177.25
259.151	169.25
259.383	184.25
259.616	183.25
259.849	183.25
260.081	215.25
260.314	217.25
260.547	213.25
260.779	205.25
261.012	193.25
261.244	172.25
261.477	209.25
261.71	184.25
261.942	218.25
262.175	214.25
262.407	185.25
262.64	171.25
262.872	191.25
263.105	199.25
263.337	185.25
263.57	173.25
263.802	182.25
264.035	189.25
264.267	179.25
264.499	169.25
264.732	167.25
264.964	170.25
265.197	168.25
265.429	180.25
265.661	176.25
265.894	167.25
266.126	184.25
266.358	200.25
266.591	178.25
266.823	198.25
267.055	183.25
267.287	184.25
267.52	168.25
267.752	196.25
267.984	177.25
268.216	196.25
268.448	193.25
268.681	204.25
268.913	200.25
269.145	207.25
269.377	216.25
269.609	217.25
269.841	218.25
270.073	226.25
270.306	240.25
270.538	244.25
270.77	226.25
271.002	241.25
271.234	234.25
271.466	234.25
271.698	244.25
271.93	252.25
272.162	244.25
272.394	276.25
272.626	235.25
272.858	246.25
273.09	227.25
273.322	212.25
273.553	221.25
273.785	227.25
274.017	204.25
274.249	223.25
274.481	198.25
274.713	217.25
274.945	214.25
275.176	221.25
275.408	221.25
275.64	222.25
275.872	225.25
276.104	216.25
276.335	217.25
276.567	208.25
276.799	233.25
277.031	244.25
277.262	264.25
277.494	252.25
277.726	242.25
277.957	242.25
278.189	244.25
278.421	217.25
278.652	236.25
278.884	234.25
279.115	227.25
279.347	229.25
279.579	217.25
279.81	230.25
280.042	216.25
280.273	235.25
280.505	227.25
280.736	218.25
280.968	204.25
281.199	208.25
281.431	232.25
281.662	218.25
281.894	225.25
282.125	205.25
282.356	228.25
282.588	256.25
282.819	275.25
283.051	224.25
283.282	211.25
283.513	210.25
283.745	228.25
283.976	217.25
284.207	220.25
284.439	232.25
284.67	224.25
284.901	217.25
285.132	220.25
285.364	209.25
285.595	217.25
285.826	215.25
286.057	228.25
286.288	230.25
286.52	209.25
286.751	247.25
286.982	235.25
287.213	240.25
287.444	225.25
287.675	240.25
287.906	229.25
288.138	249.25
288.369	249.25
288.6	263.25
288.831	256.25
289.062	246.25
289.293	225.25
289.524	240.25
289.755	237.25
289.986	221.25
290.217	225.25
290.448	234.25
290.679	228.25
290.91	238.25
291.141	222.25
291.371	234.25
291.602	240.25
291.833	244.25
292.064	222.25
292.295	226.25
292.526	217.25
292.757	231.25
292.987	240.25
293.218	226.25
293.449	225.25
293.68	236.25
293.91	224.25
294.141	221.25
294.372	235.25
294.603	230.25
294.833	219.25
295.064	229.25
295.295	237.25
295.525	228.25
295.756	252.25
295.987	232.25
296.217	262.25
296.448	275.25
296.679	237.25
296.909	226.25
297.14	227.25
297.37	237.25
297.601	231.25
297.831	247.25
298.062	260.25
298.292	251.25
298.523	261.25
298.753	253.25
298.984	247.25
299.214	244.25
299.445	246.25
299.675	258.25
299.905	261.25
300.136	237.25
300.366	246.25
300.597	260.25
300.827	241.25
301.057	252.25
301.288	257.25
301.518	259.25
301.748	265.25
301.979	244.25
302.209	256.25
302.439	260.25
302.669	248.25
302.9	252.25
303.13	266.25
303.36	256.25
303.59	247.25
303.82	240.25
304.051	270.25
304.281	258.25
304.511	250.25
304.741	255.25
304.971	245.25
305.201	262.25
305.431	262.25
305.661	257.25
305.891	270.25
306.121	267.25
306.352	259.25
306.582	250.25
306.812	288.25
307.042	275.25
307.272	278.25
307.502	277.25
307.731	260.25
307.961	276.25
308.191	279.25
308.421	266.25
308.651	276.25
308.881	273.25
309.111	272.25
309.341	279.25
309.571	280.25
309.8	280.25
310.03	307.25
310.26	328.25
310.49	315.25
310.72	291.25
310.949	309.25
311.179	331.25
311.409	321.25
311.639	316.25
311.868	291.25
312.098	306.25
312.328	319.25
312.557	344.25
312.787	341.25
313.017	329.25
313.246	305.25
313.476	307.25
313.706	317.25
313.935	327.25
314.165	326.25
314.394	345.25
314.624	317.25
314.853	310.25
315.083	321.25
315.312	295.25
315.542	291.25
315.771	298.25
316.001	294.25
316.23	306.25
316.46	307.25
316.689	324.25
316.919	316.25
317.148	315.25
317.377	329.25
317.607	326.25
317.836	323.25
318.065	301.25
318.295	314.25
318.524	306.25
318.753	301.25
318.983	301.25
319.212	308.25
319.441	318.25
319.67	328.25
319.9	317.25
320.129	306.25
320.358	305.25
320.587	328.25
320.816	322.25
321.046	336.25
321.275	358.25
321.504	337.25
321.733	334.25
321.962	361.25
322.191	358.25
322.42	353.25
322.649	368.25
322.878	370.25
323.108	383.25
323.337	425.25
323.566	434.25
323.795	508.25
324.024	523.25
324.253	649.25
324.482	993.25
324.71	1484.25
324.939	2063.25
325.168	1739.25
325.397	911.25
325.626	582.25
325.855	504.25
326.084	469.25
326.313	455.25
326.542	438.25
326.77	512.25
326.999	603.25
327.228	852.25
327.457	1286.25
327.686	1529.25
327.914	1020.25
328.143	672.25
328.372	564.25
328.6	530.25
328.829	515.25
329.058	512.25
329.287	523.25
329.515	494.25
329.744	443.25
329.972	440.25
330.201	460.25
330.43	503.25
330.658	495.25
330.887	545.25
331.115	526.25
331.344	440.25
331.572	425.25
331.801	429.25
332.03	424.25
332.258	402.25
332.486	373.25
332.715	357.25
332.943	369.25
333.172	375.25
333.4	360.25
333.629	370.25
333.857	406.25
334.085	411.25
334.314	416.25
334.542	454.25
334.771	468.25
334.999	417.25
335.227	373.25
335.455	363.25
335.684	356.25
335.912	334.25
336.14	340.25
336.369	375.25
336.597	364.25
336.825	359.25
337.053	359.25
337.281	353.25
337.51	348.25
337.738	346.25
337.966	361.25
338.194	350.25
338.422	327.25
338.65	347.25
338.878	340.25
339.106	344.25
339.334	342.25
339.562	346.25
339.79	338.25
340.018	351.25
340.246	348.25
340.474	362.25
340.702	356.25
340.93	349.25
341.158	368.25
341.386	332.25
341.614	353.25
341.842	350.25
342.07	329.25
342.298	335.25
342.526	344.25
342.754	337.25
342.981	318.25
343.209	324.25
343.437	336.25
343.665	333.25
343.893	338.25
344.12	329.25
344.348	347.25
344.576	326.25
344.804	345.25
345.031	355.25
345.259	369.25
345.487	355.25
345.714	335.25
345.942	336.25
346.17	358.25
346.397	354.25
346.625	349.25
346.853	343.25
347.08	328.25
347.308	329.25
347.535	353.25
347.763	372.25
347.99	351.25
348.218	353.25
348.445	345.25
348.673	357.25
348.9	334.25
349.128	345.25
349.355	334.25
349.583	330.25
349.81	315.25
350.037	320.25
350.265	335.25
350.492	322.25
350.72	336.25
350.947	345.25
351.174	353.25
351.402	369.25
351.629	346.25
351.856	354.25
352.083	354.25
352.311	355.25
352.538	351.25
352.765	338.25
352.992	342.25
353.22	337.25
353.447	354.25
353.674	354.25
353.901	313.25
354.128	313.25
354.355	311.25
354.583	338.25
354.81	332.25
355.037	320.25
355.264	309.25
355.491	336.25
355.718	313.25
355.945	292.25
356.172	310.25
356.399	317.25
356.626	314.25
356.853	307.25
357.08	318.25
357.307	315.25
357.534	340.25
357.761	318.25
357.988	316.25
358.215	322.25
358.441	309.25
358.668	330.25
358.895	332.25
359.122	328.25
359.349	332.25
359.576	336.25
359.802	352.25
360.029	379.25
360.256	378.25
360.483	356.25
360.709	340.25
360.936	351.25
361.163	350.25
361.39	352.25
361.616	344.25
361.843	342.25
362.07	334.25
362.296	333.25
362.523	330.25
362.749	320.25
362.976	332.25
363.203	326.25
363.429	306.25
363.656	325.25
363.882	318.25
364.109	317.25
364.335	324.25
364.562	324.25
364.788	326.25
365.015	334.25
365.241	315.25
365.468	327.25
365.694	318.25
365.92	334.25
366.147	325.25
366.373	327.25
366.599	314.25
366.826	311.25
367.052	322.25
367.278	334.25
367.505	310.25
367.731	333.25
367.957	323.25
368.184	319.25
368.41	323.25
368.636	334.25
368.862	338.25
369.089	322.25
369.315	314.25
369.541	328.25
369.767	329.25
369.993	328.25
370.219	328.25
370.445	317.25
370.672	304.25
370.898	312.25
371.124	300.25
371.35	321.25
371.576	316.25
371.802	324.25
372.028	317.25
372.254	304.25
372.48	305.25
372.706	335.25
372.932	302.25
373.158	292.25
373.384	299.25
373.61	306.25
373.835	319.25
374.061	317.25
374.287	333.25
374.513	330.25
374.739	327.25
374.965	334.25
375.191	323.25
375.416	326.25
375.642	324.25
375.868	284.25
376.094	297.25
376.319	316.25
376.545	304.25
376.771	331.25
376.997	323.25
377.222	309.25
377.448	312.25
377.674	297.25
377.899	294.25
378.125	301.25
378.35	302.25
378.576	307.25
378.802	325.25
379.027	326.25
379.253	322.25
379.478	313.25
379.704	313.25
379.929	301.25
380.155	310.25
380.38	305.25
380.606	327.25
380.831	306.25
381.057	324.25
381.282	319.25
381.507	317.25
381.733	329.25
381.958	310.25
382.184	326.25
382.409	334.25
382.634	338.25
382.86	314.25
383.085	331.25
383.31	333.25
383.535	324.25
383.761	330.25
383.986	328.25
384.211	301.25
384.436	337.25
384.662	333.25
384.887	329.25
385.112	315.25
385.337	328.25
385.562	322.25
385.787	332.25
386.013	347.25
386.238	357.25
386.463	342.25
386.688	334.25
386.913	325.25
387.138	340.25
387.363	337.25
387.588	321.25
387.813	344.25
388.038	344.25
388.263	360.25
388.488	329.25
388.713	338.25
388.938	344.25
389.163	340.25
389.387	346.25
389.612	338.25
389.837	352.25
390.062	338.25
390.287	338.25
390.512	340.25
390.736	340.25
390.961	339.25
391.186	343.25
391.411	334.25
391.636	340.25
391.86	343.25
392.085	349.25
392.31	345.25
392.534	341.25
392.759	339.25
392.984	355.25
393.208	329.25
393.433	352.25
393.658	329.25
393.882	332.25
394.107	329.25
394.331	357.25
394.556	337.25
394.78	354.25
395.005	355.25
395.229	340.25
395.454	365.25
395.678	344.25
395.903	358.25
396.127	393.25
396.352	394.25
396.576	360.25
396.801	376.25
397.025	362.25
397.249	350.25
397.474	363.25
397.698	361.25
397.922	372.25
398.147	397.25
398.371	397.25
398.595	365.25
398.82	369.25
399.044	381.25
399.268	403.25
399.492	411.25
399.717	428.25
399.941	442.25
400.165	439.25
400.389	461.25
400.613	421.25
400.837	399.25
401.062	398.25
401.286	392.25
401.51	396.25
401.734	392.25
401.958	372.25
402.182	390.25
402.406	380.25
402.63	400.25
402.854	396.25
403.078	394.25
403.302	395.25
403.526	406.25
403.75	406.25
403.974	396.25
404.198	384.25
404.422	395.25
404.645	412.25
404.869	402.25
405.093	437.25
405.317	471.25
405.541	504.25
405.765	451.25
405.988	442.25
406.212	432.25
406.436	445.25
406.66	438.25
406.883	439.25
407.107	453.25
407.331	470.25
407.555	539.25
407.778	528.25
408.002	492.25
408.226	468.25
408.449	424.25
408.673	436.25
408.896	472.25
409.12	490.25
409.344	473.25
409.567	444.25
409.791	413.25
410.014	400.25
410.238	412.25
410.461	439.25
410.685	429.25
410.908	425.25
411.132	468.25
411.355	470.25
411.578	456.25
411.802	406.25
412.025	416.25
412.249	416.25
412.472	439.25
412.695	489.25
412.919	467.25
413.142	424.25
413.365	402.25
413.589	399.25
413.812	409.25
414.035	407.25
414.258	394.25
414.482	385.25
414.705	384.25
414.928	372.25
415.151	369.25
415.374	388.25
415.597	400.25
415.821	380.25
416.044	378.25
416.267	376.25
416.49	380.25
416.713	383.25
416.936	384.25
417.159	382.25
417.382	384.25
417.605	377.25
417.828	406.25
418.051	391.25
418.274	389.25
418.497	370.25
418.72	406.25
418.943	385.25
419.166	406.25
419.389	405.25
419.611	408.25
419.834	392.25
420.057	400.25
420.28	416.25
420.503	378.25
420.726	405.25
420.948	409.25
421.171	427.25
421.394	467.25
421.617	416.25
421.839	391.25
422.062	405.25
422.285	410.25
422.507	467.25
422.73	507.25
422.953	466.25
423.175	463.25
423.398	426.25
423.621	422.25
423.843	446.25
424.066	438.25
424.288	410.25
424.511	447.25
424.733	483.25
424.956	572.25
425.178	548.25
425.401	526.25
425.623	559.25
425.846	475.25
426.068	446.25
426.291	420.25
426.513	431.25
426.735	444.25
426.958	481.25
427.18	577.25
427.402	660.25
427.625	715.25
427.847	640.25
428.069	572.25
428.292	487.25
428.514	468.25
428.736	422.25
428.958	417.25
429.181	411.25
429.403	397.25
429.625	420.25
429.847	449.25
430.069	504.25
430.292	499.25
430.514	442.25
430.736	428.25
430.958	412.25
431.18	386.25
431.402	406.25
431.624	398.25
431.846	379.25
432.068	384.25
432.29	422.25
432.512	374.25
432.734	398.25
432.956	405.25
433.178	398.25
433.4	402.25
433.622	409.25
433.844	380.25
434.066	402.25
434.287	388.25
434.509	393.25
434.731	383.25
434.953	391.25
435.175	402.25
435.397	449.25
435.618	446.25
435.84	489.25
436.062	566.25
436.284	626.25
436.505	516.25
436.727	473.25
436.949	415.25
437.17	422.25
437.392	428.25
437.614	434.25
437.835	465.25
438.057	564.25
438.278	615.25
438.5	615.25
438.721	685.25
438.943	642.25
439.165	510.25
439.386	483.25
439.608	460.25
439.829	441.25
440.05	484.25
440.272	534.25
440.493	487.25
440.715	427.25
440.936	444.25
441.158	412.25
441.379	400.25
441.6	403.25
441.822	452.25
442.043	493.25
442.264	551.25
442.486	592.25
442.707	485.25
442.928	452.25
443.149	470.25
443.371	512.25
443.592	522.25
443.813	586.25
444.034	651.25
444.255	518.25
444.476	458.25
444.698	442.25
444.919	473.25
445.14	534.25
445.361	491.25
445.582	488.25
445.803	560.25
446.024	640.25
446.245	626.25
446.466	592.25
446.687	498.25
446.908	473.25
447.129	451.25
447.35	446.25
447.571	434.25
447.792	407.25
448.013	419.25
448.234	450.25
448.455	477.25
448.675	580.25
448.896	650.25
449.117	589.25
449.338	537.25
449.559	625.25
449.779	685.25
450	581.25
450.221	454.25
450.442	430.25
450.662	425.25
450.883	428.25
451.104	457.25
451.324	420.25
451.545	408.25
451.766	379.25
451.986	408.25
452.207	394.25
452.428	381.25
452.648	380.25
452.869	376.25
453.089	389.25
453.31	390.25
453.53	383.25
453.751	366.25
453.971	388.25
454.192	416.25
454.412	399.25
454.633	396.25
454.853	382.25
455.073	371.25
455.294	408.25
455.514	458.25
455.734	442.25
455.955	382.25
456.175	366.25
456.395	357.25
456.616	358.25
456.836	356.25
457.056	361.25
457.276	349.25
457.497	367.25
457.717	354.25
457.937	384.25
458.157	349.25
458.377	380.25
458.598	382.25
458.818	459.25
459.038	530.25
459.258	537.25
459.478	427.25
459.698	402.25
459.918	400.25
460.138	393.25
460.358	375.25
460.578	376.25
460.798	387.25
461.018	394.25
461.238	384.25
461.458	401.25
461.678	375.25
461.898	380.25
462.118	382.25
462.338	382.25
462.558	388.25
462.777	403.25
462.997	403.25
463.217	420.25
463.437	422.25
463.657	403.25
463.876	404.25
464.096	401.25
464.316	417.25
464.536	419.25
464.755	418.25
464.975	424.25
465.195	477.25
465.414	570.25
465.634	491.25
465.854	430.25
466.073	409.25
466.293	412.25
466.512	405.25
466.732	388.25
466.951	386.25
467.171	394.25
467.391	397.25
467.61	411.25
467.829	398.25
468.049	394.25
468.268	400.25
468.488	378.25
468.707	386.25
468.927	380.25
469.146	382.25
469.365	362.25
469.585	386.25
469.804	372.25
470.023	400.25
470.243	401.25
470.462	392.25
470.681	407.25
470.901	420.25
471.12	402.25
471.339	399.25
471.558	396.25
471.777	389.25
471.997	395.25
472.216	392.25
472.435	430.25
472.654	408.25
472.873	413.25
473.092	381.25
473.311	371.25
473.53	404.25
473.749	404.25
473.968	441.25
474.187	526.25
474.406	525.25
474.625	435.25
474.844	405.25
475.063	405.25
475.282	384.25
475.501	408.25
475.72	401.25
475.939	399.25
476.158	405.25
476.377	388.25
476.596	385.25
476.814	428.25
477.033	408.25
477.252	414.25
477.471	428.25
477.69	414.25
477.908	418.25
478.127	404.25
478.346	414.25
478.564	436.25
478.783	424.25
479.002	456.25
479.22	451.25
479.439	458.25
479.658	428.25
479.876	480.25
480.095	477.25
480.313	493.25
480.532	473.25
480.751	451.25
480.969	497.25
481.188	546.25
481.406	609.25
481.624	524.25
481.843	474.25
482.061	466.25
482.28	449.25
482.498	466.25
482.717	459.25
482.935	476.25
483.153	468.25
483.372	458.25
483.59	456.25
483.808	453.25
484.027	466.25
484.245	458.25
484.463	458.25
484.681	475.25
484.9	475.25
485.118	454.25
485.336	458.25
485.554	476.25
485.772	454.25
485.99	482.25
486.209	481.25
486.427	493.25
486.645	496.25
486.863	506.25
487.081	505.25
487.299	496.25
487.517	490.25
487.735	489.25
487.953	468.25
488.171	471.25
488.389	486.25
488.607	481.25
488.825	469.25
489.043	483.25
489.261	492.25
489.479	485.25
489.696	507.25
489.914	502.25
490.132	503.25
490.35	518.25
490.568	525.25
490.786	527.25
491.003	506.25
491.221	552.25
491.439	520.25
491.657	557.25
491.874	559.25
492.092	576.25
492.31	572.25
492.527	550.25
492.745	562.25
492.963	569.25
493.18	577.25
493.398	556.25
493.615	580.25
493.833	594.25
494.05	580.25
494.268	574.25
494.485	564.25
494.703	579.25
494.92	580.25
495.138	560.25
495.355	577.25
495.573	578.25
495.79	569.25
496.008	589.25
496.225	577.25
496.442	604.25
496.66	578.25
496.877	608.25
497.094	571.25
497.312	578.25
497.529	594.25
497.746	600.25
497.963	640.25
498.181	634.25
498.398	614.25
498.615	629.25
498.832	616.25
499.049	619.25
499.267	673.25
499.484	666.25
499.701	677.25
499.918	679.25
500.135	729.25
500.352	730.25
500.569	723.25
500.786	712.25
501.003	750.25
501.22	739.25
501.437	718.25
501.654	702.25
501.871	711.25
502.088	707.25
