Data from 1961.PennyLincolnUp.Lamp.En5.5.200Scan.071719.P1._HRD10591_13-47-55-057.txt Node
Date: Thu Jul 18 13:47:55 EDT 2019
User: cochatt
Spectrometer: HR+D1059
Trigger mode: 1
Integration Time (sec): 1.000000E-1
Scans to average: 1
Electric dark correction enabled: true
Nonlinearity correction enabled: false
Boxcar width: 0
XAxis mode: Wavelengths
Number of Pixels in Spectrum: 2048
>>>>>Begin Spectral Data<<<<<
223.165	-6.5
223.4	-6.5
223.635	-6.5
223.869	-10.5
224.104	-21.5
224.338	-26.5
224.573	-15.5
224.808	-11.5
225.042	-14.5
225.277	-19.5
225.511	4.5
225.746	10.5
225.98	23.5
226.215	-1.5
226.449	9.5
226.683	11.5
226.918	27.5
227.152	40.5
227.387	38.5
227.621	40.5
227.856	40.5
228.09	56.5
228.324	64.5
228.559	63.5
228.793	60.5
229.027	88.5
229.262	88.5
229.496	109.5
229.73	116.5
229.964	138.5
230.199	133.5
230.433	114.5
230.667	123.5
230.901	108.5
231.136	113.5
231.37	124.5
231.604	94.5
231.838	98.5
232.072	106.5
232.306	115.5
232.541	104.5
232.775	111.5
233.009	101.5
233.243	109.5
233.477	107.5
233.711	110.5
233.945	107.5
234.179	109.5
234.413	126.5
234.647	116.5
234.881	109.5
235.115	123.5
235.349	116.5
235.583	128.5
235.817	112.5
236.051	120.5
236.285	118.5
236.519	126.5
236.753	124.5
236.987	134.5
237.221	152.5
237.455	210.5
237.689	188.5
237.922	142.5
238.156	128.5
238.39	124.5
238.624	124.5
238.858	111.5
239.091	120.5
239.325	119.5
239.559	106.5
239.793	113.5
240.027	114.5
240.26	125.5
240.494	138.5
240.728	139.5
240.961	136.5
241.195	118.5
241.429	121.5
241.662	118.5
241.896	125.5
242.13	112.5
242.363	112.5
242.597	117.5
242.83	132.5
243.064	130.5
243.298	137.5
243.531	122.5
243.765	96.5
243.998	133.5
244.232	125.5
244.465	126.5
244.699	147.5
244.932	125.5
245.166	140.5
245.399	121.5
245.633	128.5
245.866	134.5
246.099	143.5
246.333	147.5
246.566	133.5
246.8	140.5
247.033	150.5
247.266	141.5
247.5	153.5
247.733	146.5
247.966	156.5
248.2	153.5
248.433	147.5
248.666	139.5
248.899	171.5
249.133	173.5
249.366	171.5
249.599	172.5
249.832	150.5
250.066	160.5
250.299	161.5
250.532	178.5
250.765	170.5
250.998	174.5
251.231	193.5
251.465	181.5
251.698	183.5
251.931	183.5
252.164	185.5
252.397	168.5
252.63	188.5
252.863	161.5
253.096	186.5
253.329	195.5
253.562	201.5
253.795	191.5
254.028	199.5
254.261	189.5
254.494	191.5
254.727	220.5
254.96	229.5
255.193	218.5
255.426	202.5
255.659	202.5
255.892	210.5
256.124	205.5
256.357	194.5
256.59	187.5
256.823	188.5
257.056	193.5
257.289	192.5
257.521	174.5
257.754	199.5
257.987	180.5
258.22	180.5
258.452	196.5
258.685	187.5
258.918	169.5
259.151	183.5
259.383	186.5
259.616	182.5
259.849	197.5
260.081	209.5
260.314	228.5
260.547	229.5
260.779	220.5
261.012	218.5
261.244	201.5
261.477	205.5
261.71	192.5
261.942	193.5
262.175	210.5
262.407	197.5
262.64	194.5
262.872	197.5
263.105	194.5
263.337	197.5
263.57	175.5
263.802	181.5
264.035	189.5
264.267	172.5
264.499	183.5
264.732	180.5
264.964	169.5
265.197	178.5
265.429	182.5
265.661	173.5
265.894	177.5
266.126	172.5
266.358	188.5
266.591	187.5
266.823	211.5
267.055	187.5
267.287	201.5
267.52	206.5
267.752	193.5
267.984	207.5
268.216	208.5
268.448	192.5
268.681	196.5
268.913	214.5
269.145	230.5
269.377	216.5
269.609	237.5
269.841	232.5
270.073	250.5
270.306	240.5
270.538	256.5
270.77	255.5
271.002	252.5
271.234	248.5
271.466	264.5
271.698	273.5
271.93	270.5
272.162	258.5
272.394	262.5
272.626	252.5
272.858	244.5
273.09	240.5
273.322	240.5
273.553	227.5
273.785	230.5
274.017	232.5
274.249	224.5
274.481	234.5
274.713	241.5
274.945	226.5
275.176	234.5
275.408	221.5
275.64	216.5
275.872	225.5
276.104	229.5
276.335	229.5
276.567	232.5
276.799	242.5
277.031	272.5
277.262	270.5
277.494	264.5
277.726	246.5
277.957	233.5
278.189	216.5
278.421	232.5
278.652	226.5
278.884	218.5
279.115	224.5
279.347	238.5
279.579	226.5
279.81	241.5
280.042	226.5
280.273	235.5
280.505	223.5
280.736	224.5
280.968	222.5
281.199	229.5
281.431	230.5
281.662	230.5
281.894	240.5
282.125	220.5
282.356	222.5
282.588	256.5
282.819	264.5
283.051	241.5
283.282	235.5
283.513	228.5
283.745	242.5
283.976	219.5
284.207	244.5
284.439	244.5
284.67	225.5
284.901	238.5
285.132	233.5
285.364	218.5
285.595	221.5
285.826	233.5
286.057	237.5
286.288	245.5
286.52	235.5
286.751	233.5
286.982	247.5
287.213	230.5
287.444	224.5
287.675	219.5
287.906	251.5
288.138	230.5
288.369	233.5
288.6	248.5
288.831	237.5
289.062	238.5
289.293	233.5
289.524	227.5
289.755	239.5
289.986	254.5
290.217	233.5
290.448	237.5
290.679	244.5
290.91	258.5
291.141	245.5
291.371	252.5
291.602	241.5
291.833	256.5
292.064	225.5
292.295	237.5
292.526	248.5
292.757	241.5
292.987	231.5
293.218	240.5
293.449	250.5
293.68	237.5
293.91	250.5
294.141	221.5
294.372	236.5
294.603	236.5
294.833	250.5
295.064	242.5
295.295	231.5
295.525	246.5
295.756	237.5
295.987	228.5
296.217	268.5
296.448	263.5
296.679	254.5
296.909	248.5
297.14	226.5
297.37	236.5
297.601	248.5
297.831	257.5
298.062	229.5
298.292	254.5
298.523	252.5
298.753	271.5
298.984	264.5
299.214	250.5
299.445	244.5
299.675	250.5
299.905	247.5
300.136	259.5
300.366	256.5
300.597	245.5
300.827	260.5
301.057	261.5
301.288	264.5
301.518	264.5
301.748	252.5
301.979	277.5
302.209	264.5
302.439	267.5
302.669	279.5
302.9	265.5
303.13	270.5
303.36	269.5
303.59	280.5
303.82	277.5
304.051	278.5
304.281	269.5
304.511	279.5
304.741	265.5
304.971	272.5
305.201	261.5
305.431	274.5
305.661	281.5
305.891	269.5
306.121	274.5
306.352	288.5
306.582	291.5
306.812	276.5
307.042	277.5
307.272	262.5
307.502	290.5
307.731	307.5
307.961	274.5
308.191	279.5
308.421	276.5
308.651	284.5
308.881	279.5
309.111	278.5
309.341	286.5
309.571	304.5
309.8	311.5
310.03	302.5
310.26	322.5
310.49	320.5
310.72	334.5
310.949	339.5
311.179	346.5
311.409	341.5
311.639	301.5
311.868	329.5
312.098	320.5
312.328	333.5
312.557	345.5
312.787	368.5
313.017	344.5
313.246	328.5
313.476	316.5
313.706	311.5
313.935	323.5
314.165	327.5
314.394	328.5
314.624	341.5
314.853	328.5
315.083	332.5
315.312	316.5
315.542	321.5
315.771	312.5
316.001	307.5
316.23	307.5
316.46	317.5
316.689	302.5
316.919	321.5
317.148	329.5
317.377	354.5
317.607	322.5
317.836	334.5
318.065	306.5
318.295	314.5
318.524	328.5
318.753	308.5
318.983	329.5
319.212	330.5
319.441	338.5
319.67	305.5
319.9	327.5
320.129	328.5
320.358	331.5
320.587	317.5
320.816	353.5
321.046	332.5
321.275	333.5
321.504	326.5
321.733	344.5
321.962	363.5
322.191	360.5
322.42	362.5
322.649	385.5
322.878	398.5
323.108	438.5
323.337	434.5
323.566	456.5
323.795	501.5
324.024	550.5
324.253	698.5
324.482	992.5
324.71	1538.5
324.939	2165.5
325.168	1808.5
325.397	927.5
325.626	629.5
325.855	504.5
326.084	452.5
326.313	473.5
326.542	475.5
326.77	516.5
326.999	640.5
327.228	902.5
327.457	1340.5
327.686	1582.5
327.914	1060.5
328.143	699.5
328.372	591.5
328.6	558.5
328.829	523.5
329.058	528.5
329.287	539.5
329.515	499.5
329.744	475.5
329.972	469.5
330.201	476.5
330.43	521.5
330.658	561.5
330.887	565.5
331.115	538.5
331.344	465.5
331.572	446.5
331.801	418.5
332.03	432.5
332.258	404.5
332.486	382.5
332.715	384.5
332.943	378.5
333.172	389.5
333.4	381.5
333.629	386.5
333.857	402.5
334.085	420.5
334.314	430.5
334.542	456.5
334.771	470.5
334.999	444.5
335.227	392.5
335.455	389.5
335.684	376.5
335.912	368.5
336.14	366.5
336.369	371.5
336.597	397.5
336.825	369.5
337.053	378.5
337.281	385.5
337.51	360.5
337.738	368.5
337.966	369.5
338.194	370.5
338.422	387.5
338.65	362.5
338.878	350.5
339.106	364.5
339.334	362.5
339.562	329.5
339.79	347.5
340.018	354.5
340.246	358.5
340.474	353.5
340.702	337.5
340.93	340.5
341.158	361.5
341.386	339.5
341.614	362.5
341.842	357.5
342.07	344.5
342.298	365.5
342.526	330.5
342.754	339.5
342.981	353.5
343.209	344.5
343.437	335.5
343.665	365.5
343.893	349.5
344.12	341.5
344.348	347.5
344.576	357.5
344.804	377.5
345.031	375.5
345.259	361.5
345.487	357.5
345.714	373.5
345.942	359.5
346.17	370.5
346.397	355.5
346.625	347.5
346.853	351.5
347.08	356.5
347.308	339.5
347.535	376.5
347.763	366.5
347.99	351.5
348.218	378.5
348.445	357.5
348.673	352.5
348.9	354.5
349.128	361.5
349.355	352.5
349.583	336.5
349.81	334.5
350.037	331.5
350.265	349.5
350.492	334.5
350.72	354.5
350.947	350.5
351.174	363.5
351.402	352.5
351.629	342.5
351.856	352.5
352.083	362.5
352.311	369.5
352.538	376.5
352.765	368.5
352.992	368.5
353.22	348.5
353.447	346.5
353.674	352.5
353.901	335.5
354.128	325.5
354.355	332.5
354.583	342.5
354.81	332.5
355.037	319.5
355.264	313.5
355.491	319.5
355.718	320.5
355.945	323.5
356.172	327.5
356.399	323.5
356.626	315.5
356.853	317.5
357.08	328.5
357.307	324.5
357.534	324.5
357.761	314.5
357.988	313.5
358.215	317.5
358.441	317.5
358.668	337.5
358.895	324.5
359.122	309.5
359.349	341.5
359.576	356.5
359.802	398.5
360.029	408.5
360.256	419.5
360.483	381.5
360.709	356.5
360.936	356.5
361.163	347.5
361.39	361.5
361.616	361.5
361.843	356.5
362.07	343.5
362.296	340.5
362.523	365.5
362.749	354.5
362.976	325.5
363.203	341.5
363.429	325.5
363.656	333.5
363.882	328.5
364.109	344.5
364.335	341.5
364.562	327.5
364.788	335.5
365.015	338.5
365.241	338.5
365.468	347.5
365.694	339.5
365.92	337.5
366.147	329.5
366.373	345.5
366.599	334.5
366.826	334.5
367.052	350.5
367.278	331.5
367.505	336.5
367.731	329.5
367.957	328.5
368.184	323.5
368.41	346.5
368.636	336.5
368.862	358.5
369.089	348.5
369.315	326.5
369.541	334.5
369.767	342.5
369.993	331.5
370.219	330.5
370.445	332.5
370.672	312.5
370.898	335.5
371.124	322.5
371.35	331.5
371.576	330.5
371.802	320.5
372.028	318.5
372.254	330.5
372.48	317.5
372.706	325.5
372.932	319.5
373.158	332.5
373.384	324.5
373.61	330.5
373.835	333.5
374.061	339.5
374.287	338.5
374.513	328.5
374.739	321.5
374.965	336.5
375.191	332.5
375.416	321.5
375.642	307.5
375.868	338.5
376.094	320.5
376.319	334.5
376.545	302.5
376.771	321.5
376.997	326.5
377.222	333.5
377.448	328.5
377.674	327.5
377.899	328.5
378.125	318.5
378.35	313.5
378.576	326.5
378.802	327.5
379.027	326.5
379.253	304.5
379.478	312.5
379.704	310.5
379.929	321.5
380.155	333.5
380.38	329.5
380.606	342.5
380.831	327.5
381.057	328.5
381.282	322.5
381.507	339.5
381.733	354.5
381.958	334.5
382.184	340.5
382.409	328.5
382.634	338.5
382.86	332.5
383.085	339.5
383.31	339.5
383.535	341.5
383.761	321.5
383.986	331.5
384.211	328.5
384.436	342.5
384.662	348.5
384.887	349.5
385.112	362.5
385.337	358.5
385.562	345.5
385.787	362.5
386.013	345.5
386.238	350.5
386.463	353.5
386.688	354.5
386.913	359.5
387.138	340.5
387.363	347.5
387.588	339.5
387.813	353.5
388.038	347.5
388.263	366.5
388.488	358.5
388.713	348.5
388.938	374.5
389.163	338.5
389.387	349.5
389.612	358.5
389.837	351.5
390.062	337.5
390.287	334.5
390.512	337.5
390.736	349.5
390.961	360.5
391.186	339.5
391.411	356.5
391.636	360.5
391.86	362.5
392.085	360.5
392.31	359.5
392.534	355.5
392.759	343.5
392.984	360.5
393.208	366.5
393.433	370.5
393.658	361.5
393.882	364.5
394.107	358.5
394.331	356.5
394.556	361.5
394.78	361.5
395.005	352.5
395.229	364.5
395.454	352.5
395.678	369.5
395.903	378.5
396.127	393.5
396.352	393.5
396.576	369.5
396.801	360.5
397.025	352.5
397.249	375.5
397.474	388.5
397.698	396.5
397.922	383.5
398.147	392.5
398.371	383.5
398.595	382.5
398.82	373.5
399.044	405.5
399.268	412.5
399.492	415.5
399.717	435.5
399.941	454.5
400.165	484.5
400.389	500.5
400.613	440.5
400.837	427.5
401.062	405.5
401.286	413.5
401.51	422.5
401.734	388.5
401.958	386.5
402.182	408.5
402.406	398.5
402.63	406.5
402.854	416.5
403.078	426.5
403.302	419.5
403.526	416.5
403.75	415.5
403.974	420.5
404.198	409.5
404.422	426.5
404.645	428.5
404.869	439.5
405.093	444.5
405.317	497.5
405.541	516.5
405.765	474.5
405.988	456.5
406.212	456.5
406.436	463.5
406.66	463.5
406.883	457.5
407.107	470.5
407.331	518.5
407.555	547.5
407.778	566.5
408.002	491.5
408.226	448.5
408.449	458.5
408.673	478.5
408.896	478.5
409.12	530.5
409.344	504.5
409.567	452.5
409.791	448.5
410.014	426.5
410.238	434.5
410.461	441.5
410.685	426.5
410.908	449.5
411.132	481.5
411.355	484.5
411.578	465.5
411.802	408.5
412.025	412.5
412.249	421.5
412.472	440.5
412.695	485.5
412.919	467.5
413.142	434.5
413.365	421.5
413.589	406.5
413.812	414.5
414.035	388.5
414.258	398.5
414.482	388.5
414.705	396.5
414.928	382.5
415.151	406.5
415.374	394.5
415.597	397.5
415.821	398.5
416.044	403.5
416.267	399.5
416.49	377.5
416.713	382.5
416.936	393.5
417.159	386.5
417.382	401.5
417.605	392.5
417.828	424.5
418.051	422.5
418.274	408.5
418.497	394.5
418.72	409.5
418.943	412.5
419.166	414.5
419.389	442.5
419.611	413.5
419.834	418.5
420.057	411.5
420.28	424.5
420.503	429.5
420.726	409.5
420.948	424.5
421.171	466.5
421.394	472.5
421.617	420.5
421.839	418.5
422.062	429.5
422.285	440.5
422.507	481.5
422.73	547.5
422.953	510.5
423.175	444.5
423.398	452.5
423.621	426.5
423.843	444.5
424.066	449.5
424.288	428.5
424.511	470.5
424.733	505.5
424.956	577.5
425.178	566.5
425.401	549.5
425.623	565.5
425.846	513.5
426.068	457.5
426.291	470.5
426.513	496.5
426.735	486.5
426.958	515.5
427.18	548.5
427.402	669.5
427.625	740.5
427.847	670.5
428.069	590.5
428.292	518.5
428.514	461.5
428.736	442.5
428.958	443.5
429.181	433.5
429.403	430.5
429.625	448.5
429.847	470.5
430.069	513.5
430.292	524.5
430.514	436.5
430.736	426.5
430.958	416.5
431.18	392.5
431.402	406.5
431.624	402.5
431.846	404.5
432.068	396.5
432.29	404.5
432.512	403.5
432.734	403.5
432.956	417.5
433.178	401.5
433.4	426.5
433.622	411.5
433.844	396.5
434.066	406.5
434.287	395.5
434.509	410.5
434.731	408.5
434.953	409.5
435.175	436.5
435.397	451.5
435.618	468.5
435.84	496.5
436.062	577.5
436.284	639.5
436.505	553.5
436.727	480.5
436.949	449.5
437.17	455.5
437.392	433.5
437.614	450.5
437.835	476.5
438.057	562.5
438.278	635.5
438.5	632.5
438.721	681.5
438.943	651.5
439.165	536.5
439.386	503.5
439.608	469.5
439.829	480.5
440.05	526.5
440.272	544.5
440.493	534.5
440.715	466.5
440.936	460.5
441.158	434.5
441.379	436.5
441.6	463.5
441.822	485.5
442.043	485.5
442.264	549.5
442.486	595.5
442.707	526.5
442.928	474.5
443.149	496.5
443.371	496.5
443.592	554.5
443.813	632.5
444.034	636.5
444.255	546.5
444.476	498.5
444.698	448.5
444.919	451.5
445.14	553.5
445.361	515.5
445.582	518.5
445.803	564.5
446.024	653.5
446.245	664.5
446.466	588.5
446.687	522.5
446.908	491.5
447.129	475.5
447.35	444.5
447.571	447.5
447.792	437.5
448.013	421.5
448.234	474.5
448.455	497.5
448.675	577.5
448.896	685.5
449.117	572.5
449.338	555.5
449.559	659.5
449.779	696.5
450	590.5
450.221	492.5
450.442	438.5
450.662	444.5
450.883	440.5
451.104	471.5
451.324	451.5
451.545	416.5
451.766	388.5
451.986	388.5
452.207	390.5
452.428	406.5
452.648	389.5
452.869	399.5
453.089	402.5
453.31	413.5
453.53	410.5
453.751	398.5
453.971	406.5
454.192	411.5
454.412	382.5
454.633	381.5
454.853	370.5
455.073	365.5
455.294	423.5
455.514	455.5
455.734	461.5
455.955	392.5
456.175	386.5
456.395	369.5
456.616	363.5
456.836	376.5
457.056	377.5
457.276	370.5
457.497	369.5
457.717	368.5
457.937	384.5
458.157	361.5
458.377	357.5
458.598	391.5
458.818	456.5
459.038	541.5
459.258	542.5
459.478	472.5
459.698	412.5
459.918	403.5
460.138	406.5
460.358	410.5
460.578	390.5
460.798	408.5
461.018	407.5
461.238	420.5
461.458	398.5
461.678	398.5
461.898	398.5
462.118	397.5
462.338	409.5
462.558	415.5
462.777	410.5
462.997	421.5
463.217	412.5
463.437	442.5
463.657	423.5
463.876	412.5
464.096	418.5
464.316	428.5
464.536	425.5
464.755	453.5
464.975	436.5
465.195	498.5
465.414	545.5
465.634	492.5
465.854	463.5
466.073	423.5
466.293	402.5
466.512	416.5
466.732	414.5
466.951	388.5
467.171	380.5
467.391	412.5
467.61	420.5
467.829	425.5
468.049	394.5
468.268	417.5
468.488	394.5
468.707	400.5
468.927	377.5
469.146	384.5
469.365	392.5
469.585	378.5
469.804	385.5
470.023	398.5
470.243	399.5
470.462	418.5
470.681	429.5
470.901	435.5
471.12	404.5
471.339	397.5
471.558	396.5
471.777	409.5
471.997	396.5
472.216	417.5
472.435	452.5
472.654	442.5
472.873	413.5
473.092	427.5
473.311	422.5
473.53	412.5
473.749	419.5
473.968	434.5
474.187	549.5
474.406	550.5
474.625	449.5
474.844	431.5
475.063	404.5
475.282	414.5
475.501	400.5
475.72	393.5
475.939	414.5
476.158	423.5
476.377	424.5
476.596	426.5
476.814	426.5
477.033	445.5
477.252	426.5
477.471	444.5
477.69	438.5
477.908	438.5
478.127	424.5
478.346	443.5
478.564	457.5
478.783	456.5
479.002	468.5
479.22	448.5
479.439	470.5
479.658	494.5
479.876	492.5
480.095	493.5
480.313	524.5
480.532	488.5
480.751	477.5
480.969	486.5
481.188	576.5
481.406	594.5
481.624	533.5
481.843	500.5
482.061	468.5
482.28	468.5
482.498	478.5
482.717	486.5
482.935	486.5
483.153	477.5
483.372	482.5
483.59	495.5
483.808	474.5
484.027	476.5
484.245	464.5
484.463	451.5
484.681	489.5
484.9	495.5
485.118	476.5
485.336	474.5
485.554	485.5
485.772	484.5
485.99	478.5
486.209	505.5
486.427	494.5
486.645	512.5
486.863	541.5
487.081	524.5
487.299	504.5
487.517	523.5
487.735	489.5
487.953	489.5
488.171	526.5
488.389	511.5
488.607	501.5
488.825	498.5
489.043	526.5
489.261	518.5
489.479	502.5
489.696	531.5
489.914	527.5
490.132	518.5
490.35	521.5
490.568	525.5
490.786	544.5
491.003	532.5
491.221	568.5
491.439	566.5
491.657	557.5
491.874	558.5
492.092	577.5
492.31	560.5
492.527	592.5
492.745	593.5
492.963	593.5
493.18	590.5
493.398	576.5
493.615	611.5
493.833	603.5
494.05	593.5
494.268	586.5
494.485	592.5
494.703	594.5
494.92	588.5
495.138	596.5
495.355	593.5
495.573	601.5
495.79	602.5
496.008	604.5
496.225	617.5
496.442	630.5
496.66	598.5
496.877	596.5
497.094	607.5
497.312	603.5
497.529	613.5
497.746	621.5
497.963	626.5
498.181	650.5
498.398	663.5
498.615	654.5
498.832	661.5
499.049	659.5
499.267	688.5
499.484	692.5
499.701	708.5
499.918	709.5
500.135	709.5
500.352	752.5
500.569	744.5
500.786	753.5
501.003	762.5
501.22	788.5
501.437	740.5
501.654	772.5
501.871	743.5
502.088	722.5
502.305	683.5
502.522	677.5
502.739	665.5
502.956	639.5
503.172	636.5
503.389	631.5
503.606	630.5
503.823	649.5
504.04	638.5
504.256	622.5
504.473	627.5
504.69	600.5
504.907	597.5
505.123	596.5
505.34	592.5
505.557	574.5
505.773	574.5
505.99	600.5
506.207	582.5
506.423	600.5
506.64	603.5
506.856	581.5
507.073	578.5
507.289	608.5
507.506	590.5
507.722	576.5
507.939	620.5
508.155	601.5
508.372	533.5
508.588	582.5
508.805	578.5
509.021	546.5
509.238	576.5
509.454	554.5
509.67	568.5
509.887	554.5
510.103	582.5
510.319	581.5
510.536	680.5
510.752	1178.5
510.968	956.5
511.184	618.5
511.401	566.5
511.617	560.5
511.833	531.5
512.049	540.5
512.265	534.5
512.481	530.5
512.698	530.5
512.914	518.5
513.13	531.5
513.346	536.5
513.562	505.5
513.778	544.5
513.994	544.5
514.21	571.5
514.426	580.5
514.642	616.5
514.858	664.5
515.074	713.5
515.29	832.5
515.506	1284.5
515.721	998.5
515.937	700.5
516.153	607.5
516.369	582.5
516.585	583.5
516.801	560.5
517.016	559.5
517.232	570.5
517.448	532.5
517.664	564.5
517.879	542.5
518.095	545.5
518.311	520.5
518.527	528.5
518.742	556.5
518.958	563.5
519.173	546.5
519.389	531.5
519.605	568.5
519.82	542.5
