Data from 1962.PennyLincolnUp.Lamp.En5.5.200Scan.071719.P1._HRD10591_13-54-56-060.txt Node
Date: Thu Jul 18 13:54:56 EDT 2019
User: cochatt
Spectrometer: HR+D1059
Trigger mode: 1
Integration Time (sec): 1.000000E-1
Scans to average: 1
Electric dark correction enabled: true
Nonlinearity correction enabled: false
Boxcar width: 0
XAxis mode: Wavelengths
Number of Pixels in Spectrum: 2048
>>>>>Begin Spectral Data<<<<<
223.165	-20.06
223.4	-20.06
223.635	-20.06
223.869	-2.06
224.104	-9.06
224.338	-10.06
224.573	-14.06
224.808	-7.06
225.042	-6.06
225.277	-5.06
225.511	-14.06
225.746	-9.06
225.98	-1.06
226.215	2.94
226.449	20.94
226.683	17.94
226.918	32.94
227.152	22.94
227.387	22.94
227.621	38.94
227.856	49.94
228.09	33.94
228.324	48.94
228.559	56.94
228.793	57.94
229.027	85.94
229.262	92.94
229.496	99.94
229.73	107.94
229.964	121.94
230.199	109.94
230.433	88.94
230.667	105.94
230.901	102.94
231.136	110.94
231.37	113.94
231.604	94.94
231.838	110.94
232.072	89.94
232.306	106.94
232.541	106.94
232.775	106.94
233.009	130.94
233.243	115.94
233.477	114.94
233.711	112.94
233.945	106.94
234.179	103.94
234.413	105.94
234.647	96.94
234.881	102.94
235.115	102.94
235.349	100.94
235.583	99.94
235.817	126.94
236.051	122.94
236.285	113.94
236.519	106.94
236.753	127.94
236.987	130.94
237.221	140.94
237.455	200.94
237.689	141.94
237.922	127.94
238.156	130.94
238.39	122.94
238.624	116.94
238.858	118.94
239.091	127.94
239.325	127.94
239.559	135.94
239.793	118.94
240.027	117.94
240.26	127.94
240.494	140.94
240.728	153.94
240.961	137.94
241.195	142.94
241.429	128.94
241.662	131.94
241.896	120.94
242.13	129.94
242.363	138.94
242.597	133.94
242.83	125.94
243.064	136.94
243.298	130.94
243.531	125.94
243.765	130.94
243.998	145.94
244.232	146.94
244.465	131.94
244.699	133.94
244.932	128.94
245.166	137.94
245.399	122.94
245.633	136.94
245.866	123.94
246.099	132.94
246.333	137.94
246.566	123.94
246.8	133.94
247.033	143.94
247.266	131.94
247.5	152.94
247.733	169.94
247.966	165.94
248.2	163.94
248.433	157.94
248.666	166.94
248.899	161.94
249.133	169.94
249.366	179.94
249.599	178.94
249.832	146.94
250.066	162.94
250.299	152.94
250.532	170.94
250.765	190.94
250.998	185.94
251.231	196.94
251.465	179.94
251.698	188.94
251.931	173.94
252.164	175.94
252.397	175.94
252.63	176.94
252.863	188.94
253.096	179.94
253.329	190.94
253.562	199.94
253.795	188.94
254.028	204.94
254.261	193.94
254.494	217.94
254.727	225.94
254.96	232.94
255.193	231.94
255.426	197.94
255.659	207.94
255.892	212.94
256.124	209.94
256.357	203.94
256.59	207.94
256.823	193.94
257.056	187.94
257.289	179.94
257.521	198.94
257.754	215.94
257.987	203.94
258.22	185.94
258.452	181.94
258.685	198.94
258.918	181.94
259.151	196.94
259.383	209.94
259.616	198.94
259.849	201.94
260.081	202.94
260.314	218.94
260.547	219.94
260.779	227.94
261.012	213.94
261.244	211.94
261.477	208.94
261.71	215.94
261.942	210.94
262.175	199.94
262.407	207.94
262.64	198.94
262.872	191.94
263.105	190.94
263.337	204.94
263.57	212.94
263.802	180.94
264.035	190.94
264.267	191.94
264.499	181.94
264.732	199.94
264.964	202.94
265.197	203.94
265.429	203.94
265.661	225.94
265.894	206.94
266.126	218.94
266.358	213.94
266.591	216.94
266.823	212.94
267.055	217.94
267.287	219.94
267.52	220.94
267.752	201.94
267.984	228.94
268.216	224.94
268.448	242.94
268.681	218.94
268.913	234.94
269.145	266.94
269.377	253.94
269.609	263.94
269.841	258.94
270.073	253.94
270.306	250.94
270.538	264.94
270.77	286.94
271.002	273.94
271.234	283.94
271.466	277.94
271.698	283.94
271.93	295.94
272.162	291.94
272.394	293.94
272.626	271.94
272.858	277.94
273.09	259.94
273.322	264.94
273.553	250.94
273.785	259.94
274.017	258.94
274.249	265.94
274.481	260.94
274.713	242.94
274.945	262.94
275.176	248.94
275.408	244.94
275.64	244.94
275.872	242.94
276.104	247.94
276.335	244.94
276.567	240.94
276.799	262.94
277.031	265.94
277.262	299.94
277.494	312.94
277.726	289.94
277.957	284.94
278.189	273.94
278.421	259.94
278.652	261.94
278.884	283.94
279.115	259.94
279.347	276.94
279.579	267.94
279.81	246.94
280.042	277.94
280.273	277.94
280.505	254.94
280.736	260.94
280.968	266.94
281.199	248.94
281.431	262.94
281.662	261.94
281.894	282.94
282.125	273.94
282.356	270.94
282.588	282.94
282.819	293.94
283.051	286.94
283.282	270.94
283.513	282.94
283.745	281.94
283.976	275.94
284.207	274.94
284.439	286.94
284.67	271.94
284.901	271.94
285.132	286.94
285.364	286.94
285.595	286.94
285.826	275.94
286.057	302.94
286.288	285.94
286.52	273.94
286.751	281.94
286.982	292.94
287.213	286.94
287.444	304.94
287.675	268.94
287.906	308.94
288.138	295.94
288.369	306.94
288.6	287.94
288.831	305.94
289.062	301.94
289.293	301.94
289.524	308.94
289.755	293.94
289.986	288.94
290.217	293.94
290.448	294.94
290.679	305.94
290.91	304.94
291.141	292.94
291.371	291.94
291.602	303.94
291.833	311.94
292.064	284.94
292.295	294.94
292.526	291.94
292.757	286.94
292.987	297.94
293.218	289.94
293.449	318.94
293.68	291.94
293.91	299.94
294.141	302.94
294.372	283.94
294.603	281.94
294.833	308.94
295.064	287.94
295.295	303.94
295.525	309.94
295.756	293.94
295.987	305.94
296.217	303.94
296.448	317.94
296.679	310.94
296.909	296.94
297.14	311.94
297.37	317.94
297.601	315.94
297.831	319.94
298.062	317.94
298.292	317.94
298.523	310.94
298.753	302.94
298.984	309.94
299.214	300.94
299.445	303.94
299.675	309.94
299.905	310.94
300.136	330.94
300.366	306.94
300.597	307.94
300.827	333.94
301.057	311.94
301.288	336.94
301.518	309.94
301.748	323.94
301.979	334.94
302.209	327.94
302.439	339.94
302.669	332.94
302.9	334.94
303.13	322.94
303.36	328.94
303.59	337.94
303.82	336.94
304.051	330.94
304.281	342.94
304.511	331.94
304.741	339.94
304.971	342.94
305.201	327.94
305.431	320.94
305.661	331.94
305.891	343.94
306.121	322.94
306.352	328.94
306.582	315.94
306.812	344.94
307.042	323.94
307.272	345.94
307.502	338.94
307.731	338.94
307.961	340.94
308.191	332.94
308.421	313.94
308.651	333.94
308.881	330.94
309.111	347.94
309.341	337.94
309.571	333.94
309.8	359.94
310.03	361.94
310.26	353.94
310.49	350.94
310.72	379.94
310.949	367.94
311.179	353.94
311.409	359.94
311.639	354.94
311.868	388.94
312.098	373.94
312.328	363.94
312.557	373.94
312.787	353.94
313.017	359.94
313.246	374.94
313.476	360.94
313.706	363.94
313.935	369.94
314.165	381.94
314.394	392.94
314.624	396.94
314.853	350.94
315.083	370.94
315.312	376.94
315.542	343.94
315.771	377.94
316.001	369.94
316.23	343.94
316.46	369.94
316.689	367.94
316.919	371.94
317.148	379.94
317.377	362.94
317.607	362.94
317.836	370.94
318.065	362.94
318.295	371.94
318.524	359.94
318.753	367.94
318.983	367.94
319.212	359.94
319.441	389.94
319.67	368.94
319.9	366.94
320.129	358.94
320.358	375.94
320.587	372.94
320.816	377.94
321.046	383.94
321.275	385.94
321.504	387.94
321.733	381.94
321.962	382.94
322.191	381.94
322.42	407.94
322.649	404.94
322.878	410.94
323.108	413.94
323.337	424.94
323.566	435.94
323.795	451.94
324.024	507.94
324.253	554.94
324.482	719.94
324.71	1047.94
324.939	1476.94
325.168	1281.94
325.397	717.94
325.626	534.94
325.855	466.94
326.084	449.94
326.313	453.94
326.542	451.94
326.77	479.94
326.999	534.94
327.228	667.94
327.457	971.94
327.686	1143.94
327.914	826.94
328.143	577.94
328.372	525.94
328.6	500.94
328.829	473.94
329.058	482.94
329.287	482.94
329.515	505.94
329.744	458.94
329.972	461.94
330.201	463.94
330.43	469.94
330.658	511.94
330.887	505.94
331.115	501.94
331.344	466.94
331.572	486.94
331.801	454.94
332.03	463.94
332.258	454.94
332.486	442.94
332.715	439.94
332.943	438.94
333.172	439.94
333.4	453.94
333.629	487.94
333.857	490.94
334.085	482.94
334.314	506.94
334.542	503.94
334.771	510.94
334.999	483.94
335.227	449.94
335.455	472.94
335.684	449.94
335.912	455.94
336.14	437.94
336.369	442.94
336.597	440.94
336.825	449.94
337.053	453.94
337.281	441.94
337.51	442.94
337.738	437.94
337.966	441.94
338.194	439.94
338.422	423.94
338.65	445.94
338.878	429.94
339.106	431.94
339.334	425.94
339.562	416.94
339.79	422.94
340.018	434.94
340.246	412.94
340.474	421.94
340.702	418.94
340.93	422.94
341.158	422.94
341.386	415.94
341.614	424.94
341.842	407.94
342.07	404.94
342.298	422.94
342.526	400.94
342.754	411.94
342.981	417.94
343.209	399.94
343.437	420.94
343.665	443.94
343.893	444.94
344.12	444.94
344.348	467.94
344.576	448.94
344.804	449.94
345.031	438.94
345.259	441.94
345.487	418.94
345.714	425.94
345.942	409.94
346.17	407.94
346.397	399.94
346.625	405.94
346.853	408.94
347.08	412.94
347.308	401.94
347.535	397.94
347.763	418.94
347.99	422.94
348.218	416.94
348.445	421.94
348.673	413.94
348.9	395.94
349.128	408.94
349.355	421.94
349.583	408.94
349.81	408.94
350.037	400.94
350.265	385.94
350.492	393.94
350.72	378.94
350.947	407.94
351.174	407.94
351.402	390.94
351.629	408.94
351.856	398.94
352.083	402.94
352.311	417.94
352.538	412.94
352.765	398.94
352.992	393.94
353.22	412.94
353.447	408.94
353.674	382.94
353.901	374.94
354.128	395.94
354.355	395.94
354.583	382.94
354.81	376.94
355.037	402.94
355.264	390.94
355.491	370.94
355.718	399.94
355.945	393.94
356.172	384.94
356.399	374.94
356.626	388.94
356.853	380.94
357.08	396.94
357.307	406.94
357.534	411.94
357.761	375.94
357.988	389.94
358.215	372.94
358.441	396.94
358.668	406.94
358.895	388.94
359.122	387.94
359.349	396.94
359.576	404.94
359.802	418.94
360.029	415.94
360.256	419.94
360.483	418.94
360.709	396.94
360.936	409.94
361.163	395.94
361.39	422.94
361.616	385.94
361.843	397.94
362.07	399.94
362.296	403.94
362.523	405.94
362.749	423.94
362.976	400.94
363.203	399.94
363.429	385.94
363.656	382.94
363.882	384.94
364.109	398.94
364.335	396.94
364.562	391.94
364.788	389.94
365.015	401.94
365.241	391.94
365.468	393.94
365.694	411.94
365.92	400.94
366.147	379.94
366.373	406.94
366.599	376.94
366.826	374.94
367.052	391.94
367.278	365.94
367.505	386.94
367.731	383.94
367.957	385.94
368.184	381.94
368.41	400.94
368.636	406.94
368.862	410.94
369.089	399.94
369.315	398.94
369.541	396.94
369.767	395.94
369.993	397.94
370.219	395.94
370.445	409.94
370.672	396.94
370.898	396.94
371.124	409.94
371.35	383.94
371.576	379.94
371.802	377.94
372.028	411.94
372.254	416.94
372.48	397.94
372.706	409.94
372.932	421.94
373.158	409.94
373.384	397.94
373.61	407.94
373.835	381.94
374.061	409.94
374.287	399.94
374.513	394.94
374.739	409.94
374.965	423.94
375.191	418.94
375.416	424.94
375.642	410.94
375.868	415.94
376.094	402.94
376.319	418.94
376.545	403.94
376.771	406.94
376.997	411.94
377.222	389.94
377.448	407.94
377.674	404.94
377.899	415.94
378.125	389.94
378.35	395.94
378.576	395.94
378.802	384.94
379.027	382.94
379.253	414.94
379.478	410.94
379.704	403.94
379.929	414.94
380.155	400.94
380.38	391.94
380.606	412.94
380.831	406.94
381.057	393.94
381.282	421.94
381.507	409.94
381.733	411.94
381.958	406.94
382.184	417.94
382.409	401.94
382.634	412.94
382.86	387.94
383.085	422.94
383.31	413.94
383.535	414.94
383.761	447.94
383.986	434.94
384.211	451.94
384.436	430.94
384.662	422.94
384.887	434.94
385.112	434.94
385.337	448.94
385.562	454.94
385.787	456.94
386.013	463.94
386.238	475.94
386.463	467.94
386.688	450.94
386.913	464.94
387.138	445.94
387.363	458.94
387.588	476.94
387.813	444.94
388.038	451.94
388.263	451.94
388.488	472.94
388.713	446.94
388.938	465.94
389.163	463.94
389.387	468.94
389.612	463.94
389.837	444.94
390.062	457.94
390.287	453.94
390.512	456.94
390.736	434.94
390.961	488.94
391.186	474.94
391.411	458.94
391.636	486.94
391.86	497.94
392.085	464.94
392.31	466.94
392.534	480.94
392.759	486.94
392.984	450.94
393.208	475.94
393.433	482.94
393.658	470.94
393.882	464.94
394.107	472.94
394.331	484.94
394.556	470.94
394.78	490.94
395.005	480.94
395.229	474.94
395.454	490.94
395.678	497.94
395.903	487.94
396.127	508.94
396.352	505.94
396.576	483.94
396.801	472.94
397.025	475.94
397.249	494.94
397.474	496.94
397.698	500.94
397.922	498.94
398.147	525.94
398.371	534.94
398.595	518.94
398.82	546.94
399.044	561.94
399.268	587.94
399.492	643.94
399.717	681.94
399.941	703.94
400.165	693.94
400.389	664.94
400.613	612.94
400.837	575.94
401.062	537.94
401.286	569.94
401.51	544.94
401.734	521.94
401.958	543.94
402.182	549.94
402.406	537.94
402.63	555.94
402.854	540.94
403.078	556.94
403.302	575.94
403.526	589.94
403.75	560.94
403.974	558.94
404.198	554.94
404.422	581.94
404.645	581.94
404.869	573.94
405.093	609.94
405.317	629.94
405.541	656.94
405.765	615.94
405.988	593.94
406.212	597.94
406.436	611.94
406.66	612.94
406.883	599.94
407.107	635.94
407.331	651.94
407.555	721.94
407.778	708.94
408.002	652.94
408.226	629.94
408.449	618.94
408.673	615.94
408.896	627.94
409.12	666.94
409.344	626.94
409.567	603.94
409.791	578.94
410.014	574.94
410.238	563.94
410.461	558.94
410.685	582.94
410.908	588.94
411.132	606.94
411.355	617.94
411.578	589.94
411.802	549.94
412.025	564.94
412.249	573.94
412.472	597.94
412.695	615.94
412.919	590.94
413.142	566.94
413.365	555.94
413.589	553.94
413.812	516.94
414.035	536.94
414.258	545.94
414.482	544.94
414.705	557.94
414.928	549.94
415.151	521.94
415.374	518.94
415.597	521.94
415.821	505.94
416.044	492.94
416.267	509.94
416.49	530.94
416.713	512.94
416.936	527.94
417.159	520.94
417.382	520.94
417.605	516.94
417.828	531.94
418.051	550.94
418.274	537.94
418.497	538.94
418.72	534.94
418.943	515.94
419.166	546.94
419.389	580.94
419.611	590.94
419.834	570.94
420.057	559.94
420.28	548.94
420.503	549.94
420.726	538.94
420.948	563.94
421.171	591.94
421.394	606.94
421.617	535.94
421.839	527.94
422.062	549.94
422.285	548.94
422.507	576.94
422.73	637.94
422.953	633.94
423.175	583.94
423.398	549.94
423.621	582.94
423.843	551.94
424.066	569.94
424.288	586.94
424.511	585.94
424.733	643.94
424.956	692.94
425.178	647.94
425.401	650.94
425.623	696.94
425.846	610.94
426.068	569.94
426.291	546.94
426.513	561.94
426.735	557.94
426.958	591.94
427.18	621.94
427.402	736.94
427.625	816.94
427.847	669.94
428.069	606.94
428.292	557.94
428.514	537.94
428.736	504.94
428.958	513.94
429.181	500.94
429.403	535.94
429.625	511.94
429.847	547.94
430.069	576.94
430.292	587.94
430.514	512.94
430.736	494.94
430.958	496.94
431.18	511.94
431.402	495.94
431.624	478.94
431.846	485.94
432.068	499.94
432.29	503.94
432.512	495.94
432.734	521.94
432.956	518.94
433.178	529.94
433.4	484.94
433.622	509.94
433.844	482.94
434.066	521.94
434.287	495.94
434.509	487.94
434.731	545.94
434.953	516.94
435.175	555.94
435.397	566.94
435.618	565.94
435.84	568.94
436.062	651.94
436.284	706.94
436.505	591.94
436.727	544.94
436.949	536.94
437.17	535.94
437.392	491.94
437.614	496.94
437.835	523.94
438.057	582.94
438.278	661.94
438.5	693.94
438.721	702.94
438.943	720.94
439.165	610.94
439.386	558.94
439.608	517.94
439.829	539.94
440.05	569.94
440.272	613.94
440.493	575.94
440.715	535.94
440.936	529.94
441.158	537.94
441.379	524.94
441.6	560.94
441.822	565.94
442.043	591.94
442.264	637.94
442.486	669.94
442.707	591.94
442.928	566.94
443.149	559.94
443.371	605.94
443.592	592.94
443.813	721.94
444.034	749.94
444.255	633.94
444.476	597.94
444.698	588.94
444.919	603.94
445.14	705.94
445.361	642.94
445.582	615.94
445.803	633.94
446.024	691.94
446.245	703.94
446.466	651.94
446.687	584.94
446.908	539.94
447.129	520.94
447.35	513.94
447.571	522.94
447.792	490.94
448.013	524.94
448.234	505.94
448.455	540.94
448.675	599.94
448.896	715.94
449.117	631.94
449.338	604.94
449.559	688.94
449.779	729.94
450	627.94
450.221	543.94
450.442	524.94
450.662	491.94
450.883	478.94
451.104	499.94
451.324	490.94
451.545	475.94
451.766	482.94
451.986	447.94
452.207	457.94
452.428	450.94
452.648	468.94
452.869	464.94
453.089	460.94
453.31	464.94
453.53	460.94
453.751	449.94
453.971	465.94
454.192	437.94
454.412	464.94
454.633	444.94
454.853	451.94
455.073	456.94
455.294	469.94
455.514	532.94
455.734	501.94
455.955	450.94
456.175	453.94
456.395	443.94
456.616	441.94
456.836	427.94
457.056	452.94
457.276	432.94
457.497	447.94
457.717	443.94
457.937	425.94
458.157	467.94
458.377	453.94
458.598	455.94
458.818	513.94
459.038	533.94
459.258	591.94
459.478	529.94
459.698	501.94
459.918	513.94
460.138	531.94
460.358	515.94
460.578	542.94
460.798	555.94
461.018	542.94
461.238	543.94
461.458	522.94
461.678	494.94
461.898	520.94
462.118	555.94
462.338	564.94
462.558	557.94
462.777	566.94
462.997	585.94
463.217	626.94
463.437	635.94
463.657	620.94
463.876	601.94
464.096	597.94
464.316	573.94
464.536	575.94
464.755	587.94
464.975	582.94
465.195	569.94
465.414	595.94
465.634	562.94
465.854	522.94
466.073	491.94
466.293	496.94
466.512	484.94
466.732	465.94
466.951	471.94
467.171	481.94
467.391	462.94
467.61	473.94
467.829	502.94
468.049	476.94
468.268	478.94
468.488	459.94
468.707	458.94
468.927	454.94
469.146	470.94
469.365	472.94
469.585	469.94
469.804	481.94
470.023	489.94
470.243	494.94
470.462	498.94
470.681	510.94
470.901	493.94
471.12	511.94
471.339	502.94
471.558	457.94
471.777	476.94
471.997	479.94
472.216	485.94
472.435	483.94
472.654	485.94
472.873	474.94
473.092	465.94
473.311	475.94
473.53	473.94
473.749	480.94
473.968	529.94
474.187	590.94
474.406	583.94
474.625	526.94
474.844	483.94
475.063	484.94
475.282	475.94
475.501	500.94
475.72	487.94
475.939	470.94
476.158	447.94
476.377	490.94
476.596	497.94
476.814	507.94
477.033	500.94
477.252	509.94
477.471	519.94
477.69	526.94
477.908	530.94
478.127	541.94
478.346	536.94
478.564	561.94
478.783	561.94
479.002	560.94
479.22	564.94
479.439	564.94
479.658	574.94
479.876	569.94
480.095	578.94
480.313	615.94
480.532	598.94
480.751	598.94
480.969	604.94
481.188	609.94
481.406	614.94
481.624	598.94
481.843	569.94
482.061	571.94
482.28	572.94
482.498	565.94
482.717	567.94
482.935	564.94
483.153	553.94
483.372	542.94
483.59	531.94
483.808	554.94
484.027	537.94
484.245	579.94
484.463	562.94
484.681	596.94
484.9	593.94
485.118	554.94
485.336	570.94
485.554	578.94
485.772	563.94
485.99	576.94
486.209	584.94
486.427	593.94
486.645	578.94
486.863	588.94
487.081	603.94
487.299	574.94
487.517	582.94
487.735	594.94
487.953	599.94
488.171	595.94
488.389	580.94
488.607	577.94
488.825	581.94
489.043	585.94
489.261	597.94
489.479	606.94
489.696	601.94
489.914	601.94
490.132	608.94
490.35	615.94
490.568	637.94
490.786	629.94
491.003	603.94
491.221	623.94
491.439	625.94
491.657	645.94
491.874	643.94
492.092	649.94
492.31	646.94
492.527	648.94
492.745	647.94
492.963	664.94
493.18	666.94
493.398	689.94
493.615	640.94
493.833	682.94
494.05	679.94
494.268	661.94
494.485	664.94
494.703	697.94
494.92	669.94
495.138	655.94
495.355	695.94
495.573	689.94
495.79	705.94
496.008	670.94
496.225	664.94
496.442	685.94
496.66	685.94
496.877	709.94
497.094	711.94
497.312	719.94
497.529	728.94
497.746	733.94
497.963	749.94
498.181	759.94
498.398	770.94
498.615	809.94
498.832	841.94
499.049	885.94
499.267	866.94
499.484	947.94
499.701	968.94
499.918	1053.94
500.135	1124.94
500.352	1178.94
500.569	1229.94
500.786	1209.94
501.003	1188.94
501.22	1126.94
501.437	1062.94
501.654	1019.94
501.871	999.94
