Data from 1962.PennyLincolnUp.Lamp.En5.5.200Scan.071719.P1._HRD10591_13-55-17-062.txt Node
Date: Thu Jul 18 13:55:17 EDT 2019
User: cochatt
Spectrometer: HR+D1059
Trigger mode: 1
Integration Time (sec): 1.000000E-1
Scans to average: 1
Electric dark correction enabled: true
Nonlinearity correction enabled: false
Boxcar width: 0
XAxis mode: Wavelengths
Number of Pixels in Spectrum: 2048
>>>>>Begin Spectral Data<<<<<
223.165	-7.5
223.4	-7.5
223.635	-7.5
223.869	-10.5
224.104	-11.5
224.338	-19.5
224.573	-8.5
224.808	-11.5
225.042	4.5
225.277	-4.5
225.511	-14.5
225.746	-5.5
225.98	4.5
226.215	7.5
226.449	21.5
226.683	23.5
226.918	11.5
227.152	20.5
227.387	31.5
227.621	28.5
227.856	45.5
228.09	29.5
228.324	40.5
228.559	52.5
228.793	56.5
229.027	76.5
229.262	105.5
229.496	97.5
229.73	113.5
229.964	148.5
230.199	124.5
230.433	101.5
230.667	116.5
230.901	107.5
231.136	109.5
231.37	112.5
231.604	118.5
231.838	128.5
232.072	117.5
232.306	105.5
232.541	107.5
232.775	100.5
233.009	122.5
233.243	108.5
233.477	124.5
233.711	104.5
233.945	104.5
234.179	114.5
234.413	114.5
234.647	108.5
234.881	101.5
235.115	112.5
235.349	124.5
235.583	124.5
235.817	118.5
236.051	116.5
236.285	117.5
236.519	125.5
236.753	109.5
236.987	113.5
237.221	152.5
237.455	193.5
237.689	162.5
237.922	129.5
238.156	128.5
238.39	120.5
238.624	128.5
238.858	110.5
239.091	120.5
239.325	124.5
239.559	119.5
239.793	126.5
240.027	138.5
240.26	140.5
240.494	149.5
240.728	135.5
240.961	142.5
241.195	127.5
241.429	140.5
241.662	122.5
241.896	131.5
242.13	128.5
242.363	116.5
242.597	129.5
242.83	138.5
243.064	140.5
243.298	138.5
243.531	124.5
243.765	137.5
243.998	138.5
244.232	138.5
244.465	139.5
244.699	136.5
244.932	137.5
245.166	136.5
245.399	140.5
245.633	153.5
245.866	134.5
246.099	140.5
246.333	152.5
246.566	148.5
246.8	148.5
247.033	153.5
247.266	157.5
247.5	170.5
247.733	158.5
247.966	161.5
248.2	162.5
248.433	155.5
248.666	174.5
248.899	172.5
249.133	180.5
249.366	196.5
249.599	164.5
249.832	182.5
250.066	178.5
250.299	173.5
250.532	171.5
250.765	196.5
250.998	217.5
251.231	210.5
251.465	185.5
251.698	195.5
251.931	203.5
252.164	176.5
252.397	182.5
252.63	192.5
252.863	185.5
253.096	210.5
253.329	209.5
253.562	208.5
253.795	198.5
254.028	209.5
254.261	222.5
254.494	198.5
254.727	244.5
254.96	236.5
255.193	240.5
255.426	217.5
255.659	227.5
255.892	214.5
256.124	233.5
256.357	237.5
256.59	211.5
256.823	212.5
257.056	191.5
257.289	203.5
257.521	206.5
257.754	207.5
257.987	201.5
258.22	217.5
258.452	201.5
258.685	200.5
258.918	212.5
259.151	194.5
259.383	212.5
259.616	204.5
259.849	226.5
260.081	224.5
260.314	241.5
260.547	232.5
260.779	231.5
261.012	221.5
261.244	219.5
261.477	213.5
261.71	223.5
261.942	210.5
262.175	208.5
262.407	213.5
262.64	206.5
262.872	210.5
263.105	190.5
263.337	206.5
263.57	211.5
263.802	217.5
264.035	207.5
264.267	233.5
264.499	213.5
264.732	214.5
264.964	235.5
265.197	194.5
265.429	214.5
265.661	198.5
265.894	210.5
266.126	218.5
266.358	211.5
266.591	228.5
266.823	217.5
267.055	218.5
267.287	227.5
267.52	217.5
267.752	224.5
267.984	221.5
268.216	233.5
268.448	233.5
268.681	222.5
268.913	234.5
269.145	254.5
269.377	280.5
269.609	250.5
269.841	260.5
270.073	258.5
270.306	269.5
270.538	293.5
270.77	301.5
271.002	254.5
271.234	274.5
271.466	295.5
271.698	292.5
271.93	301.5
272.162	294.5
272.394	288.5
272.626	284.5
272.858	280.5
273.09	275.5
273.322	278.5
273.553	241.5
273.785	265.5
274.017	251.5
274.249	276.5
274.481	275.5
274.713	260.5
274.945	264.5
275.176	244.5
275.408	257.5
275.64	264.5
275.872	281.5
276.104	268.5
276.335	271.5
276.567	265.5
276.799	284.5
277.031	294.5
277.262	310.5
277.494	306.5
277.726	282.5
277.957	276.5
278.189	282.5
278.421	279.5
278.652	286.5
278.884	272.5
279.115	277.5
279.347	268.5
279.579	265.5
279.81	263.5
280.042	295.5
280.273	264.5
280.505	284.5
280.736	284.5
280.968	265.5
281.199	276.5
281.431	284.5
281.662	290.5
281.894	267.5
282.125	273.5
282.356	312.5
282.588	293.5
282.819	306.5
283.051	289.5
283.282	279.5
283.513	285.5
283.745	285.5
283.976	293.5
284.207	288.5
284.439	276.5
284.67	273.5
284.901	281.5
285.132	286.5
285.364	294.5
285.595	295.5
285.826	273.5
286.057	283.5
286.288	301.5
286.52	292.5
286.751	290.5
286.982	291.5
287.213	287.5
287.444	291.5
287.675	313.5
287.906	304.5
288.138	310.5
288.369	304.5
288.6	297.5
288.831	322.5
289.062	298.5
289.293	301.5
289.524	310.5
289.755	294.5
289.986	316.5
290.217	300.5
290.448	275.5
290.679	313.5
290.91	309.5
291.141	296.5
291.371	314.5
291.602	317.5
291.833	305.5
292.064	317.5
292.295	309.5
292.526	309.5
292.757	316.5
292.987	291.5
293.218	308.5
293.449	297.5
293.68	299.5
293.91	315.5
294.141	316.5
294.372	320.5
294.603	314.5
294.833	310.5
295.064	313.5
295.295	308.5
295.525	323.5
295.756	308.5
295.987	327.5
296.217	307.5
296.448	325.5
296.679	330.5
296.909	314.5
297.14	325.5
297.37	328.5
297.601	313.5
297.831	328.5
298.062	312.5
298.292	301.5
298.523	331.5
298.753	322.5
298.984	316.5
299.214	332.5
299.445	331.5
299.675	333.5
299.905	327.5
300.136	340.5
300.366	319.5
300.597	340.5
300.827	347.5
301.057	333.5
301.288	343.5
301.518	363.5
301.748	331.5
301.979	334.5
302.209	339.5
302.439	357.5
302.669	349.5
302.9	334.5
303.13	347.5
303.36	348.5
303.59	349.5
303.82	344.5
304.051	349.5
304.281	343.5
304.511	340.5
304.741	346.5
304.971	339.5
305.201	342.5
305.431	344.5
305.661	345.5
305.891	333.5
306.121	340.5
306.352	357.5
306.582	343.5
306.812	338.5
307.042	349.5
307.272	337.5
307.502	351.5
307.731	348.5
307.961	324.5
308.191	353.5
308.421	362.5
308.651	349.5
308.881	354.5
309.111	352.5
309.341	350.5
309.571	347.5
309.8	344.5
310.03	357.5
310.26	355.5
310.49	372.5
310.72	356.5
310.949	378.5
311.179	380.5
311.409	365.5
311.639	353.5
311.868	379.5
312.098	390.5
312.328	384.5
312.557	389.5
312.787	407.5
313.017	396.5
313.246	387.5
313.476	370.5
313.706	380.5
313.935	396.5
314.165	391.5
314.394	420.5
314.624	399.5
314.853	391.5
315.083	395.5
315.312	390.5
315.542	383.5
315.771	365.5
316.001	354.5
316.23	364.5
316.46	379.5
316.689	378.5
316.919	393.5
317.148	378.5
317.377	398.5
317.607	369.5
317.836	393.5
318.065	375.5
318.295	401.5
318.524	373.5
318.753	385.5
318.983	387.5
319.212	392.5
319.441	376.5
319.67	377.5
319.9	380.5
320.129	382.5
320.358	397.5
320.587	377.5
320.816	394.5
321.046	399.5
321.275	415.5
321.504	397.5
321.733	389.5
321.962	406.5
322.191	414.5
322.42	427.5
322.649	420.5
322.878	430.5
323.108	444.5
323.337	448.5
323.566	446.5
323.795	482.5
324.024	495.5
324.253	572.5
324.482	763.5
324.71	1125.5
324.939	1581.5
325.168	1405.5
325.397	752.5
325.626	568.5
325.855	497.5
326.084	475.5
326.313	482.5
326.542	459.5
326.77	500.5
326.999	555.5
327.228	710.5
327.457	1018.5
327.686	1226.5
327.914	844.5
328.143	614.5
328.372	553.5
328.6	516.5
328.829	487.5
329.058	512.5
329.287	522.5
329.515	473.5
329.744	473.5
329.972	488.5
330.201	491.5
330.43	516.5
330.658	499.5
330.887	536.5
331.115	524.5
331.344	471.5
331.572	473.5
331.801	473.5
332.03	460.5
332.258	473.5
332.486	476.5
332.715	462.5
332.943	480.5
333.172	469.5
333.4	488.5
333.629	494.5
333.857	501.5
334.085	526.5
334.314	522.5
334.542	540.5
334.771	534.5
334.999	510.5
335.227	493.5
335.455	493.5
335.684	480.5
335.912	443.5
336.14	480.5
336.369	487.5
336.597	477.5
336.825	486.5
337.053	486.5
337.281	459.5
337.51	455.5
337.738	481.5
337.966	471.5
338.194	446.5
338.422	460.5
338.65	462.5
338.878	418.5
339.106	439.5
339.334	445.5
339.562	444.5
339.79	440.5
340.018	443.5
340.246	441.5
340.474	427.5
340.702	452.5
340.93	436.5
341.158	432.5
341.386	410.5
341.614	424.5
341.842	440.5
342.07	424.5
342.298	414.5
342.526	412.5
342.754	436.5
342.981	436.5
343.209	437.5
343.437	458.5
343.665	451.5
343.893	453.5
344.12	476.5
344.348	488.5
344.576	473.5
344.804	445.5
345.031	457.5
345.259	457.5
345.487	449.5
345.714	421.5
345.942	427.5
346.17	400.5
346.397	418.5
346.625	436.5
346.853	421.5
347.08	403.5
347.308	422.5
347.535	410.5
347.763	423.5
347.99	410.5
348.218	419.5
348.445	412.5
348.673	416.5
348.9	412.5
349.128	410.5
349.355	403.5
349.583	420.5
349.81	410.5
350.037	411.5
350.265	404.5
350.492	421.5
350.72	405.5
350.947	406.5
351.174	409.5
351.402	417.5
351.629	408.5
351.856	416.5
352.083	443.5
352.311	412.5
352.538	410.5
352.765	405.5
352.992	398.5
353.22	421.5
353.447	421.5
353.674	428.5
353.901	412.5
354.128	386.5
354.355	392.5
354.583	396.5
354.81	401.5
355.037	397.5
355.264	406.5
355.491	405.5
355.718	386.5
355.945	393.5
356.172	398.5
356.399	388.5
356.626	382.5
356.853	379.5
357.08	408.5
357.307	428.5
357.534	394.5
357.761	408.5
357.988	422.5
358.215	393.5
358.441	422.5
358.668	396.5
358.895	406.5
359.122	408.5
359.349	393.5
359.576	416.5
359.802	422.5
360.029	437.5
360.256	436.5
360.483	421.5
360.709	412.5
360.936	418.5
361.163	422.5
361.39	406.5
361.616	419.5
361.843	397.5
362.07	397.5
362.296	381.5
362.523	394.5
362.749	401.5
362.976	408.5
363.203	420.5
363.429	413.5
363.656	403.5
363.882	384.5
364.109	417.5
364.335	393.5
364.562	421.5
364.788	406.5
365.015	399.5
365.241	417.5
365.468	418.5
365.694	397.5
365.92	402.5
366.147	413.5
366.373	398.5
366.599	400.5
366.826	397.5
367.052	388.5
367.278	395.5
367.505	401.5
367.731	413.5
367.957	400.5
368.184	404.5
368.41	413.5
368.636	410.5
368.862	409.5
369.089	424.5
369.315	413.5
369.541	402.5
369.767	398.5
369.993	412.5
370.219	398.5
370.445	395.5
370.672	411.5
370.898	422.5
371.124	385.5
371.35	416.5
371.576	419.5
371.802	421.5
372.028	421.5
372.254	420.5
372.48	403.5
372.706	421.5
372.932	406.5
373.158	429.5
373.384	427.5
373.61	418.5
373.835	412.5
374.061	423.5
374.287	431.5
374.513	438.5
374.739	445.5
374.965	409.5
375.191	428.5
375.416	454.5
375.642	420.5
375.868	440.5
376.094	416.5
376.319	419.5
376.545	429.5
376.771	396.5
376.997	410.5
377.222	420.5
377.448	398.5
377.674	405.5
377.899	393.5
378.125	407.5
378.35	414.5
378.576	408.5
378.802	407.5
379.027	403.5
379.253	403.5
379.478	391.5
379.704	404.5
379.929	414.5
380.155	404.5
380.38	400.5
380.606	413.5
380.831	424.5
381.057	420.5
381.282	409.5
381.507	412.5
381.733	425.5
381.958	408.5
382.184	433.5
382.409	418.5
382.634	440.5
382.86	465.5
383.085	427.5
383.31	425.5
383.535	442.5
383.761	440.5
383.986	457.5
384.211	453.5
384.436	461.5
384.662	452.5
384.887	446.5
385.112	469.5
385.337	449.5
385.562	458.5
385.787	474.5
386.013	474.5
386.238	472.5
386.463	468.5
386.688	462.5
386.913	476.5
387.138	488.5
387.363	481.5
387.588	460.5
387.813	491.5
388.038	453.5
388.263	457.5
388.488	467.5
388.713	462.5
388.938	476.5
389.163	453.5
389.387	468.5
389.612	458.5
389.837	453.5
390.062	461.5
390.287	472.5
390.512	463.5
390.736	473.5
390.961	476.5
391.186	481.5
391.411	475.5
391.636	494.5
391.86	484.5
392.085	485.5
392.31	488.5
392.534	496.5
392.759	479.5
392.984	499.5
393.208	493.5
393.433	485.5
393.658	495.5
393.882	485.5
394.107	447.5
394.331	474.5
394.556	468.5
394.78	502.5
395.005	502.5
395.229	478.5
395.454	507.5
395.678	514.5
395.903	509.5
396.127	533.5
396.352	519.5
396.576	482.5
396.801	497.5
397.025	484.5
397.249	503.5
397.474	512.5
397.698	502.5
397.922	537.5
398.147	519.5
398.371	536.5
398.595	536.5
398.82	557.5
399.044	565.5
399.268	592.5
399.492	640.5
399.717	692.5
399.941	721.5
400.165	677.5
400.389	692.5
400.613	646.5
400.837	604.5
401.062	574.5
401.286	558.5
401.51	557.5
401.734	539.5
401.958	546.5
402.182	549.5
402.406	570.5
402.63	584.5
402.854	561.5
403.078	562.5
403.302	573.5
403.526	596.5
403.75	585.5
403.974	594.5
404.198	597.5
404.422	604.5
404.645	595.5
404.869	588.5
405.093	616.5
405.317	657.5
405.541	665.5
405.765	620.5
405.988	610.5
406.212	596.5
406.436	602.5
406.66	631.5
406.883	621.5
407.107	648.5
407.331	673.5
407.555	729.5
407.778	737.5
408.002	701.5
408.226	643.5
408.449	646.5
408.673	625.5
408.896	661.5
409.12	681.5
409.344	659.5
409.567	575.5
409.791	600.5
410.014	570.5
410.238	565.5
410.461	584.5
410.685	588.5
410.908	602.5
411.132	583.5
411.355	646.5
411.578	618.5
411.802	580.5
412.025	565.5
412.249	565.5
412.472	606.5
412.695	619.5
412.919	613.5
413.142	568.5
413.365	564.5
413.589	561.5
413.812	564.5
414.035	537.5
414.258	539.5
414.482	562.5
414.705	552.5
414.928	557.5
415.151	548.5
415.374	542.5
415.597	526.5
415.821	554.5
416.044	538.5
416.267	547.5
416.49	525.5
416.713	531.5
416.936	551.5
417.159	525.5
417.382	530.5
417.605	529.5
417.828	549.5
418.051	546.5
418.274	544.5
418.497	544.5
418.72	548.5
418.943	542.5
419.166	551.5
419.389	591.5
419.611	613.5
419.834	576.5
420.057	588.5
420.28	577.5
420.503	556.5
420.726	554.5
420.948	550.5
421.171	582.5
421.394	632.5
421.617	562.5
421.839	571.5
422.062	553.5
422.285	564.5
422.507	611.5
422.73	677.5
422.953	633.5
423.175	566.5
423.398	572.5
423.621	592.5
423.843	608.5
424.066	611.5
424.288	602.5
424.511	616.5
424.733	658.5
424.956	717.5
425.178	655.5
425.401	696.5
425.623	708.5
425.846	631.5
426.068	589.5
426.291	573.5
426.513	581.5
426.735	564.5
426.958	613.5
427.18	672.5
427.402	763.5
427.625	824.5
427.847	724.5
428.069	629.5
428.292	605.5
428.514	559.5
428.736	565.5
428.958	547.5
429.181	532.5
429.403	518.5
429.625	527.5
429.847	567.5
430.069	621.5
430.292	582.5
430.514	563.5
430.736	530.5
430.958	547.5
431.18	522.5
431.402	521.5
431.624	504.5
431.846	490.5
432.068	510.5
432.29	523.5
432.512	514.5
432.734	512.5
432.956	508.5
433.178	546.5
433.4	520.5
433.622	514.5
433.844	517.5
434.066	498.5
434.287	504.5
434.509	521.5
434.731	540.5
434.953	534.5
435.175	583.5
435.397	570.5
435.618	574.5
435.84	616.5
436.062	686.5
436.284	709.5
436.505	624.5
436.727	569.5
436.949	541.5
437.17	518.5
437.392	552.5
437.614	529.5
437.835	565.5
438.057	629.5
438.278	718.5
438.5	694.5
438.721	782.5
438.943	750.5
439.165	617.5
439.386	576.5
439.608	551.5
439.829	554.5
440.05	594.5
440.272	625.5
440.493	582.5
440.715	545.5
440.936	534.5
441.158	536.5
441.379	546.5
441.6	542.5
441.822	573.5
442.043	589.5
442.264	672.5
442.486	709.5
442.707	616.5
442.928	570.5
443.149	562.5
443.371	598.5
443.592	633.5
443.813	708.5
444.034	785.5
444.255	666.5
444.476	613.5
444.698	619.5
444.919	624.5
445.14	760.5
445.361	666.5
445.582	613.5
445.803	649.5
446.024	717.5
446.245	720.5
446.466	659.5
446.687	622.5
446.908	551.5
447.129	533.5
447.35	525.5
447.571	519.5
447.792	534.5
448.013	512.5
448.234	532.5
448.455	561.5
448.675	662.5
448.896	754.5
449.117	680.5
449.338	622.5
449.559	682.5
449.779	797.5
450	629.5
450.221	556.5
450.442	533.5
450.662	474.5
450.883	492.5
451.104	529.5
451.324	509.5
451.545	489.5
451.766	476.5
451.986	450.5
452.207	474.5
452.428	464.5
452.648	464.5
452.869	484.5
453.089	469.5
453.31	470.5
453.53	471.5
453.751	482.5
453.971	460.5
454.192	494.5
454.412	490.5
454.633	457.5
454.853	477.5
455.073	458.5
455.294	485.5
455.514	537.5
455.734	524.5
455.955	457.5
456.175	463.5
456.395	459.5
456.616	438.5
456.836	451.5
457.056	441.5
457.276	437.5
457.497	454.5
457.717	442.5
457.937	452.5
458.157	439.5
458.377	458.5
458.598	480.5
458.818	504.5
459.038	600.5
459.258	596.5
459.478	540.5
459.698	509.5
459.918	502.5
460.138	535.5
460.358	546.5
460.578	543.5
460.798	562.5
461.018	546.5
461.238	556.5
461.458	544.5
461.678	532.5
461.898	569.5
462.118	556.5
462.338	585.5
462.558	578.5
462.777	610.5
462.997	597.5
463.217	634.5
463.437	673.5
463.657	604.5
463.876	627.5
464.096	601.5
464.316	578.5
464.536	594.5
464.755	594.5
464.975	577.5
465.195	588.5
465.414	620.5
465.634	598.5
465.854	524.5
466.073	530.5
466.293	519.5
466.512	493.5
466.732	489.5
466.951	485.5
467.171	506.5
467.391	484.5
467.61	481.5
467.829	491.5
468.049	483.5
468.268	497.5
468.488	468.5
468.707	490.5
468.927	486.5
469.146	482.5
469.365	491.5
469.585	478.5
469.804	500.5
470.023	512.5
470.243	503.5
470.462	526.5
470.681	525.5
470.901	502.5
471.12	513.5
471.339	520.5
471.558	500.5
471.777	502.5
471.997	480.5
472.216	483.5
472.435	500.5
472.654	506.5
472.873	499.5
473.092	461.5
473.311	504.5
473.53	460.5
473.749	482.5
473.968	518.5
474.187	588.5
474.406	609.5
474.625	530.5
474.844	501.5
475.063	498.5
475.282	470.5
475.501	489.5
475.72	503.5
475.939	512.5
476.158	485.5
476.377	506.5
476.596	507.5
476.814	487.5
477.033	506.5
477.252	526.5
477.471	531.5
477.69	562.5
477.908	544.5
478.127	558.5
478.346	531.5
478.564	562.5
478.783	564.5
479.002	546.5
479.22	580.5
479.439	575.5
479.658	573.5
479.876	593.5
480.095	596.5
480.313	622.5
480.532	635.5
480.751	626.5
480.969	613.5
481.188	635.5
481.406	648.5
481.624	605.5
481.843	600.5
482.061	588.5
482.28	582.5
482.498	563.5
482.717	570.5
482.935	582.5
483.153	569.5
483.372	569.5
483.59	596.5
483.808	578.5
484.027	576.5
484.245	571.5
484.463	567.5
484.681	596.5
484.9	577.5
485.118	601.5
485.336	589.5
485.554	597.5
485.772	629.5
485.99	602.5
486.209	590.5
486.427	617.5
486.645	614.5
486.863	599.5
487.081	625.5
487.299	599.5
487.517	605.5
487.735	608.5
487.953	596.5
488.171	598.5
488.389	607.5
488.607	590.5
488.825	596.5
489.043	592.5
489.261	610.5
489.479	608.5
489.696	620.5
489.914	614.5
490.132	625.5
490.35	638.5
490.568	631.5
490.786	635.5
491.003	649.5
491.221	647.5
491.439	662.5
491.657	651.5
491.874	671.5
492.092	648.5
492.31	659.5
492.527	694.5
492.745	672.5
492.963	677.5
493.18	668.5
493.398	697.5
493.615	681.5
493.833	700.5
494.05	690.5
494.268	690.5
494.485	682.5
494.703	709.5
494.92	688.5
495.138	698.5
495.355	697.5
495.573	701.5
495.79	698.5
496.008	706.5
496.225	712.5
496.442	681.5
496.66	724.5
496.877	713.5
497.094	714.5
497.312	722.5
497.529	736.5
497.746	757.5
497.963	764.5
498.181	785.5
498.398	824.5
498.615	836.5
498.832	847.5
499.049	859.5
499.267	910.5
499.484	962.5
499.701	1028.5
499.918	1072.5
500.135	1142.5
500.352	1226.5
500.569	1293.5
500.786	1244.5
501.003	1212.5
501.22	1176.5
501.437	1081.5
501.654	1001.5
501.871	974.5
502.088	947.5
502.305	893.5
502.522	857.5
502.739	850.5
502.956	822.5
503.172	762.5
503.389	780.5
503.606	762.5
503.823	756.5
504.04	754.5
504.256	744.5
504.473	744.5
504.69	763.5
504.907	754.5
505.123	719.5
505.34	714.5
505.557	712.5
505.773	676.5
505.99	683.5
506.207	680.5
506.423	652.5
506.64	665.5
506.856	662.5
507.073	643.5
507.289	633.5
507.506	631.5
507.722	626.5
507.939	653.5
508.155	622.5
508.372	626.5
508.588	629.5
508.805	625.5
509.021	623.5
509.238	637.5
509.454	641.5
509.67	629.5
509.887	613.5
510.103	594.5
510.319	628.5
510.536	674.5
510.752	924.5
510.968	813.5
511.184	614.5
511.401	592.5
511.617	604.5
511.833	593.5
512.049	584.5
512.265	595.5
512.481	585.5
512.698	590.5
512.914	573.5
513.13	584.5
513.346	557.5
513.562	575.5
513.778	592.5
513.994	620.5
514.21	577.5
514.426	605.5
514.642	621.5
514.858	616.5
515.074	664.5
515.29	711.5
515.506	892.5
515.721	821.5
515.937	664.5
516.153	634.5
516.369	627.5
516.585	617.5
516.801	621.5
517.016	615.5
517.232	645.5
517.448	651.5
517.664	649.5
517.879	675.5
518.095	666.5
518.311	648.5
518.527	633.5
518.742	640.5
518.958	622.5
519.173	620.5
519.389	620.5
519.605	590.5
519.82	613.5
