Data from 1962.PennyLincolnUp.Lamp.En5.5.200Scan.071719.P1._HRD10591_13-53-04-061.txt Node
Date: Thu Jul 18 13:53:04 EDT 2019
User: cochatt
Spectrometer: HR+D1059
Trigger mode: 1
Integration Time (sec): 1.000000E-1
Scans to average: 1
Electric dark correction enabled: true
Nonlinearity correction enabled: false
Boxcar width: 0
XAxis mode: Wavelengths
Number of Pixels in Spectrum: 2048
>>>>>Begin Spectral Data<<<<<
223.165	-6.44
223.4	-6.44
223.635	-6.44
223.869	-14.44
224.104	-6.44
224.338	-14.44
224.573	-27.44
224.808	-2.44
225.042	-16.44
225.277	-13.44
225.511	-9.44
225.746	9.56
225.98	6.56
226.215	11.56
226.449	14.56
226.683	27.56
226.918	7.56
227.152	33.56
227.387	37.56
227.621	47.56
227.856	48.56
228.09	42.56
228.324	46.56
228.559	53.56
228.793	61.56
229.027	79.56
229.262	89.56
229.496	85.56
229.73	113.56
229.964	125.56
230.199	111.56
230.433	103.56
230.667	93.56
230.901	113.56
231.136	98.56
231.37	95.56
231.604	112.56
231.838	119.56
232.072	117.56
232.306	120.56
232.541	102.56
232.775	121.56
233.009	120.56
233.243	113.56
233.477	120.56
233.711	108.56
233.945	115.56
234.179	115.56
234.413	113.56
234.647	123.56
234.881	115.56
235.115	122.56
235.349	94.56
235.583	119.56
235.817	97.56
236.051	99.56
236.285	117.56
236.519	117.56
236.753	108.56
236.987	117.56
237.221	135.56
237.455	160.56
237.689	135.56
237.922	129.56
238.156	132.56
238.39	132.56
238.624	119.56
238.858	117.56
239.091	127.56
239.325	120.56
239.559	133.56
239.793	143.56
240.027	119.56
240.26	115.56
240.494	120.56
240.728	136.56
240.961	118.56
241.195	136.56
241.429	134.56
241.662	120.56
241.896	129.56
242.13	133.56
242.363	113.56
242.597	119.56
242.83	136.56
243.064	126.56
243.298	142.56
243.531	130.56
243.765	127.56
243.998	124.56
244.232	150.56
244.465	137.56
244.699	138.56
244.932	140.56
245.166	138.56
245.399	138.56
245.633	135.56
245.866	130.56
246.099	134.56
246.333	152.56
246.566	143.56
246.8	130.56
247.033	140.56
247.266	142.56
247.5	151.56
247.733	122.56
247.966	145.56
248.2	149.56
248.433	159.56
248.666	154.56
248.899	162.56
249.133	169.56
249.366	171.56
249.599	159.56
249.832	167.56
250.066	161.56
250.299	163.56
250.532	146.56
250.765	174.56
250.998	183.56
251.231	185.56
251.465	168.56
251.698	159.56
251.931	170.56
252.164	164.56
252.397	158.56
252.63	179.56
252.863	172.56
253.096	165.56
253.329	178.56
253.562	193.56
253.795	200.56
254.028	195.56
254.261	172.56
254.494	181.56
254.727	199.56
254.96	192.56
255.193	206.56
255.426	203.56
255.659	198.56
255.892	217.56
256.124	197.56
256.357	189.56
256.59	200.56
256.823	185.56
257.056	181.56
257.289	194.56
257.521	188.56
257.754	177.56
257.987	182.56
258.22	183.56
258.452	183.56
258.685	190.56
258.918	197.56
259.151	201.56
259.383	174.56
259.616	202.56
259.849	190.56
260.081	185.56
260.314	188.56
260.547	224.56
260.779	214.56
261.012	196.56
261.244	208.56
261.477	193.56
261.71	198.56
261.942	195.56
262.175	205.56
262.407	204.56
262.64	198.56
262.872	204.56
263.105	224.56
263.337	206.56
263.57	197.56
263.802	213.56
264.035	202.56
264.267	190.56
264.499	193.56
264.732	213.56
264.964	199.56
265.197	193.56
265.429	190.56
265.661	203.56
265.894	201.56
266.126	198.56
266.358	190.56
266.591	211.56
266.823	210.56
267.055	196.56
267.287	210.56
267.52	202.56
267.752	207.56
267.984	216.56
268.216	201.56
268.448	214.56
268.681	206.56
268.913	214.56
269.145	237.56
269.377	244.56
269.609	243.56
269.841	241.56
270.073	242.56
270.306	257.56
270.538	256.56
270.77	245.56
271.002	235.56
271.234	238.56
271.466	261.56
271.698	254.56
271.93	261.56
272.162	256.56
272.394	276.56
272.626	256.56
272.858	245.56
273.09	244.56
273.322	244.56
273.553	233.56
273.785	251.56
274.017	221.56
274.249	258.56
274.481	245.56
274.713	242.56
274.945	230.56
275.176	264.56
275.408	261.56
275.64	251.56
275.872	245.56
276.104	257.56
276.335	257.56
276.567	257.56
276.799	258.56
277.031	254.56
277.262	263.56
277.494	265.56
277.726	270.56
277.957	244.56
278.189	265.56
278.421	255.56
278.652	267.56
278.884	241.56
279.115	265.56
279.347	277.56
279.579	246.56
279.81	262.56
280.042	258.56
280.273	265.56
280.505	255.56
280.736	264.56
280.968	246.56
281.199	268.56
281.431	261.56
281.662	262.56
281.894	260.56
282.125	246.56
282.356	270.56
282.588	281.56
282.819	259.56
283.051	275.56
283.282	262.56
283.513	266.56
283.745	243.56
283.976	271.56
284.207	277.56
284.439	269.56
284.67	259.56
284.901	261.56
285.132	267.56
285.364	276.56
285.595	278.56
285.826	292.56
286.057	277.56
286.288	274.56
286.52	278.56
286.751	277.56
286.982	287.56
287.213	272.56
287.444	285.56
287.675	279.56
287.906	289.56
288.138	274.56
288.369	265.56
288.6	287.56
288.831	283.56
289.062	289.56
289.293	276.56
289.524	294.56
289.755	282.56
289.986	290.56
290.217	292.56
290.448	292.56
290.679	281.56
290.91	282.56
291.141	264.56
291.371	276.56
291.602	293.56
291.833	289.56
292.064	300.56
292.295	277.56
292.526	295.56
292.757	302.56
292.987	286.56
293.218	285.56
293.449	291.56
293.68	285.56
293.91	293.56
294.141	317.56
294.372	300.56
294.603	290.56
294.833	289.56
295.064	296.56
295.295	295.56
295.525	295.56
295.756	297.56
295.987	301.56
296.217	302.56
296.448	305.56
296.679	291.56
296.909	298.56
297.14	301.56
297.37	309.56
297.601	295.56
297.831	293.56
298.062	285.56
298.292	303.56
298.523	294.56
298.753	313.56
298.984	307.56
299.214	298.56
299.445	293.56
299.675	305.56
299.905	330.56
300.136	300.56
300.366	313.56
300.597	298.56
300.827	309.56
301.057	318.56
301.288	315.56
301.518	318.56
301.748	312.56
301.979	311.56
302.209	339.56
302.439	316.56
302.669	328.56
302.9	315.56
303.13	307.56
303.36	334.56
303.59	311.56
303.82	320.56
304.051	303.56
304.281	333.56
304.511	311.56
304.741	325.56
304.971	319.56
305.201	327.56
305.431	350.56
305.661	334.56
305.891	339.56
306.121	328.56
306.352	327.56
306.582	324.56
306.812	315.56
307.042	319.56
307.272	327.56
307.502	330.56
307.731	323.56
307.961	331.56
308.191	310.56
308.421	326.56
308.651	341.56
308.881	340.56
309.111	321.56
309.341	329.56
309.571	340.56
309.8	334.56
310.03	335.56
310.26	336.56
310.49	350.56
310.72	350.56
310.949	343.56
311.179	343.56
311.409	334.56
311.639	347.56
311.868	336.56
312.098	329.56
312.328	354.56
312.557	367.56
312.787	349.56
313.017	373.56
313.246	359.56
313.476	348.56
313.706	341.56
313.935	337.56
314.165	350.56
314.394	348.56
314.624	354.56
314.853	335.56
315.083	352.56
315.312	377.56
315.542	344.56
315.771	361.56
316.001	353.56
316.23	370.56
316.46	334.56
316.689	355.56
316.919	361.56
317.148	355.56
317.377	371.56
317.607	352.56
317.836	355.56
318.065	347.56
318.295	351.56
318.524	366.56
318.753	351.56
318.983	353.56
319.212	366.56
319.441	358.56
319.67	364.56
319.9	363.56
320.129	358.56
320.358	353.56
320.587	370.56
320.816	352.56
321.046	347.56
321.275	366.56
321.504	369.56
321.733	371.56
321.962	369.56
322.191	365.56
322.42	367.56
322.649	371.56
322.878	385.56
323.108	380.56
323.337	395.56
323.566	405.56
323.795	405.56
324.024	425.56
324.253	494.56
324.482	593.56
324.71	843.56
324.939	1139.56
325.168	995.56
325.397	595.56
325.626	476.56
325.855	415.56
326.084	421.56
326.313	401.56
326.542	414.56
326.77	420.56
326.999	474.56
327.228	559.56
327.457	786.56
327.686	884.56
327.914	656.56
328.143	521.56
328.372	467.56
328.6	460.56
328.829	438.56
329.058	456.56
329.287	454.56
329.515	434.56
329.744	440.56
329.972	431.56
330.201	432.56
330.43	430.56
330.658	445.56
330.887	476.56
331.115	453.56
331.344	429.56
331.572	435.56
331.801	416.56
332.03	417.56
332.258	415.56
332.486	439.56
332.715	436.56
332.943	440.56
333.172	445.56
333.4	457.56
333.629	471.56
333.857	466.56
334.085	482.56
334.314	485.56
334.542	489.56
334.771	504.56
334.999	442.56
335.227	456.56
335.455	471.56
335.684	461.56
335.912	450.56
336.14	434.56
336.369	428.56
336.597	428.56
336.825	424.56
337.053	443.56
337.281	439.56
337.51	434.56
337.738	425.56
337.966	430.56
338.194	427.56
338.422	410.56
338.65	417.56
338.878	416.56
339.106	409.56
339.334	397.56
339.562	421.56
339.79	391.56
340.018	392.56
340.246	399.56
340.474	423.56
340.702	404.56
340.93	399.56
341.158	383.56
341.386	403.56
341.614	395.56
341.842	395.56
342.07	411.56
342.298	409.56
342.526	408.56
342.754	386.56
342.981	399.56
343.209	421.56
343.437	393.56
343.665	433.56
343.893	445.56
344.12	451.56
344.348	445.56
344.576	461.56
344.804	433.56
345.031	425.56
345.259	438.56
345.487	394.56
345.714	411.56
345.942	408.56
346.17	401.56
346.397	389.56
346.625	408.56
346.853	392.56
347.08	400.56
347.308	394.56
347.535	395.56
347.763	387.56
347.99	375.56
348.218	374.56
348.445	385.56
348.673	386.56
348.9	389.56
349.128	414.56
349.355	397.56
349.583	391.56
349.81	385.56
350.037	354.56
350.265	368.56
350.492	393.56
350.72	372.56
350.947	376.56
351.174	392.56
351.402	384.56
351.629	377.56
351.856	382.56
352.083	378.56
352.311	394.56
352.538	390.56
352.765	382.56
352.992	383.56
353.22	378.56
353.447	377.56
353.674	375.56
353.901	371.56
354.128	367.56
354.355	383.56
354.583	375.56
354.81	379.56
355.037	376.56
355.264	379.56
355.491	365.56
355.718	382.56
355.945	389.56
356.172	377.56
356.399	362.56
356.626	372.56
356.853	385.56
357.08	380.56
357.307	394.56
357.534	387.56
357.761	372.56
357.988	393.56
358.215	373.56
358.441	379.56
358.668	370.56
358.895	395.56
359.122	390.56
359.349	375.56
359.576	384.56
359.802	398.56
360.029	405.56
360.256	390.56
360.483	398.56
360.709	387.56
360.936	381.56
361.163	383.56
361.39	400.56
361.616	390.56
361.843	373.56
362.07	388.56
362.296	389.56
362.523	388.56
362.749	375.56
362.976	372.56
363.203	362.56
363.429	379.56
363.656	389.56
363.882	370.56
364.109	385.56
364.335	378.56
364.562	374.56
364.788	374.56
365.015	381.56
365.241	369.56
365.468	380.56
365.694	389.56
365.92	364.56
366.147	391.56
366.373	383.56
366.599	367.56
366.826	379.56
367.052	381.56
367.278	375.56
367.505	396.56
367.731	379.56
367.957	387.56
368.184	379.56
368.41	380.56
368.636	377.56
368.862	392.56
369.089	383.56
369.315	393.56
369.541	383.56
369.767	409.56
369.993	409.56
370.219	375.56
370.445	395.56
370.672	387.56
370.898	401.56
371.124	408.56
371.35	403.56
371.576	395.56
371.802	394.56
372.028	391.56
372.254	385.56
372.48	384.56
372.706	408.56
372.932	392.56
373.158	410.56
373.384	416.56
373.61	381.56
373.835	389.56
374.061	406.56
374.287	381.56
374.513	403.56
374.739	415.56
374.965	425.56
375.191	418.56
375.416	413.56
375.642	404.56
375.868	409.56
376.094	391.56
376.319	399.56
376.545	388.56
376.771	402.56
376.997	381.56
377.222	407.56
377.448	395.56
377.674	381.56
377.899	378.56
378.125	390.56
378.35	414.56
378.576	395.56
378.802	381.56
379.027	411.56
379.253	385.56
379.478	386.56
379.704	394.56
379.929	385.56
380.155	417.56
380.38	405.56
380.606	403.56
380.831	400.56
381.057	407.56
381.282	397.56
381.507	397.56
381.733	409.56
381.958	381.56
382.184	397.56
382.409	398.56
382.634	393.56
382.86	398.56
383.085	421.56
383.31	405.56
383.535	416.56
383.761	412.56
383.986	424.56
384.211	408.56
384.436	431.56
384.662	443.56
384.887	433.56
385.112	438.56
385.337	437.56
385.562	444.56
385.787	436.56
386.013	450.56
386.238	445.56
386.463	449.56
386.688	428.56
386.913	465.56
387.138	450.56
387.363	446.56
387.588	423.56
387.813	450.56
388.038	450.56
388.263	471.56
388.488	434.56
388.713	456.56
388.938	455.56
389.163	446.56
389.387	443.56
389.612	421.56
389.837	428.56
390.062	443.56
390.287	437.56
390.512	425.56
390.736	448.56
390.961	467.56
391.186	441.56
391.411	444.56
391.636	463.56
391.86	449.56
392.085	482.56
392.31	465.56
392.534	459.56
392.759	470.56
392.984	463.56
393.208	473.56
393.433	465.56
393.658	475.56
393.882	478.56
394.107	458.56
394.331	450.56
394.556	466.56
394.78	473.56
395.005	473.56
395.229	466.56
395.454	469.56
395.678	469.56
395.903	479.56
396.127	517.56
396.352	491.56
396.576	484.56
396.801	472.56
397.025	461.56
397.249	475.56
397.474	502.56
397.698	485.56
397.922	495.56
398.147	489.56
398.371	502.56
398.595	532.56
398.82	515.56
399.044	543.56
399.268	579.56
399.492	629.56
399.717	646.56
399.941	661.56
400.165	661.56
400.389	629.56
400.613	592.56
400.837	549.56
401.062	553.56
401.286	541.56
401.51	546.56
401.734	537.56
401.958	535.56
402.182	534.56
402.406	535.56
402.63	540.56
402.854	529.56
403.078	526.56
403.302	547.56
403.526	546.56
403.75	554.56
403.974	556.56
404.198	586.56
404.422	567.56
404.645	538.56
404.869	574.56
405.093	565.56
405.317	590.56
405.541	588.56
405.765	567.56
405.988	573.56
406.212	558.56
406.436	584.56
406.66	584.56
406.883	582.56
407.107	620.56
407.331	636.56
407.555	697.56
407.778	693.56
408.002	648.56
408.226	608.56
408.449	602.56
408.673	579.56
408.896	606.56
409.12	622.56
409.344	613.56
409.567	583.56
409.791	539.56
410.014	547.56
410.238	566.56
410.461	536.56
410.685	529.56
410.908	559.56
411.132	573.56
411.355	573.56
411.578	586.56
411.802	562.56
412.025	541.56
412.249	538.56
412.472	550.56
412.695	588.56
412.919	580.56
413.142	539.56
413.365	515.56
413.589	544.56
413.812	506.56
414.035	523.56
414.258	526.56
414.482	540.56
414.705	533.56
414.928	517.56
415.151	529.56
415.374	507.56
415.597	505.56
415.821	517.56
416.044	497.56
416.267	521.56
416.49	514.56
416.713	505.56
416.936	516.56
417.159	516.56
417.382	501.56
417.605	482.56
417.828	501.56
418.051	529.56
418.274	522.56
418.497	506.56
418.72	514.56
418.943	510.56
419.166	543.56
419.389	569.56
419.611	547.56
419.834	539.56
420.057	525.56
420.28	534.56
420.503	495.56
420.726	524.56
420.948	526.56
421.171	567.56
421.394	578.56
421.617	551.56
421.839	513.56
422.062	532.56
422.285	513.56
422.507	577.56
422.73	602.56
422.953	593.56
423.175	568.56
423.398	550.56
423.621	519.56
423.843	563.56
424.066	564.56
424.288	537.56
424.511	572.56
424.733	587.56
424.956	615.56
425.178	619.56
425.401	605.56
425.623	622.56
425.846	557.56
426.068	541.56
426.291	530.56
426.513	530.56
426.735	536.56
426.958	558.56
427.18	606.56
427.402	670.56
427.625	731.56
427.847	643.56
428.069	597.56
428.292	547.56
428.514	521.56
428.736	503.56
428.958	515.56
429.181	469.56
429.403	480.56
429.625	497.56
429.847	490.56
430.069	526.56
430.292	523.56
430.514	505.56
430.736	487.56
430.958	480.56
431.18	479.56
431.402	492.56
431.624	464.56
431.846	458.56
432.068	478.56
432.29	481.56
432.512	475.56
432.734	480.56
432.956	458.56
433.178	508.56
433.4	479.56
433.622	486.56
433.844	494.56
434.066	484.56
434.287	496.56
434.509	482.56
434.731	512.56
434.953	519.56
435.175	513.56
435.397	536.56
435.618	539.56
435.84	559.56
436.062	592.56
436.284	652.56
436.505	546.56
436.727	520.56
436.949	502.56
437.17	472.56
437.392	506.56
437.614	485.56
437.835	524.56
438.057	543.56
438.278	606.56
438.5	620.56
438.721	673.56
438.943	657.56
439.165	546.56
439.386	522.56
439.608	508.56
439.829	521.56
440.05	510.56
440.272	535.56
440.493	525.56
440.715	519.56
440.936	515.56
441.158	490.56
441.379	502.56
441.6	506.56
441.822	531.56
442.043	558.56
442.264	593.56
442.486	621.56
442.707	571.56
442.928	511.56
443.149	518.56
443.371	573.56
443.592	578.56
443.813	615.56
444.034	678.56
444.255	613.56
444.476	559.56
444.698	549.56
444.919	542.56
445.14	705.56
445.361	615.56
445.582	583.56
445.803	593.56
446.024	634.56
446.245	639.56
446.466	553.56
446.687	553.56
446.908	520.56
447.129	490.56
447.35	492.56
447.571	462.56
447.792	468.56
448.013	489.56
448.234	484.56
448.455	526.56
448.675	578.56
448.896	641.56
449.117	555.56
449.338	544.56
449.559	618.56
449.779	699.56
450	565.56
450.221	497.56
450.442	488.56
450.662	463.56
450.883	474.56
451.104	480.56
451.324	433.56
451.545	460.56
451.766	439.56
451.986	428.56
452.207	449.56
452.428	453.56
452.648	423.56
452.869	444.56
453.089	430.56
453.31	460.56
453.53	477.56
453.751	439.56
453.971	440.56
454.192	439.56
454.412	421.56
454.633	436.56
454.853	422.56
455.073	425.56
455.294	430.56
455.514	490.56
455.734	472.56
455.955	437.56
456.175	435.56
456.395	444.56
456.616	413.56
456.836	423.56
457.056	408.56
457.276	416.56
457.497	438.56
457.717	437.56
457.937	458.56
458.157	403.56
458.377	455.56
458.598	451.56
458.818	463.56
459.038	503.56
459.258	543.56
459.478	485.56
459.698	500.56
459.918	489.56
460.138	486.56
460.358	510.56
460.578	519.56
460.798	518.56
461.018	494.56
461.238	517.56
461.458	511.56
461.678	500.56
461.898	526.56
462.118	517.56
462.338	531.56
462.558	543.56
462.777	554.56
462.997	585.56
463.217	645.56
463.437	617.56
463.657	591.56
463.876	596.56
464.096	573.56
464.316	565.56
464.536	561.56
464.755	558.56
464.975	548.56
465.195	555.56
465.414	543.56
465.634	515.56
465.854	477.56
466.073	502.56
466.293	477.56
466.512	483.56
466.732	472.56
466.951	462.56
467.171	473.56
467.391	473.56
467.61	463.56
467.829	469.56
468.049	449.56
468.268	440.56
468.488	447.56
468.707	451.56
468.927	455.56
469.146	437.56
469.365	446.56
469.585	456.56
469.804	452.56
470.023	457.56
470.243	461.56
470.462	467.56
470.681	472.56
470.901	476.56
471.12	488.56
471.339	455.56
471.558	469.56
471.777	480.56
471.997	462.56
472.216	459.56
472.435	462.56
472.654	455.56
472.873	435.56
473.092	465.56
473.311	451.56
473.53	453.56
473.749	472.56
473.968	476.56
474.187	533.56
474.406	570.56
474.625	495.56
474.844	470.56
475.063	482.56
475.282	467.56
475.501	467.56
475.72	481.56
475.939	464.56
476.158	462.56
476.377	467.56
476.596	489.56
476.814	471.56
477.033	494.56
477.252	487.56
477.471	490.56
477.69	497.56
477.908	507.56
478.127	514.56
478.346	537.56
478.564	519.56
478.783	533.56
479.002	526.56
479.22	570.56
479.439	546.56
479.658	547.56
479.876	546.56
480.095	561.56
480.313	572.56
480.532	584.56
480.751	607.56
480.969	552.56
481.188	591.56
481.406	602.56
481.624	581.56
481.843	561.56
482.061	544.56
482.28	541.56
482.498	547.56
482.717	532.56
482.935	555.56
483.153	534.56
483.372	523.56
483.59	531.56
483.808	548.56
484.027	510.56
484.245	536.56
484.463	543.56
484.681	548.56
484.9	531.56
485.118	548.56
485.336	576.56
485.554	558.56
485.772	571.56
485.99	575.56
486.209	577.56
486.427	561.56
486.645	587.56
486.863	587.56
487.081	576.56
487.299	563.56
487.517	563.56
487.735	569.56
487.953	564.56
488.171	591.56
488.389	561.56
488.607	586.56
488.825	567.56
489.043	597.56
489.261	567.56
489.479	582.56
489.696	559.56
489.914	572.56
490.132	581.56
490.35	566.56
490.568	594.56
490.786	579.56
491.003	594.56
491.221	590.56
491.439	607.56
491.657	598.56
491.874	607.56
492.092	617.56
492.31	614.56
492.527	611.56
492.745	596.56
492.963	633.56
493.18	629.56
493.398	645.56
493.615	619.56
493.833	612.56
494.05	640.56
494.268	617.56
494.485	620.56
494.703	633.56
494.92	621.56
495.138	643.56
495.355	653.56
495.573	625.56
495.79	634.56
496.008	634.56
496.225	629.56
496.442	643.56
496.66	665.56
496.877	653.56
497.094	653.56
497.312	668.56
497.529	668.56
497.746	711.56
497.963	716.56
498.181	720.56
498.398	736.56
498.615	781.56
498.832	804.56
499.049	788.56
499.267	844.56
499.484	910.56
499.701	941.56
499.918	1036.56
500.135	1096.56
500.352	1131.56
500.569	1180.56
500.786	1195.56
501.003	1147.56
501.22	1081.56
501.437	1004.56
501.654	955.56
501.871	913.56
502.088	862.56
