Data from 1962.PennyLincolnUp.Lamp.En5.5.200Scan.071719.P1._HRD10591_13-55-40-062.txt Node
Date: Thu Jul 18 13:55:40 EDT 2019
User: cochatt
Spectrometer: HR+D1059
Trigger mode: 1
Integration Time (sec): 1.000000E-1
Scans to average: 1
Electric dark correction enabled: true
Nonlinearity correction enabled: false
Boxcar width: 0
XAxis mode: Wavelengths
Number of Pixels in Spectrum: 2048
>>>>>Begin Spectral Data<<<<<
223.165	-21.19
223.4	-21.19
223.635	-21.19
223.869	-14.19
224.104	-10.19
224.338	-20.19
224.573	-19.19
224.808	-8.19
225.042	-11.19
225.277	-5.19
225.511	2.81
225.746	-6.19
225.98	-0.19
226.215	10.81
226.449	7.81
226.683	23.81
226.918	32.81
227.152	37.81
227.387	29.81
227.621	37.81
227.856	25.81
228.09	45.81
228.324	53.81
228.559	56.81
228.793	68.81
229.027	87.81
229.262	71.81
229.496	101.81
229.73	122.81
229.964	119.81
230.199	107.81
230.433	102.81
230.667	101.81
230.901	100.81
231.136	97.81
231.37	97.81
231.604	109.81
231.838	115.81
232.072	121.81
232.306	119.81
232.541	117.81
232.775	110.81
233.009	113.81
233.243	117.81
233.477	120.81
233.711	126.81
233.945	118.81
234.179	108.81
234.413	98.81
234.647	110.81
234.881	116.81
235.115	102.81
235.349	117.81
235.583	111.81
235.817	127.81
236.051	127.81
236.285	135.81
236.519	121.81
236.753	115.81
236.987	141.81
237.221	156.81
237.455	171.81
237.689	158.81
237.922	123.81
238.156	118.81
238.39	125.81
238.624	137.81
238.858	133.81
239.091	123.81
239.325	121.81
239.559	131.81
239.793	123.81
240.027	122.81
240.26	141.81
240.494	147.81
240.728	126.81
240.961	138.81
241.195	127.81
241.429	140.81
241.662	110.81
241.896	106.81
242.13	122.81
242.363	137.81
242.597	125.81
242.83	124.81
243.064	124.81
243.298	118.81
243.531	126.81
243.765	133.81
243.998	122.81
244.232	120.81
244.465	147.81
244.699	140.81
244.932	134.81
245.166	127.81
245.399	141.81
245.633	144.81
245.866	140.81
246.099	137.81
246.333	134.81
246.566	126.81
246.8	153.81
247.033	133.81
247.266	161.81
247.5	148.81
247.733	163.81
247.966	147.81
248.2	162.81
248.433	169.81
248.666	137.81
248.899	159.81
249.133	172.81
249.366	171.81
249.599	164.81
249.832	157.81
250.066	158.81
250.299	166.81
250.532	186.81
250.765	179.81
250.998	194.81
251.231	190.81
251.465	206.81
251.698	185.81
251.931	163.81
252.164	174.81
252.397	189.81
252.63	200.81
252.863	193.81
253.096	180.81
253.329	193.81
253.562	187.81
253.795	200.81
254.028	183.81
254.261	194.81
254.494	215.81
254.727	211.81
254.96	234.81
255.193	223.81
255.426	205.81
255.659	192.81
255.892	200.81
256.124	205.81
256.357	188.81
256.59	201.81
256.823	198.81
257.056	209.81
257.289	186.81
257.521	197.81
257.754	183.81
257.987	182.81
258.22	206.81
258.452	188.81
258.685	187.81
258.918	200.81
259.151	187.81
259.383	206.81
259.616	204.81
259.849	201.81
260.081	204.81
260.314	226.81
260.547	227.81
260.779	220.81
261.012	207.81
261.244	213.81
261.477	213.81
261.71	194.81
261.942	221.81
262.175	193.81
262.407	209.81
262.64	202.81
262.872	190.81
263.105	202.81
263.337	206.81
263.57	213.81
263.802	187.81
264.035	190.81
264.267	205.81
264.499	202.81
264.732	191.81
264.964	208.81
265.197	196.81
265.429	203.81
265.661	204.81
265.894	204.81
266.126	211.81
266.358	209.81
266.591	188.81
266.823	217.81
267.055	212.81
267.287	203.81
267.52	211.81
267.752	227.81
267.984	219.81
268.216	223.81
268.448	232.81
268.681	220.81
268.913	218.81
269.145	253.81
269.377	263.81
269.609	259.81
269.841	222.81
270.073	253.81
270.306	249.81
270.538	269.81
270.77	276.81
271.002	267.81
271.234	271.81
271.466	267.81
271.698	275.81
271.93	276.81
272.162	268.81
272.394	294.81
272.626	271.81
272.858	267.81
273.09	270.81
273.322	223.81
273.553	250.81
273.785	246.81
274.017	251.81
274.249	255.81
274.481	265.81
274.713	234.81
274.945	244.81
275.176	263.81
275.408	262.81
275.64	259.81
275.872	255.81
276.104	255.81
276.335	245.81
276.567	248.81
276.799	275.81
277.031	284.81
277.262	291.81
277.494	299.81
277.726	281.81
277.957	279.81
278.189	272.81
278.421	277.81
278.652	241.81
278.884	259.81
279.115	262.81
279.347	270.81
279.579	270.81
279.81	261.81
280.042	254.81
280.273	263.81
280.505	264.81
280.736	266.81
280.968	265.81
281.199	252.81
281.431	274.81
281.662	268.81
281.894	277.81
282.125	246.81
282.356	286.81
282.588	301.81
282.819	279.81
283.051	270.81
283.282	264.81
283.513	276.81
283.745	277.81
283.976	273.81
284.207	267.81
284.439	277.81
284.67	264.81
284.901	285.81
285.132	268.81
285.364	268.81
285.595	275.81
285.826	277.81
286.057	276.81
286.288	270.81
286.52	287.81
286.751	270.81
286.982	279.81
287.213	285.81
287.444	275.81
287.675	283.81
287.906	295.81
288.138	290.81
288.369	299.81
288.6	294.81
288.831	289.81
289.062	286.81
289.293	285.81
289.524	284.81
289.755	291.81
289.986	301.81
290.217	288.81
290.448	286.81
290.679	275.81
290.91	279.81
291.141	296.81
291.371	277.81
291.602	282.81
291.833	284.81
292.064	297.81
292.295	298.81
292.526	281.81
292.757	289.81
292.987	287.81
293.218	293.81
293.449	289.81
293.68	300.81
293.91	305.81
294.141	281.81
294.372	297.81
294.603	280.81
294.833	295.81
295.064	286.81
295.295	291.81
295.525	285.81
295.756	315.81
295.987	297.81
296.217	294.81
296.448	322.81
296.679	297.81
296.909	305.81
297.14	282.81
297.37	292.81
297.601	322.81
297.831	311.81
298.062	312.81
298.292	294.81
298.523	306.81
298.753	324.81
298.984	318.81
299.214	308.81
299.445	321.81
299.675	312.81
299.905	311.81
300.136	314.81
300.366	323.81
300.597	315.81
300.827	319.81
301.057	320.81
301.288	331.81
301.518	322.81
301.748	336.81
301.979	324.81
302.209	329.81
302.439	324.81
302.669	326.81
302.9	329.81
303.13	317.81
303.36	327.81
303.59	330.81
303.82	325.81
304.051	347.81
304.281	339.81
304.511	326.81
304.741	312.81
304.971	317.81
305.201	319.81
305.431	333.81
305.661	318.81
305.891	323.81
306.121	322.81
306.352	319.81
306.582	321.81
306.812	334.81
307.042	340.81
307.272	326.81
307.502	326.81
307.731	340.81
307.961	324.81
308.191	328.81
308.421	332.81
308.651	329.81
308.881	314.81
309.111	326.81
309.341	319.81
309.571	354.81
309.8	331.81
310.03	340.81
310.26	339.81
310.49	342.81
310.72	362.81
310.949	373.81
311.179	371.81
311.409	353.81
311.639	334.81
311.868	358.81
312.098	330.81
312.328	374.81
312.557	366.81
312.787	364.81
313.017	365.81
313.246	353.81
313.476	359.81
313.706	353.81
313.935	345.81
314.165	387.81
314.394	398.81
314.624	379.81
314.853	361.81
315.083	358.81
315.312	369.81
315.542	381.81
315.771	377.81
316.001	361.81
316.23	353.81
316.46	364.81
316.689	358.81
316.919	374.81
317.148	351.81
317.377	366.81
317.607	369.81
317.836	379.81
318.065	369.81
318.295	369.81
318.524	353.81
318.753	360.81
318.983	376.81
319.212	363.81
319.441	380.81
319.67	372.81
319.9	368.81
320.129	355.81
320.358	373.81
320.587	362.81
320.816	371.81
321.046	366.81
321.275	369.81
321.504	376.81
321.733	378.81
321.962	385.81
322.191	383.81
322.42	377.81
322.649	400.81
322.878	389.81
323.108	394.81
323.337	407.81
323.566	421.81
323.795	435.81
324.024	461.81
324.253	549.81
324.482	713.81
324.71	1014.81
324.939	1444.81
325.168	1275.81
325.397	712.81
325.626	539.81
325.855	469.81
326.084	462.81
326.313	447.81
326.542	431.81
326.77	451.81
326.999	519.81
327.228	678.81
327.457	937.81
327.686	1127.81
327.914	782.81
328.143	553.81
328.372	489.81
328.6	493.81
328.829	500.81
329.058	487.81
329.287	499.81
329.515	455.81
329.744	433.81
329.972	457.81
330.201	454.81
330.43	477.81
330.658	486.81
330.887	497.81
331.115	495.81
331.344	457.81
331.572	453.81
331.801	457.81
332.03	429.81
332.258	465.81
332.486	433.81
332.715	427.81
332.943	451.81
333.172	462.81
333.4	459.81
333.629	469.81
333.857	483.81
334.085	479.81
334.314	479.81
334.542	481.81
334.771	517.81
334.999	473.81
335.227	472.81
335.455	457.81
335.684	452.81
335.912	443.81
336.14	453.81
336.369	454.81
336.597	457.81
336.825	455.81
337.053	452.81
337.281	442.81
337.51	439.81
337.738	439.81
337.966	434.81
338.194	439.81
338.422	451.81
338.65	416.81
338.878	445.81
339.106	428.81
339.334	408.81
339.562	393.81
339.79	422.81
340.018	411.81
340.246	429.81
340.474	417.81
340.702	410.81
340.93	410.81
341.158	423.81
341.386	420.81
341.614	390.81
341.842	416.81
342.07	391.81
342.298	420.81
342.526	410.81
342.754	401.81
342.981	399.81
343.209	419.81
343.437	420.81
343.665	441.81
343.893	470.81
344.12	450.81
344.348	447.81
344.576	474.81
344.804	435.81
345.031	446.81
345.259	449.81
345.487	425.81
345.714	404.81
345.942	394.81
346.17	409.81
346.397	388.81
346.625	402.81
346.853	400.81
347.08	379.81
347.308	411.81
347.535	404.81
347.763	415.81
347.99	410.81
348.218	395.81
348.445	389.81
348.673	392.81
348.9	384.81
349.128	385.81
349.355	396.81
349.583	381.81
349.81	385.81
350.037	386.81
350.265	389.81
350.492	393.81
350.72	393.81
350.947	382.81
351.174	385.81
351.402	385.81
351.629	407.81
351.856	384.81
352.083	398.81
352.311	397.81
352.538	387.81
352.765	401.81
352.992	389.81
353.22	407.81
353.447	407.81
353.674	390.81
353.901	383.81
354.128	377.81
354.355	409.81
354.583	394.81
354.81	370.81
355.037	382.81
355.264	379.81
355.491	380.81
355.718	396.81
355.945	384.81
356.172	374.81
356.399	385.81
356.626	381.81
356.853	380.81
357.08	394.81
357.307	390.81
357.534	383.81
357.761	370.81
357.988	377.81
358.215	381.81
358.441	388.81
358.668	399.81
358.895	373.81
359.122	391.81
359.349	380.81
359.576	399.81
359.802	426.81
360.029	417.81
360.256	431.81
360.483	407.81
360.709	389.81
360.936	397.81
361.163	380.81
361.39	414.81
361.616	378.81
361.843	397.81
362.07	383.81
362.296	403.81
362.523	387.81
362.749	398.81
362.976	399.81
363.203	396.81
363.429	389.81
363.656	393.81
363.882	413.81
364.109	389.81
364.335	392.81
364.562	380.81
364.788	373.81
365.015	388.81
365.241	373.81
365.468	371.81
365.694	398.81
365.92	379.81
366.147	386.81
366.373	401.81
366.599	391.81
366.826	393.81
367.052	376.81
367.278	380.81
367.505	393.81
367.731	391.81
367.957	393.81
368.184	398.81
368.41	403.81
368.636	400.81
368.862	402.81
369.089	403.81
369.315	409.81
369.541	400.81
369.767	389.81
369.993	391.81
370.219	386.81
370.445	391.81
370.672	388.81
370.898	371.81
371.124	389.81
371.35	406.81
371.576	408.81
371.802	383.81
372.028	401.81
372.254	393.81
372.48	381.81
372.706	399.81
372.932	415.81
373.158	422.81
373.384	397.81
373.61	412.81
373.835	400.81
374.061	379.81
374.287	391.81
374.513	408.81
374.739	395.81
374.965	417.81
375.191	405.81
375.416	425.81
375.642	406.81
375.868	408.81
376.094	395.81
376.319	389.81
376.545	397.81
376.771	406.81
376.997	405.81
377.222	403.81
377.448	394.81
377.674	403.81
377.899	382.81
378.125	381.81
378.35	389.81
378.576	389.81
378.802	388.81
379.027	391.81
379.253	410.81
379.478	394.81
379.704	404.81
379.929	389.81
380.155	390.81
380.38	397.81
380.606	418.81
380.831	399.81
381.057	395.81
381.282	382.81
381.507	400.81
381.733	388.81
381.958	403.81
382.184	401.81
382.409	392.81
382.634	429.81
382.86	420.81
383.085	405.81
383.31	414.81
383.535	413.81
383.761	399.81
383.986	421.81
384.211	421.81
384.436	421.81
384.662	425.81
384.887	444.81
385.112	436.81
385.337	438.81
385.562	447.81
385.787	449.81
386.013	443.81
386.238	453.81
386.463	467.81
386.688	444.81
386.913	452.81
387.138	438.81
387.363	454.81
387.588	451.81
387.813	460.81
388.038	455.81
388.263	456.81
388.488	448.81
388.713	441.81
388.938	425.81
389.163	464.81
389.387	445.81
389.612	441.81
389.837	441.81
390.062	449.81
390.287	428.81
390.512	444.81
390.736	450.81
390.961	446.81
391.186	464.81
391.411	451.81
391.636	467.81
391.86	472.81
392.085	491.81
392.31	468.81
392.534	472.81
392.759	469.81
392.984	455.81
393.208	459.81
393.433	450.81
393.658	449.81
393.882	447.81
394.107	462.81
394.331	461.81
394.556	454.81
394.78	468.81
395.005	465.81
395.229	450.81
395.454	471.81
395.678	491.81
395.903	493.81
396.127	515.81
396.352	494.81
396.576	458.81
396.801	458.81
397.025	490.81
397.249	500.81
397.474	477.81
397.698	488.81
397.922	505.81
398.147	499.81
398.371	496.81
398.595	494.81
398.82	535.81
399.044	559.81
399.268	586.81
399.492	613.81
399.717	658.81
399.941	675.81
400.165	679.81
400.389	637.81
400.613	603.81
400.837	556.81
401.062	561.81
401.286	526.81
401.51	538.81
401.734	546.81
401.958	557.81
402.182	535.81
402.406	528.81
402.63	547.81
402.854	537.81
403.078	545.81
403.302	551.81
403.526	553.81
403.75	549.81
403.974	570.81
404.198	558.81
404.422	555.81
404.645	581.81
404.869	566.81
405.093	605.81
405.317	612.81
405.541	643.81
405.765	589.81
405.988	563.81
406.212	577.81
406.436	590.81
406.66	605.81
406.883	597.81
407.107	621.81
407.331	667.81
407.555	690.81
407.778	707.81
408.002	662.81
408.226	634.81
408.449	614.81
408.673	591.81
408.896	634.81
409.12	609.81
409.344	611.81
409.567	573.81
409.791	583.81
410.014	576.81
410.238	535.81
410.461	553.81
410.685	531.81
410.908	562.81
411.132	574.81
411.355	599.81
411.578	586.81
411.802	551.81
412.025	553.81
412.249	550.81
412.472	567.81
412.695	575.81
412.919	591.81
413.142	557.81
413.365	527.81
413.589	525.81
413.812	536.81
414.035	547.81
414.258	530.81
414.482	517.81
414.705	503.81
414.928	518.81
415.151	503.81
415.374	521.81
415.597	520.81
415.821	523.81
416.044	525.81
416.267	496.81
416.49	501.81
416.713	512.81
416.936	509.81
417.159	512.81
417.382	517.81
417.605	487.81
417.828	528.81
418.051	526.81
418.274	514.81
418.497	520.81
418.72	526.81
418.943	524.81
419.166	538.81
419.389	559.81
419.611	563.81
419.834	543.81
420.057	538.81
420.28	551.81
420.503	548.81
420.726	527.81
420.948	528.81
421.171	579.81
421.394	586.81
421.617	558.81
421.839	540.81
422.062	506.81
422.285	560.81
422.507	577.81
422.73	644.81
422.953	620.81
423.175	574.81
423.398	549.81
423.621	537.81
423.843	546.81
424.066	573.81
424.288	558.81
424.511	570.81
424.733	586.81
424.956	670.81
425.178	653.81
425.401	644.81
425.623	676.81
425.846	599.81
426.068	556.81
426.291	541.81
426.513	546.81
426.735	560.81
426.958	545.81
427.18	622.81
427.402	729.81
427.625	794.81
427.847	699.81
428.069	639.81
428.292	568.81
428.514	511.81
428.736	493.81
428.958	545.81
429.181	505.81
429.403	510.81
429.625	506.81
429.847	493.81
430.069	585.81
430.292	577.81
430.514	507.81
430.736	488.81
430.958	499.81
431.18	498.81
431.402	501.81
431.624	483.81
431.846	504.81
432.068	475.81
432.29	501.81
432.512	503.81
432.734	493.81
432.956	516.81
433.178	511.81
433.4	486.81
433.622	497.81
433.844	493.81
434.066	483.81
434.287	498.81
434.509	491.81
434.731	505.81
434.953	526.81
435.175	541.81
435.397	546.81
435.618	551.81
435.84	566.81
436.062	620.81
436.284	702.81
436.505	583.81
436.727	529.81
436.949	507.81
437.17	509.81
437.392	517.81
437.614	487.81
437.835	542.81
438.057	611.81
438.278	657.81
438.5	644.81
438.721	722.81
438.943	702.81
439.165	571.81
439.386	539.81
439.608	517.81
439.829	540.81
440.05	526.81
440.272	565.81
440.493	563.81
440.715	554.81
440.936	509.81
441.158	523.81
441.379	505.81
441.6	530.81
441.822	536.81
442.043	558.81
442.264	622.81
442.486	652.81
442.707	571.81
442.928	541.81
443.149	565.81
443.371	573.81
443.592	612.81
443.813	679.81
444.034	733.81
444.255	612.81
444.476	597.81
444.698	587.81
444.919	593.81
445.14	697.81
445.361	630.81
445.582	591.81
445.803	611.81
446.024	680.81
446.245	675.81
446.466	641.81
446.687	567.81
446.908	532.81
447.129	521.81
447.35	502.81
447.571	505.81
447.792	484.81
448.013	499.81
448.234	498.81
448.455	527.81
448.675	620.81
448.896	715.81
449.117	627.81
449.338	592.81
449.559	676.81
449.779	767.81
450	619.81
450.221	513.81
450.442	501.81
450.662	499.81
450.883	469.81
451.104	499.81
451.324	473.81
451.545	471.81
451.766	461.81
451.986	446.81
452.207	455.81
452.428	448.81
452.648	441.81
452.869	451.81
453.089	452.81
453.31	456.81
453.53	457.81
453.751	446.81
453.971	434.81
454.192	429.81
454.412	443.81
454.633	449.81
454.853	452.81
455.073	442.81
455.294	471.81
455.514	497.81
455.734	521.81
455.955	447.81
456.175	433.81
456.395	440.81
456.616	427.81
456.836	427.81
457.056	445.81
457.276	412.81
457.497	444.81
457.717	430.81
457.937	452.81
458.157	457.81
458.377	459.81
458.598	472.81
458.818	497.81
459.038	550.81
459.258	583.81
459.478	524.81
459.698	481.81
459.918	505.81
460.138	509.81
460.358	509.81
460.578	518.81
460.798	533.81
461.018	527.81
461.238	510.81
461.458	512.81
461.678	506.81
461.898	518.81
462.118	514.81
462.338	564.81
462.558	553.81
462.777	555.81
462.997	589.81
463.217	598.81
463.437	601.81
463.657	606.81
463.876	586.81
464.096	563.81
464.316	551.81
464.536	580.81
464.755	583.81
464.975	558.81
465.195	551.81
465.414	572.81
465.634	519.81
465.854	495.81
466.073	509.81
466.293	467.81
466.512	472.81
466.732	459.81
466.951	475.81
467.171	487.81
467.391	484.81
467.61	473.81
467.829	465.81
468.049	462.81
468.268	457.81
468.488	446.81
468.707	471.81
468.927	453.81
469.146	443.81
469.365	470.81
469.585	441.81
469.804	471.81
470.023	451.81
470.243	469.81
470.462	466.81
470.681	478.81
470.901	487.81
471.12	480.81
471.339	475.81
471.558	487.81
471.777	479.81
471.997	469.81
472.216	466.81
472.435	500.81
472.654	458.81
472.873	473.81
473.092	460.81
473.311	475.81
473.53	459.81
473.749	475.81
473.968	523.81
474.187	580.81
474.406	573.81
474.625	482.81
474.844	471.81
475.063	460.81
475.282	464.81
475.501	468.81
475.72	454.81
475.939	497.81
476.158	499.81
476.377	496.81
476.596	481.81
476.814	485.81
477.033	493.81
477.252	495.81
477.471	489.81
477.69	490.81
477.908	516.81
478.127	523.81
478.346	538.81
478.564	549.81
478.783	545.81
479.002	553.81
479.22	554.81
479.439	555.81
479.658	558.81
479.876	553.81
480.095	556.81
480.313	595.81
480.532	590.81
480.751	568.81
480.969	615.81
481.188	625.81
481.406	617.81
481.624	573.81
481.843	575.81
482.061	551.81
482.28	549.81
482.498	530.81
482.717	536.81
482.935	537.81
483.153	528.81
483.372	535.81
483.59	560.81
483.808	571.81
484.027	529.81
484.245	537.81
484.463	548.81
484.681	574.81
484.9	574.81
485.118	553.81
485.336	572.81
485.554	551.81
485.772	545.81
485.99	581.81
486.209	592.81
486.427	575.81
486.645	564.81
486.863	587.81
487.081	577.81
487.299	586.81
487.517	574.81
487.735	565.81
487.953	577.81
488.171	577.81
488.389	574.81
488.607	554.81
488.825	557.81
489.043	584.81
489.261	587.81
489.479	600.81
489.696	579.81
489.914	591.81
490.132	586.81
490.35	606.81
490.568	615.81
490.786	610.81
491.003	602.81
491.221	610.81
491.439	591.81
491.657	612.81
491.874	631.81
492.092	624.81
492.31	626.81
492.527	639.81
492.745	669.81
492.963	648.81
493.18	637.81
493.398	680.81
493.615	646.81
493.833	648.81
494.05	655.81
494.268	665.81
494.485	658.81
494.703	683.81
494.92	643.81
495.138	655.81
495.355	669.81
495.573	655.81
495.79	660.81
496.008	641.81
496.225	667.81
496.442	681.81
496.66	669.81
496.877	675.81
497.094	717.81
497.312	736.81
497.529	707.81
497.746	706.81
497.963	730.81
498.181	755.81
498.398	770.81
498.615	769.81
498.832	818.81
499.049	837.81
499.267	852.81
499.484	945.81
499.701	955.81
499.918	1041.81
500.135	1109.81
500.352	1151.81
500.569	1173.81
500.786	1211.81
501.003	1167.81
501.22	1098.81
501.437	1063.81
501.654	981.81
501.871	962.81
