Data from 1962.PennyLincolnUp.Lamp.En5.5.200Scan.071719.P1._HRD10591_13-53-29-060.txt Node
Date: Thu Jul 18 13:53:29 EDT 2019
User: cochatt
Spectrometer: HR+D1059
Trigger mode: 1
Integration Time (sec): 1.000000E-1
Scans to average: 1
Electric dark correction enabled: true
Nonlinearity correction enabled: false
Boxcar width: 0
XAxis mode: Wavelengths
Number of Pixels in Spectrum: 2048
>>>>>Begin Spectral Data<<<<<
223.165	-13.44
223.4	-13.44
223.635	-13.44
223.869	-13.44
224.104	-15.44
224.338	-5.44
224.573	-2.44
224.808	-7.44
225.042	-19.44
225.277	-3.44
225.511	-7.44
225.746	5.56
225.98	12.56
226.215	5.56
226.449	19.56
226.683	11.56
226.918	10.56
227.152	22.56
227.387	39.56
227.621	18.56
227.856	37.56
228.09	43.56
228.324	36.56
228.559	51.56
228.793	71.56
229.027	80.56
229.262	83.56
229.496	93.56
229.73	106.56
229.964	125.56
230.199	115.56
230.433	96.56
230.667	80.56
230.901	114.56
231.136	105.56
231.37	111.56
231.604	105.56
231.838	107.56
232.072	100.56
232.306	100.56
232.541	117.56
232.775	100.56
233.009	103.56
233.243	99.56
233.477	109.56
233.711	107.56
233.945	100.56
234.179	110.56
234.413	110.56
234.647	118.56
234.881	116.56
235.115	96.56
235.349	115.56
235.583	92.56
235.817	111.56
236.051	104.56
236.285	131.56
236.519	122.56
236.753	129.56
236.987	121.56
237.221	148.56
237.455	180.56
237.689	155.56
237.922	127.56
238.156	119.56
238.39	113.56
238.624	114.56
238.858	122.56
239.091	119.56
239.325	111.56
239.559	121.56
239.793	127.56
240.027	117.56
240.26	131.56
240.494	130.56
240.728	121.56
240.961	121.56
241.195	123.56
241.429	127.56
241.662	145.56
241.896	125.56
242.13	136.56
242.363	133.56
242.597	121.56
242.83	133.56
243.064	133.56
243.298	140.56
243.531	137.56
243.765	131.56
243.998	136.56
244.232	139.56
244.465	140.56
244.699	133.56
244.932	145.56
245.166	145.56
245.399	129.56
245.633	142.56
245.866	133.56
246.099	128.56
246.333	132.56
246.566	130.56
246.8	146.56
247.033	140.56
247.266	144.56
247.5	156.56
247.733	155.56
247.966	150.56
248.2	149.56
248.433	160.56
248.666	137.56
248.899	168.56
249.133	175.56
249.366	194.56
249.599	172.56
249.832	171.56
250.066	168.56
250.299	157.56
250.532	164.56
250.765	163.56
250.998	202.56
251.231	191.56
251.465	196.56
251.698	170.56
251.931	172.56
252.164	169.56
252.397	185.56
252.63	181.56
252.863	199.56
253.096	193.56
253.329	193.56
253.562	195.56
253.795	196.56
254.028	202.56
254.261	187.56
254.494	193.56
254.727	203.56
254.96	218.56
255.193	241.56
255.426	201.56
255.659	211.56
255.892	192.56
256.124	199.56
256.357	216.56
256.59	203.56
256.823	184.56
257.056	196.56
257.289	201.56
257.521	197.56
257.754	185.56
257.987	197.56
258.22	187.56
258.452	202.56
258.685	196.56
258.918	189.56
259.151	192.56
259.383	191.56
259.616	178.56
259.849	197.56
260.081	201.56
260.314	221.56
260.547	195.56
260.779	216.56
261.012	199.56
261.244	189.56
261.477	184.56
261.71	201.56
261.942	202.56
262.175	186.56
262.407	205.56
262.64	202.56
262.872	202.56
263.105	213.56
263.337	194.56
263.57	202.56
263.802	212.56
264.035	196.56
264.267	192.56
264.499	201.56
264.732	201.56
264.964	214.56
265.197	194.56
265.429	192.56
265.661	209.56
265.894	204.56
266.126	219.56
266.358	226.56
266.591	204.56
266.823	209.56
267.055	211.56
267.287	212.56
267.52	200.56
267.752	207.56
267.984	211.56
268.216	209.56
268.448	231.56
268.681	209.56
268.913	212.56
269.145	224.56
269.377	240.56
269.609	249.56
269.841	260.56
270.073	244.56
270.306	240.56
270.538	264.56
270.77	259.56
271.002	254.56
271.234	252.56
271.466	267.56
271.698	257.56
271.93	263.56
272.162	285.56
272.394	267.56
272.626	264.56
272.858	246.56
273.09	237.56
273.322	258.56
273.553	249.56
273.785	232.56
274.017	265.56
274.249	246.56
274.481	232.56
274.713	250.56
274.945	251.56
275.176	237.56
275.408	253.56
275.64	261.56
275.872	253.56
276.104	248.56
276.335	253.56
276.567	245.56
276.799	263.56
277.031	287.56
277.262	263.56
277.494	279.56
277.726	275.56
277.957	273.56
278.189	243.56
278.421	261.56
278.652	257.56
278.884	252.56
279.115	251.56
279.347	263.56
279.579	239.56
279.81	257.56
280.042	259.56
280.273	255.56
280.505	269.56
280.736	265.56
280.968	243.56
281.199	244.56
281.431	281.56
281.662	262.56
281.894	256.56
282.125	273.56
282.356	307.56
282.588	272.56
282.819	269.56
283.051	273.56
283.282	259.56
283.513	281.56
283.745	260.56
283.976	268.56
284.207	281.56
284.439	277.56
284.67	274.56
284.901	268.56
285.132	275.56
285.364	275.56
285.595	278.56
285.826	280.56
286.057	290.56
286.288	283.56
286.52	268.56
286.751	277.56
286.982	297.56
287.213	281.56
287.444	264.56
287.675	279.56
287.906	292.56
288.138	298.56
288.369	284.56
288.6	291.56
288.831	293.56
289.062	294.56
289.293	275.56
289.524	280.56
289.755	279.56
289.986	295.56
290.217	305.56
290.448	273.56
290.679	291.56
290.91	297.56
291.141	289.56
291.371	282.56
291.602	279.56
291.833	298.56
292.064	292.56
292.295	298.56
292.526	289.56
292.757	296.56
292.987	289.56
293.218	278.56
293.449	305.56
293.68	303.56
293.91	274.56
294.141	303.56
294.372	299.56
294.603	291.56
294.833	298.56
295.064	296.56
295.295	277.56
295.525	290.56
295.756	301.56
295.987	288.56
296.217	298.56
296.448	320.56
296.679	316.56
296.909	321.56
297.14	312.56
297.37	309.56
297.601	295.56
297.831	276.56
298.062	306.56
298.292	325.56
298.523	303.56
298.753	320.56
298.984	311.56
299.214	304.56
299.445	301.56
299.675	309.56
299.905	323.56
300.136	333.56
300.366	312.56
300.597	294.56
300.827	300.56
301.057	313.56
301.288	324.56
301.518	331.56
301.748	321.56
301.979	321.56
302.209	320.56
302.439	322.56
302.669	313.56
302.9	309.56
303.13	317.56
303.36	324.56
303.59	328.56
303.82	328.56
304.051	332.56
304.281	337.56
304.511	324.56
304.741	325.56
304.971	330.56
305.201	319.56
305.431	316.56
305.661	333.56
305.891	328.56
306.121	334.56
306.352	317.56
306.582	317.56
306.812	337.56
307.042	352.56
307.272	343.56
307.502	325.56
307.731	337.56
307.961	325.56
308.191	343.56
308.421	314.56
308.651	340.56
308.881	317.56
309.111	345.56
309.341	332.56
309.571	324.56
309.8	332.56
310.03	378.56
310.26	345.56
310.49	335.56
310.72	359.56
310.949	356.56
311.179	344.56
311.409	347.56
311.639	364.56
311.868	359.56
312.098	359.56
312.328	337.56
312.557	363.56
312.787	373.56
313.017	364.56
313.246	369.56
313.476	361.56
313.706	369.56
313.935	362.56
314.165	343.56
314.394	368.56
314.624	381.56
314.853	377.56
315.083	378.56
315.312	352.56
315.542	347.56
315.771	346.56
316.001	357.56
316.23	353.56
316.46	369.56
316.689	357.56
316.919	362.56
317.148	359.56
317.377	361.56
317.607	371.56
317.836	373.56
318.065	366.56
318.295	367.56
318.524	352.56
318.753	367.56
318.983	356.56
319.212	353.56
319.441	371.56
319.67	375.56
319.9	345.56
320.129	357.56
320.358	367.56
320.587	360.56
320.816	363.56
321.046	379.56
321.275	375.56
321.504	371.56
321.733	368.56
321.962	377.56
322.191	380.56
322.42	381.56
322.649	393.56
322.878	405.56
323.108	407.56
323.337	425.56
323.566	418.56
323.795	453.56
324.024	466.56
324.253	505.56
324.482	659.56
324.71	923.56
324.939	1258.56
325.168	1076.56
325.397	638.56
325.626	491.56
325.855	423.56
326.084	420.56
326.313	434.56
326.542	421.56
326.77	456.56
326.999	498.56
327.228	623.56
327.457	852.56
327.686	1015.56
327.914	719.56
328.143	547.56
328.372	490.56
328.6	450.56
328.829	456.56
329.058	444.56
329.287	448.56
329.515	459.56
329.744	449.56
329.972	441.56
330.201	444.56
330.43	455.56
330.658	482.56
330.887	491.56
331.115	470.56
331.344	452.56
331.572	446.56
331.801	458.56
332.03	434.56
332.258	434.56
332.486	426.56
332.715	437.56
332.943	431.56
333.172	441.56
333.4	476.56
333.629	462.56
333.857	445.56
334.085	485.56
334.314	495.56
334.542	501.56
334.771	505.56
334.999	486.56
335.227	483.56
335.455	457.56
335.684	455.56
335.912	474.56
336.14	436.56
336.369	449.56
336.597	445.56
336.825	444.56
337.053	425.56
337.281	442.56
337.51	417.56
337.738	437.56
337.966	427.56
338.194	423.56
338.422	426.56
338.65	423.56
338.878	410.56
339.106	401.56
339.334	428.56
339.562	435.56
339.79	413.56
340.018	420.56
340.246	409.56
340.474	414.56
340.702	415.56
340.93	406.56
341.158	425.56
341.386	408.56
341.614	392.56
341.842	416.56
342.07	412.56
342.298	404.56
342.526	397.56
342.754	398.56
342.981	408.56
343.209	392.56
343.437	415.56
343.665	435.56
343.893	428.56
344.12	449.56
344.348	445.56
344.576	457.56
344.804	439.56
345.031	429.56
345.259	433.56
345.487	412.56
345.714	411.56
345.942	421.56
346.17	389.56
346.397	384.56
346.625	389.56
346.853	388.56
347.08	392.56
347.308	401.56
347.535	397.56
347.763	415.56
347.99	406.56
348.218	391.56
348.445	393.56
348.673	389.56
348.9	400.56
349.128	378.56
349.355	393.56
349.583	395.56
349.81	378.56
350.037	381.56
350.265	399.56
350.492	396.56
350.72	389.56
350.947	400.56
351.174	381.56
351.402	396.56
351.629	383.56
351.856	383.56
352.083	411.56
352.311	399.56
352.538	406.56
352.765	387.56
352.992	385.56
353.22	394.56
353.447	359.56
353.674	389.56
353.901	378.56
354.128	395.56
354.355	383.56
354.583	385.56
354.81	380.56
355.037	382.56
355.264	383.56
355.491	385.56
355.718	402.56
355.945	379.56
356.172	379.56
356.399	383.56
356.626	377.56
356.853	377.56
357.08	390.56
357.307	359.56
357.534	364.56
357.761	392.56
357.988	380.56
358.215	367.56
358.441	387.56
358.668	377.56
358.895	409.56
359.122	373.56
359.349	407.56
359.576	410.56
359.802	415.56
360.029	405.56
360.256	395.56
360.483	398.56
360.709	391.56
360.936	404.56
361.163	383.56
361.39	395.56
361.616	391.56
361.843	389.56
362.07	381.56
362.296	378.56
362.523	394.56
362.749	377.56
362.976	372.56
363.203	381.56
363.429	400.56
363.656	384.56
363.882	379.56
364.109	373.56
364.335	385.56
364.562	389.56
364.788	375.56
365.015	376.56
365.241	381.56
365.468	396.56
365.694	393.56
365.92	384.56
366.147	379.56
366.373	380.56
366.599	387.56
366.826	387.56
367.052	380.56
367.278	375.56
367.505	376.56
367.731	382.56
367.957	375.56
368.184	378.56
368.41	394.56
368.636	401.56
368.862	389.56
369.089	379.56
369.315	403.56
369.541	389.56
369.767	372.56
369.993	380.56
370.219	375.56
370.445	371.56
370.672	405.56
370.898	394.56
371.124	391.56
371.35	390.56
371.576	388.56
371.802	401.56
372.028	386.56
372.254	417.56
372.48	397.56
372.706	409.56
372.932	408.56
373.158	390.56
373.384	406.56
373.61	412.56
373.835	404.56
374.061	408.56
374.287	405.56
374.513	406.56
374.739	407.56
374.965	425.56
375.191	409.56
375.416	409.56
375.642	404.56
375.868	401.56
376.094	397.56
376.319	381.56
376.545	391.56
376.771	395.56
376.997	392.56
377.222	380.56
377.448	393.56
377.674	390.56
377.899	383.56
378.125	385.56
378.35	403.56
378.576	396.56
378.802	381.56
379.027	387.56
379.253	385.56
379.478	391.56
379.704	408.56
379.929	387.56
380.155	389.56
380.38	390.56
380.606	395.56
380.831	409.56
381.057	403.56
381.282	383.56
381.507	396.56
381.733	384.56
381.958	408.56
382.184	395.56
382.409	402.56
382.634	423.56
382.86	413.56
383.085	423.56
383.31	424.56
383.535	431.56
383.761	416.56
383.986	419.56
384.211	420.56
384.436	424.56
384.662	454.56
384.887	443.56
385.112	420.56
385.337	450.56
385.562	460.56
385.787	436.56
386.013	455.56
386.238	468.56
386.463	455.56
386.688	449.56
386.913	464.56
387.138	445.56
387.363	448.56
387.588	449.56
387.813	455.56
388.038	439.56
388.263	436.56
388.488	457.56
388.713	452.56
388.938	466.56
389.163	469.56
389.387	451.56
389.612	415.56
389.837	444.56
390.062	449.56
390.287	433.56
390.512	449.56
390.736	435.56
390.961	463.56
391.186	447.56
391.411	467.56
391.636	467.56
391.86	498.56
392.085	489.56
392.31	484.56
392.534	466.56
392.759	458.56
392.984	468.56
393.208	443.56
393.433	462.56
393.658	447.56
393.882	445.56
394.107	454.56
394.331	465.56
394.556	461.56
394.78	463.56
395.005	477.56
395.229	461.56
395.454	472.56
395.678	479.56
395.903	491.56
396.127	507.56
396.352	492.56
396.576	480.56
396.801	480.56
397.025	474.56
397.249	478.56
397.474	507.56
397.698	490.56
397.922	490.56
398.147	503.56
398.371	492.56
398.595	522.56
398.82	527.56
399.044	569.56
399.268	595.56
399.492	644.56
399.717	668.56
399.941	689.56
400.165	660.56
400.389	646.56
400.613	619.56
400.837	576.56
401.062	545.56
401.286	536.56
401.51	547.56
401.734	522.56
401.958	537.56
402.182	537.56
402.406	534.56
402.63	555.56
402.854	524.56
403.078	531.56
403.302	573.56
403.526	563.56
403.75	566.56
403.974	555.56
404.198	557.56
404.422	586.56
404.645	588.56
404.869	580.56
405.093	589.56
405.317	612.56
405.541	618.56
405.765	571.56
405.988	567.56
406.212	573.56
406.436	598.56
406.66	603.56
406.883	584.56
407.107	631.56
407.331	676.56
407.555	672.56
407.778	688.56
408.002	665.56
408.226	631.56
408.449	615.56
408.673	588.56
408.896	617.56
409.12	617.56
409.344	616.56
409.567	571.56
409.791	575.56
410.014	545.56
410.238	577.56
410.461	545.56
410.685	531.56
410.908	565.56
411.132	585.56
411.355	580.56
411.578	571.56
411.802	557.56
412.025	516.56
412.249	565.56
412.472	568.56
412.695	589.56
412.919	588.56
413.142	569.56
413.365	548.56
413.589	529.56
413.812	532.56
414.035	522.56
414.258	533.56
414.482	542.56
414.705	513.56
414.928	538.56
415.151	522.56
415.374	518.56
415.597	532.56
415.821	516.56
416.044	540.56
416.267	525.56
416.49	524.56
416.713	514.56
416.936	515.56
417.159	525.56
417.382	520.56
417.605	520.56
417.828	515.56
418.051	521.56
418.274	532.56
418.497	500.56
418.72	520.56
418.943	535.56
419.166	523.56
419.389	570.56
419.611	561.56
419.834	568.56
420.057	546.56
420.28	538.56
420.503	543.56
420.726	563.56
420.948	541.56
421.171	561.56
421.394	586.56
421.617	558.56
421.839	547.56
422.062	551.56
422.285	536.56
422.507	589.56
422.73	624.56
422.953	603.56
423.175	575.56
423.398	550.56
423.621	556.56
423.843	583.56
424.066	581.56
424.288	555.56
424.511	562.56
424.733	585.56
424.956	636.56
425.178	624.56
425.401	625.56
425.623	640.56
425.846	571.56
426.068	537.56
426.291	547.56
426.513	564.56
426.735	545.56
426.958	565.56
427.18	631.56
427.402	715.56
427.625	773.56
427.847	659.56
428.069	606.56
428.292	548.56
428.514	528.56
428.736	511.56
428.958	508.56
429.181	500.56
429.403	497.56
429.625	509.56
429.847	535.56
430.069	555.56
430.292	584.56
430.514	504.56
430.736	509.56
430.958	478.56
431.18	482.56
431.402	483.56
431.624	460.56
431.846	491.56
432.068	476.56
432.29	500.56
432.512	497.56
432.734	499.56
432.956	507.56
433.178	518.56
433.4	479.56
433.622	500.56
433.844	507.56
434.066	486.56
434.287	509.56
434.509	498.56
434.731	525.56
434.953	534.56
435.175	498.56
435.397	551.56
435.618	520.56
435.84	556.56
436.062	623.56
436.284	665.56
436.505	578.56
436.727	540.56
436.949	508.56
437.17	496.56
437.392	513.56
437.614	513.56
437.835	523.56
438.057	567.56
438.278	617.56
438.5	629.56
438.721	695.56
438.943	678.56
439.165	563.56
439.386	540.56
439.608	536.56
439.829	515.56
440.05	541.56
440.272	539.56
440.493	545.56
440.715	522.56
440.936	517.56
441.158	506.56
441.379	532.56
441.6	539.56
441.822	539.56
442.043	543.56
442.264	621.56
442.486	644.56
442.707	570.56
442.928	564.56
443.149	555.56
443.371	547.56
443.592	594.56
443.813	661.56
444.034	713.56
444.255	644.56
444.476	597.56
444.698	571.56
444.919	595.56
445.14	707.56
445.361	623.56
445.582	563.56
445.803	583.56
446.024	670.56
446.245	659.56
446.466	616.56
446.687	563.56
446.908	543.56
447.129	515.56
447.35	497.56
447.571	479.56
447.792	475.56
448.013	510.56
448.234	492.56
448.455	535.56
448.675	602.56
448.896	694.56
449.117	593.56
449.338	553.56
449.559	649.56
449.779	724.56
450	589.56
450.221	517.56
450.442	478.56
450.662	472.56
450.883	455.56
451.104	469.56
451.324	456.56
451.545	438.56
451.766	464.56
451.986	473.56
452.207	443.56
452.428	446.56
452.648	451.56
452.869	445.56
453.089	447.56
453.31	474.56
453.53	450.56
453.751	441.56
453.971	439.56
454.192	458.56
454.412	422.56
454.633	439.56
454.853	448.56
455.073	435.56
455.294	451.56
455.514	482.56
455.734	489.56
455.955	445.56
456.175	435.56
456.395	429.56
456.616	425.56
456.836	442.56
457.056	431.56
457.276	423.56
457.497	427.56
457.717	415.56
457.937	437.56
458.157	442.56
458.377	453.56
458.598	443.56
458.818	499.56
459.038	517.56
459.258	552.56
459.478	513.56
459.698	497.56
459.918	522.56
460.138	513.56
460.358	512.56
460.578	533.56
460.798	538.56
461.018	537.56
461.238	521.56
461.458	513.56
461.678	531.56
461.898	537.56
462.118	525.56
462.338	543.56
462.558	545.56
462.777	562.56
462.997	593.56
463.217	621.56
463.437	638.56
463.657	581.56
463.876	563.56
464.096	590.56
464.316	591.56
464.536	577.56
464.755	581.56
464.975	573.56
465.195	589.56
465.414	578.56
465.634	547.56
465.854	504.56
466.073	471.56
466.293	485.56
466.512	475.56
466.732	466.56
466.951	487.56
467.171	474.56
467.391	477.56
467.61	495.56
467.829	472.56
468.049	452.56
468.268	477.56
468.488	446.56
468.707	461.56
468.927	446.56
469.146	447.56
469.365	458.56
469.585	438.56
469.804	477.56
470.023	485.56
470.243	471.56
470.462	462.56
470.681	480.56
470.901	489.56
471.12	484.56
471.339	490.56
471.558	472.56
471.777	464.56
471.997	461.56
472.216	461.56
472.435	497.56
472.654	456.56
472.873	469.56
473.092	463.56
473.311	459.56
473.53	439.56
473.749	461.56
473.968	495.56
474.187	552.56
474.406	556.56
474.625	521.56
474.844	470.56
475.063	447.56
475.282	479.56
475.501	483.56
475.72	476.56
475.939	481.56
476.158	472.56
476.377	479.56
476.596	501.56
476.814	476.56
477.033	476.56
477.252	512.56
477.471	503.56
477.69	502.56
477.908	517.56
478.127	541.56
478.346	525.56
478.564	541.56
478.783	554.56
479.002	540.56
479.22	536.56
479.439	552.56
479.658	568.56
479.876	567.56
480.095	551.56
480.313	572.56
480.532	614.56
480.751	579.56
480.969	604.56
481.188	620.56
481.406	623.56
481.624	595.56
481.843	565.56
482.061	546.56
482.28	559.56
482.498	553.56
482.717	533.56
482.935	565.56
483.153	549.56
483.372	540.56
483.59	553.56
483.808	533.56
484.027	555.56
484.245	552.56
484.463	548.56
484.681	563.56
484.9	561.56
485.118	564.56
485.336	563.56
485.554	564.56
485.772	572.56
485.99	556.56
486.209	577.56
486.427	574.56
486.645	583.56
486.863	582.56
487.081	593.56
487.299	589.56
487.517	590.56
487.735	569.56
487.953	562.56
488.171	554.56
488.389	589.56
488.607	583.56
488.825	572.56
489.043	559.56
489.261	565.56
489.479	607.56
489.696	586.56
489.914	610.56
490.132	590.56
490.35	569.56
490.568	591.56
490.786	612.56
491.003	601.56
491.221	604.56
491.439	623.56
491.657	631.56
491.874	622.56
492.092	625.56
492.31	650.56
492.527	639.56
492.745	643.56
492.963	625.56
493.18	619.56
493.398	659.56
493.615	649.56
493.833	636.56
494.05	631.56
494.268	645.56
494.485	635.56
494.703	699.56
494.92	650.56
495.138	640.56
495.355	663.56
495.573	654.56
495.79	649.56
496.008	649.56
496.225	653.56
496.442	653.56
496.66	659.56
496.877	676.56
497.094	675.56
497.312	692.56
497.529	702.56
497.746	701.56
497.963	729.56
498.181	754.56
498.398	753.56
498.615	771.56
498.832	816.56
499.049	828.56
499.267	876.56
499.484	909.56
499.701	949.56
499.918	992.56
500.135	1076.56
500.352	1176.56
500.569	1201.56
500.786	1233.56
501.003	1164.56
501.22	1119.56
501.437	1037.56
501.654	972.56
501.871	962.56
502.088	902.56
