Data from 1962.PennyLincolnUp.Lamp.En5.5.200Scan.071719.P1._HRD10591_13-52-55-060.txt Node
Date: Thu Jul 18 13:52:55 EDT 2019
User: cochatt
Spectrometer: HR+D1059
Trigger mode: 1
Integration Time (sec): 1.000000E-1
Scans to average: 1
Electric dark correction enabled: true
Nonlinearity correction enabled: false
Boxcar width: 0
XAxis mode: Wavelengths
Number of Pixels in Spectrum: 2048
>>>>>Begin Spectral Data<<<<<
223.165	-24.75
223.4	-24.75
223.635	-24.75
223.869	-19.75
224.104	-9.75
224.338	-12.75
224.573	-18.75
224.808	-3.75
225.042	-13.75
225.277	3.25
225.511	3.25
225.746	-6.75
225.98	2.25
226.215	2.25
226.449	19.25
226.683	11.25
226.918	25.25
227.152	43.25
227.387	36.25
227.621	30.25
227.856	53.25
228.09	58.25
228.324	60.25
228.559	52.25
228.793	72.25
229.027	95.25
229.262	90.25
229.496	95.25
229.73	90.25
229.964	124.25
230.199	116.25
230.433	100.25
230.667	105.25
230.901	95.25
231.136	88.25
231.37	107.25
231.604	117.25
231.838	99.25
232.072	99.25
232.306	101.25
232.541	105.25
232.775	115.25
233.009	109.25
233.243	108.25
233.477	117.25
233.711	113.25
233.945	98.25
234.179	100.25
234.413	121.25
234.647	97.25
234.881	118.25
235.115	116.25
235.349	110.25
235.583	106.25
235.817	113.25
236.051	92.25
236.285	101.25
236.519	97.25
236.753	119.25
236.987	127.25
237.221	143.25
237.455	164.25
237.689	132.25
237.922	123.25
238.156	125.25
238.39	106.25
238.624	108.25
238.858	127.25
239.091	118.25
239.325	126.25
239.559	121.25
239.793	120.25
240.027	119.25
240.26	131.25
240.494	130.25
240.728	140.25
240.961	128.25
241.195	123.25
241.429	127.25
241.662	124.25
241.896	129.25
242.13	125.25
242.363	111.25
242.597	123.25
242.83	137.25
243.064	129.25
243.298	128.25
243.531	126.25
243.765	138.25
243.998	133.25
244.232	137.25
244.465	139.25
244.699	131.25
244.932	131.25
245.166	140.25
245.399	141.25
245.633	141.25
245.866	132.25
246.099	143.25
246.333	139.25
246.566	137.25
246.8	126.25
247.033	134.25
247.266	133.25
247.5	139.25
247.733	151.25
247.966	157.25
248.2	149.25
248.433	148.25
248.666	143.25
248.899	185.25
249.133	157.25
249.366	167.25
249.599	168.25
249.832	147.25
250.066	166.25
250.299	159.25
250.532	157.25
250.765	163.25
250.998	171.25
251.231	166.25
251.465	180.25
251.698	179.25
251.931	171.25
252.164	180.25
252.397	170.25
252.63	174.25
252.863	164.25
253.096	174.25
253.329	182.25
253.562	182.25
253.795	192.25
254.028	172.25
254.261	179.25
254.494	190.25
254.727	204.25
254.96	212.25
255.193	201.25
255.426	193.25
255.659	177.25
255.892	204.25
256.124	185.25
256.357	185.25
256.59	186.25
256.823	170.25
257.056	189.25
257.289	179.25
257.521	188.25
257.754	199.25
257.987	180.25
258.22	177.25
258.452	177.25
258.685	187.25
258.918	173.25
259.151	192.25
259.383	187.25
259.616	189.25
259.849	210.25
260.081	209.25
260.314	210.25
260.547	212.25
260.779	205.25
261.012	211.25
261.244	208.25
261.477	212.25
261.71	200.25
261.942	187.25
262.175	185.25
262.407	194.25
262.64	213.25
262.872	199.25
263.105	190.25
263.337	191.25
263.57	190.25
263.802	198.25
264.035	210.25
264.267	210.25
264.499	200.25
264.732	221.25
264.964	199.25
265.197	203.25
265.429	210.25
265.661	209.25
265.894	222.25
266.126	217.25
266.358	202.25
266.591	196.25
266.823	214.25
267.055	220.25
267.287	204.25
267.52	201.25
267.752	211.25
267.984	221.25
268.216	219.25
268.448	227.25
268.681	201.25
268.913	214.25
269.145	234.25
269.377	216.25
269.609	239.25
269.841	239.25
270.073	224.25
270.306	253.25
270.538	242.25
270.77	253.25
271.002	252.25
271.234	244.25
271.466	271.25
271.698	277.25
271.93	235.25
272.162	255.25
272.394	264.25
272.626	251.25
272.858	223.25
273.09	231.25
273.322	243.25
273.553	234.25
273.785	216.25
274.017	234.25
274.249	222.25
274.481	227.25
274.713	241.25
274.945	245.25
275.176	242.25
275.408	221.25
275.64	238.25
275.872	233.25
276.104	266.25
276.335	261.25
276.567	267.25
276.799	251.25
277.031	267.25
277.262	264.25
277.494	291.25
277.726	274.25
277.957	254.25
278.189	249.25
278.421	253.25
278.652	259.25
278.884	242.25
279.115	238.25
279.347	247.25
279.579	247.25
279.81	244.25
280.042	268.25
280.273	261.25
280.505	262.25
280.736	264.25
280.968	262.25
281.199	250.25
281.431	250.25
281.662	268.25
281.894	254.25
282.125	250.25
282.356	292.25
282.588	284.25
282.819	278.25
283.051	269.25
283.282	277.25
283.513	271.25
283.745	256.25
283.976	254.25
284.207	275.25
284.439	265.25
284.67	277.25
284.901	267.25
285.132	274.25
285.364	257.25
285.595	280.25
285.826	275.25
286.057	287.25
286.288	267.25
286.52	291.25
286.751	280.25
286.982	270.25
287.213	270.25
287.444	286.25
287.675	284.25
287.906	284.25
288.138	287.25
288.369	271.25
288.6	281.25
288.831	300.25
289.062	289.25
289.293	298.25
289.524	292.25
289.755	279.25
289.986	291.25
290.217	294.25
290.448	282.25
290.679	280.25
290.91	284.25
291.141	271.25
291.371	281.25
291.602	278.25
291.833	263.25
292.064	284.25
292.295	292.25
292.526	279.25
292.757	277.25
292.987	286.25
293.218	290.25
293.449	292.25
293.68	311.25
293.91	283.25
294.141	282.25
294.372	289.25
294.603	286.25
294.833	281.25
295.064	285.25
295.295	282.25
295.525	283.25
295.756	300.25
295.987	287.25
296.217	296.25
296.448	305.25
296.679	303.25
296.909	293.25
297.14	298.25
297.37	286.25
297.601	290.25
297.831	295.25
298.062	297.25
298.292	294.25
298.523	311.25
298.753	301.25
298.984	309.25
299.214	310.25
299.445	312.25
299.675	299.25
299.905	311.25
300.136	311.25
300.366	305.25
300.597	325.25
300.827	313.25
301.057	321.25
301.288	314.25
301.518	322.25
301.748	310.25
301.979	324.25
302.209	307.25
302.439	323.25
302.669	310.25
302.9	327.25
303.13	326.25
303.36	325.25
303.59	330.25
303.82	313.25
304.051	326.25
304.281	341.25
304.511	323.25
304.741	331.25
304.971	333.25
305.201	337.25
305.431	325.25
305.661	325.25
305.891	321.25
306.121	314.25
306.352	320.25
306.582	321.25
306.812	329.25
307.042	314.25
307.272	321.25
307.502	334.25
307.731	321.25
307.961	324.25
308.191	326.25
308.421	324.25
308.651	324.25
308.881	332.25
309.111	326.25
309.341	316.25
309.571	333.25
309.8	333.25
310.03	326.25
310.26	335.25
310.49	341.25
310.72	327.25
310.949	342.25
311.179	350.25
311.409	325.25
311.639	355.25
311.868	351.25
312.098	348.25
312.328	340.25
312.557	360.25
312.787	362.25
313.017	366.25
313.246	335.25
313.476	361.25
313.706	349.25
313.935	352.25
314.165	359.25
314.394	353.25
314.624	347.25
314.853	353.25
315.083	356.25
315.312	355.25
315.542	350.25
315.771	350.25
316.001	342.25
316.23	329.25
316.46	363.25
316.689	343.25
316.919	342.25
317.148	357.25
317.377	359.25
317.607	351.25
317.836	349.25
318.065	332.25
318.295	346.25
318.524	347.25
318.753	353.25
318.983	355.25
319.212	358.25
319.441	356.25
319.67	336.25
319.9	341.25
320.129	350.25
320.358	369.25
320.587	347.25
320.816	369.25
321.046	369.25
321.275	360.25
321.504	356.25
321.733	367.25
321.962	354.25
322.191	367.25
322.42	353.25
322.649	379.25
322.878	385.25
323.108	386.25
323.337	395.25
323.566	397.25
323.795	402.25
324.024	429.25
324.253	477.25
324.482	580.25
324.71	802.25
324.939	1077.25
325.168	973.25
325.397	571.25
325.626	444.25
325.855	429.25
326.084	417.25
326.313	415.25
326.542	407.25
326.77	444.25
326.999	462.25
327.228	548.25
327.457	730.25
327.686	873.25
327.914	637.25
328.143	486.25
328.372	463.25
328.6	441.25
328.829	415.25
329.058	421.25
329.287	437.25
329.515	424.25
329.744	412.25
329.972	399.25
330.201	421.25
330.43	437.25
330.658	443.25
330.887	463.25
331.115	442.25
331.344	426.25
331.572	423.25
331.801	405.25
332.03	409.25
332.258	427.25
332.486	429.25
332.715	435.25
332.943	439.25
333.172	438.25
333.4	451.25
333.629	467.25
333.857	463.25
334.085	452.25
334.314	454.25
334.542	454.25
334.771	473.25
334.999	457.25
335.227	457.25
335.455	458.25
335.684	439.25
335.912	439.25
336.14	420.25
336.369	444.25
336.597	435.25
336.825	443.25
337.053	419.25
337.281	427.25
337.51	428.25
337.738	411.25
337.966	418.25
338.194	435.25
338.422	438.25
338.65	416.25
338.878	398.25
339.106	419.25
339.334	430.25
339.562	408.25
339.79	404.25
340.018	404.25
340.246	393.25
340.474	391.25
340.702	391.25
340.93	405.25
341.158	396.25
341.386	392.25
341.614	401.25
341.842	409.25
342.07	397.25
342.298	390.25
342.526	413.25
342.754	417.25
342.981	404.25
343.209	411.25
343.437	400.25
343.665	417.25
343.893	426.25
344.12	445.25
344.348	439.25
344.576	427.25
344.804	425.25
345.031	421.25
345.259	409.25
345.487	425.25
345.714	397.25
345.942	381.25
346.17	394.25
346.397	375.25
346.625	378.25
346.853	369.25
347.08	380.25
347.308	395.25
347.535	380.25
347.763	386.25
347.99	400.25
348.218	393.25
348.445	382.25
348.673	381.25
348.9	396.25
349.128	388.25
349.355	365.25
349.583	380.25
349.81	364.25
350.037	379.25
350.265	397.25
350.492	397.25
350.72	366.25
350.947	358.25
351.174	388.25
351.402	379.25
351.629	389.25
351.856	371.25
352.083	371.25
352.311	386.25
352.538	380.25
352.765	383.25
352.992	380.25
353.22	383.25
353.447	373.25
353.674	379.25
353.901	381.25
354.128	392.25
354.355	389.25
354.583	375.25
354.81	372.25
355.037	375.25
355.264	372.25
355.491	380.25
355.718	355.25
355.945	358.25
356.172	389.25
356.399	367.25
356.626	354.25
356.853	393.25
357.08	366.25
357.307	365.25
357.534	354.25
357.761	367.25
357.988	361.25
358.215	390.25
358.441	379.25
358.668	373.25
358.895	373.25
359.122	370.25
359.349	369.25
359.576	394.25
359.802	389.25
360.029	383.25
360.256	393.25
360.483	374.25
360.709	390.25
360.936	394.25
361.163	372.25
361.39	374.25
361.616	377.25
361.843	367.25
362.07	394.25
362.296	367.25
362.523	381.25
362.749	374.25
362.976	378.25
363.203	379.25
363.429	384.25
363.656	379.25
363.882	352.25
364.109	382.25
364.335	373.25
364.562	372.25
364.788	385.25
365.015	381.25
365.241	374.25
365.468	385.25
365.694	377.25
365.92	399.25
366.147	378.25
366.373	377.25
366.599	377.25
366.826	398.25
367.052	371.25
367.278	384.25
367.505	393.25
367.731	382.25
367.957	378.25
368.184	383.25
368.41	407.25
368.636	398.25
368.862	383.25
369.089	383.25
369.315	376.25
369.541	383.25
369.767	402.25
369.993	381.25
370.219	382.25
370.445	370.25
370.672	369.25
370.898	378.25
371.124	387.25
371.35	366.25
371.576	382.25
371.802	397.25
372.028	379.25
372.254	375.25
372.48	401.25
372.706	394.25
372.932	389.25
373.158	399.25
373.384	396.25
373.61	382.25
373.835	404.25
374.061	387.25
374.287	391.25
374.513	412.25
374.739	399.25
374.965	411.25
375.191	412.25
375.416	401.25
375.642	386.25
375.868	412.25
376.094	403.25
376.319	401.25
376.545	385.25
376.771	373.25
376.997	382.25
377.222	403.25
377.448	396.25
377.674	383.25
377.899	401.25
378.125	366.25
378.35	388.25
378.576	402.25
378.802	379.25
379.027	385.25
379.253	403.25
379.478	404.25
379.704	376.25
379.929	365.25
380.155	359.25
380.38	372.25
380.606	381.25
380.831	391.25
381.057	399.25
381.282	399.25
381.507	387.25
381.733	397.25
381.958	405.25
382.184	389.25
382.409	391.25
382.634	385.25
382.86	424.25
383.085	405.25
383.31	399.25
383.535	412.25
383.761	421.25
383.986	416.25
384.211	429.25
384.436	424.25
384.662	439.25
384.887	438.25
385.112	434.25
385.337	419.25
385.562	461.25
385.787	450.25
386.013	455.25
386.238	458.25
386.463	452.25
386.688	438.25
386.913	455.25
387.138	427.25
387.363	449.25
387.588	426.25
387.813	439.25
388.038	446.25
388.263	439.25
388.488	446.25
388.713	458.25
388.938	448.25
389.163	438.25
389.387	451.25
389.612	435.25
389.837	427.25
390.062	443.25
390.287	437.25
390.512	444.25
390.736	444.25
390.961	449.25
391.186	440.25
391.411	454.25
391.636	450.25
391.86	456.25
392.085	455.25
392.31	470.25
392.534	468.25
392.759	445.25
392.984	477.25
393.208	459.25
393.433	432.25
393.658	427.25
393.882	464.25
394.107	421.25
394.331	438.25
394.556	467.25
394.78	459.25
395.005	437.25
395.229	464.25
395.454	463.25
395.678	495.25
395.903	477.25
396.127	482.25
396.352	487.25
396.576	470.25
396.801	462.25
397.025	490.25
397.249	468.25
397.474	482.25
397.698	497.25
397.922	470.25
398.147	496.25
398.371	508.25
398.595	524.25
398.82	522.25
399.044	550.25
399.268	553.25
399.492	605.25
399.717	663.25
399.941	669.25
400.165	647.25
400.389	638.25
400.613	567.25
400.837	538.25
401.062	549.25
401.286	507.25
401.51	509.25
401.734	512.25
401.958	537.25
402.182	525.25
402.406	550.25
402.63	530.25
402.854	542.25
403.078	540.25
403.302	548.25
403.526	554.25
403.75	561.25
403.974	571.25
404.198	527.25
404.422	553.25
404.645	557.25
404.869	546.25
405.093	567.25
405.317	599.25
405.541	602.25
405.765	585.25
405.988	548.25
406.212	557.25
406.436	562.25
406.66	580.25
406.883	540.25
407.107	575.25
407.331	628.25
407.555	676.25
407.778	655.25
408.002	620.25
408.226	603.25
408.449	603.25
408.673	600.25
408.896	599.25
409.12	603.25
409.344	588.25
409.567	573.25
409.791	555.25
410.014	557.25
410.238	544.25
410.461	550.25
410.685	548.25
410.908	532.25
411.132	550.25
411.355	546.25
411.578	543.25
411.802	531.25
412.025	561.25
412.249	551.25
412.472	554.25
412.695	579.25
412.919	548.25
413.142	551.25
413.365	525.25
413.589	517.25
413.812	535.25
414.035	501.25
414.258	505.25
414.482	539.25
414.705	528.25
414.928	516.25
415.151	513.25
415.374	487.25
415.597	513.25
415.821	489.25
416.044	497.25
416.267	514.25
416.49	530.25
416.713	502.25
416.936	488.25
417.159	519.25
417.382	499.25
417.605	490.25
417.828	529.25
418.051	508.25
418.274	501.25
418.497	490.25
418.72	511.25
418.943	510.25
419.166	527.25
419.389	565.25
419.611	578.25
419.834	553.25
420.057	531.25
420.28	505.25
420.503	484.25
420.726	510.25
420.948	518.25
421.171	528.25
421.394	554.25
421.617	552.25
421.839	538.25
422.062	522.25
422.285	505.25
422.507	534.25
422.73	587.25
422.953	592.25
423.175	550.25
423.398	538.25
423.621	523.25
423.843	545.25
424.066	551.25
424.288	517.25
424.511	543.25
424.733	558.25
424.956	604.25
425.178	612.25
425.401	601.25
425.623	614.25
425.846	542.25
426.068	525.25
426.291	518.25
426.513	526.25
426.735	508.25
426.958	538.25
427.18	604.25
427.402	682.25
427.625	703.25
427.847	609.25
428.069	569.25
428.292	529.25
428.514	493.25
428.736	488.25
428.958	485.25
429.181	467.25
429.403	472.25
429.625	479.25
429.847	513.25
430.069	553.25
430.292	561.25
430.514	510.25
430.736	495.25
430.958	489.25
431.18	508.25
431.402	493.25
431.624	463.25
431.846	461.25
432.068	455.25
432.29	490.25
432.512	461.25
432.734	483.25
432.956	482.25
433.178	476.25
433.4	467.25
433.622	475.25
433.844	497.25
434.066	460.25
434.287	485.25
434.509	489.25
434.731	481.25
434.953	509.25
435.175	507.25
435.397	534.25
435.618	526.25
435.84	556.25
436.062	609.25
436.284	604.25
436.505	554.25
436.727	521.25
436.949	505.25
437.17	483.25
437.392	467.25
437.614	477.25
437.835	501.25
438.057	545.25
438.278	606.25
438.5	615.25
438.721	670.25
438.943	647.25
439.165	537.25
439.386	510.25
439.608	522.25
439.829	472.25
440.05	505.25
440.272	533.25
440.493	506.25
440.715	499.25
440.936	517.25
441.158	487.25
441.379	500.25
441.6	506.25
441.822	516.25
442.043	546.25
442.264	591.25
442.486	638.25
442.707	555.25
442.928	521.25
443.149	535.25
443.371	555.25
443.592	578.25
443.813	626.25
444.034	668.25
444.255	581.25
444.476	565.25
444.698	566.25
444.919	574.25
445.14	675.25
445.361	610.25
445.582	559.25
445.803	566.25
446.024	622.25
446.245	618.25
446.466	589.25
446.687	517.25
446.908	514.25
447.129	517.25
447.35	481.25
447.571	453.25
447.792	467.25
448.013	466.25
448.234	465.25
448.455	475.25
448.675	576.25
448.896	643.25
449.117	555.25
449.338	546.25
449.559	605.25
449.779	671.25
450	553.25
450.221	486.25
450.442	451.25
450.662	453.25
450.883	443.25
451.104	449.25
451.324	444.25
451.545	433.25
451.766	443.25
451.986	427.25
452.207	439.25
452.428	442.25
452.648	413.25
452.869	441.25
453.089	423.25
453.31	436.25
453.53	430.25
453.751	436.25
453.971	437.25
454.192	428.25
454.412	417.25
454.633	419.25
454.853	435.25
455.073	407.25
455.294	451.25
455.514	479.25
455.734	465.25
455.955	430.25
456.175	427.25
456.395	420.25
456.616	385.25
456.836	418.25
457.056	418.25
457.276	423.25
457.497	419.25
457.717	420.25
457.937	410.25
458.157	423.25
458.377	443.25
458.598	445.25
458.818	443.25
459.038	502.25
459.258	529.25
459.478	493.25
459.698	490.25
459.918	502.25
460.138	491.25
460.358	527.25
460.578	512.25
460.798	499.25
461.018	535.25
461.238	539.25
461.458	527.25
461.678	492.25
461.898	511.25
462.118	527.25
462.338	540.25
462.558	540.25
462.777	569.25
462.997	590.25
463.217	607.25
463.437	631.25
463.657	579.25
463.876	567.25
464.096	581.25
464.316	548.25
464.536	573.25
464.755	574.25
464.975	558.25
465.195	572.25
465.414	554.25
465.634	516.25
465.854	494.25
466.073	488.25
466.293	473.25
466.512	478.25
466.732	484.25
466.951	454.25
467.171	465.25
467.391	439.25
467.61	456.25
467.829	433.25
468.049	460.25
468.268	437.25
468.488	431.25
468.707	431.25
468.927	428.25
469.146	428.25
469.365	468.25
469.585	428.25
469.804	459.25
470.023	464.25
470.243	445.25
470.462	441.25
470.681	459.25
470.901	471.25
471.12	464.25
471.339	474.25
471.558	454.25
471.777	479.25
471.997	453.25
472.216	443.25
472.435	459.25
472.654	443.25
472.873	445.25
473.092	446.25
473.311	473.25
473.53	459.25
473.749	471.25
473.968	485.25
474.187	503.25
474.406	531.25
474.625	485.25
474.844	463.25
475.063	465.25
475.282	448.25
475.501	458.25
475.72	469.25
475.939	444.25
476.158	465.25
476.377	462.25
476.596	450.25
476.814	471.25
477.033	469.25
477.252	475.25
477.471	493.25
477.69	503.25
477.908	497.25
478.127	501.25
478.346	536.25
478.564	531.25
478.783	556.25
479.002	537.25
479.22	551.25
479.439	550.25
479.658	550.25
479.876	568.25
480.095	565.25
480.313	576.25
480.532	597.25
480.751	572.25
480.969	579.25
481.188	566.25
481.406	577.25
481.624	557.25
481.843	545.25
482.061	541.25
482.28	541.25
482.498	538.25
482.717	500.25
482.935	520.25
483.153	532.25
483.372	539.25
483.59	541.25
483.808	525.25
484.027	545.25
484.245	518.25
484.463	532.25
484.681	554.25
484.9	547.25
485.118	546.25
485.336	548.25
485.554	554.25
485.772	562.25
485.99	559.25
486.209	575.25
486.427	571.25
486.645	558.25
486.863	585.25
487.081	553.25
487.299	579.25
487.517	575.25
487.735	562.25
487.953	550.25
488.171	562.25
488.389	557.25
488.607	549.25
488.825	564.25
489.043	567.25
489.261	556.25
489.479	543.25
489.696	578.25
489.914	562.25
490.132	607.25
490.35	584.25
490.568	587.25
490.786	557.25
491.003	585.25
491.221	610.25
491.439	557.25
491.657	578.25
491.874	593.25
492.092	609.25
492.31	602.25
492.527	597.25
492.745	619.25
492.963	607.25
493.18	629.25
493.398	628.25
493.615	617.25
493.833	605.25
494.05	603.25
494.268	612.25
494.485	610.25
494.703	625.25
494.92	647.25
495.138	639.25
495.355	628.25
495.573	637.25
495.79	633.25
496.008	642.25
496.225	629.25
496.442	620.25
496.66	647.25
496.877	657.25
497.094	649.25
497.312	688.25
497.529	673.25
497.746	700.25
497.963	701.25
498.181	742.25
498.398	757.25
498.615	764.25
498.832	778.25
499.049	830.25
499.267	847.25
499.484	875.25
499.701	974.25
499.918	1007.25
500.135	1107.25
500.352	1114.25
500.569	1169.25
500.786	1158.25
501.003	1132.25
501.22	1087.25
501.437	1035.25
501.654	969.25
501.871	908.25
502.088	861.25
