Data from 1962.PennyLincolnUp.Lamp.En5.5.200Scan.071719.P1._HRD10591_13-52-44-060.txt Node
Date: Thu Jul 18 13:52:44 EDT 2019
User: cochatt
Spectrometer: HR+D1059
Trigger mode: 1
Integration Time (sec): 1.000000E-1
Scans to average: 1
Electric dark correction enabled: true
Nonlinearity correction enabled: false
Boxcar width: 0
XAxis mode: Wavelengths
Number of Pixels in Spectrum: 2048
>>>>>Begin Spectral Data<<<<<
223.165	-13.88
223.4	-13.88
223.635	-13.88
223.869	-15.88
224.104	-25.88
224.338	-16.88
224.573	-15.88
224.808	-15.88
225.042	11.12
225.277	-4.88
225.511	-10.88
225.746	6.12
225.98	5.12
226.215	11.12
226.449	21.12
226.683	29.12
226.918	14.12
227.152	22.12
227.387	34.12
227.621	46.12
227.856	44.12
228.09	40.12
228.324	48.12
228.559	57.12
228.793	61.12
229.027	74.12
229.262	97.12
229.496	84.12
229.73	102.12
229.964	125.12
230.199	109.12
230.433	95.12
230.667	97.12
230.901	102.12
231.136	108.12
231.37	97.12
231.604	101.12
231.838	99.12
232.072	101.12
232.306	118.12
232.541	113.12
232.775	97.12
233.009	95.12
233.243	107.12
233.477	105.12
233.711	118.12
233.945	110.12
234.179	111.12
234.413	115.12
234.647	101.12
234.881	110.12
235.115	103.12
235.349	98.12
235.583	122.12
235.817	117.12
236.051	110.12
236.285	111.12
236.519	117.12
236.753	111.12
236.987	124.12
237.221	132.12
237.455	143.12
237.689	134.12
237.922	117.12
238.156	101.12
238.39	126.12
238.624	113.12
238.858	118.12
239.091	119.12
239.325	113.12
239.559	117.12
239.793	111.12
240.027	117.12
240.26	129.12
240.494	132.12
240.728	125.12
240.961	113.12
241.195	143.12
241.429	125.12
241.662	126.12
241.896	127.12
242.13	113.12
242.363	113.12
242.597	131.12
242.83	138.12
243.064	121.12
243.298	129.12
243.531	119.12
243.765	139.12
243.998	122.12
244.232	120.12
244.465	137.12
244.699	135.12
244.932	122.12
245.166	141.12
245.399	139.12
245.633	137.12
245.866	143.12
246.099	128.12
246.333	147.12
246.566	139.12
246.8	133.12
247.033	126.12
247.266	124.12
247.5	152.12
247.733	150.12
247.966	143.12
248.2	147.12
248.433	142.12
248.666	154.12
248.899	151.12
249.133	149.12
249.366	162.12
249.599	165.12
249.832	148.12
250.066	156.12
250.299	145.12
250.532	164.12
250.765	174.12
250.998	165.12
251.231	170.12
251.465	150.12
251.698	178.12
251.931	168.12
252.164	177.12
252.397	158.12
252.63	171.12
252.863	165.12
253.096	179.12
253.329	177.12
253.562	180.12
253.795	177.12
254.028	174.12
254.261	201.12
254.494	187.12
254.727	196.12
254.96	193.12
255.193	199.12
255.426	194.12
255.659	181.12
255.892	189.12
256.124	182.12
256.357	205.12
256.59	189.12
256.823	180.12
257.056	178.12
257.289	182.12
257.521	185.12
257.754	181.12
257.987	172.12
258.22	183.12
258.452	192.12
258.685	182.12
258.918	196.12
259.151	182.12
259.383	170.12
259.616	191.12
259.849	185.12
260.081	191.12
260.314	205.12
260.547	203.12
260.779	205.12
261.012	199.12
261.244	199.12
261.477	199.12
261.71	180.12
261.942	189.12
262.175	194.12
262.407	185.12
262.64	170.12
262.872	179.12
263.105	197.12
263.337	195.12
263.57	193.12
263.802	183.12
264.035	187.12
264.267	183.12
264.499	191.12
264.732	186.12
264.964	193.12
265.197	207.12
265.429	211.12
265.661	193.12
265.894	190.12
266.126	197.12
266.358	189.12
266.591	199.12
266.823	192.12
267.055	193.12
267.287	206.12
267.52	210.12
267.752	205.12
267.984	221.12
268.216	208.12
268.448	216.12
268.681	216.12
268.913	211.12
269.145	208.12
269.377	221.12
269.609	236.12
269.841	213.12
270.073	220.12
270.306	227.12
270.538	247.12
270.77	236.12
271.002	236.12
271.234	230.12
271.466	233.12
271.698	238.12
271.93	244.12
272.162	249.12
272.394	261.12
272.626	237.12
272.858	227.12
273.09	250.12
273.322	244.12
273.553	235.12
273.785	238.12
274.017	240.12
274.249	214.12
274.481	233.12
274.713	228.12
274.945	237.12
275.176	239.12
275.408	220.12
275.64	225.12
275.872	214.12
276.104	236.12
276.335	226.12
276.567	224.12
276.799	261.12
277.031	253.12
277.262	253.12
277.494	246.12
277.726	237.12
277.957	247.12
278.189	252.12
278.421	255.12
278.652	268.12
278.884	242.12
279.115	238.12
279.347	222.12
279.579	233.12
279.81	257.12
280.042	258.12
280.273	234.12
280.505	265.12
280.736	255.12
280.968	247.12
281.199	249.12
281.431	237.12
281.662	251.12
281.894	261.12
282.125	245.12
282.356	270.12
282.588	279.12
282.819	261.12
283.051	250.12
283.282	245.12
283.513	267.12
283.745	264.12
283.976	250.12
284.207	245.12
284.439	250.12
284.67	282.12
284.901	266.12
285.132	266.12
285.364	258.12
285.595	248.12
285.826	271.12
286.057	260.12
286.288	277.12
286.52	271.12
286.751	278.12
286.982	262.12
287.213	261.12
287.444	269.12
287.675	268.12
287.906	285.12
288.138	277.12
288.369	275.12
288.6	276.12
288.831	271.12
289.062	269.12
289.293	273.12
289.524	275.12
289.755	290.12
289.986	278.12
290.217	278.12
290.448	281.12
290.679	279.12
290.91	280.12
291.141	265.12
291.371	260.12
291.602	264.12
291.833	270.12
292.064	283.12
292.295	276.12
292.526	282.12
292.757	266.12
292.987	269.12
293.218	267.12
293.449	276.12
293.68	290.12
293.91	272.12
294.141	269.12
294.372	275.12
294.603	272.12
294.833	284.12
295.064	281.12
295.295	286.12
295.525	286.12
295.756	284.12
295.987	293.12
296.217	285.12
296.448	294.12
296.679	274.12
296.909	287.12
297.14	281.12
297.37	284.12
297.601	297.12
297.831	289.12
298.062	280.12
298.292	301.12
298.523	290.12
298.753	286.12
298.984	285.12
299.214	297.12
299.445	271.12
299.675	289.12
299.905	305.12
300.136	292.12
300.366	301.12
300.597	305.12
300.827	299.12
301.057	292.12
301.288	300.12
301.518	301.12
301.748	330.12
301.979	297.12
302.209	302.12
302.439	317.12
302.669	308.12
302.9	309.12
303.13	298.12
303.36	305.12
303.59	303.12
303.82	322.12
304.051	320.12
304.281	311.12
304.511	314.12
304.741	309.12
304.971	331.12
305.201	318.12
305.431	307.12
305.661	308.12
305.891	301.12
306.121	303.12
306.352	297.12
306.582	308.12
306.812	310.12
307.042	318.12
307.272	308.12
307.502	316.12
307.731	317.12
307.961	295.12
308.191	315.12
308.421	307.12
308.651	317.12
308.881	323.12
309.111	328.12
309.341	298.12
309.571	327.12
309.8	341.12
310.03	329.12
310.26	330.12
310.49	322.12
310.72	316.12
310.949	332.12
311.179	338.12
311.409	322.12
311.639	326.12
311.868	337.12
312.098	321.12
312.328	328.12
312.557	325.12
312.787	344.12
313.017	360.12
313.246	341.12
313.476	330.12
313.706	337.12
313.935	356.12
314.165	351.12
314.394	340.12
314.624	342.12
314.853	341.12
315.083	350.12
315.312	354.12
315.542	326.12
315.771	325.12
316.001	354.12
316.23	341.12
316.46	362.12
316.689	343.12
316.919	340.12
317.148	335.12
317.377	351.12
317.607	328.12
317.836	346.12
318.065	333.12
318.295	341.12
318.524	343.12
318.753	321.12
318.983	355.12
319.212	340.12
319.441	322.12
319.67	339.12
319.9	340.12
320.129	315.12
320.358	349.12
320.587	331.12
320.816	345.12
321.046	364.12
321.275	354.12
321.504	347.12
321.733	327.12
321.962	349.12
322.191	354.12
322.42	366.12
322.649	352.12
322.878	337.12
323.108	362.12
323.337	372.12
323.566	376.12
323.795	409.12
324.024	400.12
324.253	441.12
324.482	547.12
324.71	751.12
324.939	1035.12
325.168	925.12
325.397	534.12
325.626	437.12
325.855	410.12
326.084	404.12
326.313	394.12
326.542	379.12
326.77	401.12
326.999	453.12
327.228	517.12
327.457	698.12
327.686	817.12
327.914	593.12
328.143	474.12
328.372	428.12
328.6	418.12
328.829	413.12
329.058	403.12
329.287	433.12
329.515	401.12
329.744	404.12
329.972	397.12
330.201	388.12
330.43	401.12
330.658	407.12
330.887	422.12
331.115	431.12
331.344	386.12
331.572	398.12
331.801	420.12
332.03	412.12
332.258	421.12
332.486	397.12
332.715	398.12
332.943	415.12
333.172	427.12
333.4	413.12
333.629	434.12
333.857	451.12
334.085	460.12
334.314	439.12
334.542	450.12
334.771	444.12
334.999	443.12
335.227	422.12
335.455	417.12
335.684	409.12
335.912	417.12
336.14	416.12
336.369	422.12
336.597	413.12
336.825	416.12
337.053	419.12
337.281	405.12
337.51	423.12
337.738	394.12
337.966	387.12
338.194	411.12
338.422	402.12
338.65	390.12
338.878	408.12
339.106	400.12
339.334	389.12
339.562	395.12
339.79	361.12
340.018	359.12
340.246	396.12
340.474	396.12
340.702	391.12
340.93	409.12
341.158	376.12
341.386	381.12
341.614	394.12
341.842	389.12
342.07	417.12
342.298	392.12
342.526	384.12
342.754	369.12
342.981	376.12
343.209	381.12
343.437	383.12
343.665	386.12
343.893	404.12
344.12	433.12
344.348	428.12
344.576	425.12
344.804	393.12
345.031	408.12
345.259	389.12
345.487	379.12
345.714	391.12
345.942	385.12
346.17	375.12
346.397	376.12
346.625	373.12
346.853	369.12
347.08	352.12
347.308	379.12
347.535	387.12
347.763	370.12
347.99	357.12
348.218	397.12
348.445	361.12
348.673	373.12
348.9	374.12
349.128	357.12
349.355	357.12
349.583	350.12
349.81	349.12
350.037	358.12
350.265	362.12
350.492	373.12
350.72	361.12
350.947	377.12
351.174	379.12
351.402	375.12
351.629	376.12
351.856	371.12
352.083	372.12
352.311	375.12
352.538	369.12
352.765	380.12
352.992	361.12
353.22	377.12
353.447	361.12
353.674	356.12
353.901	380.12
354.128	367.12
354.355	370.12
354.583	354.12
354.81	371.12
355.037	347.12
355.264	363.12
355.491	349.12
355.718	371.12
355.945	353.12
356.172	370.12
356.399	353.12
356.626	345.12
356.853	346.12
357.08	364.12
357.307	364.12
357.534	369.12
357.761	353.12
357.988	343.12
358.215	367.12
358.441	378.12
358.668	354.12
358.895	371.12
359.122	355.12
359.349	345.12
359.576	370.12
359.802	356.12
360.029	390.12
360.256	381.12
360.483	370.12
360.709	366.12
360.936	358.12
361.163	384.12
361.39	366.12
361.616	373.12
361.843	369.12
362.07	356.12
362.296	359.12
362.523	364.12
362.749	364.12
362.976	365.12
363.203	363.12
363.429	354.12
363.656	373.12
363.882	357.12
364.109	369.12
364.335	363.12
364.562	347.12
364.788	353.12
365.015	357.12
365.241	371.12
365.468	354.12
365.694	347.12
365.92	360.12
366.147	361.12
366.373	365.12
366.599	347.12
366.826	363.12
367.052	361.12
367.278	362.12
367.505	347.12
367.731	364.12
367.957	343.12
368.184	373.12
368.41	358.12
368.636	374.12
368.862	377.12
369.089	377.12
369.315	359.12
369.541	349.12
369.767	366.12
369.993	358.12
370.219	367.12
370.445	362.12
370.672	357.12
370.898	372.12
371.124	371.12
371.35	377.12
371.576	387.12
371.802	381.12
372.028	377.12
372.254	383.12
372.48	386.12
372.706	386.12
372.932	378.12
373.158	374.12
373.384	366.12
373.61	391.12
373.835	398.12
374.061	377.12
374.287	392.12
374.513	385.12
374.739	390.12
374.965	400.12
375.191	391.12
375.416	417.12
375.642	381.12
375.868	377.12
376.094	376.12
376.319	373.12
376.545	380.12
376.771	380.12
376.997	377.12
377.222	385.12
377.448	372.12
377.674	375.12
377.899	363.12
378.125	373.12
378.35	381.12
378.576	389.12
378.802	373.12
379.027	381.12
379.253	378.12
379.478	376.12
379.704	396.12
379.929	371.12
380.155	354.12
380.38	359.12
380.606	376.12
380.831	373.12
381.057	378.12
381.282	374.12
381.507	387.12
381.733	398.12
381.958	389.12
382.184	365.12
382.409	374.12
382.634	386.12
382.86	398.12
383.085	399.12
383.31	403.12
383.535	405.12
383.761	416.12
383.986	406.12
384.211	417.12
384.436	428.12
384.662	416.12
384.887	417.12
385.112	412.12
385.337	427.12
385.562	430.12
385.787	460.12
386.013	427.12
386.238	429.12
386.463	450.12
386.688	429.12
386.913	429.12
387.138	427.12
387.363	427.12
387.588	438.12
387.813	407.12
388.038	423.12
388.263	434.12
388.488	412.12
388.713	440.12
388.938	436.12
389.163	433.12
389.387	423.12
389.612	413.12
389.837	432.12
390.062	413.12
390.287	415.12
390.512	412.12
390.736	431.12
390.961	430.12
391.186	441.12
391.411	450.12
391.636	436.12
391.86	423.12
392.085	433.12
392.31	447.12
392.534	452.12
392.759	466.12
392.984	438.12
393.208	445.12
393.433	442.12
393.658	437.12
393.882	458.12
394.107	431.12
394.331	439.12
394.556	445.12
394.78	451.12
395.005	408.12
395.229	411.12
395.454	469.12
395.678	465.12
395.903	467.12
396.127	463.12
396.352	499.12
396.576	463.12
396.801	458.12
397.025	478.12
397.249	447.12
397.474	461.12
397.698	457.12
397.922	469.12
398.147	476.12
398.371	496.12
398.595	474.12
398.82	499.12
399.044	517.12
399.268	539.12
399.492	602.12
399.717	597.12
399.941	627.12
400.165	627.12
400.389	595.12
400.613	580.12
400.837	541.12
401.062	531.12
401.286	498.12
401.51	515.12
401.734	499.12
401.958	519.12
402.182	507.12
402.406	500.12
402.63	507.12
402.854	503.12
403.078	509.12
403.302	517.12
403.526	535.12
403.75	520.12
403.974	538.12
404.198	520.12
404.422	526.12
404.645	545.12
404.869	530.12
405.093	551.12
405.317	543.12
405.541	570.12
405.765	547.12
405.988	531.12
406.212	527.12
406.436	540.12
406.66	572.12
406.883	563.12
407.107	574.12
407.331	592.12
407.555	662.12
407.778	639.12
408.002	635.12
408.226	552.12
408.449	558.12
408.673	541.12
408.896	549.12
409.12	563.12
409.344	573.12
409.567	531.12
409.791	555.12
410.014	535.12
410.238	520.12
410.461	493.12
410.685	538.12
410.908	528.12
411.132	527.12
411.355	569.12
411.578	547.12
411.802	511.12
412.025	499.12
412.249	509.12
412.472	532.12
412.695	533.12
412.919	538.12
413.142	498.12
413.365	481.12
413.589	497.12
413.812	490.12
414.035	484.12
414.258	462.12
414.482	497.12
414.705	498.12
414.928	511.12
415.151	500.12
415.374	491.12
415.597	485.12
415.821	500.12
416.044	497.12
416.267	494.12
416.49	480.12
416.713	487.12
416.936	468.12
417.159	477.12
417.382	495.12
417.605	494.12
417.828	486.12
418.051	500.12
418.274	511.12
418.497	495.12
418.72	501.12
418.943	495.12
419.166	499.12
419.389	517.12
419.611	522.12
419.834	521.12
420.057	490.12
420.28	505.12
420.503	501.12
420.726	489.12
420.948	505.12
421.171	539.12
421.394	536.12
421.617	504.12
421.839	478.12
422.062	488.12
422.285	482.12
422.507	526.12
422.73	572.12
422.953	566.12
423.175	539.12
423.398	524.12
423.621	505.12
423.843	500.12
424.066	510.12
424.288	531.12
424.511	542.12
424.733	569.12
424.956	610.12
425.178	571.12
425.401	558.12
425.623	579.12
425.846	521.12
426.068	486.12
426.291	508.12
426.513	497.12
426.735	487.12
426.958	525.12
427.18	568.12
427.402	662.12
427.625	711.12
427.847	592.12
428.069	539.12
428.292	501.12
428.514	471.12
428.736	495.12
428.958	482.12
429.181	447.12
429.403	465.12
429.625	451.12
429.847	490.12
430.069	512.12
430.292	505.12
430.514	462.12
430.736	467.12
430.958	469.12
431.18	465.12
431.402	459.12
431.624	466.12
431.846	445.12
432.068	468.12
432.29	462.12
432.512	467.12
432.734	475.12
432.956	468.12
433.178	476.12
433.4	479.12
433.622	475.12
433.844	462.12
434.066	462.12
434.287	462.12
434.509	495.12
434.731	494.12
434.953	479.12
435.175	493.12
435.397	515.12
435.618	507.12
435.84	524.12
436.062	583.12
436.284	599.12
436.505	538.12
436.727	523.12
436.949	472.12
437.17	483.12
437.392	464.12
437.614	476.12
437.835	474.12
438.057	515.12
438.278	569.12
438.5	591.12
438.721	633.12
438.943	618.12
439.165	512.12
439.386	483.12
439.608	491.12
439.829	465.12
440.05	476.12
440.272	506.12
440.493	482.12
440.715	485.12
440.936	482.12
441.158	485.12
441.379	494.12
441.6	508.12
441.822	517.12
442.043	536.12
442.264	569.12
442.486	574.12
442.707	544.12
442.928	519.12
443.149	500.12
443.371	510.12
443.592	543.12
443.813	581.12
444.034	640.12
444.255	544.12
444.476	541.12
444.698	551.12
444.919	554.12
445.14	654.12
445.361	596.12
445.582	499.12
445.803	536.12
446.024	594.12
446.245	581.12
446.466	567.12
446.687	514.12
446.908	505.12
447.129	447.12
447.35	449.12
447.571	445.12
447.792	459.12
448.013	464.12
448.234	446.12
448.455	473.12
448.675	567.12
448.896	615.12
449.117	559.12
449.338	543.12
449.559	601.12
449.779	636.12
450	522.12
450.221	468.12
450.442	446.12
450.662	427.12
450.883	450.12
451.104	424.12
451.324	428.12
451.545	435.12
451.766	397.12
451.986	413.12
452.207	404.12
452.428	407.12
452.648	423.12
452.869	423.12
453.089	435.12
453.31	430.12
453.53	405.12
453.751	425.12
453.971	422.12
454.192	414.12
454.412	429.12
454.633	413.12
454.853	401.12
455.073	421.12
455.294	435.12
455.514	465.12
455.734	441.12
455.955	409.12
456.175	408.12
456.395	410.12
456.616	401.12
456.836	393.12
457.056	422.12
457.276	403.12
457.497	405.12
457.717	412.12
457.937	399.12
458.157	407.12
458.377	415.12
458.598	430.12
458.818	448.12
459.038	492.12
459.258	494.12
459.478	483.12
459.698	466.12
459.918	473.12
460.138	464.12
460.358	517.12
460.578	495.12
460.798	490.12
461.018	489.12
461.238	514.12
461.458	516.12
461.678	499.12
461.898	499.12
462.118	517.12
462.338	537.12
462.558	518.12
462.777	534.12
462.997	554.12
463.217	586.12
463.437	589.12
463.657	572.12
463.876	541.12
464.096	537.12
464.316	567.12
464.536	539.12
464.755	548.12
464.975	529.12
465.195	522.12
465.414	520.12
465.634	498.12
465.854	483.12
466.073	471.12
466.293	474.12
466.512	447.12
466.732	442.12
466.951	455.12
467.171	435.12
467.391	437.12
467.61	427.12
467.829	459.12
468.049	436.12
468.268	433.12
468.488	454.12
468.707	430.12
468.927	419.12
469.146	414.12
469.365	417.12
469.585	430.12
469.804	431.12
470.023	463.12
470.243	451.12
470.462	457.12
470.681	454.12
470.901	458.12
471.12	444.12
471.339	439.12
471.558	461.12
471.777	451.12
471.997	434.12
472.216	438.12
472.435	461.12
472.654	435.12
472.873	426.12
473.092	450.12
473.311	452.12
473.53	425.12
473.749	427.12
473.968	465.12
474.187	484.12
474.406	517.12
474.625	474.12
474.844	455.12
475.063	453.12
475.282	442.12
475.501	447.12
475.72	467.12
475.939	457.12
476.158	428.12
476.377	458.12
476.596	455.12
476.814	432.12
477.033	467.12
477.252	471.12
477.471	465.12
477.69	484.12
477.908	484.12
478.127	487.12
478.346	485.12
478.564	490.12
478.783	515.12
479.002	522.12
479.22	503.12
479.439	530.12
479.658	540.12
479.876	523.12
480.095	549.12
480.313	545.12
480.532	564.12
480.751	563.12
480.969	527.12
481.188	552.12
481.406	563.12
481.624	551.12
481.843	522.12
482.061	527.12
482.28	525.12
482.498	505.12
482.717	490.12
482.935	516.12
483.153	501.12
483.372	504.12
483.59	511.12
483.808	523.12
484.027	527.12
484.245	536.12
484.463	516.12
484.681	547.12
484.9	538.12
485.118	537.12
485.336	535.12
485.554	548.12
485.772	560.12
485.99	533.12
486.209	531.12
486.427	549.12
486.645	558.12
486.863	561.12
487.081	566.12
487.299	543.12
487.517	529.12
487.735	539.12
487.953	551.12
488.171	549.12
488.389	549.12
488.607	558.12
488.825	540.12
489.043	557.12
489.261	546.12
489.479	562.12
489.696	539.12
489.914	554.12
490.132	553.12
490.35	555.12
490.568	557.12
490.786	555.12
491.003	562.12
491.221	584.12
491.439	603.12
491.657	582.12
491.874	559.12
492.092	581.12
492.31	600.12
492.527	582.12
492.745	588.12
492.963	586.12
493.18	590.12
493.398	566.12
493.615	589.12
493.833	596.12
494.05	586.12
494.268	602.12
494.485	598.12
494.703	593.12
494.92	595.12
495.138	627.12
495.355	613.12
495.573	609.12
495.79	622.12
496.008	615.12
496.225	618.12
496.442	635.12
496.66	633.12
496.877	628.12
497.094	643.12
497.312	644.12
497.529	638.12
497.746	667.12
497.963	661.12
498.181	703.12
498.398	715.12
498.615	741.12
498.832	771.12
499.049	791.12
499.267	828.12
499.484	873.12
499.701	929.12
499.918	981.12
500.135	1023.12
500.352	1095.12
500.569	1154.12
500.786	1110.12
501.003	1082.12
501.22	1032.12
501.437	973.12
501.654	929.12
501.871	879.12
502.088	856.12
