Data from 1962.PennyLincolnUp.Lamp.En5.5.200Scan.071719.P1._HRD10591_13-54-57-061.txt Node
Date: Thu Jul 18 13:54:57 EDT 2019
User: cochatt
Spectrometer: HR+D1059
Trigger mode: 1
Integration Time (sec): 1.000000E-1
Scans to average: 1
Electric dark correction enabled: true
Nonlinearity correction enabled: false
Boxcar width: 0
XAxis mode: Wavelengths
Number of Pixels in Spectrum: 2048
>>>>>Begin Spectral Data<<<<<
223.165	-33.31
223.4	-33.31
223.635	-33.31
223.869	-12.31
224.104	-18.31
224.338	-16.31
224.573	-25.31
224.808	2.69
225.042	3.69
225.277	4.69
225.511	-3.31
225.746	4.69
225.98	-8.31
226.215	19.69
226.449	13.69
226.683	20.69
226.918	20.69
227.152	26.69
227.387	33.69
227.621	56.69
227.856	40.69
228.09	55.69
228.324	50.69
228.559	49.69
228.793	73.69
229.027	103.69
229.262	106.69
229.496	106.69
229.73	127.69
229.964	135.69
230.199	106.69
230.433	116.69
230.667	110.69
230.901	115.69
231.136	114.69
231.37	105.69
231.604	119.69
231.838	115.69
232.072	116.69
232.306	108.69
232.541	115.69
232.775	105.69
233.009	108.69
233.243	102.69
233.477	127.69
233.711	117.69
233.945	97.69
234.179	109.69
234.413	120.69
234.647	113.69
234.881	115.69
235.115	131.69
235.349	109.69
235.583	133.69
235.817	126.69
236.051	122.69
236.285	125.69
236.519	130.69
236.753	137.69
236.987	118.69
237.221	165.69
237.455	195.69
237.689	173.69
237.922	127.69
238.156	129.69
238.39	144.69
238.624	122.69
238.858	107.69
239.091	123.69
239.325	137.69
239.559	123.69
239.793	126.69
240.027	131.69
240.26	135.69
240.494	139.69
240.728	142.69
240.961	154.69
241.195	125.69
241.429	125.69
241.662	149.69
241.896	132.69
242.13	123.69
242.363	133.69
242.597	132.69
242.83	131.69
243.064	141.69
243.298	141.69
243.531	127.69
243.765	129.69
243.998	144.69
244.232	140.69
244.465	133.69
244.699	156.69
244.932	151.69
245.166	139.69
245.399	138.69
245.633	135.69
245.866	143.69
246.099	134.69
246.333	137.69
246.566	155.69
246.8	140.69
247.033	145.69
247.266	160.69
247.5	145.69
247.733	163.69
247.966	157.69
248.2	153.69
248.433	167.69
248.666	163.69
248.899	170.69
249.133	177.69
249.366	181.69
249.599	183.69
249.832	179.69
250.066	176.69
250.299	185.69
250.532	177.69
250.765	178.69
250.998	198.69
251.231	204.69
251.465	189.69
251.698	187.69
251.931	195.69
252.164	197.69
252.397	199.69
252.63	186.69
252.863	187.69
253.096	202.69
253.329	198.69
253.562	202.69
253.795	209.69
254.028	193.69
254.261	200.69
254.494	213.69
254.727	230.69
254.96	238.69
255.193	242.69
255.426	231.69
255.659	207.69
255.892	202.69
256.124	219.69
256.357	218.69
256.59	218.69
256.823	192.69
257.056	203.69
257.289	194.69
257.521	198.69
257.754	205.69
257.987	188.69
258.22	196.69
258.452	205.69
258.685	201.69
258.918	203.69
259.151	205.69
259.383	215.69
259.616	225.69
259.849	224.69
260.081	239.69
260.314	225.69
260.547	247.69
260.779	231.69
261.012	218.69
261.244	214.69
261.477	219.69
261.71	211.69
261.942	211.69
262.175	228.69
262.407	201.69
262.64	213.69
262.872	219.69
263.105	199.69
263.337	196.69
263.57	196.69
263.802	193.69
264.035	204.69
264.267	222.69
264.499	205.69
264.732	211.69
264.964	193.69
265.197	205.69
265.429	222.69
265.661	202.69
265.894	217.69
266.126	210.69
266.358	206.69
266.591	222.69
266.823	223.69
267.055	220.69
267.287	234.69
267.52	228.69
267.752	215.69
267.984	206.69
268.216	231.69
268.448	227.69
268.681	242.69
268.913	241.69
269.145	246.69
269.377	269.69
269.609	261.69
269.841	246.69
270.073	236.69
270.306	259.69
270.538	283.69
270.77	289.69
271.002	289.69
271.234	288.69
271.466	280.69
271.698	270.69
271.93	277.69
272.162	293.69
272.394	291.69
272.626	286.69
272.858	262.69
273.09	252.69
273.322	255.69
273.553	262.69
273.785	255.69
274.017	279.69
274.249	267.69
274.481	257.69
274.713	269.69
274.945	262.69
275.176	252.69
275.408	271.69
275.64	262.69
275.872	243.69
276.104	270.69
276.335	246.69
276.567	277.69
276.799	270.69
277.031	284.69
277.262	302.69
277.494	302.69
277.726	294.69
277.957	277.69
278.189	284.69
278.421	257.69
278.652	277.69
278.884	270.69
279.115	261.69
279.347	275.69
279.579	282.69
279.81	266.69
280.042	269.69
280.273	269.69
280.505	274.69
280.736	279.69
280.968	275.69
281.199	260.69
281.431	265.69
281.662	271.69
281.894	289.69
282.125	271.69
282.356	290.69
282.588	294.69
282.819	284.69
283.051	278.69
283.282	282.69
283.513	280.69
283.745	277.69
283.976	298.69
284.207	282.69
284.439	282.69
284.67	275.69
284.901	293.69
285.132	279.69
285.364	289.69
285.595	297.69
285.826	294.69
286.057	305.69
286.288	282.69
286.52	293.69
286.751	301.69
286.982	310.69
287.213	293.69
287.444	296.69
287.675	317.69
287.906	307.69
288.138	314.69
288.369	294.69
288.6	316.69
288.831	307.69
289.062	314.69
289.293	319.69
289.524	283.69
289.755	284.69
289.986	307.69
290.217	292.69
290.448	293.69
290.679	307.69
290.91	303.69
291.141	314.69
291.371	320.69
291.602	319.69
291.833	298.69
292.064	321.69
292.295	318.69
292.526	311.69
292.757	299.69
292.987	271.69
293.218	301.69
293.449	314.69
293.68	285.69
293.91	313.69
294.141	306.69
294.372	309.69
294.603	322.69
294.833	305.69
295.064	321.69
295.295	313.69
295.525	319.69
295.756	321.69
295.987	314.69
296.217	331.69
296.448	324.69
296.679	339.69
296.909	324.69
297.14	314.69
297.37	314.69
297.601	322.69
297.831	327.69
298.062	326.69
298.292	303.69
298.523	302.69
298.753	333.69
298.984	324.69
299.214	311.69
299.445	314.69
299.675	348.69
299.905	314.69
300.136	315.69
300.366	322.69
300.597	337.69
300.827	327.69
301.057	334.69
301.288	335.69
301.518	350.69
301.748	338.69
301.979	340.69
302.209	339.69
302.439	353.69
302.669	336.69
302.9	363.69
303.13	337.69
303.36	339.69
303.59	347.69
303.82	354.69
304.051	347.69
304.281	347.69
304.511	329.69
304.741	325.69
304.971	354.69
305.201	338.69
305.431	344.69
305.661	364.69
305.891	345.69
306.121	340.69
306.352	338.69
306.582	347.69
306.812	357.69
307.042	328.69
307.272	346.69
307.502	358.69
307.731	346.69
307.961	350.69
308.191	340.69
308.421	333.69
308.651	344.69
308.881	341.69
309.111	346.69
309.341	347.69
309.571	347.69
309.8	353.69
310.03	369.69
310.26	362.69
310.49	364.69
310.72	382.69
310.949	369.69
311.179	361.69
311.409	367.69
311.639	356.69
311.868	365.69
312.098	357.69
312.328	374.69
312.557	373.69
312.787	377.69
313.017	402.69
313.246	383.69
313.476	351.69
313.706	358.69
313.935	374.69
314.165	385.69
314.394	378.69
314.624	375.69
314.853	373.69
315.083	390.69
315.312	382.69
315.542	373.69
315.771	363.69
316.001	375.69
316.23	377.69
316.46	393.69
316.689	390.69
316.919	381.69
317.148	397.69
317.377	392.69
317.607	378.69
317.836	389.69
318.065	388.69
318.295	378.69
318.524	378.69
318.753	370.69
318.983	389.69
319.212	395.69
319.441	376.69
319.67	380.69
319.9	384.69
320.129	389.69
320.358	379.69
320.587	386.69
320.816	383.69
321.046	393.69
321.275	396.69
321.504	377.69
321.733	388.69
321.962	391.69
322.191	406.69
322.42	393.69
322.649	408.69
322.878	421.69
323.108	426.69
323.337	428.69
323.566	438.69
323.795	476.69
324.024	502.69
324.253	569.69
324.482	721.69
324.71	1046.69
324.939	1533.69
325.168	1315.69
325.397	735.69
325.626	549.69
325.855	484.69
326.084	469.69
326.313	465.69
326.542	467.69
326.77	485.69
326.999	548.69
327.228	669.69
327.457	968.69
327.686	1153.69
327.914	821.69
328.143	616.69
328.372	517.69
328.6	489.69
328.829	499.69
329.058	485.69
329.287	495.69
329.515	479.69
329.744	459.69
329.972	459.69
330.201	487.69
330.43	505.69
330.658	510.69
330.887	531.69
331.115	517.69
331.344	459.69
331.572	459.69
331.801	461.69
332.03	476.69
332.258	461.69
332.486	454.69
332.715	459.69
332.943	463.69
333.172	487.69
333.4	504.69
333.629	495.69
333.857	501.69
334.085	509.69
334.314	510.69
334.542	538.69
334.771	537.69
334.999	496.69
335.227	464.69
335.455	496.69
335.684	459.69
335.912	472.69
336.14	492.69
336.369	470.69
336.597	460.69
336.825	462.69
337.053	477.69
337.281	441.69
337.51	464.69
337.738	444.69
337.966	454.69
338.194	455.69
338.422	452.69
338.65	453.69
338.878	426.69
339.106	455.69
339.334	453.69
339.562	435.69
339.79	443.69
340.018	442.69
340.246	436.69
340.474	427.69
340.702	433.69
340.93	433.69
341.158	415.69
341.386	442.69
341.614	431.69
341.842	434.69
342.07	437.69
342.298	436.69
342.526	429.69
342.754	445.69
342.981	417.69
343.209	431.69
343.437	437.69
343.665	445.69
343.893	473.69
344.12	473.69
344.348	456.69
344.576	469.69
344.804	443.69
345.031	445.69
345.259	467.69
345.487	442.69
345.714	446.69
345.942	437.69
346.17	443.69
346.397	443.69
346.625	412.69
346.853	403.69
347.08	411.69
347.308	418.69
347.535	415.69
347.763	413.69
347.99	424.69
348.218	406.69
348.445	434.69
348.673	415.69
348.9	422.69
349.128	415.69
349.355	424.69
349.583	415.69
349.81	396.69
350.037	388.69
350.265	409.69
350.492	413.69
350.72	390.69
350.947	424.69
351.174	437.69
351.402	423.69
351.629	418.69
351.856	427.69
352.083	402.69
352.311	403.69
352.538	407.69
352.765	424.69
352.992	413.69
353.22	411.69
353.447	403.69
353.674	397.69
353.901	396.69
354.128	407.69
354.355	391.69
354.583	403.69
354.81	394.69
355.037	409.69
355.264	386.69
355.491	394.69
355.718	414.69
355.945	401.69
356.172	395.69
356.399	385.69
356.626	396.69
356.853	415.69
357.08	403.69
357.307	398.69
357.534	389.69
357.761	398.69
357.988	391.69
358.215	415.69
358.441	408.69
358.668	401.69
358.895	393.69
359.122	398.69
359.349	402.69
359.576	408.69
359.802	430.69
360.029	442.69
360.256	434.69
360.483	438.69
360.709	437.69
360.936	447.69
361.163	422.69
361.39	440.69
361.616	409.69
361.843	410.69
362.07	410.69
362.296	423.69
362.523	392.69
362.749	413.69
362.976	396.69
363.203	394.69
363.429	404.69
363.656	422.69
363.882	414.69
364.109	395.69
364.335	399.69
364.562	409.69
364.788	395.69
365.015	415.69
365.241	411.69
365.468	405.69
365.694	400.69
365.92	407.69
366.147	416.69
366.373	407.69
366.599	400.69
366.826	402.69
367.052	404.69
367.278	394.69
367.505	391.69
367.731	397.69
367.957	401.69
368.184	407.69
368.41	419.69
368.636	430.69
368.862	412.69
369.089	422.69
369.315	415.69
369.541	411.69
369.767	391.69
369.993	409.69
370.219	403.69
370.445	411.69
370.672	421.69
370.898	405.69
371.124	405.69
371.35	427.69
371.576	430.69
371.802	405.69
372.028	405.69
372.254	407.69
372.48	405.69
372.706	413.69
372.932	422.69
373.158	429.69
373.384	419.69
373.61	427.69
373.835	414.69
374.061	403.69
374.287	421.69
374.513	422.69
374.739	419.69
374.965	423.69
375.191	437.69
375.416	437.69
375.642	420.69
375.868	431.69
376.094	417.69
376.319	412.69
376.545	420.69
376.771	420.69
376.997	417.69
377.222	386.69
377.448	406.69
377.674	406.69
377.899	418.69
378.125	411.69
378.35	418.69
378.576	387.69
378.802	413.69
379.027	416.69
379.253	412.69
379.478	417.69
379.704	415.69
379.929	405.69
380.155	403.69
380.38	431.69
380.606	399.69
380.831	418.69
381.057	395.69
381.282	401.69
381.507	415.69
381.733	429.69
381.958	430.69
382.184	419.69
382.409	424.69
382.634	430.69
382.86	429.69
383.085	428.69
383.31	430.69
383.535	436.69
383.761	418.69
383.986	443.69
384.211	463.69
384.436	458.69
384.662	445.69
384.887	476.69
385.112	464.69
385.337	460.69
385.562	463.69
385.787	467.69
386.013	481.69
386.238	461.69
386.463	454.69
386.688	478.69
386.913	468.69
387.138	472.69
387.363	457.69
387.588	460.69
387.813	458.69
388.038	465.69
388.263	469.69
388.488	494.69
388.713	480.69
388.938	481.69
389.163	450.69
389.387	466.69
389.612	435.69
389.837	455.69
390.062	459.69
390.287	455.69
390.512	478.69
390.736	455.69
390.961	472.69
391.186	478.69
391.411	483.69
391.636	505.69
391.86	465.69
392.085	486.69
392.31	516.69
392.534	495.69
392.759	508.69
392.984	518.69
393.208	474.69
393.433	463.69
393.658	475.69
393.882	471.69
394.107	477.69
394.331	463.69
394.556	469.69
394.78	476.69
395.005	482.69
395.229	480.69
395.454	511.69
395.678	528.69
395.903	510.69
396.127	499.69
396.352	550.69
396.576	525.69
396.801	500.69
397.025	517.69
397.249	515.69
397.474	505.69
397.698	497.69
397.922	531.69
398.147	527.69
398.371	531.69
398.595	536.69
398.82	541.69
399.044	575.69
399.268	596.69
399.492	636.69
399.717	701.69
399.941	694.69
400.165	697.69
400.389	661.69
400.613	625.69
400.837	582.69
401.062	561.69
401.286	575.69
401.51	551.69
401.734	557.69
401.958	536.69
402.182	548.69
402.406	563.69
402.63	553.69
402.854	586.69
403.078	566.69
403.302	581.69
403.526	596.69
403.75	598.69
403.974	598.69
404.198	586.69
404.422	581.69
404.645	612.69
404.869	610.69
405.093	604.69
405.317	631.69
405.541	669.69
405.765	617.69
405.988	610.69
406.212	616.69
406.436	599.69
406.66	616.69
406.883	620.69
407.107	652.69
407.331	683.69
407.555	727.69
407.778	719.69
408.002	690.69
408.226	651.69
408.449	649.69
408.673	625.69
408.896	632.69
409.12	672.69
409.344	664.69
409.567	620.69
409.791	566.69
410.014	589.69
410.238	557.69
410.461	543.69
410.685	590.69
410.908	591.69
411.132	614.69
411.355	636.69
411.578	611.69
411.802	571.69
412.025	573.69
412.249	580.69
412.472	609.69
412.695	641.69
412.919	609.69
413.142	588.69
413.365	563.69
413.589	578.69
413.812	553.69
414.035	575.69
414.258	554.69
414.482	535.69
414.705	556.69
414.928	549.69
415.151	563.69
415.374	545.69
415.597	532.69
415.821	553.69
416.044	545.69
416.267	584.69
416.49	513.69
416.713	538.69
416.936	535.69
417.159	563.69
417.382	544.69
417.605	535.69
417.828	542.69
418.051	566.69
418.274	564.69
418.497	543.69
418.72	562.69
418.943	549.69
419.166	586.69
419.389	596.69
419.611	585.69
419.834	589.69
420.057	588.69
420.28	564.69
420.503	557.69
420.726	571.69
420.948	584.69
421.171	591.69
421.394	627.69
421.617	587.69
421.839	577.69
422.062	562.69
422.285	574.69
422.507	623.69
422.73	656.69
422.953	661.69
423.175	588.69
423.398	582.69
423.621	583.69
423.843	592.69
424.066	597.69
424.288	587.69
424.511	610.69
424.733	644.69
424.956	699.69
425.178	667.69
425.401	675.69
425.623	676.69
425.846	621.69
426.068	569.69
426.291	579.69
426.513	564.69
426.735	574.69
426.958	597.69
427.18	655.69
427.402	789.69
427.625	835.69
427.847	709.69
428.069	659.69
428.292	586.69
428.514	558.69
428.736	548.69
428.958	542.69
429.181	525.69
429.403	527.69
429.625	539.69
429.847	568.69
430.069	597.69
430.292	613.69
430.514	533.69
430.736	537.69
430.958	551.69
431.18	517.69
431.402	512.69
431.624	526.69
431.846	524.69
432.068	506.69
432.29	513.69
432.512	528.69
432.734	526.69
432.956	531.69
433.178	535.69
433.4	529.69
433.622	506.69
433.844	510.69
434.066	502.69
434.287	541.69
434.509	531.69
434.731	545.69
434.953	559.69
435.175	577.69
435.397	569.69
435.618	563.69
435.84	589.69
436.062	680.69
436.284	714.69
436.505	604.69
436.727	576.69
436.949	531.69
437.17	548.69
437.392	493.69
437.614	542.69
437.835	548.69
438.057	616.69
438.278	691.69
438.5	697.69
438.721	778.69
438.943	747.69
439.165	605.69
439.386	577.69
439.608	570.69
439.829	554.69
440.05	584.69
440.272	592.69
440.493	602.69
440.715	558.69
440.936	541.69
441.158	538.69
441.379	518.69
441.6	574.69
441.822	574.69
442.043	618.69
442.264	661.69
442.486	705.69
442.707	619.69
442.928	597.69
443.149	597.69
443.371	604.69
443.592	612.69
443.813	703.69
444.034	755.69
444.255	673.69
444.476	607.69
444.698	612.69
444.919	610.69
445.14	732.69
445.361	651.69
445.582	620.69
445.803	658.69
446.024	720.69
446.245	725.69
446.466	668.69
446.687	610.69
446.908	563.69
447.129	553.69
447.35	506.69
447.571	519.69
447.792	510.69
448.013	525.69
448.234	527.69
448.455	587.69
448.675	667.69
448.896	757.69
449.117	629.69
449.338	623.69
449.559	715.69
449.779	772.69
450	651.69
450.221	547.69
450.442	521.69
450.662	502.69
450.883	523.69
451.104	499.69
451.324	485.69
451.545	484.69
451.766	470.69
451.986	459.69
452.207	477.69
452.428	483.69
452.648	470.69
452.869	483.69
453.089	467.69
453.31	499.69
453.53	472.69
453.751	470.69
453.971	468.69
454.192	460.69
454.412	460.69
454.633	478.69
454.853	461.69
455.073	464.69
455.294	467.69
455.514	531.69
455.734	527.69
455.955	484.69
456.175	465.69
456.395	442.69
456.616	428.69
456.836	458.69
457.056	444.69
457.276	447.69
457.497	462.69
457.717	462.69
457.937	459.69
458.157	469.69
458.377	467.69
458.598	514.69
458.818	506.69
459.038	574.69
459.258	607.69
459.478	553.69
459.698	510.69
459.918	546.69
460.138	510.69
460.358	549.69
460.578	569.69
460.798	569.69
461.018	540.69
461.238	552.69
461.458	542.69
461.678	532.69
461.898	553.69
462.118	563.69
462.338	557.69
462.558	569.69
462.777	569.69
462.997	622.69
463.217	657.69
463.437	634.69
463.657	628.69
463.876	641.69
464.096	611.69
464.316	600.69
464.536	613.69
464.755	611.69
464.975	603.69
465.195	608.69
465.414	599.69
465.634	578.69
465.854	529.69
466.073	513.69
466.293	514.69
466.512	466.69
466.732	490.69
466.951	495.69
467.171	504.69
467.391	519.69
467.61	484.69
467.829	502.69
468.049	503.69
468.268	503.69
468.488	494.69
468.707	495.69
468.927	507.69
469.146	477.69
469.365	489.69
469.585	468.69
469.804	496.69
470.023	513.69
470.243	523.69
470.462	502.69
470.681	495.69
470.901	512.69
471.12	502.69
471.339	515.69
471.558	502.69
471.777	499.69
471.997	503.69
472.216	501.69
472.435	530.69
472.654	486.69
472.873	489.69
473.092	490.69
473.311	497.69
473.53	489.69
473.749	497.69
473.968	513.69
474.187	591.69
474.406	589.69
474.625	520.69
474.844	488.69
475.063	473.69
475.282	463.69
475.501	517.69
475.72	505.69
475.939	496.69
476.158	521.69
476.377	497.69
476.596	493.69
476.814	519.69
477.033	527.69
477.252	510.69
477.471	512.69
477.69	531.69
477.908	556.69
478.127	558.69
478.346	565.69
478.564	545.69
478.783	557.69
479.002	574.69
479.22	563.69
479.439	577.69
479.658	574.69
479.876	602.69
480.095	582.69
480.313	630.69
480.532	636.69
480.751	633.69
480.969	625.69
481.188	631.69
481.406	640.69
481.624	616.69
481.843	598.69
482.061	569.69
482.28	584.69
482.498	567.69
482.717	588.69
482.935	605.69
483.153	592.69
483.372	565.69
483.59	582.69
483.808	583.69
484.027	584.69
484.245	557.69
484.463	574.69
484.681	567.69
484.9	585.69
485.118	595.69
485.336	573.69
485.554	563.69
485.772	602.69
485.99	600.69
486.209	582.69
486.427	569.69
486.645	579.69
486.863	607.69
487.081	608.69
487.299	638.69
487.517	593.69
487.735	612.69
487.953	606.69
488.171	600.69
488.389	610.69
488.607	604.69
488.825	614.69
489.043	589.69
489.261	609.69
489.479	602.69
489.696	627.69
489.914	606.69
490.132	629.69
490.35	618.69
490.568	643.69
490.786	621.69
491.003	644.69
491.221	646.69
491.439	665.69
491.657	667.69
491.874	671.69
492.092	664.69
492.31	674.69
492.527	659.69
492.745	715.69
492.963	675.69
493.18	695.69
493.398	684.69
493.615	685.69
493.833	683.69
494.05	705.69
494.268	699.69
494.485	698.69
494.703	693.69
494.92	725.69
495.138	706.69
495.355	707.69
495.573	702.69
495.79	703.69
496.008	709.69
496.225	702.69
496.442	701.69
496.66	709.69
496.877	725.69
497.094	724.69
497.312	758.69
497.529	733.69
497.746	769.69
497.963	766.69
498.181	781.69
498.398	786.69
498.615	819.69
498.832	857.69
499.049	864.69
499.267	907.69
499.484	980.69
499.701	1043.69
499.918	1084.69
500.135	1153.69
500.352	1207.69
500.569	1268.69
500.786	1238.69
501.003	1190.69
501.22	1161.69
501.437	1065.69
501.654	1025.69
501.871	1006.69
