Data from 1962.PennyLincolnUp.Lamp.En5.5.200Scan.071719.P1._HRD10591_13-55-02-061.txt Node
Date: Thu Jul 18 13:55:02 EDT 2019
User: cochatt
Spectrometer: HR+D1059
Trigger mode: 1
Integration Time (sec): 1.000000E-1
Scans to average: 1
Electric dark correction enabled: true
Nonlinearity correction enabled: false
Boxcar width: 0
XAxis mode: Wavelengths
Number of Pixels in Spectrum: 2048
>>>>>Begin Spectral Data<<<<<
223.165	-8.19
223.4	-8.19
223.635	-8.19
223.869	-23.19
224.104	-18.19
224.338	-12.19
224.573	-12.19
224.808	-14.19
225.042	-3.19
225.277	-12.19
225.511	6.81
225.746	10.81
225.98	9.81
226.215	2.81
226.449	5.81
226.683	24.81
226.918	26.81
227.152	15.81
227.387	38.81
227.621	32.81
227.856	53.81
228.09	53.81
228.324	49.81
228.559	42.81
228.793	77.81
229.027	86.81
229.262	107.81
229.496	99.81
229.73	116.81
229.964	134.81
230.199	125.81
230.433	101.81
230.667	123.81
230.901	108.81
231.136	98.81
231.37	104.81
231.604	104.81
231.838	93.81
232.072	114.81
232.306	116.81
232.541	100.81
232.775	104.81
233.009	102.81
233.243	107.81
233.477	121.81
233.711	105.81
233.945	126.81
234.179	109.81
234.413	122.81
234.647	118.81
234.881	121.81
235.115	102.81
235.349	123.81
235.583	117.81
235.817	118.81
236.051	129.81
236.285	117.81
236.519	120.81
236.753	117.81
236.987	135.81
237.221	153.81
237.455	185.81
237.689	156.81
237.922	125.81
238.156	123.81
238.39	118.81
238.624	106.81
238.858	123.81
239.091	124.81
239.325	132.81
239.559	116.81
239.793	125.81
240.027	122.81
240.26	143.81
240.494	137.81
240.728	129.81
240.961	133.81
241.195	138.81
241.429	127.81
241.662	146.81
241.896	145.81
242.13	124.81
242.363	132.81
242.597	139.81
242.83	131.81
243.064	137.81
243.298	140.81
243.531	144.81
243.765	121.81
243.998	125.81
244.232	136.81
244.465	149.81
244.699	141.81
244.932	161.81
245.166	155.81
245.399	148.81
245.633	161.81
245.866	135.81
246.099	146.81
246.333	149.81
246.566	165.81
246.8	132.81
247.033	158.81
247.266	146.81
247.5	155.81
247.733	150.81
247.966	172.81
248.2	162.81
248.433	165.81
248.666	167.81
248.899	159.81
249.133	191.81
249.366	191.81
249.599	172.81
249.832	160.81
250.066	164.81
250.299	151.81
250.532	187.81
250.765	189.81
250.998	204.81
251.231	197.81
251.465	198.81
251.698	191.81
251.931	170.81
252.164	173.81
252.397	166.81
252.63	187.81
252.863	179.81
253.096	188.81
253.329	195.81
253.562	193.81
253.795	201.81
254.028	190.81
254.261	193.81
254.494	193.81
254.727	237.81
254.96	243.81
255.193	237.81
255.426	209.81
255.659	195.81
255.892	213.81
256.124	213.81
256.357	207.81
256.59	224.81
256.823	193.81
257.056	194.81
257.289	202.81
257.521	182.81
257.754	190.81
257.987	197.81
258.22	181.81
258.452	200.81
258.685	191.81
258.918	204.81
259.151	210.81
259.383	201.81
259.616	185.81
259.849	206.81
260.081	202.81
260.314	222.81
260.547	253.81
260.779	219.81
261.012	214.81
261.244	199.81
261.477	205.81
261.71	201.81
261.942	202.81
262.175	214.81
262.407	213.81
262.64	206.81
262.872	208.81
263.105	193.81
263.337	205.81
263.57	198.81
263.802	198.81
264.035	214.81
264.267	202.81
264.499	202.81
264.732	213.81
264.964	209.81
265.197	196.81
265.429	204.81
265.661	215.81
265.894	213.81
266.126	211.81
266.358	223.81
266.591	214.81
266.823	242.81
267.055	212.81
267.287	228.81
267.52	220.81
267.752	213.81
267.984	221.81
268.216	218.81
268.448	223.81
268.681	234.81
268.913	231.81
269.145	257.81
269.377	257.81
269.609	236.81
269.841	248.81
270.073	268.81
270.306	277.81
270.538	275.81
270.77	290.81
271.002	283.81
271.234	271.81
271.466	279.81
271.698	302.81
271.93	286.81
272.162	287.81
272.394	275.81
272.626	284.81
272.858	252.81
273.09	269.81
273.322	261.81
273.553	253.81
273.785	254.81
274.017	271.81
274.249	241.81
274.481	268.81
274.713	250.81
274.945	263.81
275.176	269.81
275.408	253.81
275.64	276.81
275.872	248.81
276.104	281.81
276.335	254.81
276.567	265.81
276.799	275.81
277.031	283.81
277.262	291.81
277.494	315.81
277.726	282.81
277.957	278.81
278.189	263.81
278.421	277.81
278.652	268.81
278.884	273.81
279.115	281.81
279.347	253.81
279.579	278.81
279.81	269.81
280.042	263.81
280.273	270.81
280.505	265.81
280.736	264.81
280.968	265.81
281.199	261.81
281.431	277.81
281.662	284.81
281.894	292.81
282.125	261.81
282.356	301.81
282.588	291.81
282.819	293.81
283.051	279.81
283.282	286.81
283.513	286.81
283.745	298.81
283.976	286.81
284.207	286.81
284.439	289.81
284.67	292.81
284.901	282.81
285.132	278.81
285.364	309.81
285.595	271.81
285.826	290.81
286.057	290.81
286.288	274.81
286.52	303.81
286.751	287.81
286.982	305.81
287.213	289.81
287.444	292.81
287.675	308.81
287.906	303.81
288.138	309.81
288.369	315.81
288.6	301.81
288.831	303.81
289.062	297.81
289.293	281.81
289.524	300.81
289.755	310.81
289.986	295.81
290.217	312.81
290.448	288.81
290.679	299.81
290.91	279.81
291.141	299.81
291.371	308.81
291.602	302.81
291.833	292.81
292.064	303.81
292.295	300.81
292.526	302.81
292.757	311.81
292.987	298.81
293.218	295.81
293.449	294.81
293.68	321.81
293.91	312.81
294.141	300.81
294.372	312.81
294.603	303.81
294.833	301.81
295.064	297.81
295.295	292.81
295.525	298.81
295.756	316.81
295.987	323.81
296.217	327.81
296.448	329.81
296.679	316.81
296.909	302.81
297.14	325.81
297.37	305.81
297.601	310.81
297.831	317.81
298.062	302.81
298.292	325.81
298.523	315.81
298.753	328.81
298.984	319.81
299.214	319.81
299.445	316.81
299.675	300.81
299.905	306.81
300.136	307.81
300.366	317.81
300.597	317.81
300.827	326.81
301.057	331.81
301.288	327.81
301.518	344.81
301.748	341.81
301.979	345.81
302.209	319.81
302.439	330.81
302.669	318.81
302.9	333.81
303.13	326.81
303.36	346.81
303.59	333.81
303.82	337.81
304.051	333.81
304.281	348.81
304.511	329.81
304.741	339.81
304.971	330.81
305.201	351.81
305.431	320.81
305.661	346.81
305.891	342.81
306.121	334.81
306.352	334.81
306.582	346.81
306.812	329.81
307.042	333.81
307.272	352.81
307.502	340.81
307.731	340.81
307.961	346.81
308.191	356.81
308.421	323.81
308.651	346.81
308.881	330.81
309.111	342.81
309.341	336.81
309.571	333.81
309.8	331.81
310.03	374.81
310.26	353.81
310.49	358.81
310.72	364.81
310.949	355.81
311.179	381.81
311.409	362.81
311.639	348.81
311.868	362.81
312.098	364.81
312.328	376.81
312.557	388.81
312.787	375.81
313.017	400.81
313.246	354.81
313.476	386.81
313.706	389.81
313.935	385.81
314.165	398.81
314.394	373.81
314.624	365.81
314.853	374.81
315.083	364.81
315.312	391.81
315.542	375.81
315.771	362.81
316.001	371.81
316.23	372.81
316.46	383.81
316.689	374.81
316.919	359.81
317.148	366.81
317.377	377.81
317.607	379.81
317.836	354.81
318.065	381.81
318.295	383.81
318.524	358.81
318.753	366.81
318.983	369.81
319.212	373.81
319.441	387.81
319.67	396.81
319.9	383.81
320.129	400.81
320.358	377.81
320.587	383.81
320.816	393.81
321.046	399.81
321.275	392.81
321.504	383.81
321.733	379.81
321.962	408.81
322.191	425.81
322.42	381.81
322.649	409.81
322.878	418.81
323.108	415.81
323.337	447.81
323.566	461.81
323.795	457.81
324.024	508.81
324.253	551.81
324.482	708.81
324.71	1061.81
324.939	1509.81
325.168	1309.81
325.397	726.81
325.626	537.81
325.855	489.81
326.084	468.81
326.313	452.81
326.542	444.81
326.77	495.81
326.999	553.81
327.228	683.81
327.457	955.81
327.686	1132.81
327.914	810.81
328.143	569.81
328.372	519.81
328.6	506.81
328.829	481.81
329.058	534.81
329.287	505.81
329.515	486.81
329.744	465.81
329.972	443.81
330.201	484.81
330.43	494.81
330.658	503.81
330.887	521.81
331.115	511.81
331.344	471.81
331.572	467.81
331.801	459.81
332.03	478.81
332.258	456.81
332.486	463.81
332.715	454.81
332.943	469.81
333.172	470.81
333.4	478.81
333.629	486.81
333.857	502.81
334.085	494.81
334.314	497.81
334.542	508.81
334.771	525.81
334.999	476.81
335.227	494.81
335.455	467.81
335.684	444.81
335.912	479.81
336.14	452.81
336.369	469.81
336.597	460.81
336.825	437.81
337.053	471.81
337.281	442.81
337.51	438.81
337.738	451.81
337.966	446.81
338.194	451.81
338.422	440.81
338.65	444.81
338.878	415.81
339.106	437.81
339.334	427.81
339.562	429.81
339.79	425.81
340.018	429.81
340.246	408.81
340.474	420.81
340.702	425.81
340.93	415.81
341.158	441.81
341.386	430.81
341.614	439.81
341.842	461.81
342.07	437.81
342.298	418.81
342.526	424.81
342.754	423.81
342.981	412.81
343.209	426.81
343.437	433.81
343.665	435.81
343.893	458.81
344.12	468.81
344.348	469.81
344.576	447.81
344.804	463.81
345.031	449.81
345.259	444.81
345.487	435.81
345.714	421.81
345.942	410.81
346.17	407.81
346.397	433.81
346.625	427.81
346.853	424.81
347.08	411.81
347.308	397.81
347.535	407.81
347.763	430.81
347.99	411.81
348.218	417.81
348.445	398.81
348.673	408.81
348.9	407.81
349.128	430.81
349.355	392.81
349.583	386.81
349.81	409.81
350.037	407.81
350.265	405.81
350.492	411.81
350.72	406.81
350.947	409.81
351.174	403.81
351.402	429.81
351.629	401.81
351.856	422.81
352.083	394.81
352.311	408.81
352.538	426.81
352.765	421.81
352.992	401.81
353.22	402.81
353.447	381.81
353.674	391.81
353.901	390.81
354.128	398.81
354.355	387.81
354.583	378.81
354.81	383.81
355.037	403.81
355.264	389.81
355.491	385.81
355.718	404.81
355.945	397.81
356.172	383.81
356.399	374.81
356.626	385.81
356.853	395.81
357.08	407.81
357.307	386.81
357.534	395.81
357.761	410.81
357.988	385.81
358.215	417.81
358.441	393.81
358.668	408.81
358.895	417.81
359.122	403.81
359.349	399.81
359.576	412.81
359.802	406.81
360.029	427.81
360.256	444.81
360.483	425.81
360.709	417.81
360.936	390.81
361.163	397.81
361.39	411.81
361.616	403.81
361.843	417.81
362.07	392.81
362.296	406.81
362.523	425.81
362.749	405.81
362.976	393.81
363.203	397.81
363.429	406.81
363.656	381.81
363.882	402.81
364.109	407.81
364.335	392.81
364.562	390.81
364.788	391.81
365.015	386.81
365.241	405.81
365.468	392.81
365.694	397.81
365.92	404.81
366.147	405.81
366.373	393.81
366.599	392.81
366.826	398.81
367.052	415.81
367.278	405.81
367.505	397.81
367.731	375.81
367.957	405.81
368.184	388.81
368.41	406.81
368.636	406.81
368.862	410.81
369.089	413.81
369.315	406.81
369.541	397.81
369.767	395.81
369.993	413.81
370.219	388.81
370.445	383.81
370.672	398.81
370.898	404.81
371.124	396.81
371.35	415.81
371.576	421.81
371.802	403.81
372.028	407.81
372.254	409.81
372.48	401.81
372.706	419.81
372.932	419.81
373.158	433.81
373.384	427.81
373.61	424.81
373.835	425.81
374.061	400.81
374.287	406.81
374.513	403.81
374.739	412.81
374.965	426.81
375.191	411.81
375.416	411.81
375.642	414.81
375.868	446.81
376.094	408.81
376.319	418.81
376.545	407.81
376.771	386.81
376.997	417.81
377.222	405.81
377.448	400.81
377.674	387.81
377.899	386.81
378.125	386.81
378.35	409.81
378.576	420.81
378.802	433.81
379.027	405.81
379.253	403.81
379.478	399.81
379.704	397.81
379.929	413.81
380.155	387.81
380.38	403.81
380.606	401.81
380.831	407.81
381.057	435.81
381.282	407.81
381.507	410.81
381.733	423.81
381.958	416.81
382.184	422.81
382.409	434.81
382.634	412.81
382.86	433.81
383.085	413.81
383.31	417.81
383.535	430.81
383.761	445.81
383.986	428.81
384.211	438.81
384.436	455.81
384.662	455.81
384.887	458.81
385.112	450.81
385.337	440.81
385.562	445.81
385.787	430.81
386.013	439.81
386.238	462.81
386.463	469.81
386.688	488.81
386.913	443.81
387.138	469.81
387.363	466.81
387.588	451.81
387.813	474.81
388.038	474.81
388.263	458.81
388.488	464.81
388.713	451.81
388.938	453.81
389.163	454.81
389.387	469.81
389.612	454.81
389.837	447.81
390.062	455.81
390.287	448.81
390.512	467.81
390.736	458.81
390.961	438.81
391.186	464.81
391.411	471.81
391.636	483.81
391.86	483.81
392.085	475.81
392.31	505.81
392.534	482.81
392.759	472.81
392.984	471.81
393.208	483.81
393.433	467.81
393.658	472.81
393.882	474.81
394.107	477.81
394.331	469.81
394.556	458.81
394.78	477.81
395.005	460.81
395.229	470.81
395.454	486.81
395.678	483.81
395.903	484.81
396.127	531.81
396.352	507.81
396.576	495.81
396.801	504.81
397.025	479.81
397.249	501.81
397.474	488.81
397.698	499.81
397.922	505.81
398.147	515.81
398.371	529.81
398.595	529.81
398.82	544.81
399.044	536.81
399.268	590.81
399.492	627.81
399.717	683.81
399.941	692.81
400.165	678.81
400.389	671.81
400.613	600.81
400.837	591.81
401.062	573.81
401.286	534.81
401.51	539.81
401.734	542.81
401.958	555.81
402.182	556.81
402.406	554.81
402.63	575.81
402.854	564.81
403.078	541.81
403.302	549.81
403.526	556.81
403.75	580.81
403.974	572.81
404.198	572.81
404.422	598.81
404.645	580.81
404.869	603.81
405.093	618.81
405.317	623.81
405.541	662.81
405.765	623.81
405.988	611.81
406.212	601.81
406.436	598.81
406.66	601.81
406.883	594.81
407.107	643.81
407.331	677.81
407.555	711.81
407.778	728.81
408.002	680.81
408.226	625.81
408.449	627.81
408.673	621.81
408.896	635.81
409.12	669.81
409.344	664.81
409.567	589.81
409.791	591.81
410.014	553.81
410.238	571.81
410.461	588.81
410.685	573.81
410.908	599.81
411.132	586.81
411.355	623.81
411.578	601.81
411.802	595.81
412.025	541.81
412.249	580.81
412.472	587.81
412.695	630.81
412.919	618.81
413.142	551.81
413.365	558.81
413.589	564.81
413.812	537.81
414.035	562.81
414.258	520.81
414.482	535.81
414.705	539.81
414.928	547.81
415.151	538.81
415.374	526.81
415.597	534.81
415.821	529.81
416.044	545.81
416.267	540.81
416.49	534.81
416.713	523.81
416.936	532.81
417.159	508.81
417.382	530.81
417.605	543.81
417.828	557.81
418.051	554.81
418.274	557.81
418.497	531.81
418.72	540.81
418.943	543.81
419.166	568.81
419.389	589.81
419.611	586.81
419.834	565.81
420.057	557.81
420.28	570.81
420.503	545.81
420.726	547.81
420.948	539.81
421.171	567.81
421.394	588.81
421.617	575.81
421.839	559.81
422.062	541.81
422.285	547.81
422.507	598.81
422.73	660.81
422.953	603.81
423.175	592.81
423.398	567.81
423.621	533.81
423.843	596.81
424.066	583.81
424.288	601.81
424.511	589.81
424.733	643.81
424.956	679.81
425.178	667.81
425.401	650.81
425.623	660.81
425.846	639.81
426.068	576.81
426.291	579.81
426.513	572.81
426.735	561.81
426.958	580.81
427.18	653.81
427.402	742.81
427.625	778.81
427.847	693.81
428.069	636.81
428.292	583.81
428.514	557.81
428.736	525.81
428.958	536.81
429.181	507.81
429.403	493.81
429.625	535.81
429.847	557.81
430.069	586.81
430.292	592.81
430.514	541.81
430.736	517.81
430.958	495.81
431.18	516.81
431.402	511.81
431.624	495.81
431.846	493.81
432.068	504.81
432.29	480.81
432.512	513.81
432.734	501.81
432.956	540.81
433.178	514.81
433.4	524.81
433.622	502.81
433.844	516.81
434.066	505.81
434.287	523.81
434.509	504.81
434.731	548.81
434.953	529.81
435.175	558.81
435.397	551.81
435.618	557.81
435.84	601.81
436.062	660.81
436.284	708.81
436.505	615.81
436.727	556.81
436.949	561.81
437.17	511.81
437.392	543.81
437.614	530.81
437.835	549.81
438.057	598.81
438.278	686.81
438.5	707.81
438.721	744.81
438.943	738.81
439.165	606.81
439.386	570.81
439.608	550.81
439.829	542.81
440.05	575.81
440.272	609.81
440.493	570.81
440.715	549.81
440.936	545.81
441.158	548.81
441.379	522.81
441.6	554.81
441.822	573.81
442.043	589.81
442.264	631.81
442.486	686.81
442.707	615.81
442.928	576.81
443.149	589.81
443.371	582.81
443.592	639.81
443.813	701.81
444.034	731.81
444.255	643.81
444.476	595.81
444.698	605.81
444.919	600.81
445.14	714.81
445.361	637.81
445.582	598.81
445.803	630.81
446.024	702.81
446.245	705.81
446.466	663.81
446.687	583.81
446.908	559.81
447.129	528.81
447.35	522.81
447.571	522.81
447.792	486.81
448.013	511.81
448.234	503.81
448.455	575.81
448.675	646.81
448.896	730.81
449.117	645.81
449.338	585.81
449.559	687.81
449.779	771.81
450	615.81
450.221	542.81
450.442	487.81
450.662	478.81
450.883	494.81
451.104	490.81
451.324	501.81
451.545	484.81
451.766	484.81
451.986	458.81
452.207	467.81
452.428	462.81
452.648	441.81
452.869	447.81
453.089	456.81
453.31	491.81
453.53	453.81
453.751	464.81
453.971	439.81
454.192	461.81
454.412	469.81
454.633	462.81
454.853	455.81
455.073	453.81
455.294	458.81
455.514	505.81
455.734	512.81
455.955	446.81
456.175	438.81
456.395	440.81
456.616	449.81
456.836	455.81
457.056	434.81
457.276	429.81
457.497	453.81
457.717	428.81
457.937	453.81
458.157	443.81
458.377	476.81
458.598	473.81
458.818	519.81
459.038	563.81
459.258	568.81
459.478	536.81
459.698	523.81
459.918	513.81
460.138	523.81
460.358	529.81
460.578	532.81
460.798	552.81
461.018	570.81
461.238	530.81
461.458	539.81
461.678	541.81
461.898	534.81
462.118	543.81
462.338	554.81
462.558	579.81
462.777	588.81
462.997	610.81
463.217	621.81
463.437	637.81
463.657	610.81
463.876	601.81
464.096	596.81
464.316	597.81
464.536	580.81
464.755	577.81
464.975	588.81
465.195	582.81
465.414	583.81
465.634	559.81
465.854	541.81
466.073	524.81
466.293	493.81
466.512	505.81
466.732	489.81
466.951	484.81
467.171	485.81
467.391	496.81
467.61	479.81
467.829	485.81
468.049	486.81
468.268	486.81
468.488	466.81
468.707	455.81
468.927	477.81
469.146	473.81
469.365	459.81
469.585	462.81
469.804	485.81
470.023	501.81
470.243	473.81
470.462	487.81
470.681	499.81
470.901	517.81
471.12	499.81
471.339	483.81
471.558	467.81
471.777	474.81
471.997	490.81
472.216	500.81
472.435	519.81
472.654	492.81
472.873	460.81
473.092	480.81
473.311	468.81
473.53	494.81
473.749	470.81
473.968	518.81
474.187	561.81
474.406	600.81
474.625	515.81
474.844	485.81
475.063	482.81
475.282	489.81
475.501	488.81
475.72	486.81
475.939	493.81
476.158	489.81
476.377	501.81
476.596	507.81
476.814	500.81
477.033	485.81
477.252	519.81
477.471	516.81
477.69	514.81
477.908	535.81
478.127	528.81
478.346	553.81
478.564	558.81
478.783	561.81
479.002	567.81
479.22	558.81
479.439	586.81
479.658	583.81
479.876	594.81
480.095	595.81
480.313	615.81
480.532	615.81
480.751	612.81
480.969	599.81
481.188	628.81
481.406	625.81
481.624	605.81
481.843	578.81
482.061	592.81
482.28	573.81
482.498	580.81
482.717	577.81
482.935	576.81
483.153	549.81
483.372	537.81
483.59	554.81
483.808	549.81
484.027	576.81
484.245	561.81
484.463	569.81
484.681	563.81
484.9	590.81
485.118	563.81
485.336	577.81
485.554	561.81
485.772	567.81
485.99	582.81
486.209	566.81
486.427	589.81
486.645	589.81
486.863	608.81
487.081	581.81
487.299	589.81
487.517	599.81
487.735	592.81
487.953	605.81
488.171	570.81
488.389	582.81
488.607	597.81
488.825	605.81
489.043	588.81
489.261	592.81
489.479	617.81
489.696	589.81
489.914	622.81
490.132	620.81
490.35	601.81
490.568	612.81
490.786	599.81
491.003	619.81
491.221	614.81
491.439	637.81
491.657	628.81
491.874	641.81
492.092	654.81
492.31	649.81
492.527	684.81
492.745	669.81
492.963	672.81
493.18	694.81
493.398	697.81
493.615	666.81
493.833	669.81
494.05	665.81
494.268	681.81
494.485	676.81
494.703	667.81
494.92	684.81
495.138	665.81
495.355	678.81
495.573	681.81
495.79	705.81
496.008	683.81
496.225	693.81
496.442	676.81
496.66	693.81
496.877	714.81
497.094	694.81
497.312	722.81
497.529	728.81
497.746	715.81
497.963	759.81
498.181	778.81
498.398	820.81
498.615	833.81
498.832	825.81
499.049	874.81
499.267	909.81
499.484	977.81
499.701	996.81
499.918	1040.81
500.135	1144.81
500.352	1193.81
500.569	1218.81
500.786	1225.81
501.003	1181.81
501.22	1133.81
501.437	1071.81
501.654	1002.81
501.871	966.81
