Data from 1962.PennyLincolnUp.Lamp.En5.5.200Scan.071719.P1._HRD10591_13-55-12-061.txt Node
Date: Thu Jul 18 13:55:12 EDT 2019
User: cochatt
Spectrometer: HR+D1059
Trigger mode: 1
Integration Time (sec): 1.000000E-1
Scans to average: 1
Electric dark correction enabled: true
Nonlinearity correction enabled: false
Boxcar width: 0
XAxis mode: Wavelengths
Number of Pixels in Spectrum: 2048
>>>>>Begin Spectral Data<<<<<
223.165	-27.56
223.4	-27.56
223.635	-27.56
223.869	-15.56
224.104	-31.56
224.338	-9.56
224.573	-22.56
224.808	-11.56
225.042	3.44
225.277	-7.56
225.511	1.44
225.746	2.44
225.98	5.44
226.215	15.44
226.449	22.44
226.683	21.44
226.918	13.44
227.152	40.44
227.387	39.44
227.621	25.44
227.856	38.44
228.09	40.44
228.324	48.44
228.559	59.44
228.793	49.44
229.027	93.44
229.262	91.44
229.496	109.44
229.73	111.44
229.964	125.44
230.199	115.44
230.433	109.44
230.667	95.44
230.901	109.44
231.136	106.44
231.37	95.44
231.604	117.44
231.838	109.44
232.072	120.44
232.306	116.44
232.541	106.44
232.775	100.44
233.009	115.44
233.243	107.44
233.477	115.44
233.711	111.44
233.945	131.44
234.179	121.44
234.413	125.44
234.647	106.44
234.881	105.44
235.115	119.44
235.349	104.44
235.583	113.44
235.817	129.44
236.051	106.44
236.285	131.44
236.519	133.44
236.753	118.44
236.987	120.44
237.221	147.44
237.455	206.44
237.689	163.44
237.922	127.44
238.156	117.44
238.39	118.44
238.624	109.44
238.858	123.44
239.091	128.44
239.325	121.44
239.559	123.44
239.793	127.44
240.027	127.44
240.26	140.44
240.494	143.44
240.728	136.44
240.961	135.44
241.195	125.44
241.429	136.44
241.662	122.44
241.896	136.44
242.13	125.44
242.363	125.44
242.597	126.44
242.83	131.44
243.064	129.44
243.298	124.44
243.531	123.44
243.765	121.44
243.998	138.44
244.232	156.44
244.465	143.44
244.699	156.44
244.932	144.44
245.166	144.44
245.399	144.44
245.633	137.44
245.866	137.44
246.099	160.44
246.333	134.44
246.566	142.44
246.8	145.44
247.033	139.44
247.266	162.44
247.5	151.44
247.733	157.44
247.966	147.44
248.2	161.44
248.433	158.44
248.666	180.44
248.899	159.44
249.133	179.44
249.366	169.44
249.599	177.44
249.832	188.44
250.066	186.44
250.299	166.44
250.532	169.44
250.765	190.44
250.998	184.44
251.231	208.44
251.465	198.44
251.698	182.44
251.931	184.44
252.164	193.44
252.397	178.44
252.63	198.44
252.863	177.44
253.096	191.44
253.329	202.44
253.562	191.44
253.795	215.44
254.028	206.44
254.261	202.44
254.494	195.44
254.727	207.44
254.96	233.44
255.193	221.44
255.426	228.44
255.659	210.44
255.892	223.44
256.124	224.44
256.357	221.44
256.59	190.44
256.823	197.44
257.056	181.44
257.289	217.44
257.521	199.44
257.754	188.44
257.987	191.44
258.22	207.44
258.452	187.44
258.685	197.44
258.918	187.44
259.151	191.44
259.383	216.44
259.616	209.44
259.849	216.44
260.081	222.44
260.314	212.44
260.547	247.44
260.779	217.44
261.012	228.44
261.244	222.44
261.477	218.44
261.71	208.44
261.942	218.44
262.175	220.44
262.407	199.44
262.64	205.44
262.872	200.44
263.105	202.44
263.337	208.44
263.57	212.44
263.802	197.44
264.035	207.44
264.267	195.44
264.499	217.44
264.732	211.44
264.964	220.44
265.197	196.44
265.429	193.44
265.661	200.44
265.894	206.44
266.126	199.44
266.358	222.44
266.591	208.44
266.823	218.44
267.055	222.44
267.287	222.44
267.52	205.44
267.752	206.44
267.984	228.44
268.216	243.44
268.448	233.44
268.681	233.44
268.913	234.44
269.145	227.44
269.377	280.44
269.609	261.44
269.841	269.44
270.073	256.44
270.306	257.44
270.538	289.44
270.77	297.44
271.002	284.44
271.234	280.44
271.466	279.44
271.698	266.44
271.93	303.44
272.162	282.44
272.394	304.44
272.626	282.44
272.858	294.44
273.09	263.44
273.322	277.44
273.553	257.44
273.785	257.44
274.017	270.44
274.249	253.44
274.481	271.44
274.713	272.44
274.945	272.44
275.176	271.44
275.408	266.44
275.64	270.44
275.872	260.44
276.104	273.44
276.335	263.44
276.567	265.44
276.799	284.44
277.031	275.44
277.262	282.44
277.494	296.44
277.726	291.44
277.957	290.44
278.189	277.44
278.421	277.44
278.652	281.44
278.884	275.44
279.115	259.44
279.347	272.44
279.579	260.44
279.81	283.44
280.042	266.44
280.273	258.44
280.505	272.44
280.736	274.44
280.968	277.44
281.199	283.44
281.431	277.44
281.662	293.44
281.894	281.44
282.125	276.44
282.356	264.44
282.588	299.44
282.819	298.44
283.051	296.44
283.282	287.44
283.513	266.44
283.745	282.44
283.976	280.44
284.207	294.44
284.439	280.44
284.67	293.44
284.901	289.44
285.132	299.44
285.364	285.44
285.595	302.44
285.826	294.44
286.057	297.44
286.288	291.44
286.52	297.44
286.751	283.44
286.982	288.44
287.213	280.44
287.444	297.44
287.675	290.44
287.906	299.44
288.138	296.44
288.369	304.44
288.6	303.44
288.831	287.44
289.062	301.44
289.293	288.44
289.524	291.44
289.755	279.44
289.986	309.44
290.217	311.44
290.448	283.44
290.679	293.44
290.91	293.44
291.141	309.44
291.371	314.44
291.602	305.44
291.833	301.44
292.064	290.44
292.295	298.44
292.526	313.44
292.757	298.44
292.987	283.44
293.218	290.44
293.449	316.44
293.68	305.44
293.91	296.44
294.141	311.44
294.372	289.44
294.603	307.44
294.833	293.44
295.064	319.44
295.295	307.44
295.525	309.44
295.756	309.44
295.987	288.44
296.217	322.44
296.448	326.44
296.679	328.44
296.909	305.44
297.14	319.44
297.37	305.44
297.601	314.44
297.831	299.44
298.062	320.44
298.292	318.44
298.523	323.44
298.753	322.44
298.984	321.44
299.214	328.44
299.445	321.44
299.675	314.44
299.905	308.44
300.136	329.44
300.366	317.44
300.597	336.44
300.827	343.44
301.057	332.44
301.288	325.44
301.518	344.44
301.748	330.44
301.979	328.44
302.209	328.44
302.439	362.44
302.669	336.44
302.9	353.44
303.13	345.44
303.36	358.44
303.59	355.44
303.82	341.44
304.051	322.44
304.281	341.44
304.511	335.44
304.741	328.44
304.971	343.44
305.201	325.44
305.431	349.44
305.661	345.44
305.891	355.44
306.121	348.44
306.352	350.44
306.582	345.44
306.812	338.44
307.042	340.44
307.272	354.44
307.502	339.44
307.731	354.44
307.961	327.44
308.191	353.44
308.421	338.44
308.651	342.44
308.881	333.44
309.111	335.44
309.341	339.44
309.571	352.44
309.8	354.44
310.03	359.44
310.26	351.44
310.49	363.44
310.72	355.44
310.949	379.44
311.179	371.44
311.409	364.44
311.639	374.44
311.868	379.44
312.098	362.44
312.328	375.44
312.557	369.44
312.787	389.44
313.017	389.44
313.246	383.44
313.476	368.44
313.706	358.44
313.935	381.44
314.165	367.44
314.394	397.44
314.624	383.44
314.853	387.44
315.083	408.44
315.312	396.44
315.542	375.44
315.771	361.44
316.001	358.44
316.23	375.44
316.46	391.44
316.689	374.44
316.919	360.44
317.148	383.44
317.377	379.44
317.607	377.44
317.836	381.44
318.065	362.44
318.295	371.44
318.524	381.44
318.753	375.44
318.983	365.44
319.212	378.44
319.441	375.44
319.67	390.44
319.9	387.44
320.129	371.44
320.358	387.44
320.587	384.44
320.816	374.44
321.046	393.44
321.275	382.44
321.504	373.44
321.733	393.44
321.962	394.44
322.191	413.44
322.42	420.44
322.649	410.44
322.878	419.44
323.108	416.44
323.337	430.44
323.566	445.44
323.795	467.44
324.024	502.44
324.253	544.44
324.482	737.44
324.71	1077.44
324.939	1555.44
325.168	1350.44
325.397	758.44
325.626	542.44
325.855	481.44
326.084	451.44
326.313	462.44
326.542	462.44
326.77	474.44
326.999	542.44
327.228	697.44
327.457	1007.44
327.686	1175.44
327.914	843.44
328.143	594.44
328.372	523.44
328.6	495.44
328.829	498.44
329.058	508.44
329.287	499.44
329.515	496.44
329.744	447.44
329.972	447.44
330.201	456.44
330.43	494.44
330.658	489.44
330.887	495.44
331.115	491.44
331.344	474.44
331.572	477.44
331.801	457.44
332.03	471.44
332.258	454.44
332.486	475.44
332.715	454.44
332.943	483.44
333.172	492.44
333.4	479.44
333.629	502.44
333.857	509.44
334.085	518.44
334.314	515.44
334.542	534.44
334.771	526.44
334.999	507.44
335.227	486.44
335.455	486.44
335.684	480.44
335.912	466.44
336.14	462.44
336.369	475.44
336.597	451.44
336.825	442.44
337.053	459.44
337.281	459.44
337.51	449.44
337.738	459.44
337.966	454.44
338.194	453.44
338.422	455.44
338.65	444.44
338.878	445.44
339.106	439.44
339.334	445.44
339.562	440.44
339.79	445.44
340.018	419.44
340.246	433.44
340.474	422.44
340.702	434.44
340.93	423.44
341.158	419.44
341.386	436.44
341.614	446.44
341.842	440.44
342.07	427.44
342.298	430.44
342.526	413.44
342.754	423.44
342.981	425.44
343.209	447.44
343.437	435.44
343.665	449.44
343.893	490.44
344.12	470.44
344.348	474.44
344.576	453.44
344.804	443.44
345.031	446.44
345.259	449.44
345.487	420.44
345.714	400.44
345.942	406.44
346.17	417.44
346.397	415.44
346.625	401.44
346.853	418.44
347.08	388.44
347.308	406.44
347.535	423.44
347.763	425.44
347.99	403.44
348.218	414.44
348.445	401.44
348.673	409.44
348.9	410.44
349.128	409.44
349.355	400.44
349.583	416.44
349.81	406.44
350.037	397.44
350.265	403.44
350.492	413.44
350.72	395.44
350.947	398.44
351.174	385.44
351.402	422.44
351.629	407.44
351.856	408.44
352.083	398.44
352.311	410.44
352.538	413.44
352.765	408.44
352.992	414.44
353.22	412.44
353.447	390.44
353.674	390.44
353.901	392.44
354.128	408.44
354.355	387.44
354.583	387.44
354.81	403.44
355.037	410.44
355.264	391.44
355.491	383.44
355.718	383.44
355.945	382.44
356.172	379.44
356.399	385.44
356.626	396.44
356.853	401.44
357.08	396.44
357.307	399.44
357.534	383.44
357.761	394.44
357.988	368.44
358.215	384.44
358.441	385.44
358.668	397.44
358.895	395.44
359.122	394.44
359.349	401.44
359.576	426.44
359.802	425.44
360.029	435.44
360.256	440.44
360.483	427.44
360.709	411.44
360.936	403.44
361.163	415.44
361.39	404.44
361.616	416.44
361.843	434.44
362.07	402.44
362.296	410.44
362.523	413.44
362.749	403.44
362.976	405.44
363.203	396.44
363.429	409.44
363.656	406.44
363.882	407.44
364.109	396.44
364.335	406.44
364.562	404.44
364.788	403.44
365.015	402.44
365.241	401.44
365.468	406.44
365.694	415.44
365.92	388.44
366.147	394.44
366.373	399.44
366.599	399.44
366.826	408.44
367.052	407.44
367.278	390.44
367.505	413.44
367.731	408.44
367.957	375.44
368.184	395.44
368.41	411.44
368.636	420.44
368.862	399.44
369.089	413.44
369.315	395.44
369.541	410.44
369.767	399.44
369.993	384.44
370.219	391.44
370.445	381.44
370.672	413.44
370.898	403.44
371.124	418.44
371.35	402.44
371.576	400.44
371.802	393.44
372.028	385.44
372.254	399.44
372.48	392.44
372.706	386.44
372.932	415.44
373.158	412.44
373.384	416.44
373.61	412.44
373.835	410.44
374.061	406.44
374.287	413.44
374.513	423.44
374.739	410.44
374.965	429.44
375.191	421.44
375.416	426.44
375.642	415.44
375.868	438.44
376.094	408.44
376.319	408.44
376.545	421.44
376.771	410.44
376.997	394.44
377.222	406.44
377.448	407.44
377.674	423.44
377.899	402.44
378.125	408.44
378.35	413.44
378.576	409.44
378.802	414.44
379.027	407.44
379.253	414.44
379.478	416.44
379.704	407.44
379.929	414.44
380.155	402.44
380.38	415.44
380.606	418.44
380.831	396.44
381.057	406.44
381.282	390.44
381.507	398.44
381.733	415.44
381.958	422.44
382.184	403.44
382.409	420.44
382.634	433.44
382.86	416.44
383.085	424.44
383.31	424.44
383.535	411.44
383.761	417.44
383.986	426.44
384.211	433.44
384.436	453.44
384.662	439.44
384.887	439.44
385.112	467.44
385.337	448.44
385.562	441.44
385.787	465.44
386.013	475.44
386.238	478.44
386.463	468.44
386.688	475.44
386.913	456.44
387.138	454.44
387.363	455.44
387.588	444.44
387.813	452.44
388.038	459.44
388.263	469.44
388.488	478.44
388.713	443.44
388.938	471.44
389.163	464.44
389.387	463.44
389.612	466.44
389.837	476.44
390.062	457.44
390.287	463.44
390.512	446.44
390.736	467.44
390.961	468.44
391.186	448.44
391.411	485.44
391.636	493.44
391.86	481.44
392.085	488.44
392.31	477.44
392.534	479.44
392.759	482.44
392.984	488.44
393.208	466.44
393.433	497.44
393.658	489.44
393.882	473.44
394.107	477.44
394.331	476.44
394.556	464.44
394.78	477.44
395.005	481.44
395.229	500.44
395.454	486.44
395.678	499.44
395.903	510.44
396.127	504.44
396.352	527.44
396.576	497.44
396.801	477.44
397.025	484.44
397.249	505.44
397.474	502.44
397.698	549.44
397.922	529.44
398.147	520.44
398.371	540.44
398.595	530.44
398.82	564.44
399.044	558.44
399.268	610.44
399.492	648.44
399.717	674.44
399.941	717.44
400.165	712.44
400.389	670.44
400.613	615.44
400.837	580.44
401.062	574.44
401.286	559.44
401.51	572.44
401.734	534.44
401.958	551.44
402.182	551.44
402.406	563.44
402.63	569.44
402.854	557.44
403.078	588.44
403.302	588.44
403.526	560.44
403.75	582.44
403.974	584.44
404.198	588.44
404.422	591.44
404.645	570.44
404.869	559.44
405.093	621.44
405.317	639.44
405.541	650.44
405.765	642.44
405.988	598.44
406.212	614.44
406.436	588.44
406.66	606.44
406.883	598.44
407.107	642.44
407.331	691.44
407.555	770.44
407.778	729.44
408.002	685.44
408.226	621.44
408.449	617.44
408.673	640.44
408.896	661.44
409.12	671.44
409.344	644.44
409.567	601.44
409.791	592.44
410.014	594.44
410.238	566.44
410.461	591.44
410.685	579.44
410.908	575.44
411.132	591.44
411.355	619.44
411.578	616.44
411.802	560.44
412.025	547.44
412.249	594.44
412.472	587.44
412.695	618.44
412.919	595.44
413.142	590.44
413.365	525.44
413.589	557.44
413.812	561.44
414.035	549.44
414.258	561.44
414.482	538.44
414.705	531.44
414.928	553.44
415.151	529.44
415.374	552.44
415.597	547.44
415.821	535.44
416.044	538.44
416.267	527.44
416.49	526.44
416.713	545.44
416.936	525.44
417.159	511.44
417.382	524.44
417.605	524.44
417.828	526.44
418.051	557.44
418.274	564.44
418.497	530.44
418.72	549.44
418.943	520.44
419.166	558.44
419.389	608.44
419.611	591.44
419.834	570.44
420.057	555.44
420.28	564.44
420.503	564.44
420.726	570.44
420.948	550.44
421.171	595.44
421.394	578.44
421.617	564.44
421.839	557.44
422.062	587.44
422.285	550.44
422.507	607.44
422.73	659.44
422.953	631.44
423.175	563.44
423.398	582.44
423.621	564.44
423.843	593.44
424.066	602.44
424.288	584.44
424.511	601.44
424.733	626.44
424.956	704.44
425.178	680.44
425.401	666.44
425.623	695.44
425.846	601.44
426.068	577.44
426.291	560.44
426.513	555.44
426.735	575.44
426.958	615.44
427.18	650.44
427.402	782.44
427.625	856.44
427.847	708.44
428.069	645.44
428.292	575.44
428.514	527.44
428.736	532.44
428.958	533.44
429.181	534.44
429.403	524.44
429.625	530.44
429.847	552.44
430.069	615.44
430.292	601.44
430.514	525.44
430.736	526.44
430.958	499.44
431.18	501.44
431.402	497.44
431.624	508.44
431.846	507.44
432.068	531.44
432.29	506.44
432.512	512.44
432.734	522.44
432.956	523.44
433.178	541.44
433.4	513.44
433.622	502.44
433.844	513.44
434.066	520.44
434.287	507.44
434.509	502.44
434.731	544.44
434.953	536.44
435.175	554.44
435.397	578.44
435.618	558.44
435.84	595.44
436.062	651.44
436.284	701.44
436.505	609.44
436.727	568.44
436.949	545.44
437.17	523.44
437.392	516.44
437.614	518.44
437.835	555.44
438.057	619.44
438.278	701.44
438.5	708.44
438.721	750.44
438.943	731.44
439.165	596.44
439.386	588.44
439.608	572.44
439.829	528.44
440.05	571.44
440.272	601.44
440.493	607.44
440.715	557.44
440.936	524.44
441.158	550.44
441.379	566.44
441.6	561.44
441.822	587.44
442.043	613.44
442.264	659.44
442.486	691.44
442.707	603.44
442.928	565.44
443.149	577.44
443.371	592.44
443.592	645.44
443.813	699.44
444.034	753.44
444.255	670.44
444.476	634.44
444.698	631.44
444.919	601.44
445.14	714.44
445.361	646.44
445.582	584.44
445.803	642.44
446.024	705.44
446.245	720.44
446.466	644.44
446.687	598.44
446.908	585.44
447.129	531.44
447.35	525.44
447.571	501.44
447.792	507.44
448.013	495.44
448.234	513.44
448.455	580.44
448.675	661.44
448.896	733.44
449.117	634.44
449.338	617.44
449.559	697.44
449.779	768.44
450	635.44
450.221	548.44
450.442	523.44
450.662	497.44
450.883	483.44
451.104	483.44
451.324	480.44
451.545	472.44
451.766	465.44
451.986	482.44
452.207	473.44
452.428	484.44
452.648	464.44
452.869	469.44
453.089	480.44
453.31	494.44
453.53	469.44
453.751	458.44
453.971	471.44
454.192	458.44
454.412	451.44
454.633	446.44
454.853	453.44
455.073	463.44
455.294	453.44
455.514	520.44
455.734	525.44
455.955	475.44
456.175	434.44
456.395	448.44
456.616	439.44
456.836	432.44
457.056	438.44
457.276	429.44
457.497	455.44
457.717	448.44
457.937	438.44
458.157	453.44
458.377	461.44
458.598	494.44
458.818	501.44
459.038	553.44
459.258	609.44
459.478	538.44
459.698	527.44
459.918	521.44
460.138	527.44
460.358	568.44
460.578	533.44
460.798	550.44
461.018	561.44
461.238	562.44
461.458	533.44
461.678	537.44
461.898	551.44
462.118	550.44
462.338	558.44
462.558	575.44
462.777	572.44
462.997	628.44
463.217	631.44
463.437	628.44
463.657	606.44
463.876	599.44
464.096	596.44
464.316	603.44
464.536	597.44
464.755	612.44
464.975	571.44
465.195	579.44
465.414	604.44
465.634	587.44
465.854	528.44
466.073	513.44
466.293	529.44
466.512	496.44
466.732	496.44
466.951	494.44
467.171	486.44
467.391	481.44
467.61	480.44
467.829	487.44
468.049	482.44
468.268	484.44
468.488	466.44
468.707	470.44
468.927	474.44
469.146	488.44
469.365	472.44
469.585	484.44
469.804	486.44
470.023	473.44
470.243	485.44
470.462	498.44
470.681	507.44
470.901	498.44
471.12	493.44
471.339	489.44
471.558	509.44
471.777	481.44
471.997	469.44
472.216	499.44
472.435	486.44
472.654	497.44
472.873	466.44
473.092	463.44
473.311	476.44
473.53	491.44
473.749	500.44
473.968	505.44
474.187	573.44
474.406	602.44
474.625	525.44
474.844	527.44
475.063	480.44
475.282	507.44
475.501	478.44
475.72	488.44
475.939	499.44
476.158	491.44
476.377	504.44
476.596	509.44
476.814	507.44
477.033	519.44
477.252	526.44
477.471	507.44
477.69	521.44
477.908	514.44
478.127	552.44
478.346	548.44
478.564	553.44
478.783	559.44
479.002	575.44
479.22	569.44
479.439	558.44
479.658	585.44
479.876	577.44
480.095	595.44
480.313	643.44
480.532	639.44
480.751	621.44
480.969	625.44
481.188	632.44
481.406	635.44
481.624	602.44
481.843	583.44
482.061	601.44
482.28	577.44
482.498	572.44
482.717	581.44
482.935	577.44
483.153	564.44
483.372	554.44
483.59	571.44
483.808	576.44
484.027	578.44
484.245	562.44
484.463	584.44
484.681	583.44
484.9	571.44
485.118	561.44
485.336	582.44
485.554	582.44
485.772	582.44
485.99	590.44
486.209	577.44
486.427	606.44
486.645	599.44
486.863	590.44
487.081	575.44
487.299	625.44
487.517	621.44
487.735	603.44
487.953	588.44
488.171	616.44
488.389	590.44
488.607	585.44
488.825	607.44
489.043	630.44
489.261	598.44
489.479	609.44
489.696	601.44
489.914	599.44
490.132	636.44
490.35	613.44
490.568	625.44
490.786	623.44
491.003	641.44
491.221	655.44
491.439	651.44
491.657	643.44
491.874	670.44
492.092	645.44
492.31	644.44
492.527	699.44
492.745	664.44
492.963	691.44
493.18	665.44
493.398	655.44
493.615	695.44
493.833	673.44
494.05	675.44
494.268	697.44
494.485	691.44
494.703	686.44
494.92	671.44
495.138	696.44
495.355	694.44
495.573	690.44
495.79	671.44
496.008	692.44
496.225	671.44
496.442	696.44
496.66	706.44
496.877	706.44
497.094	723.44
497.312	732.44
497.529	740.44
497.746	774.44
497.963	763.44
498.181	789.44
498.398	792.44
498.615	825.44
498.832	857.44
499.049	867.44
499.267	925.44
499.484	962.44
499.701	997.44
499.918	1078.44
500.135	1155.44
500.352	1199.44
500.569	1235.44
500.786	1239.44
501.003	1225.44
501.22	1121.44
501.437	1109.44
501.654	1008.44
501.871	995.44
