Data from 1962.PennyLincolnUp.Lamp.En5.5.200Scan.071719.P1._HRD10591_13-55-04-061.txt Node
Date: Thu Jul 18 13:55:04 EDT 2019
User: cochatt
Spectrometer: HR+D1059
Trigger mode: 1
Integration Time (sec): 1.000000E-1
Scans to average: 1
Electric dark correction enabled: true
Nonlinearity correction enabled: false
Boxcar width: 0
XAxis mode: Wavelengths
Number of Pixels in Spectrum: 2048
>>>>>Begin Spectral Data<<<<<
223.165	-22.38
223.4	-22.38
223.635	-22.38
223.869	-19.38
224.104	-10.38
224.338	-22.38
224.573	-20.38
224.808	-11.38
225.042	-6.38
225.277	-4.38
225.511	-12.38
225.746	-5.38
225.98	5.62
226.215	13.62
226.449	19.62
226.683	20.62
226.918	50.62
227.152	24.62
227.387	31.62
227.621	34.62
227.856	45.62
228.09	38.62
228.324	45.62
228.559	62.62
228.793	68.62
229.027	83.62
229.262	88.62
229.496	93.62
229.73	102.62
229.964	133.62
230.199	105.62
230.433	94.62
230.667	105.62
230.901	108.62
231.136	96.62
231.37	93.62
231.604	107.62
231.838	97.62
232.072	105.62
232.306	118.62
232.541	114.62
232.775	107.62
233.009	114.62
233.243	106.62
233.477	125.62
233.711	120.62
233.945	125.62
234.179	102.62
234.413	116.62
234.647	107.62
234.881	113.62
235.115	98.62
235.349	122.62
235.583	115.62
235.817	116.62
236.051	124.62
236.285	126.62
236.519	119.62
236.753	109.62
236.987	145.62
237.221	159.62
237.455	206.62
237.689	163.62
237.922	148.62
238.156	134.62
238.39	121.62
238.624	110.62
238.858	134.62
239.091	123.62
239.325	122.62
239.559	127.62
239.793	129.62
240.027	131.62
240.26	126.62
240.494	141.62
240.728	141.62
240.961	151.62
241.195	129.62
241.429	141.62
241.662	133.62
241.896	114.62
242.13	128.62
242.363	124.62
242.597	133.62
242.83	130.62
243.064	130.62
243.298	134.62
243.531	137.62
243.765	137.62
243.998	136.62
244.232	134.62
244.465	139.62
244.699	142.62
244.932	146.62
245.166	139.62
245.399	159.62
245.633	146.62
245.866	129.62
246.099	137.62
246.333	146.62
246.566	132.62
246.8	141.62
247.033	135.62
247.266	152.62
247.5	153.62
247.733	158.62
247.966	141.62
248.2	166.62
248.433	177.62
248.666	171.62
248.899	175.62
249.133	200.62
249.366	180.62
249.599	173.62
249.832	177.62
250.066	177.62
250.299	173.62
250.532	171.62
250.765	170.62
250.998	210.62
251.231	200.62
251.465	204.62
251.698	181.62
251.931	179.62
252.164	188.62
252.397	173.62
252.63	193.62
252.863	195.62
253.096	197.62
253.329	207.62
253.562	213.62
253.795	197.62
254.028	203.62
254.261	195.62
254.494	226.62
254.727	214.62
254.96	232.62
255.193	259.62
255.426	227.62
255.659	207.62
255.892	208.62
256.124	224.62
256.357	216.62
256.59	212.62
256.823	187.62
257.056	189.62
257.289	193.62
257.521	197.62
257.754	198.62
257.987	199.62
258.22	202.62
258.452	189.62
258.685	191.62
258.918	205.62
259.151	199.62
259.383	202.62
259.616	207.62
259.849	203.62
260.081	214.62
260.314	243.62
260.547	227.62
260.779	232.62
261.012	224.62
261.244	205.62
261.477	214.62
261.71	209.62
261.942	201.62
262.175	223.62
262.407	216.62
262.64	211.62
262.872	209.62
263.105	208.62
263.337	214.62
263.57	232.62
263.802	206.62
264.035	206.62
264.267	216.62
264.499	227.62
264.732	219.62
264.964	217.62
265.197	203.62
265.429	220.62
265.661	207.62
265.894	234.62
266.126	219.62
266.358	230.62
266.591	227.62
266.823	224.62
267.055	225.62
267.287	212.62
267.52	228.62
267.752	231.62
267.984	229.62
268.216	225.62
268.448	234.62
268.681	243.62
268.913	235.62
269.145	233.62
269.377	280.62
269.609	268.62
269.841	261.62
270.073	269.62
270.306	276.62
270.538	293.62
270.77	284.62
271.002	283.62
271.234	281.62
271.466	271.62
271.698	284.62
271.93	296.62
272.162	291.62
272.394	297.62
272.626	278.62
272.858	245.62
273.09	259.62
273.322	264.62
273.553	269.62
273.785	259.62
274.017	248.62
274.249	259.62
274.481	243.62
274.713	270.62
274.945	266.62
275.176	278.62
275.408	279.62
275.64	260.62
275.872	247.62
276.104	263.62
276.335	255.62
276.567	279.62
276.799	266.62
277.031	291.62
277.262	289.62
277.494	309.62
277.726	267.62
277.957	275.62
278.189	268.62
278.421	257.62
278.652	264.62
278.884	259.62
279.115	267.62
279.347	277.62
279.579	256.62
279.81	275.62
280.042	279.62
280.273	283.62
280.505	279.62
280.736	287.62
280.968	292.62
281.199	285.62
281.431	281.62
281.662	270.62
281.894	286.62
282.125	266.62
282.356	285.62
282.588	293.62
282.819	306.62
283.051	292.62
283.282	281.62
283.513	279.62
283.745	282.62
283.976	282.62
284.207	305.62
284.439	290.62
284.67	276.62
284.901	267.62
285.132	269.62
285.364	289.62
285.595	285.62
285.826	291.62
286.057	289.62
286.288	297.62
286.52	285.62
286.751	284.62
286.982	284.62
287.213	297.62
287.444	299.62
287.675	286.62
287.906	282.62
288.138	301.62
288.369	295.62
288.6	315.62
288.831	307.62
289.062	310.62
289.293	329.62
289.524	291.62
289.755	322.62
289.986	300.62
290.217	317.62
290.448	297.62
290.679	281.62
290.91	298.62
291.141	310.62
291.371	298.62
291.602	315.62
291.833	289.62
292.064	296.62
292.295	305.62
292.526	305.62
292.757	295.62
292.987	294.62
293.218	302.62
293.449	302.62
293.68	297.62
293.91	311.62
294.141	296.62
294.372	301.62
294.603	302.62
294.833	306.62
295.064	321.62
295.295	311.62
295.525	302.62
295.756	326.62
295.987	316.62
296.217	326.62
296.448	325.62
296.679	313.62
296.909	313.62
297.14	316.62
297.37	295.62
297.601	322.62
297.831	315.62
298.062	318.62
298.292	305.62
298.523	313.62
298.753	312.62
298.984	334.62
299.214	326.62
299.445	306.62
299.675	320.62
299.905	338.62
300.136	326.62
300.366	348.62
300.597	329.62
300.827	330.62
301.057	324.62
301.288	337.62
301.518	349.62
301.748	337.62
301.979	350.62
302.209	343.62
302.439	339.62
302.669	355.62
302.9	332.62
303.13	336.62
303.36	333.62
303.59	335.62
303.82	343.62
304.051	342.62
304.281	322.62
304.511	339.62
304.741	332.62
304.971	346.62
305.201	337.62
305.431	339.62
305.661	344.62
305.891	343.62
306.121	367.62
306.352	346.62
306.582	344.62
306.812	336.62
307.042	354.62
307.272	348.62
307.502	340.62
307.731	336.62
307.961	355.62
308.191	341.62
308.421	331.62
308.651	341.62
308.881	333.62
309.111	348.62
309.341	351.62
309.571	361.62
309.8	374.62
310.03	353.62
310.26	371.62
310.49	337.62
310.72	350.62
310.949	361.62
311.179	377.62
311.409	369.62
311.639	379.62
311.868	369.62
312.098	374.62
312.328	381.62
312.557	377.62
312.787	385.62
313.017	381.62
313.246	383.62
313.476	374.62
313.706	386.62
313.935	385.62
314.165	382.62
314.394	379.62
314.624	369.62
314.853	374.62
315.083	369.62
315.312	385.62
315.542	375.62
315.771	383.62
316.001	363.62
316.23	365.62
316.46	364.62
316.689	380.62
316.919	380.62
317.148	397.62
317.377	394.62
317.607	381.62
317.836	381.62
318.065	386.62
318.295	375.62
318.524	371.62
318.753	366.62
318.983	389.62
319.212	395.62
319.441	387.62
319.67	380.62
319.9	371.62
320.129	385.62
320.358	388.62
320.587	377.62
320.816	375.62
321.046	395.62
321.275	386.62
321.504	396.62
321.733	385.62
321.962	373.62
322.191	399.62
322.42	395.62
322.649	421.62
322.878	421.62
323.108	418.62
323.337	430.62
323.566	448.62
323.795	478.62
324.024	493.62
324.253	576.62
324.482	748.62
324.71	1080.62
324.939	1502.62
325.168	1315.62
325.397	725.62
325.626	561.62
325.855	483.62
326.084	469.62
326.313	460.62
326.542	464.62
326.77	483.62
326.999	557.62
327.228	684.62
327.457	989.62
327.686	1171.62
327.914	836.62
328.143	593.62
328.372	517.62
328.6	509.62
328.829	500.62
329.058	502.62
329.287	513.62
329.515	482.62
329.744	451.62
329.972	475.62
330.201	462.62
330.43	493.62
330.658	508.62
330.887	547.62
331.115	519.62
331.344	476.62
331.572	470.62
331.801	459.62
332.03	475.62
332.258	481.62
332.486	463.62
332.715	449.62
332.943	475.62
333.172	460.62
333.4	482.62
333.629	498.62
333.857	511.62
334.085	505.62
334.314	514.62
334.542	510.62
334.771	526.62
334.999	503.62
335.227	479.62
335.455	491.62
335.684	459.62
335.912	469.62
336.14	457.62
336.369	469.62
336.597	454.62
336.825	461.62
337.053	457.62
337.281	430.62
337.51	446.62
337.738	449.62
337.966	437.62
338.194	461.62
338.422	448.62
338.65	430.62
338.878	435.62
339.106	439.62
339.334	440.62
339.562	420.62
339.79	435.62
340.018	435.62
340.246	420.62
340.474	426.62
340.702	442.62
340.93	422.62
341.158	434.62
341.386	421.62
341.614	424.62
341.842	422.62
342.07	437.62
342.298	424.62
342.526	413.62
342.754	429.62
342.981	417.62
343.209	418.62
343.437	452.62
343.665	457.62
343.893	443.62
344.12	455.62
344.348	445.62
344.576	469.62
344.804	454.62
345.031	420.62
345.259	432.62
345.487	429.62
345.714	409.62
345.942	423.62
346.17	422.62
346.397	418.62
346.625	391.62
346.853	414.62
347.08	423.62
347.308	402.62
347.535	450.62
347.763	426.62
347.99	426.62
348.218	423.62
348.445	411.62
348.673	434.62
348.9	397.62
349.128	412.62
349.355	405.62
349.583	415.62
349.81	397.62
350.037	403.62
350.265	425.62
350.492	393.62
350.72	399.62
350.947	393.62
351.174	413.62
351.402	426.62
351.629	410.62
351.856	408.62
352.083	408.62
352.311	420.62
352.538	412.62
352.765	413.62
352.992	428.62
353.22	402.62
353.447	397.62
353.674	412.62
353.901	399.62
354.128	411.62
354.355	385.62
354.583	372.62
354.81	370.62
355.037	396.62
355.264	399.62
355.491	394.62
355.718	389.62
355.945	415.62
356.172	382.62
356.399	393.62
356.626	385.62
356.853	400.62
357.08	398.62
357.307	399.62
357.534	393.62
357.761	394.62
357.988	398.62
358.215	381.62
358.441	385.62
358.668	393.62
358.895	410.62
359.122	383.62
359.349	401.62
359.576	392.62
359.802	403.62
360.029	447.62
360.256	441.62
360.483	431.62
360.709	407.62
360.936	410.62
361.163	394.62
361.39	413.62
361.616	412.62
361.843	404.62
362.07	397.62
362.296	402.62
362.523	397.62
362.749	398.62
362.976	427.62
363.203	405.62
363.429	409.62
363.656	409.62
363.882	390.62
364.109	394.62
364.335	383.62
364.562	387.62
364.788	397.62
365.015	395.62
365.241	398.62
365.468	408.62
365.694	411.62
365.92	406.62
366.147	398.62
366.373	400.62
366.599	413.62
366.826	385.62
367.052	392.62
367.278	409.62
367.505	405.62
367.731	405.62
367.957	413.62
368.184	396.62
368.41	398.62
368.636	410.62
368.862	402.62
369.089	406.62
369.315	413.62
369.541	394.62
369.767	412.62
369.993	421.62
370.219	385.62
370.445	378.62
370.672	398.62
370.898	401.62
371.124	409.62
371.35	394.62
371.576	398.62
371.802	407.62
372.028	393.62
372.254	399.62
372.48	403.62
372.706	405.62
372.932	412.62
373.158	435.62
373.384	420.62
373.61	415.62
373.835	403.62
374.061	408.62
374.287	410.62
374.513	428.62
374.739	427.62
374.965	423.62
375.191	420.62
375.416	445.62
375.642	426.62
375.868	422.62
376.094	409.62
376.319	418.62
376.545	400.62
376.771	411.62
376.997	408.62
377.222	414.62
377.448	425.62
377.674	403.62
377.899	384.62
378.125	390.62
378.35	409.62
378.576	412.62
378.802	405.62
379.027	412.62
379.253	386.62
379.478	409.62
379.704	421.62
379.929	400.62
380.155	409.62
380.38	405.62
380.606	400.62
380.831	393.62
381.057	398.62
381.282	421.62
381.507	418.62
381.733	438.62
381.958	401.62
382.184	409.62
382.409	421.62
382.634	426.62
382.86	411.62
383.085	430.62
383.31	414.62
383.535	445.62
383.761	430.62
383.986	435.62
384.211	439.62
384.436	453.62
384.662	433.62
384.887	449.62
385.112	453.62
385.337	465.62
385.562	459.62
385.787	458.62
386.013	469.62
386.238	469.62
386.463	442.62
386.688	476.62
386.913	464.62
387.138	456.62
387.363	476.62
387.588	473.62
387.813	470.62
388.038	471.62
388.263	453.62
388.488	466.62
388.713	461.62
388.938	465.62
389.163	457.62
389.387	470.62
389.612	453.62
389.837	461.62
390.062	457.62
390.287	462.62
390.512	455.62
390.736	472.62
390.961	462.62
391.186	458.62
391.411	487.62
391.636	471.62
391.86	459.62
392.085	489.62
392.31	494.62
392.534	503.62
392.759	476.62
392.984	479.62
393.208	479.62
393.433	482.62
393.658	494.62
393.882	478.62
394.107	474.62
394.331	481.62
394.556	495.62
394.78	497.62
395.005	477.62
395.229	479.62
395.454	497.62
395.678	519.62
395.903	501.62
396.127	503.62
396.352	516.62
396.576	493.62
396.801	493.62
397.025	487.62
397.249	506.62
397.474	507.62
397.698	484.62
397.922	513.62
398.147	531.62
398.371	582.62
398.595	529.62
398.82	542.62
399.044	572.62
399.268	591.62
399.492	638.62
399.717	710.62
399.941	700.62
400.165	699.62
400.389	675.62
400.613	619.62
400.837	594.62
401.062	577.62
401.286	547.62
401.51	552.62
401.734	531.62
401.958	550.62
402.182	577.62
402.406	570.62
402.63	568.62
402.854	579.62
403.078	547.62
403.302	592.62
403.526	595.62
403.75	586.62
403.974	580.62
404.198	583.62
404.422	599.62
404.645	590.62
404.869	587.62
405.093	625.62
405.317	633.62
405.541	678.62
405.765	612.62
405.988	584.62
406.212	605.62
406.436	597.62
406.66	631.62
406.883	610.62
407.107	630.62
407.331	666.62
407.555	726.62
407.778	732.62
408.002	668.62
408.226	648.62
408.449	625.62
408.673	644.62
408.896	644.62
409.12	645.62
409.344	646.62
409.567	598.62
409.791	595.62
410.014	571.62
410.238	556.62
410.461	552.62
410.685	590.62
410.908	566.62
411.132	596.62
411.355	632.62
411.578	619.62
411.802	575.62
412.025	568.62
412.249	592.62
412.472	609.62
412.695	616.62
412.919	593.62
413.142	577.62
413.365	565.62
413.589	572.62
413.812	549.62
414.035	574.62
414.258	539.62
414.482	550.62
414.705	535.62
414.928	532.62
415.151	523.62
415.374	535.62
415.597	523.62
415.821	514.62
416.044	517.62
416.267	547.62
416.49	539.62
416.713	518.62
416.936	535.62
417.159	514.62
417.382	537.62
417.605	558.62
417.828	553.62
418.051	555.62
418.274	550.62
418.497	538.62
418.72	539.62
418.943	546.62
419.166	573.62
419.389	602.62
419.611	582.62
419.834	580.62
420.057	561.62
420.28	576.62
420.503	547.62
420.726	553.62
420.948	575.62
421.171	596.62
421.394	603.62
421.617	546.62
421.839	565.62
422.062	545.62
422.285	570.62
422.507	606.62
422.73	668.62
422.953	651.62
423.175	588.62
423.398	561.62
423.621	580.62
423.843	586.62
424.066	594.62
424.288	589.62
424.511	604.62
424.733	658.62
424.956	690.62
425.178	666.62
425.401	652.62
425.623	681.62
425.846	599.62
426.068	579.62
426.291	562.62
426.513	554.62
426.735	563.62
426.958	596.62
427.18	646.62
427.402	773.62
427.625	833.62
427.847	684.62
428.069	641.62
428.292	570.62
428.514	546.62
428.736	558.62
428.958	540.62
429.181	523.62
429.403	537.62
429.625	547.62
429.847	582.62
430.069	612.62
430.292	605.62
430.514	540.62
430.736	536.62
430.958	534.62
431.18	517.62
431.402	508.62
431.624	518.62
431.846	506.62
432.068	509.62
432.29	507.62
432.512	485.62
432.734	538.62
432.956	536.62
433.178	514.62
433.4	512.62
433.622	516.62
433.844	523.62
434.066	520.62
434.287	526.62
434.509	525.62
434.731	518.62
434.953	528.62
435.175	557.62
435.397	579.62
435.618	566.62
435.84	590.62
436.062	649.62
436.284	754.62
436.505	619.62
436.727	553.62
436.949	556.62
437.17	525.62
437.392	518.62
437.614	516.62
437.835	566.62
438.057	612.62
438.278	685.62
438.5	700.62
438.721	736.62
438.943	737.62
439.165	600.62
439.386	552.62
439.608	565.62
439.829	571.62
440.05	566.62
440.272	591.62
440.493	586.62
440.715	572.62
440.936	554.62
441.158	534.62
441.379	542.62
441.6	561.62
441.822	534.62
442.043	590.62
442.264	623.62
442.486	691.62
442.707	622.62
442.928	586.62
443.149	586.62
443.371	585.62
443.592	615.62
443.813	686.62
444.034	756.62
444.255	663.62
444.476	589.62
444.698	603.62
444.919	610.62
445.14	737.62
445.361	666.62
445.582	618.62
445.803	657.62
446.024	688.62
446.245	707.62
446.466	634.62
446.687	581.62
446.908	563.62
447.129	550.62
447.35	517.62
447.571	522.62
447.792	481.62
448.013	513.62
448.234	524.62
448.455	541.62
448.675	635.62
448.896	722.62
449.117	620.62
449.338	617.62
449.559	665.62
449.779	799.62
450	654.62
450.221	549.62
450.442	505.62
450.662	494.62
450.883	507.62
451.104	490.62
451.324	482.62
451.545	471.62
451.766	473.62
451.986	476.62
452.207	475.62
452.428	475.62
452.648	472.62
452.869	451.62
453.089	456.62
453.31	454.62
453.53	462.62
453.751	441.62
453.971	477.62
454.192	454.62
454.412	441.62
454.633	441.62
454.853	464.62
455.073	446.62
455.294	487.62
455.514	522.62
455.734	551.62
455.955	473.62
456.175	459.62
456.395	451.62
456.616	452.62
456.836	428.62
457.056	434.62
457.276	424.62
457.497	440.62
457.717	433.62
457.937	461.62
458.157	452.62
458.377	494.62
458.598	460.62
458.818	501.62
459.038	551.62
459.258	581.62
459.478	535.62
459.698	525.62
459.918	513.62
460.138	530.62
460.358	548.62
460.578	565.62
460.798	533.62
461.018	551.62
461.238	541.62
461.458	550.62
461.678	542.62
461.898	563.62
462.118	570.62
462.338	558.62
462.558	581.62
462.777	587.62
462.997	610.62
463.217	608.62
463.437	661.62
463.657	615.62
463.876	600.62
464.096	592.62
464.316	573.62
464.536	589.62
464.755	594.62
464.975	589.62
465.195	561.62
465.414	616.62
465.634	559.62
465.854	545.62
466.073	519.62
466.293	495.62
466.512	518.62
466.732	470.62
466.951	511.62
467.171	482.62
467.391	517.62
467.61	482.62
467.829	518.62
468.049	486.62
468.268	480.62
468.488	488.62
468.707	482.62
468.927	456.62
469.146	481.62
469.365	469.62
469.585	487.62
469.804	481.62
470.023	490.62
470.243	499.62
470.462	509.62
470.681	493.62
470.901	509.62
471.12	517.62
471.339	499.62
471.558	482.62
471.777	481.62
471.997	478.62
472.216	482.62
472.435	499.62
472.654	505.62
472.873	482.62
473.092	492.62
473.311	482.62
473.53	506.62
473.749	494.62
473.968	521.62
474.187	593.62
474.406	620.62
474.625	522.62
474.844	498.62
475.063	489.62
475.282	497.62
475.501	494.62
475.72	479.62
475.939	501.62
476.158	491.62
476.377	501.62
476.596	493.62
476.814	503.62
477.033	509.62
477.252	517.62
477.471	511.62
477.69	494.62
477.908	523.62
478.127	553.62
478.346	537.62
478.564	553.62
478.783	565.62
479.002	567.62
479.22	573.62
479.439	549.62
479.658	597.62
479.876	601.62
480.095	599.62
480.313	614.62
480.532	635.62
480.751	611.62
480.969	601.62
481.188	642.62
481.406	641.62
481.624	616.62
481.843	576.62
482.061	582.62
482.28	553.62
482.498	566.62
482.717	588.62
482.935	573.62
483.153	555.62
483.372	575.62
483.59	566.62
483.808	562.62
484.027	562.62
484.245	575.62
484.463	575.62
484.681	591.62
484.9	593.62
485.118	609.62
485.336	568.62
485.554	583.62
485.772	575.62
485.99	581.62
486.209	580.62
486.427	595.62
486.645	604.62
486.863	605.62
487.081	595.62
487.299	610.62
487.517	612.62
487.735	619.62
487.953	617.62
488.171	596.62
488.389	598.62
488.607	596.62
488.825	595.62
489.043	606.62
489.261	597.62
489.479	596.62
489.696	618.62
489.914	622.62
490.132	616.62
490.35	605.62
490.568	621.62
490.786	643.62
491.003	653.62
491.221	643.62
491.439	648.62
491.657	665.62
491.874	661.62
492.092	657.62
492.31	672.62
492.527	658.62
492.745	666.62
492.963	667.62
493.18	687.62
493.398	687.62
493.615	707.62
493.833	689.62
494.05	692.62
494.268	704.62
494.485	656.62
494.703	686.62
494.92	689.62
495.138	689.62
495.355	668.62
495.573	702.62
495.79	707.62
496.008	691.62
496.225	694.62
496.442	701.62
496.66	683.62
496.877	714.62
497.094	718.62
497.312	707.62
497.529	750.62
497.746	744.62
497.963	764.62
498.181	785.62
498.398	827.62
498.615	826.62
498.832	886.62
499.049	862.62
499.267	891.62
499.484	939.62
499.701	1028.62
499.918	1076.62
500.135	1163.62
500.352	1183.62
500.569	1245.62
500.786	1229.62
501.003	1217.62
501.22	1153.62
501.437	1067.62
501.654	1017.62
501.871	977.62
