Data from 1962.PennyLincolnUp.Lamp.En5.5.200Scan.071719.P1._HRD10591_13-53-31-060.txt Node
Date: Thu Jul 18 13:53:31 EDT 2019
User: cochatt
Spectrometer: HR+D1059
Trigger mode: 1
Integration Time (sec): 1.000000E-1
Scans to average: 1
Electric dark correction enabled: true
Nonlinearity correction enabled: false
Boxcar width: 0
XAxis mode: Wavelengths
Number of Pixels in Spectrum: 2048
>>>>>Begin Spectral Data<<<<<
223.165	-10.81
223.4	-10.81
223.635	-10.81
223.869	-24.81
224.104	-4.81
224.338	-10.81
224.573	-25.81
224.808	7.19
225.042	-9.81
225.277	4.19
225.511	-12.81
225.746	-7.81
225.98	14.19
226.215	8.19
226.449	5.19
226.683	19.19
226.918	28.19
227.152	21.19
227.387	37.19
227.621	32.19
227.856	49.19
228.09	40.19
228.324	51.19
228.559	57.19
228.793	45.19
229.027	79.19
229.262	94.19
229.496	103.19
229.73	102.19
229.964	130.19
230.199	106.19
230.433	104.19
230.667	97.19
230.901	110.19
231.136	105.19
231.37	108.19
231.604	107.19
231.838	92.19
232.072	110.19
232.306	117.19
232.541	110.19
232.775	105.19
233.009	115.19
233.243	122.19
233.477	115.19
233.711	115.19
233.945	116.19
234.179	110.19
234.413	115.19
234.647	97.19
234.881	113.19
235.115	109.19
235.349	106.19
235.583	114.19
235.817	107.19
236.051	110.19
236.285	113.19
236.519	103.19
236.753	121.19
236.987	122.19
237.221	133.19
237.455	175.19
237.689	151.19
237.922	125.19
238.156	134.19
238.39	126.19
238.624	122.19
238.858	122.19
239.091	120.19
239.325	103.19
239.559	118.19
239.793	124.19
240.027	120.19
240.26	135.19
240.494	138.19
240.728	132.19
240.961	129.19
241.195	129.19
241.429	130.19
241.662	138.19
241.896	130.19
242.13	124.19
242.363	133.19
242.597	126.19
242.83	133.19
243.064	129.19
243.298	124.19
243.531	125.19
243.765	143.19
243.998	131.19
244.232	145.19
244.465	121.19
244.699	131.19
244.932	149.19
245.166	135.19
245.399	133.19
245.633	141.19
245.866	142.19
246.099	143.19
246.333	137.19
246.566	151.19
246.8	129.19
247.033	141.19
247.266	142.19
247.5	143.19
247.733	146.19
247.966	158.19
248.2	161.19
248.433	153.19
248.666	145.19
248.899	161.19
249.133	163.19
249.366	168.19
249.599	174.19
249.832	156.19
250.066	172.19
250.299	162.19
250.532	181.19
250.765	179.19
250.998	191.19
251.231	185.19
251.465	180.19
251.698	190.19
251.931	169.19
252.164	176.19
252.397	180.19
252.63	170.19
252.863	195.19
253.096	199.19
253.329	189.19
253.562	203.19
253.795	206.19
254.028	197.19
254.261	204.19
254.494	205.19
254.727	204.19
254.96	218.19
255.193	215.19
255.426	188.19
255.659	205.19
255.892	200.19
256.124	200.19
256.357	200.19
256.59	192.19
256.823	193.19
257.056	182.19
257.289	191.19
257.521	189.19
257.754	177.19
257.987	179.19
258.22	190.19
258.452	199.19
258.685	184.19
258.918	202.19
259.151	189.19
259.383	193.19
259.616	196.19
259.849	207.19
260.081	206.19
260.314	190.19
260.547	213.19
260.779	225.19
261.012	207.19
261.244	210.19
261.477	215.19
261.71	220.19
261.942	215.19
262.175	190.19
262.407	203.19
262.64	209.19
262.872	199.19
263.105	205.19
263.337	218.19
263.57	218.19
263.802	212.19
264.035	202.19
264.267	215.19
264.499	213.19
264.732	202.19
264.964	198.19
265.197	210.19
265.429	216.19
265.661	218.19
265.894	211.19
266.126	217.19
266.358	206.19
266.591	210.19
266.823	205.19
267.055	234.19
267.287	220.19
267.52	217.19
267.752	220.19
267.984	225.19
268.216	224.19
268.448	211.19
268.681	250.19
268.913	221.19
269.145	242.19
269.377	250.19
269.609	254.19
269.841	230.19
270.073	228.19
270.306	258.19
270.538	268.19
270.77	263.19
271.002	254.19
271.234	263.19
271.466	280.19
271.698	237.19
271.93	270.19
272.162	265.19
272.394	278.19
272.626	258.19
272.858	236.19
273.09	250.19
273.322	260.19
273.553	235.19
273.785	255.19
274.017	251.19
274.249	267.19
274.481	250.19
274.713	266.19
274.945	242.19
275.176	263.19
275.408	240.19
275.64	257.19
275.872	252.19
276.104	245.19
276.335	244.19
276.567	268.19
276.799	269.19
277.031	301.19
277.262	281.19
277.494	298.19
277.726	277.19
277.957	261.19
278.189	271.19
278.421	256.19
278.652	238.19
278.884	266.19
279.115	267.19
279.347	258.19
279.579	263.19
279.81	260.19
280.042	269.19
280.273	272.19
280.505	266.19
280.736	260.19
280.968	255.19
281.199	259.19
281.431	269.19
281.662	286.19
281.894	269.19
282.125	268.19
282.356	264.19
282.588	277.19
282.819	281.19
283.051	288.19
283.282	257.19
283.513	269.19
283.745	292.19
283.976	280.19
284.207	283.19
284.439	274.19
284.67	259.19
284.901	260.19
285.132	279.19
285.364	272.19
285.595	281.19
285.826	270.19
286.057	281.19
286.288	276.19
286.52	285.19
286.751	275.19
286.982	282.19
287.213	282.19
287.444	278.19
287.675	277.19
287.906	282.19
288.138	292.19
288.369	295.19
288.6	296.19
288.831	260.19
289.062	289.19
289.293	317.19
289.524	297.19
289.755	286.19
289.986	268.19
290.217	294.19
290.448	277.19
290.679	286.19
290.91	280.19
291.141	284.19
291.371	302.19
291.602	288.19
291.833	290.19
292.064	289.19
292.295	295.19
292.526	291.19
292.757	296.19
292.987	291.19
293.218	303.19
293.449	284.19
293.68	301.19
293.91	289.19
294.141	311.19
294.372	312.19
294.603	301.19
294.833	293.19
295.064	315.19
295.295	289.19
295.525	302.19
295.756	302.19
295.987	287.19
296.217	306.19
296.448	313.19
296.679	297.19
296.909	308.19
297.14	305.19
297.37	305.19
297.601	315.19
297.831	317.19
298.062	318.19
298.292	329.19
298.523	320.19
298.753	323.19
298.984	319.19
299.214	305.19
299.445	322.19
299.675	330.19
299.905	331.19
300.136	304.19
300.366	325.19
300.597	301.19
300.827	318.19
301.057	328.19
301.288	305.19
301.518	337.19
301.748	342.19
301.979	335.19
302.209	335.19
302.439	318.19
302.669	332.19
302.9	324.19
303.13	323.19
303.36	339.19
303.59	333.19
303.82	308.19
304.051	333.19
304.281	331.19
304.511	342.19
304.741	330.19
304.971	324.19
305.201	333.19
305.431	318.19
305.661	340.19
305.891	334.19
306.121	337.19
306.352	331.19
306.582	329.19
306.812	319.19
307.042	325.19
307.272	333.19
307.502	331.19
307.731	340.19
307.961	331.19
308.191	329.19
308.421	321.19
308.651	333.19
308.881	338.19
309.111	331.19
309.341	320.19
309.571	345.19
309.8	348.19
310.03	359.19
310.26	341.19
310.49	345.19
310.72	338.19
310.949	346.19
311.179	369.19
311.409	347.19
311.639	346.19
311.868	365.19
312.098	340.19
312.328	364.19
312.557	349.19
312.787	373.19
313.017	373.19
313.246	378.19
313.476	361.19
313.706	354.19
313.935	375.19
314.165	375.19
314.394	370.19
314.624	378.19
314.853	357.19
315.083	378.19
315.312	363.19
315.542	342.19
315.771	369.19
316.001	366.19
316.23	381.19
316.46	345.19
316.689	349.19
316.919	380.19
317.148	373.19
317.377	380.19
317.607	348.19
317.836	364.19
318.065	372.19
318.295	353.19
318.524	367.19
318.753	344.19
318.983	346.19
319.212	364.19
319.441	375.19
319.67	370.19
319.9	352.19
320.129	383.19
320.358	365.19
320.587	369.19
320.816	378.19
321.046	394.19
321.275	373.19
321.504	377.19
321.733	361.19
321.962	381.19
322.191	393.19
322.42	393.19
322.649	393.19
322.878	402.19
323.108	400.19
323.337	404.19
323.566	415.19
323.795	425.19
324.024	445.19
324.253	515.19
324.482	653.19
324.71	907.19
324.939	1242.19
325.168	1096.19
325.397	636.19
325.626	492.19
325.855	439.19
326.084	428.19
326.313	432.19
326.542	407.19
326.77	427.19
326.999	502.19
327.228	608.19
327.457	821.19
327.686	987.19
327.914	689.19
328.143	542.19
328.372	509.19
328.6	474.19
328.829	445.19
329.058	436.19
329.287	472.19
329.515	454.19
329.744	422.19
329.972	436.19
330.201	441.19
330.43	454.19
330.658	475.19
330.887	482.19
331.115	463.19
331.344	454.19
331.572	445.19
331.801	430.19
332.03	450.19
332.258	429.19
332.486	427.19
332.715	450.19
332.943	451.19
333.172	471.19
333.4	466.19
333.629	482.19
333.857	480.19
334.085	483.19
334.314	477.19
334.542	507.19
334.771	488.19
334.999	486.19
335.227	484.19
335.455	464.19
335.684	450.19
335.912	461.19
336.14	422.19
336.369	458.19
336.597	435.19
336.825	436.19
337.053	456.19
337.281	449.19
337.51	428.19
337.738	442.19
337.966	412.19
338.194	432.19
338.422	427.19
338.65	446.19
338.878	433.19
339.106	437.19
339.334	397.19
339.562	418.19
339.79	413.19
340.018	430.19
340.246	423.19
340.474	445.19
340.702	414.19
340.93	395.19
341.158	421.19
341.386	428.19
341.614	414.19
341.842	413.19
342.07	405.19
342.298	418.19
342.526	419.19
342.754	398.19
342.981	410.19
343.209	422.19
343.437	406.19
343.665	404.19
343.893	460.19
344.12	439.19
344.348	452.19
344.576	441.19
344.804	446.19
345.031	422.19
345.259	423.19
345.487	403.19
345.714	419.19
345.942	386.19
346.17	393.19
346.397	408.19
346.625	403.19
346.853	401.19
347.08	403.19
347.308	408.19
347.535	413.19
347.763	399.19
347.99	386.19
348.218	389.19
348.445	388.19
348.673	399.19
348.9	400.19
349.128	391.19
349.355	403.19
349.583	386.19
349.81	389.19
350.037	405.19
350.265	375.19
350.492	378.19
350.72	389.19
350.947	389.19
351.174	376.19
351.402	398.19
351.629	382.19
351.856	390.19
352.083	391.19
352.311	400.19
352.538	409.19
352.765	395.19
352.992	416.19
353.22	393.19
353.447	379.19
353.674	388.19
353.901	392.19
354.128	389.19
354.355	374.19
354.583	367.19
354.81	385.19
355.037	383.19
355.264	382.19
355.491	386.19
355.718	363.19
355.945	403.19
356.172	401.19
356.399	394.19
356.626	367.19
356.853	387.19
357.08	387.19
357.307	380.19
357.534	383.19
357.761	391.19
357.988	395.19
358.215	366.19
358.441	393.19
358.668	370.19
358.895	378.19
359.122	378.19
359.349	379.19
359.576	399.19
359.802	413.19
360.029	428.19
360.256	417.19
360.483	425.19
360.709	401.19
360.936	404.19
361.163	396.19
361.39	399.19
361.616	396.19
361.843	381.19
362.07	389.19
362.296	408.19
362.523	389.19
362.749	403.19
362.976	382.19
363.203	398.19
363.429	382.19
363.656	397.19
363.882	381.19
364.109	381.19
364.335	388.19
364.562	382.19
364.788	387.19
365.015	389.19
365.241	391.19
365.468	373.19
365.694	393.19
365.92	386.19
366.147	386.19
366.373	385.19
366.599	387.19
366.826	385.19
367.052	390.19
367.278	389.19
367.505	377.19
367.731	376.19
367.957	382.19
368.184	385.19
368.41	386.19
368.636	396.19
368.862	396.19
369.089	418.19
369.315	399.19
369.541	405.19
369.767	393.19
369.993	388.19
370.219	386.19
370.445	379.19
370.672	390.19
370.898	406.19
371.124	410.19
371.35	405.19
371.576	398.19
371.802	395.19
372.028	381.19
372.254	403.19
372.48	420.19
372.706	386.19
372.932	405.19
373.158	412.19
373.384	412.19
373.61	405.19
373.835	389.19
374.061	402.19
374.287	419.19
374.513	421.19
374.739	415.19
374.965	430.19
375.191	434.19
375.416	427.19
375.642	407.19
375.868	411.19
376.094	408.19
376.319	395.19
376.545	389.19
376.771	389.19
376.997	382.19
377.222	402.19
377.448	414.19
377.674	409.19
377.899	400.19
378.125	394.19
378.35	404.19
378.576	409.19
378.802	385.19
379.027	389.19
379.253	388.19
379.478	376.19
379.704	389.19
379.929	396.19
380.155	379.19
380.38	390.19
380.606	400.19
380.831	407.19
381.057	410.19
381.282	387.19
381.507	421.19
381.733	383.19
381.958	395.19
382.184	398.19
382.409	420.19
382.634	398.19
382.86	412.19
383.085	417.19
383.31	405.19
383.535	424.19
383.761	430.19
383.986	425.19
384.211	428.19
384.436	435.19
384.662	455.19
384.887	437.19
385.112	444.19
385.337	442.19
385.562	460.19
385.787	459.19
386.013	457.19
386.238	456.19
386.463	456.19
386.688	453.19
386.913	449.19
387.138	447.19
387.363	453.19
387.588	462.19
387.813	469.19
388.038	447.19
388.263	454.19
388.488	457.19
388.713	463.19
388.938	439.19
389.163	444.19
389.387	458.19
389.612	451.19
389.837	433.19
390.062	453.19
390.287	475.19
390.512	451.19
390.736	452.19
390.961	458.19
391.186	465.19
391.411	470.19
391.636	463.19
391.86	478.19
392.085	470.19
392.31	483.19
392.534	485.19
392.759	449.19
392.984	456.19
393.208	462.19
393.433	462.19
393.658	471.19
393.882	478.19
394.107	470.19
394.331	465.19
394.556	454.19
394.78	469.19
395.005	471.19
395.229	458.19
395.454	482.19
395.678	478.19
395.903	470.19
396.127	505.19
396.352	497.19
396.576	505.19
396.801	467.19
397.025	483.19
397.249	501.19
397.474	483.19
397.698	498.19
397.922	499.19
398.147	512.19
398.371	520.19
398.595	519.19
398.82	521.19
399.044	562.19
399.268	572.19
399.492	631.19
399.717	681.19
399.941	701.19
400.165	673.19
400.389	630.19
400.613	586.19
400.837	561.19
401.062	546.19
401.286	537.19
401.51	559.19
401.734	528.19
401.958	528.19
402.182	526.19
402.406	546.19
402.63	541.19
402.854	546.19
403.078	569.19
403.302	543.19
403.526	550.19
403.75	545.19
403.974	570.19
404.198	573.19
404.422	576.19
404.645	563.19
404.869	573.19
405.093	591.19
405.317	625.19
405.541	626.19
405.765	596.19
405.988	585.19
406.212	593.19
406.436	564.19
406.66	614.19
406.883	584.19
407.107	616.19
407.331	637.19
407.555	695.19
407.778	681.19
408.002	655.19
408.226	634.19
408.449	611.19
408.673	604.19
408.896	621.19
409.12	643.19
409.344	622.19
409.567	573.19
409.791	581.19
410.014	559.19
410.238	540.19
410.461	567.19
410.685	550.19
410.908	562.19
411.132	579.19
411.355	594.19
411.578	572.19
411.802	557.19
412.025	575.19
412.249	558.19
412.472	589.19
412.695	597.19
412.919	568.19
413.142	581.19
413.365	554.19
413.589	559.19
413.812	545.19
414.035	549.19
414.258	523.19
414.482	510.19
414.705	535.19
414.928	497.19
415.151	524.19
415.374	511.19
415.597	521.19
415.821	498.19
416.044	524.19
416.267	537.19
416.49	502.19
416.713	509.19
416.936	519.19
417.159	501.19
417.382	506.19
417.605	511.19
417.828	531.19
418.051	537.19
418.274	521.19
418.497	514.19
418.72	513.19
418.943	508.19
419.166	534.19
419.389	568.19
419.611	561.19
419.834	558.19
420.057	561.19
420.28	552.19
420.503	552.19
420.726	528.19
420.948	535.19
421.171	561.19
421.394	599.19
421.617	544.19
421.839	527.19
422.062	522.19
422.285	517.19
422.507	559.19
422.73	623.19
422.953	616.19
423.175	558.19
423.398	548.19
423.621	549.19
423.843	580.19
424.066	576.19
424.288	563.19
424.511	557.19
424.733	585.19
424.956	639.19
425.178	634.19
425.401	641.19
425.623	624.19
425.846	576.19
426.068	550.19
426.291	536.19
426.513	537.19
426.735	534.19
426.958	598.19
427.18	612.19
427.402	682.19
427.625	753.19
427.847	678.19
428.069	593.19
428.292	554.19
428.514	518.19
428.736	517.19
428.958	549.19
429.181	515.19
429.403	486.19
429.625	496.19
429.847	515.19
430.069	582.19
430.292	564.19
430.514	510.19
430.736	497.19
430.958	477.19
431.18	501.19
431.402	471.19
431.624	502.19
431.846	488.19
432.068	486.19
432.29	491.19
432.512	481.19
432.734	494.19
432.956	506.19
433.178	488.19
433.4	491.19
433.622	483.19
433.844	493.19
434.066	491.19
434.287	499.19
434.509	499.19
434.731	522.19
434.953	540.19
435.175	516.19
435.397	538.19
435.618	535.19
435.84	569.19
436.062	619.19
436.284	667.19
436.505	565.19
436.727	552.19
436.949	510.19
437.17	489.19
437.392	497.19
437.614	533.19
437.835	505.19
438.057	544.19
438.278	626.19
438.5	649.19
438.721	701.19
438.943	703.19
439.165	556.19
439.386	545.19
439.608	552.19
439.829	508.19
440.05	543.19
440.272	563.19
440.493	521.19
440.715	517.19
440.936	528.19
441.158	521.19
441.379	511.19
441.6	522.19
441.822	560.19
442.043	554.19
442.264	618.19
442.486	663.19
442.707	575.19
442.928	534.19
443.149	550.19
443.371	581.19
443.592	569.19
443.813	647.19
444.034	681.19
444.255	621.19
444.476	592.19
444.698	606.19
444.919	587.19
445.14	718.19
445.361	644.19
445.582	582.19
445.803	591.19
446.024	662.19
446.245	655.19
446.466	616.19
446.687	551.19
446.908	550.19
447.129	530.19
447.35	490.19
447.571	487.19
447.792	498.19
448.013	483.19
448.234	497.19
448.455	540.19
448.675	588.19
448.896	684.19
449.117	603.19
449.338	591.19
449.559	632.19
449.779	721.19
450	583.19
450.221	531.19
450.442	478.19
450.662	450.19
450.883	473.19
451.104	465.19
451.324	458.19
451.545	439.19
451.766	471.19
451.986	463.19
452.207	458.19
452.428	441.19
452.648	435.19
452.869	450.19
453.089	478.19
453.31	465.19
453.53	458.19
453.751	447.19
453.971	445.19
454.192	442.19
454.412	437.19
454.633	452.19
454.853	449.19
455.073	463.19
455.294	462.19
455.514	504.19
455.734	481.19
455.955	437.19
456.175	446.19
456.395	421.19
456.616	435.19
456.836	431.19
457.056	423.19
457.276	422.19
457.497	453.19
457.717	427.19
457.937	457.19
458.157	433.19
458.377	449.19
458.598	478.19
458.818	489.19
459.038	526.19
459.258	569.19
459.478	540.19
459.698	516.19
459.918	501.19
460.138	507.19
460.358	521.19
460.578	526.19
460.798	527.19
461.018	547.19
461.238	526.19
461.458	520.19
461.678	530.19
461.898	538.19
462.118	534.19
462.338	528.19
462.558	551.19
462.777	587.19
462.997	587.19
463.217	606.19
463.437	614.19
463.657	589.19
463.876	575.19
464.096	569.19
464.316	584.19
464.536	575.19
464.755	553.19
464.975	564.19
465.195	567.19
465.414	555.19
465.634	533.19
465.854	511.19
466.073	507.19
466.293	494.19
466.512	474.19
466.732	475.19
466.951	479.19
467.171	460.19
467.391	477.19
467.61	474.19
467.829	476.19
468.049	465.19
468.268	461.19
468.488	450.19
468.707	470.19
468.927	465.19
469.146	475.19
469.365	478.19
469.585	474.19
469.804	493.19
470.023	461.19
470.243	469.19
470.462	471.19
470.681	479.19
470.901	474.19
471.12	487.19
471.339	487.19
471.558	503.19
471.777	474.19
471.997	467.19
472.216	466.19
472.435	491.19
472.654	467.19
472.873	458.19
473.092	453.19
473.311	459.19
473.53	483.19
473.749	457.19
473.968	475.19
474.187	515.19
474.406	552.19
474.625	504.19
474.844	491.19
475.063	480.19
475.282	458.19
475.501	458.19
475.72	479.19
475.939	487.19
476.158	476.19
476.377	485.19
476.596	469.19
476.814	484.19
477.033	494.19
477.252	520.19
477.471	488.19
477.69	509.19
477.908	501.19
478.127	547.19
478.346	533.19
478.564	544.19
478.783	538.19
479.002	527.19
479.22	555.19
479.439	558.19
479.658	583.19
479.876	573.19
480.095	585.19
480.313	602.19
480.532	620.19
480.751	594.19
480.969	591.19
481.188	620.19
481.406	607.19
481.624	563.19
481.843	575.19
482.061	534.19
482.28	551.19
482.498	549.19
482.717	558.19
482.935	543.19
483.153	537.19
483.372	543.19
483.59	549.19
483.808	550.19
484.027	563.19
484.245	559.19
484.463	545.19
484.681	565.19
484.9	554.19
485.118	558.19
485.336	555.19
485.554	589.19
485.772	584.19
485.99	564.19
486.209	574.19
486.427	579.19
486.645	562.19
486.863	591.19
487.081	574.19
487.299	573.19
487.517	567.19
487.735	583.19
487.953	595.19
488.171	566.19
488.389	572.19
488.607	586.19
488.825	588.19
489.043	568.19
489.261	593.19
489.479	571.19
489.696	580.19
489.914	570.19
490.132	576.19
490.35	607.19
490.568	576.19
490.786	617.19
491.003	619.19
491.221	623.19
491.439	626.19
491.657	607.19
491.874	612.19
492.092	636.19
492.31	628.19
492.527	633.19
492.745	620.19
492.963	629.19
493.18	655.19
493.398	634.19
493.615	646.19
493.833	669.19
494.05	641.19
494.268	639.19
494.485	641.19
494.703	671.19
494.92	663.19
495.138	643.19
495.355	660.19
495.573	653.19
495.79	654.19
496.008	659.19
496.225	668.19
496.442	678.19
496.66	672.19
496.877	663.19
497.094	671.19
497.312	685.19
497.529	686.19
497.746	692.19
497.963	687.19
498.181	758.19
498.398	765.19
498.615	778.19
498.832	803.19
499.049	844.19
499.267	898.19
499.484	916.19
499.701	993.19
499.918	1031.19
500.135	1085.19
500.352	1177.19
500.569	1209.19
500.786	1217.19
501.003	1174.19
501.22	1143.19
501.437	1030.19
501.654	1005.19
501.871	957.19
