Data from 1962.PennyLincolnUp.Lamp.En5.5.200Scan.071719.P1._HRD10591_13-52-34-060.txt Node
Date: Thu Jul 18 13:52:34 EDT 2019
User: cochatt
Spectrometer: HR+D1059
Trigger mode: 1
Integration Time (sec): 1.000000E-1
Scans to average: 1
Electric dark correction enabled: true
Nonlinearity correction enabled: false
Boxcar width: 0
XAxis mode: Wavelengths
Number of Pixels in Spectrum: 2048
>>>>>Begin Spectral Data<<<<<
223.165	-6.75
223.4	-6.75
223.635	-6.75
223.869	-8.75
224.104	-25.75
224.338	-8.75
224.573	-14.75
224.808	-18.75
225.042	-3.75
225.277	-15.75
225.511	-12.75
225.746	-1.75
225.98	9.25
226.215	25.25
226.449	9.25
226.683	15.25
226.918	26.25
227.152	32.25
227.387	37.25
227.621	37.25
227.856	45.25
228.09	39.25
228.324	42.25
228.559	46.25
228.793	66.25
229.027	74.25
229.262	96.25
229.496	94.25
229.73	122.25
229.964	107.25
230.199	120.25
230.433	94.25
230.667	109.25
230.901	94.25
231.136	102.25
231.37	98.25
231.604	94.25
231.838	102.25
232.072	100.25
232.306	106.25
232.541	114.25
232.775	115.25
233.009	109.25
233.243	99.25
233.477	120.25
233.711	92.25
233.945	112.25
234.179	121.25
234.413	109.25
234.647	116.25
234.881	102.25
235.115	95.25
235.349	110.25
235.583	113.25
235.817	109.25
236.051	107.25
236.285	105.25
236.519	104.25
236.753	114.25
236.987	122.25
237.221	148.25
237.455	185.25
237.689	154.25
237.922	127.25
238.156	129.25
238.39	116.25
238.624	121.25
238.858	118.25
239.091	120.25
239.325	105.25
239.559	111.25
239.793	145.25
240.027	126.25
240.26	116.25
240.494	125.25
240.728	141.25
240.961	112.25
241.195	122.25
241.429	130.25
241.662	112.25
241.896	113.25
242.13	125.25
242.363	122.25
242.597	133.25
242.83	121.25
243.064	119.25
243.298	123.25
243.531	123.25
243.765	127.25
243.998	134.25
244.232	149.25
244.465	127.25
244.699	139.25
244.932	138.25
245.166	127.25
245.399	128.25
245.633	139.25
245.866	128.25
246.099	123.25
246.333	121.25
246.566	137.25
246.8	133.25
247.033	129.25
247.266	145.25
247.5	145.25
247.733	142.25
247.966	154.25
248.2	163.25
248.433	150.25
248.666	158.25
248.899	165.25
249.133	156.25
249.366	142.25
249.599	151.25
249.832	176.25
250.066	172.25
250.299	145.25
250.532	174.25
250.765	168.25
250.998	168.25
251.231	170.25
251.465	170.25
251.698	167.25
251.931	167.25
252.164	173.25
252.397	163.25
252.63	146.25
252.863	184.25
253.096	167.25
253.329	182.25
253.562	173.25
253.795	175.25
254.028	178.25
254.261	165.25
254.494	176.25
254.727	201.25
254.96	190.25
255.193	201.25
255.426	197.25
255.659	189.25
255.892	171.25
256.124	167.25
256.357	187.25
256.59	191.25
256.823	197.25
257.056	185.25
257.289	185.25
257.521	185.25
257.754	182.25
257.987	184.25
258.22	181.25
258.452	177.25
258.685	176.25
258.918	174.25
259.151	173.25
259.383	195.25
259.616	183.25
259.849	182.25
260.081	209.25
260.314	203.25
260.547	206.25
260.779	203.25
261.012	186.25
261.244	202.25
261.477	190.25
261.71	187.25
261.942	207.25
262.175	222.25
262.407	194.25
262.64	198.25
262.872	181.25
263.105	186.25
263.337	193.25
263.57	199.25
263.802	184.25
264.035	191.25
264.267	205.25
264.499	202.25
264.732	217.25
264.964	194.25
265.197	186.25
265.429	196.25
265.661	195.25
265.894	191.25
266.126	184.25
266.358	193.25
266.591	187.25
266.823	192.25
267.055	186.25
267.287	216.25
267.52	219.25
267.752	206.25
267.984	221.25
268.216	203.25
268.448	202.25
268.681	205.25
268.913	225.25
269.145	203.25
269.377	230.25
269.609	221.25
269.841	221.25
270.073	224.25
270.306	242.25
270.538	240.25
270.77	253.25
271.002	239.25
271.234	254.25
271.466	251.25
271.698	241.25
271.93	257.25
272.162	261.25
272.394	240.25
272.626	248.25
272.858	240.25
273.09	242.25
273.322	239.25
273.553	238.25
273.785	233.25
274.017	228.25
274.249	235.25
274.481	246.25
274.713	203.25
274.945	223.25
275.176	229.25
275.408	247.25
275.64	242.25
275.872	224.25
276.104	239.25
276.335	241.25
276.567	241.25
276.799	258.25
277.031	258.25
277.262	233.25
277.494	269.25
277.726	263.25
277.957	242.25
278.189	242.25
278.421	245.25
278.652	257.25
278.884	270.25
279.115	250.25
279.347	249.25
279.579	269.25
279.81	264.25
280.042	269.25
280.273	255.25
280.505	267.25
280.736	261.25
280.968	251.25
281.199	243.25
281.431	257.25
281.662	250.25
281.894	254.25
282.125	261.25
282.356	250.25
282.588	289.25
282.819	283.25
283.051	251.25
283.282	264.25
283.513	271.25
283.745	271.25
283.976	265.25
284.207	265.25
284.439	241.25
284.67	266.25
284.901	276.25
285.132	273.25
285.364	270.25
285.595	274.25
285.826	258.25
286.057	271.25
286.288	253.25
286.52	273.25
286.751	275.25
286.982	260.25
287.213	270.25
287.444	253.25
287.675	273.25
287.906	286.25
288.138	296.25
288.369	304.25
288.6	287.25
288.831	274.25
289.062	286.25
289.293	277.25
289.524	260.25
289.755	271.25
289.986	261.25
290.217	262.25
290.448	273.25
290.679	277.25
290.91	280.25
291.141	273.25
291.371	288.25
291.602	291.25
291.833	287.25
292.064	293.25
292.295	261.25
292.526	281.25
292.757	294.25
292.987	293.25
293.218	282.25
293.449	300.25
293.68	277.25
293.91	273.25
294.141	265.25
294.372	278.25
294.603	272.25
294.833	279.25
295.064	280.25
295.295	285.25
295.525	274.25
295.756	273.25
295.987	279.25
296.217	303.25
296.448	295.25
296.679	302.25
296.909	274.25
297.14	298.25
297.37	283.25
297.601	305.25
297.831	280.25
298.062	299.25
298.292	279.25
298.523	298.25
298.753	267.25
298.984	294.25
299.214	298.25
299.445	282.25
299.675	319.25
299.905	299.25
300.136	297.25
300.366	289.25
300.597	298.25
300.827	304.25
301.057	297.25
301.288	311.25
301.518	310.25
301.748	305.25
301.979	315.25
302.209	317.25
302.439	307.25
302.669	316.25
302.9	304.25
303.13	303.25
303.36	317.25
303.59	307.25
303.82	310.25
304.051	322.25
304.281	310.25
304.511	312.25
304.741	313.25
304.971	301.25
305.201	297.25
305.431	302.25
305.661	310.25
305.891	306.25
306.121	307.25
306.352	310.25
306.582	324.25
306.812	318.25
307.042	322.25
307.272	314.25
307.502	307.25
307.731	296.25
307.961	322.25
308.191	344.25
308.421	318.25
308.651	307.25
308.881	321.25
309.111	319.25
309.341	325.25
309.571	336.25
309.8	334.25
310.03	319.25
310.26	352.25
310.49	327.25
310.72	329.25
310.949	330.25
311.179	352.25
311.409	328.25
311.639	339.25
311.868	351.25
312.098	350.25
312.328	355.25
312.557	347.25
312.787	329.25
313.017	373.25
313.246	343.25
313.476	345.25
313.706	341.25
313.935	354.25
314.165	356.25
314.394	354.25
314.624	354.25
314.853	353.25
315.083	353.25
315.312	346.25
315.542	349.25
315.771	331.25
316.001	355.25
316.23	350.25
316.46	357.25
316.689	342.25
316.919	353.25
317.148	369.25
317.377	374.25
317.607	358.25
317.836	325.25
318.065	333.25
318.295	365.25
318.524	354.25
318.753	330.25
318.983	339.25
319.212	362.25
319.441	338.25
319.67	351.25
319.9	354.25
320.129	365.25
320.358	339.25
320.587	357.25
320.816	353.25
321.046	346.25
321.275	345.25
321.504	346.25
321.733	370.25
321.962	362.25
322.191	389.25
322.42	372.25
322.649	379.25
322.878	404.25
323.108	385.25
323.337	405.25
323.566	415.25
323.795	434.25
324.024	471.25
324.253	537.25
324.482	747.25
324.71	1202.25
324.939	1800.25
325.168	1551.25
325.397	757.25
325.626	527.25
325.855	469.25
326.084	435.25
326.313	433.25
326.542	421.25
326.77	478.25
326.999	537.25
327.228	710.25
327.457	1122.25
327.686	1409.25
327.914	909.25
328.143	607.25
328.372	566.25
328.6	487.25
328.829	469.25
329.058	446.25
329.287	473.25
329.515	464.25
329.744	435.25
329.972	425.25
330.201	417.25
330.43	507.25
330.658	465.25
330.887	471.25
331.115	482.25
331.344	445.25
331.572	411.25
331.801	422.25
332.03	433.25
332.258	419.25
332.486	410.25
332.715	415.25
332.943	402.25
333.172	410.25
333.4	430.25
333.629	442.25
333.857	445.25
334.085	440.25
334.314	475.25
334.542	479.25
334.771	498.25
334.999	445.25
335.227	456.25
335.455	432.25
335.684	427.25
335.912	421.25
336.14	415.25
336.369	430.25
336.597	397.25
336.825	426.25
337.053	408.25
337.281	410.25
337.51	410.25
337.738	438.25
337.966	415.25
338.194	434.25
338.422	453.25
338.65	436.25
338.878	410.25
339.106	383.25
339.334	399.25
339.562	381.25
339.79	385.25
340.018	401.25
340.246	387.25
340.474	383.25
340.702	392.25
340.93	389.25
341.158	389.25
341.386	395.25
341.614	392.25
341.842	393.25
342.07	384.25
342.298	389.25
342.526	352.25
342.754	378.25
342.981	401.25
343.209	394.25
343.437	390.25
343.665	398.25
343.893	422.25
344.12	432.25
344.348	433.25
344.576	424.25
344.804	429.25
345.031	409.25
345.259	415.25
345.487	407.25
345.714	410.25
345.942	374.25
346.17	398.25
346.397	382.25
346.625	384.25
346.853	377.25
347.08	377.25
347.308	386.25
347.535	377.25
347.763	379.25
347.99	357.25
348.218	392.25
348.445	394.25
348.673	381.25
348.9	367.25
349.128	378.25
349.355	367.25
349.583	372.25
349.81	379.25
350.037	372.25
350.265	373.25
350.492	373.25
350.72	391.25
350.947	357.25
351.174	370.25
351.402	377.25
351.629	369.25
351.856	377.25
352.083	383.25
352.311	393.25
352.538	376.25
352.765	383.25
352.992	391.25
353.22	357.25
353.447	374.25
353.674	379.25
353.901	383.25
354.128	361.25
354.355	333.25
354.583	372.25
354.81	352.25
355.037	370.25
355.264	362.25
355.491	358.25
355.718	379.25
355.945	351.25
356.172	359.25
356.399	371.25
356.626	361.25
356.853	367.25
357.08	366.25
357.307	356.25
357.534	366.25
357.761	365.25
357.988	369.25
358.215	359.25
358.441	353.25
358.668	358.25
358.895	351.25
359.122	353.25
359.349	374.25
359.576	365.25
359.802	400.25
360.029	413.25
360.256	402.25
360.483	414.25
360.709	381.25
360.936	375.25
361.163	371.25
361.39	369.25
361.616	388.25
361.843	369.25
362.07	367.25
362.296	391.25
362.523	375.25
362.749	382.25
362.976	375.25
363.203	361.25
363.429	370.25
363.656	361.25
363.882	368.25
364.109	369.25
364.335	366.25
364.562	381.25
364.788	370.25
365.015	362.25
365.241	369.25
365.468	363.25
365.694	391.25
365.92	383.25
366.147	371.25
366.373	371.25
366.599	373.25
366.826	367.25
367.052	364.25
367.278	364.25
367.505	360.25
367.731	379.25
367.957	362.25
368.184	383.25
368.41	363.25
368.636	365.25
368.862	359.25
369.089	369.25
369.315	372.25
369.541	366.25
369.767	387.25
369.993	378.25
370.219	371.25
370.445	372.25
370.672	367.25
370.898	381.25
371.124	363.25
371.35	378.25
371.576	393.25
371.802	371.25
372.028	353.25
372.254	377.25
372.48	373.25
372.706	388.25
372.932	403.25
373.158	358.25
373.384	413.25
373.61	378.25
373.835	403.25
374.061	393.25
374.287	384.25
374.513	361.25
374.739	394.25
374.965	403.25
375.191	391.25
375.416	392.25
375.642	389.25
375.868	390.25
376.094	381.25
376.319	385.25
376.545	362.25
376.771	395.25
376.997	355.25
377.222	381.25
377.448	362.25
377.674	361.25
377.899	390.25
378.125	394.25
378.35	368.25
378.576	378.25
378.802	358.25
379.027	362.25
379.253	377.25
379.478	359.25
379.704	383.25
379.929	379.25
380.155	385.25
380.38	374.25
380.606	389.25
380.831	380.25
381.057	389.25
381.282	382.25
381.507	375.25
381.733	396.25
381.958	395.25
382.184	407.25
382.409	400.25
382.634	397.25
382.86	407.25
383.085	396.25
383.31	421.25
383.535	409.25
383.761	381.25
383.986	395.25
384.211	402.25
384.436	411.25
384.662	394.25
384.887	434.25
385.112	428.25
385.337	432.25
385.562	428.25
385.787	431.25
386.013	430.25
386.238	436.25
386.463	468.25
386.688	461.25
386.913	437.25
387.138	445.25
387.363	435.25
387.588	430.25
387.813	456.25
388.038	438.25
388.263	438.25
388.488	451.25
388.713	441.25
388.938	436.25
389.163	426.25
389.387	426.25
389.612	403.25
389.837	417.25
390.062	437.25
390.287	431.25
390.512	407.25
390.736	415.25
390.961	412.25
391.186	439.25
391.411	435.25
391.636	427.25
391.86	462.25
392.085	435.25
392.31	438.25
392.534	463.25
392.759	450.25
392.984	467.25
393.208	490.25
393.433	534.25
393.658	579.25
393.882	471.25
394.107	451.25
394.331	452.25
394.556	431.25
394.78	452.25
395.005	442.25
395.229	427.25
395.454	448.25
395.678	451.25
395.903	460.25
396.127	482.25
396.352	473.25
396.576	472.25
396.801	473.25
397.025	534.25
397.249	495.25
397.474	482.25
397.698	465.25
397.922	484.25
398.147	474.25
398.371	475.25
398.595	509.25
398.82	492.25
399.044	529.25
399.268	544.25
399.492	573.25
399.717	629.25
399.941	648.25
400.165	618.25
400.389	632.25
400.613	582.25
400.837	530.25
401.062	531.25
401.286	512.25
401.51	505.25
401.734	495.25
401.958	512.25
402.182	497.25
402.406	505.25
402.63	526.25
402.854	526.25
403.078	523.25
403.302	515.25
403.526	516.25
403.75	515.25
403.974	511.25
404.198	534.25
404.422	539.25
404.645	509.25
404.869	533.25
405.093	532.25
405.317	576.25
405.541	585.25
405.765	574.25
405.988	530.25
406.212	550.25
406.436	582.25
406.66	581.25
406.883	578.25
407.107	575.25
407.331	605.25
407.555	628.25
407.778	649.25
408.002	611.25
408.226	589.25
408.449	564.25
408.673	586.25
408.896	592.25
409.12	594.25
409.344	591.25
409.567	545.25
409.791	531.25
410.014	519.25
410.238	520.25
410.461	531.25
410.685	517.25
410.908	546.25
411.132	555.25
411.355	587.25
411.578	562.25
411.802	519.25
412.025	529.25
412.249	524.25
412.472	538.25
412.695	541.25
412.919	551.25
413.142	524.25
413.365	499.25
413.589	509.25
413.812	482.25
414.035	504.25
414.258	494.25
414.482	503.25
414.705	491.25
414.928	484.25
415.151	497.25
415.374	485.25
415.597	499.25
415.821	484.25
416.044	476.25
416.267	480.25
416.49	478.25
416.713	486.25
416.936	492.25
417.159	478.25
417.382	488.25
417.605	476.25
417.828	489.25
418.051	507.25
418.274	477.25
418.497	493.25
418.72	487.25
418.943	482.25
419.166	515.25
419.389	545.25
419.611	538.25
419.834	510.25
420.057	528.25
420.28	500.25
420.503	487.25
420.726	500.25
420.948	517.25
421.171	545.25
421.394	536.25
421.617	511.25
421.839	496.25
422.062	494.25
422.285	523.25
422.507	529.25
422.73	616.25
422.953	626.25
423.175	559.25
423.398	501.25
423.621	501.25
423.843	523.25
424.066	517.25
424.288	517.25
424.511	540.25
424.733	568.25
424.956	606.25
425.178	579.25
425.401	581.25
425.623	616.25
425.846	562.25
426.068	531.25
426.291	515.25
426.513	504.25
426.735	513.25
426.958	547.25
427.18	604.25
427.402	680.25
427.625	751.25
427.847	676.25
428.069	595.25
428.292	533.25
428.514	528.25
428.736	497.25
428.958	489.25
429.181	471.25
429.403	470.25
429.625	469.25
429.847	498.25
430.069	534.25
430.292	544.25
430.514	497.25
430.736	467.25
430.958	462.25
431.18	449.25
431.402	441.25
431.624	462.25
431.846	457.25
432.068	460.25
432.29	465.25
432.512	452.25
432.734	466.25
432.956	470.25
433.178	470.25
433.4	466.25
433.622	459.25
433.844	459.25
434.066	457.25
434.287	465.25
434.509	476.25
434.731	486.25
434.953	495.25
435.175	517.25
435.397	505.25
435.618	511.25
435.84	548.25
436.062	614.25
436.284	621.25
436.505	562.25
436.727	517.25
436.949	505.25
437.17	475.25
437.392	470.25
437.614	478.25
437.835	494.25
438.057	534.25
438.278	612.25
438.5	602.25
438.721	678.25
438.943	658.25
439.165	537.25
439.386	519.25
439.608	506.25
439.829	493.25
440.05	554.25
440.272	559.25
440.493	537.25
440.715	513.25
440.936	472.25
441.158	495.25
441.379	495.25
441.6	482.25
441.822	519.25
442.043	531.25
442.264	608.25
442.486	599.25
442.707	553.25
442.928	547.25
443.149	520.25
443.371	551.25
443.592	562.25
443.813	619.25
444.034	685.25
444.255	587.25
444.476	557.25
444.698	547.25
444.919	564.25
445.14	666.25
445.361	581.25
445.582	535.25
445.803	573.25
446.024	656.25
446.245	682.25
446.466	617.25
446.687	547.25
446.908	510.25
447.129	490.25
447.35	477.25
447.571	490.25
447.792	474.25
448.013	491.25
448.234	488.25
448.455	505.25
448.675	580.25
448.896	648.25
449.117	565.25
449.338	535.25
449.559	642.25
449.779	701.25
450	577.25
450.221	500.25
450.442	460.25
450.662	470.25
450.883	446.25
451.104	463.25
451.324	451.25
451.545	448.25
451.766	427.25
451.986	426.25
452.207	414.25
452.428	418.25
452.648	422.25
452.869	430.25
453.089	423.25
453.31	437.25
453.53	426.25
453.751	426.25
453.971	411.25
454.192	447.25
454.412	407.25
454.633	429.25
454.853	401.25
455.073	435.25
455.294	429.25
455.514	504.25
455.734	483.25
455.955	439.25
456.175	413.25
456.395	409.25
456.616	411.25
456.836	416.25
457.056	403.25
457.276	405.25
457.497	401.25
457.717	426.25
457.937	399.25
458.157	403.25
458.377	425.25
458.598	439.25
458.818	480.25
459.038	524.25
459.258	531.25
459.478	498.25
459.698	481.25
459.918	473.25
460.138	505.25
460.358	493.25
460.578	488.25
460.798	477.25
461.018	482.25
461.238	520.25
461.458	487.25
461.678	493.25
461.898	501.25
462.118	493.25
462.338	502.25
462.558	515.25
462.777	515.25
462.997	551.25
463.217	589.25
463.437	575.25
463.657	578.25
463.876	539.25
464.096	543.25
464.316	538.25
464.536	553.25
464.755	567.25
464.975	554.25
465.195	561.25
465.414	574.25
465.634	531.25
465.854	523.25
466.073	458.25
466.293	452.25
466.512	466.25
466.732	452.25
466.951	440.25
467.171	460.25
467.391	452.25
467.61	447.25
467.829	465.25
468.049	443.25
468.268	451.25
468.488	432.25
468.707	419.25
468.927	431.25
469.146	452.25
469.365	438.25
469.585	441.25
469.804	462.25
470.023	449.25
470.243	478.25
470.462	457.25
470.681	480.25
470.901	481.25
471.12	453.25
471.339	451.25
471.558	438.25
471.777	470.25
471.997	456.25
472.216	464.25
472.435	474.25
472.654	479.25
472.873	438.25
473.092	441.25
473.311	437.25
473.53	437.25
473.749	445.25
473.968	472.25
474.187	540.25
474.406	536.25
474.625	478.25
474.844	448.25
475.063	438.25
475.282	436.25
475.501	457.25
475.72	480.25
475.939	478.25
476.158	432.25
476.377	458.25
476.596	466.25
476.814	473.25
477.033	477.25
477.252	486.25
477.471	466.25
477.69	482.25
477.908	490.25
478.127	502.25
478.346	490.25
478.564	512.25
478.783	538.25
479.002	533.25
479.22	529.25
479.439	544.25
479.658	542.25
479.876	537.25
480.095	543.25
480.313	569.25
480.532	573.25
480.751	553.25
480.969	561.25
481.188	618.25
481.406	610.25
481.624	551.25
481.843	561.25
482.061	509.25
482.28	524.25
482.498	555.25
482.717	537.25
482.935	551.25
483.153	530.25
483.372	535.25
483.59	536.25
483.808	528.25
484.027	540.25
484.245	534.25
484.463	538.25
484.681	564.25
484.9	539.25
485.118	530.25
485.336	530.25
485.554	544.25
485.772	548.25
485.99	567.25
486.209	542.25
486.427	559.25
486.645	561.25
486.863	578.25
487.081	562.25
487.299	573.25
487.517	540.25
487.735	563.25
487.953	576.25
488.171	565.25
488.389	573.25
488.607	565.25
488.825	575.25
489.043	552.25
489.261	561.25
489.479	567.25
489.696	578.25
489.914	578.25
490.132	550.25
490.35	576.25
490.568	565.25
490.786	596.25
491.003	566.25
491.221	590.25
491.439	585.25
491.657	593.25
491.874	614.25
492.092	600.25
492.31	605.25
492.527	611.25
492.745	600.25
492.963	601.25
493.18	623.25
493.398	598.25
493.615	618.25
493.833	604.25
494.05	603.25
494.268	630.25
494.485	621.25
494.703	611.25
494.92	627.25
495.138	598.25
495.355	641.25
495.573	656.25
495.79	618.25
496.008	631.25
496.225	608.25
496.442	649.25
496.66	637.25
496.877	628.25
497.094	657.25
497.312	653.25
497.529	645.25
497.746	658.25
497.963	705.25
498.181	716.25
498.398	728.25
498.615	742.25
498.832	744.25
499.049	795.25
499.267	819.25
499.484	885.25
499.701	930.25
499.918	965.25
500.135	1032.25
500.352	1103.25
500.569	1127.25
500.786	1118.25
501.003	1090.25
501.22	1043.25
501.437	998.25
501.654	924.25
501.871	886.25
502.088	850.25
