Data from 1962.PennyLincolnUp.Lamp.En5.5.200Scan.071719.P1._HRD10591_13-55-31-061.txt Node
Date: Thu Jul 18 13:55:31 EDT 2019
User: cochatt
Spectrometer: HR+D1059
Trigger mode: 1
Integration Time (sec): 1.000000E-1
Scans to average: 1
Electric dark correction enabled: true
Nonlinearity correction enabled: false
Boxcar width: 0
XAxis mode: Wavelengths
Number of Pixels in Spectrum: 2048
>>>>>Begin Spectral Data<<<<<
223.165	-4.81
223.4	-4.81
223.635	-4.81
223.869	-11.81
224.104	-24.81
224.338	5.19
224.573	-23.81
224.808	-18.81
225.042	-10.81
225.277	-9.81
225.511	9.19
225.746	-10.81
225.98	-7.81
226.215	7.19
226.449	12.19
226.683	18.19
226.918	25.19
227.152	46.19
227.387	44.19
227.621	29.19
227.856	39.19
228.09	53.19
228.324	48.19
228.559	72.19
228.793	69.19
229.027	82.19
229.262	94.19
229.496	106.19
229.73	114.19
229.964	134.19
230.199	105.19
230.433	117.19
230.667	108.19
230.901	96.19
231.136	110.19
231.37	99.19
231.604	100.19
231.838	113.19
232.072	115.19
232.306	109.19
232.541	107.19
232.775	136.19
233.009	133.19
233.243	108.19
233.477	125.19
233.711	119.19
233.945	117.19
234.179	120.19
234.413	115.19
234.647	113.19
234.881	114.19
235.115	111.19
235.349	113.19
235.583	115.19
235.817	127.19
236.051	151.19
236.285	125.19
236.519	130.19
236.753	129.19
236.987	131.19
237.221	157.19
237.455	195.19
237.689	155.19
237.922	136.19
238.156	125.19
238.39	130.19
238.624	144.19
238.858	127.19
239.091	116.19
239.325	123.19
239.559	114.19
239.793	118.19
240.027	133.19
240.26	140.19
240.494	141.19
240.728	134.19
240.961	137.19
241.195	155.19
241.429	116.19
241.662	132.19
241.896	125.19
242.13	127.19
242.363	134.19
242.597	138.19
242.83	132.19
243.064	141.19
243.298	139.19
243.531	132.19
243.765	133.19
243.998	163.19
244.232	151.19
244.465	132.19
244.699	145.19
244.932	145.19
245.166	138.19
245.399	145.19
245.633	147.19
245.866	156.19
246.099	147.19
246.333	142.19
246.566	143.19
246.8	152.19
247.033	146.19
247.266	137.19
247.5	153.19
247.733	153.19
247.966	163.19
248.2	148.19
248.433	161.19
248.666	185.19
248.899	162.19
249.133	174.19
249.366	192.19
249.599	190.19
249.832	172.19
250.066	161.19
250.299	171.19
250.532	176.19
250.765	207.19
250.998	203.19
251.231	212.19
251.465	193.19
251.698	194.19
251.931	209.19
252.164	187.19
252.397	175.19
252.63	199.19
252.863	187.19
253.096	195.19
253.329	205.19
253.562	204.19
253.795	191.19
254.028	210.19
254.261	208.19
254.494	191.19
254.727	230.19
254.96	236.19
255.193	238.19
255.426	214.19
255.659	205.19
255.892	214.19
256.124	219.19
256.357	210.19
256.59	198.19
256.823	207.19
257.056	197.19
257.289	203.19
257.521	211.19
257.754	212.19
257.987	214.19
258.22	182.19
258.452	184.19
258.685	199.19
258.918	208.19
259.151	202.19
259.383	195.19
259.616	200.19
259.849	216.19
260.081	218.19
260.314	221.19
260.547	233.19
260.779	217.19
261.012	227.19
261.244	218.19
261.477	200.19
261.71	226.19
261.942	221.19
262.175	213.19
262.407	213.19
262.64	208.19
262.872	207.19
263.105	218.19
263.337	217.19
263.57	206.19
263.802	205.19
264.035	221.19
264.267	215.19
264.499	213.19
264.732	197.19
264.964	201.19
265.197	217.19
265.429	225.19
265.661	222.19
265.894	222.19
266.126	234.19
266.358	218.19
266.591	209.19
266.823	231.19
267.055	238.19
267.287	230.19
267.52	219.19
267.752	249.19
267.984	229.19
268.216	217.19
268.448	251.19
268.681	243.19
268.913	237.19
269.145	253.19
269.377	259.19
269.609	261.19
269.841	277.19
270.073	258.19
270.306	256.19
270.538	296.19
270.77	300.19
271.002	296.19
271.234	271.19
271.466	263.19
271.698	294.19
271.93	305.19
272.162	302.19
272.394	282.19
272.626	283.19
272.858	290.19
273.09	281.19
273.322	266.19
273.553	257.19
273.785	259.19
274.017	251.19
274.249	259.19
274.481	259.19
274.713	271.19
274.945	277.19
275.176	268.19
275.408	263.19
275.64	271.19
275.872	256.19
276.104	255.19
276.335	261.19
276.567	281.19
276.799	277.19
277.031	279.19
277.262	286.19
277.494	299.19
277.726	279.19
277.957	281.19
278.189	271.19
278.421	269.19
278.652	275.19
278.884	249.19
279.115	279.19
279.347	273.19
279.579	256.19
279.81	276.19
280.042	266.19
280.273	280.19
280.505	294.19
280.736	261.19
280.968	274.19
281.199	277.19
281.431	281.19
281.662	282.19
281.894	279.19
282.125	281.19
282.356	302.19
282.588	307.19
282.819	290.19
283.051	293.19
283.282	286.19
283.513	274.19
283.745	285.19
283.976	295.19
284.207	282.19
284.439	286.19
284.67	298.19
284.901	283.19
285.132	290.19
285.364	297.19
285.595	285.19
285.826	294.19
286.057	303.19
286.288	279.19
286.52	287.19
286.751	297.19
286.982	297.19
287.213	294.19
287.444	282.19
287.675	290.19
287.906	308.19
288.138	293.19
288.369	300.19
288.6	301.19
288.831	305.19
289.062	324.19
289.293	319.19
289.524	292.19
289.755	295.19
289.986	305.19
290.217	305.19
290.448	327.19
290.679	313.19
290.91	300.19
291.141	313.19
291.371	313.19
291.602	295.19
291.833	306.19
292.064	309.19
292.295	299.19
292.526	307.19
292.757	298.19
292.987	291.19
293.218	307.19
293.449	295.19
293.68	304.19
293.91	301.19
294.141	303.19
294.372	292.19
294.603	317.19
294.833	313.19
295.064	307.19
295.295	321.19
295.525	300.19
295.756	307.19
295.987	299.19
296.217	322.19
296.448	332.19
296.679	320.19
296.909	311.19
297.14	307.19
297.37	316.19
297.601	326.19
297.831	311.19
298.062	304.19
298.292	314.19
298.523	325.19
298.753	318.19
298.984	318.19
299.214	331.19
299.445	315.19
299.675	327.19
299.905	337.19
300.136	319.19
300.366	346.19
300.597	332.19
300.827	326.19
301.057	331.19
301.288	345.19
301.518	334.19
301.748	334.19
301.979	346.19
302.209	334.19
302.439	343.19
302.669	345.19
302.9	359.19
303.13	330.19
303.36	343.19
303.59	340.19
303.82	338.19
304.051	351.19
304.281	327.19
304.511	357.19
304.741	359.19
304.971	342.19
305.201	334.19
305.431	347.19
305.661	357.19
305.891	361.19
306.121	351.19
306.352	342.19
306.582	323.19
306.812	340.19
307.042	325.19
307.272	341.19
307.502	345.19
307.731	345.19
307.961	358.19
308.191	326.19
308.421	339.19
308.651	350.19
308.881	342.19
309.111	341.19
309.341	358.19
309.571	356.19
309.8	339.19
310.03	366.19
310.26	372.19
310.49	369.19
310.72	387.19
310.949	381.19
311.179	380.19
311.409	363.19
311.639	370.19
311.868	374.19
312.098	374.19
312.328	380.19
312.557	378.19
312.787	386.19
313.017	405.19
313.246	386.19
313.476	367.19
313.706	387.19
313.935	393.19
314.165	384.19
314.394	389.19
314.624	378.19
314.853	389.19
315.083	377.19
315.312	382.19
315.542	373.19
315.771	383.19
316.001	366.19
316.23	381.19
316.46	379.19
316.689	377.19
316.919	392.19
317.148	391.19
317.377	404.19
317.607	384.19
317.836	391.19
318.065	378.19
318.295	377.19
318.524	393.19
318.753	374.19
318.983	362.19
319.212	380.19
319.441	363.19
319.67	383.19
319.9	401.19
320.129	398.19
320.358	378.19
320.587	398.19
320.816	383.19
321.046	394.19
321.275	386.19
321.504	400.19
321.733	401.19
321.962	430.19
322.191	414.19
322.42	403.19
322.649	400.19
322.878	405.19
323.108	431.19
323.337	435.19
323.566	461.19
323.795	480.19
324.024	490.19
324.253	581.19
324.482	781.19
324.71	1107.19
324.939	1579.19
325.168	1405.19
325.397	758.19
325.626	568.19
325.855	495.19
326.084	471.19
326.313	467.19
326.542	449.19
326.77	495.19
326.999	567.19
327.228	731.19
327.457	1025.19
327.686	1199.19
327.914	839.19
328.143	614.19
328.372	537.19
328.6	533.19
328.829	506.19
329.058	511.19
329.287	524.19
329.515	492.19
329.744	488.19
329.972	458.19
330.201	499.19
330.43	526.19
330.658	525.19
330.887	531.19
331.115	506.19
331.344	478.19
331.572	486.19
331.801	478.19
332.03	489.19
332.258	486.19
332.486	458.19
332.715	467.19
332.943	470.19
333.172	477.19
333.4	484.19
333.629	502.19
333.857	523.19
334.085	519.19
334.314	518.19
334.542	517.19
334.771	548.19
334.999	519.19
335.227	490.19
335.455	497.19
335.684	478.19
335.912	492.19
336.14	469.19
336.369	460.19
336.597	455.19
336.825	469.19
337.053	478.19
337.281	462.19
337.51	461.19
337.738	450.19
337.966	453.19
338.194	452.19
338.422	448.19
338.65	461.19
338.878	440.19
339.106	454.19
339.334	454.19
339.562	434.19
339.79	428.19
340.018	435.19
340.246	429.19
340.474	439.19
340.702	435.19
340.93	444.19
341.158	441.19
341.386	427.19
341.614	438.19
341.842	431.19
342.07	440.19
342.298	426.19
342.526	442.19
342.754	426.19
342.981	441.19
343.209	440.19
343.437	455.19
343.665	452.19
343.893	457.19
344.12	466.19
344.348	489.19
344.576	473.19
344.804	460.19
345.031	440.19
345.259	435.19
345.487	426.19
345.714	438.19
345.942	433.19
346.17	418.19
346.397	425.19
346.625	425.19
346.853	424.19
347.08	408.19
347.308	418.19
347.535	427.19
347.763	450.19
347.99	433.19
348.218	425.19
348.445	427.19
348.673	436.19
348.9	438.19
349.128	417.19
349.355	422.19
349.583	400.19
349.81	413.19
350.037	415.19
350.265	420.19
350.492	426.19
350.72	397.19
350.947	407.19
351.174	415.19
351.402	405.19
351.629	421.19
351.856	439.19
352.083	426.19
352.311	422.19
352.538	404.19
352.765	415.19
352.992	417.19
353.22	415.19
353.447	396.19
353.674	410.19
353.901	423.19
354.128	403.19
354.355	413.19
354.583	383.19
354.81	395.19
355.037	402.19
355.264	401.19
355.491	409.19
355.718	384.19
355.945	403.19
356.172	409.19
356.399	382.19
356.626	385.19
356.853	391.19
357.08	403.19
357.307	386.19
357.534	394.19
357.761	373.19
357.988	413.19
358.215	408.19
358.441	409.19
358.668	395.19
358.895	405.19
359.122	407.19
359.349	419.19
359.576	418.19
359.802	447.19
360.029	435.19
360.256	434.19
360.483	434.19
360.709	418.19
360.936	423.19
361.163	389.19
361.39	425.19
361.616	421.19
361.843	413.19
362.07	383.19
362.296	410.19
362.523	425.19
362.749	424.19
362.976	412.19
363.203	428.19
363.429	395.19
363.656	405.19
363.882	403.19
364.109	409.19
364.335	423.19
364.562	404.19
364.788	402.19
365.015	400.19
365.241	396.19
365.468	414.19
365.694	412.19
365.92	399.19
366.147	402.19
366.373	398.19
366.599	401.19
366.826	400.19
367.052	390.19
367.278	393.19
367.505	392.19
367.731	393.19
367.957	414.19
368.184	415.19
368.41	413.19
368.636	395.19
368.862	397.19
369.089	395.19
369.315	418.19
369.541	413.19
369.767	401.19
369.993	413.19
370.219	408.19
370.445	391.19
370.672	392.19
370.898	399.19
371.124	417.19
371.35	411.19
371.576	428.19
371.802	414.19
372.028	412.19
372.254	443.19
372.48	414.19
372.706	417.19
372.932	413.19
373.158	423.19
373.384	439.19
373.61	421.19
373.835	412.19
374.061	416.19
374.287	413.19
374.513	411.19
374.739	418.19
374.965	449.19
375.191	421.19
375.416	442.19
375.642	422.19
375.868	430.19
376.094	418.19
376.319	417.19
376.545	420.19
376.771	418.19
376.997	400.19
377.222	428.19
377.448	418.19
377.674	416.19
377.899	416.19
378.125	418.19
378.35	427.19
378.576	413.19
378.802	415.19
379.027	415.19
379.253	436.19
379.478	393.19
379.704	423.19
379.929	423.19
380.155	422.19
380.38	411.19
380.606	418.19
380.831	422.19
381.057	427.19
381.282	414.19
381.507	426.19
381.733	418.19
381.958	428.19
382.184	415.19
382.409	422.19
382.634	421.19
382.86	443.19
383.085	443.19
383.31	403.19
383.535	416.19
383.761	430.19
383.986	423.19
384.211	434.19
384.436	467.19
384.662	443.19
384.887	458.19
385.112	450.19
385.337	458.19
385.562	473.19
385.787	486.19
386.013	471.19
386.238	477.19
386.463	473.19
386.688	482.19
386.913	475.19
387.138	465.19
387.363	461.19
387.588	467.19
387.813	474.19
388.038	460.19
388.263	470.19
388.488	454.19
388.713	454.19
388.938	462.19
389.163	448.19
389.387	474.19
389.612	468.19
389.837	485.19
390.062	455.19
390.287	473.19
390.512	455.19
390.736	470.19
390.961	462.19
391.186	461.19
391.411	475.19
391.636	485.19
391.86	513.19
392.085	516.19
392.31	489.19
392.534	502.19
392.759	497.19
392.984	488.19
393.208	470.19
393.433	499.19
393.658	473.19
393.882	481.19
394.107	488.19
394.331	475.19
394.556	492.19
394.78	469.19
395.005	474.19
395.229	476.19
395.454	495.19
395.678	515.19
395.903	515.19
396.127	518.19
396.352	512.19
396.576	491.19
396.801	489.19
397.025	503.19
397.249	535.19
397.474	511.19
397.698	505.19
397.922	519.19
398.147	532.19
398.371	531.19
398.595	525.19
398.82	547.19
399.044	563.19
399.268	618.19
399.492	677.19
399.717	680.19
399.941	706.19
400.165	713.19
400.389	695.19
400.613	638.19
400.837	613.19
401.062	577.19
401.286	550.19
401.51	551.19
401.734	597.19
401.958	559.19
402.182	559.19
402.406	570.19
402.63	581.19
402.854	585.19
403.078	557.19
403.302	577.19
403.526	565.19
403.75	601.19
403.974	602.19
404.198	602.19
404.422	597.19
404.645	602.19
404.869	613.19
405.093	610.19
405.317	630.19
405.541	661.19
405.765	608.19
405.988	607.19
406.212	610.19
406.436	625.19
406.66	627.19
406.883	623.19
407.107	634.19
407.331	683.19
407.555	748.19
407.778	756.19
408.002	663.19
408.226	628.19
408.449	637.19
408.673	637.19
408.896	658.19
409.12	653.19
409.344	659.19
409.567	591.19
409.791	625.19
410.014	623.19
410.238	589.19
410.461	587.19
410.685	574.19
410.908	565.19
411.132	624.19
411.355	646.19
411.578	599.19
411.802	566.19
412.025	547.19
412.249	579.19
412.472	595.19
412.695	646.19
412.919	609.19
413.142	583.19
413.365	591.19
413.589	587.19
413.812	557.19
414.035	566.19
414.258	545.19
414.482	549.19
414.705	540.19
414.928	563.19
415.151	549.19
415.374	549.19
415.597	537.19
415.821	547.19
416.044	532.19
416.267	548.19
416.49	526.19
416.713	555.19
416.936	551.19
417.159	533.19
417.382	545.19
417.605	555.19
417.828	563.19
418.051	545.19
418.274	548.19
418.497	525.19
418.72	572.19
418.943	543.19
419.166	574.19
419.389	600.19
419.611	613.19
419.834	571.19
420.057	587.19
420.28	538.19
420.503	565.19
420.726	541.19
420.948	554.19
421.171	607.19
421.394	639.19
421.617	567.19
421.839	555.19
422.062	561.19
422.285	577.19
422.507	616.19
422.73	665.19
422.953	659.19
423.175	589.19
423.398	582.19
423.621	597.19
423.843	596.19
424.066	589.19
424.288	606.19
424.511	594.19
424.733	649.19
424.956	710.19
425.178	685.19
425.401	701.19
425.623	707.19
425.846	613.19
426.068	612.19
426.291	570.19
426.513	566.19
426.735	579.19
426.958	581.19
427.18	675.19
427.402	787.19
427.625	847.19
427.847	734.19
428.069	619.19
428.292	593.19
428.514	535.19
428.736	543.19
428.958	539.19
429.181	528.19
429.403	515.19
429.625	545.19
429.847	588.19
430.069	608.19
430.292	606.19
430.514	574.19
430.736	541.19
430.958	519.19
431.18	501.19
431.402	516.19
431.624	492.19
431.846	501.19
432.068	525.19
432.29	517.19
432.512	506.19
432.734	490.19
432.956	500.19
433.178	525.19
433.4	514.19
433.622	507.19
433.844	519.19
434.066	523.19
434.287	533.19
434.509	533.19
434.731	531.19
434.953	546.19
435.175	551.19
435.397	594.19
435.618	563.19
435.84	610.19
436.062	690.19
436.284	736.19
436.505	638.19
436.727	583.19
436.949	565.19
437.17	543.19
437.392	524.19
437.614	536.19
437.835	573.19
438.057	627.19
438.278	706.19
438.5	701.19
438.721	809.19
438.943	754.19
439.165	606.19
439.386	589.19
439.608	589.19
439.829	538.19
440.05	575.19
440.272	622.19
440.493	589.19
440.715	599.19
440.936	537.19
441.158	555.19
441.379	556.19
441.6	569.19
441.822	549.19
442.043	627.19
442.264	679.19
442.486	724.19
442.707	619.19
442.928	578.19
443.149	599.19
443.371	598.19
443.592	619.19
443.813	707.19
444.034	764.19
444.255	656.19
444.476	619.19
444.698	617.19
444.919	618.19
445.14	689.19
445.361	657.19
445.582	639.19
445.803	645.19
446.024	747.19
446.245	743.19
446.466	667.19
446.687	600.19
446.908	573.19
447.129	549.19
447.35	507.19
447.571	534.19
447.792	528.19
448.013	526.19
448.234	540.19
448.455	567.19
448.675	678.19
448.896	735.19
449.117	643.19
449.338	606.19
449.559	728.19
449.779	797.19
450	637.19
450.221	569.19
450.442	513.19
450.662	511.19
450.883	506.19
451.104	487.19
451.324	497.19
451.545	488.19
451.766	485.19
451.986	484.19
452.207	467.19
452.428	448.19
452.648	488.19
452.869	467.19
453.089	460.19
453.31	477.19
453.53	490.19
453.751	474.19
453.971	467.19
454.192	467.19
454.412	471.19
454.633	459.19
454.853	474.19
455.073	473.19
455.294	492.19
455.514	545.19
455.734	554.19
455.955	480.19
456.175	468.19
456.395	462.19
456.616	454.19
456.836	447.19
457.056	443.19
457.276	454.19
457.497	465.19
457.717	444.19
457.937	446.19
458.157	461.19
458.377	458.19
458.598	488.19
458.818	535.19
459.038	593.19
459.258	604.19
459.478	510.19
459.698	526.19
459.918	521.19
460.138	545.19
460.358	536.19
460.578	524.19
460.798	557.19
461.018	551.19
461.238	565.19
461.458	547.19
461.678	537.19
461.898	570.19
462.118	532.19
462.338	574.19
462.558	600.19
462.777	606.19
462.997	619.19
463.217	634.19
463.437	645.19
463.657	622.19
463.876	604.19
464.096	617.19
464.316	596.19
464.536	610.19
464.755	601.19
464.975	599.19
465.195	567.19
465.414	602.19
465.634	562.19
465.854	522.19
466.073	551.19
466.293	516.19
466.512	497.19
466.732	497.19
466.951	491.19
467.171	495.19
467.391	479.19
467.61	494.19
467.829	507.19
468.049	499.19
468.268	504.19
468.488	495.19
468.707	478.19
468.927	474.19
469.146	483.19
469.365	498.19
469.585	489.19
469.804	469.19
470.023	471.19
470.243	478.19
470.462	532.19
470.681	517.19
470.901	496.19
471.12	521.19
471.339	506.19
471.558	471.19
471.777	508.19
471.997	487.19
472.216	493.19
472.435	495.19
472.654	499.19
472.873	485.19
473.092	484.19
473.311	488.19
473.53	466.19
473.749	501.19
473.968	522.19
474.187	598.19
474.406	620.19
474.625	563.19
474.844	493.19
475.063	503.19
475.282	501.19
475.501	489.19
475.72	511.19
475.939	513.19
476.158	482.19
476.377	527.19
476.596	497.19
476.814	515.19
477.033	518.19
477.252	518.19
477.471	521.19
477.69	533.19
477.908	550.19
478.127	548.19
478.346	542.19
478.564	594.19
478.783	533.19
479.002	585.19
479.22	579.19
479.439	581.19
479.658	603.19
479.876	595.19
480.095	609.19
480.313	627.19
480.532	611.19
480.751	639.19
480.969	634.19
481.188	647.19
481.406	639.19
481.624	617.19
481.843	606.19
482.061	587.19
482.28	582.19
482.498	563.19
482.717	580.19
482.935	589.19
483.153	562.19
483.372	561.19
483.59	565.19
483.808	570.19
484.027	559.19
484.245	588.19
484.463	556.19
484.681	593.19
484.9	597.19
485.118	584.19
485.336	593.19
485.554	581.19
485.772	580.19
485.99	590.19
486.209	612.19
486.427	595.19
486.645	606.19
486.863	589.19
487.081	619.19
487.299	605.19
487.517	610.19
487.735	602.19
487.953	606.19
488.171	591.19
488.389	600.19
488.607	625.19
488.825	607.19
489.043	595.19
489.261	640.19
489.479	625.19
489.696	619.19
489.914	631.19
490.132	619.19
490.35	633.19
490.568	637.19
490.786	635.19
491.003	653.19
491.221	638.19
491.439	653.19
491.657	674.19
491.874	647.19
492.092	650.19
492.31	700.19
492.527	663.19
492.745	679.19
492.963	676.19
493.18	687.19
493.398	673.19
493.615	691.19
493.833	674.19
494.05	656.19
494.268	676.19
494.485	683.19
494.703	690.19
494.92	704.19
495.138	702.19
495.355	702.19
495.573	723.19
495.79	693.19
496.008	710.19
496.225	694.19
496.442	701.19
496.66	734.19
496.877	699.19
497.094	707.19
497.312	729.19
497.529	733.19
497.746	729.19
497.963	766.19
498.181	805.19
498.398	831.19
498.615	817.19
498.832	868.19
499.049	892.19
499.267	907.19
499.484	948.19
499.701	1034.19
499.918	1064.19
500.135	1161.19
500.352	1212.19
500.569	1262.19
500.786	1230.19
501.003	1223.19
501.22	1173.19
501.437	1081.19
501.654	1027.19
501.871	1016.19
