Data from 1962.PennyLincolnUp.Lamp.En5.5.200Scan.071719.P1._HRD10591_13-53-59-061.txt Node
Date: Thu Jul 18 13:53:59 EDT 2019
User: cochatt
Spectrometer: HR+D1059
Trigger mode: 1
Integration Time (sec): 1.000000E-1
Scans to average: 1
Electric dark correction enabled: true
Nonlinearity correction enabled: false
Boxcar width: 0
XAxis mode: Wavelengths
Number of Pixels in Spectrum: 2048
>>>>>Begin Spectral Data<<<<<
223.165	-19.81
223.4	-19.81
223.635	-19.81
223.869	-34.81
224.104	-8.81
224.338	-22.81
224.573	-2.81
224.808	-11.81
225.042	4.19
225.277	0.19
225.511	-2.81
225.746	9.19
225.98	3.19
226.215	8.19
226.449	21.19
226.683	14.19
226.918	29.19
227.152	14.19
227.387	42.19
227.621	33.19
227.856	47.19
228.09	51.19
228.324	55.19
228.559	58.19
228.793	64.19
229.027	83.19
229.262	83.19
229.496	75.19
229.73	104.19
229.964	112.19
230.199	107.19
230.433	93.19
230.667	107.19
230.901	109.19
231.136	90.19
231.37	97.19
231.604	107.19
231.838	121.19
232.072	106.19
232.306	104.19
232.541	108.19
232.775	102.19
233.009	115.19
233.243	119.19
233.477	123.19
233.711	109.19
233.945	108.19
234.179	111.19
234.413	121.19
234.647	112.19
234.881	128.19
235.115	116.19
235.349	117.19
235.583	113.19
235.817	109.19
236.051	123.19
236.285	91.19
236.519	117.19
236.753	117.19
236.987	122.19
237.221	149.19
237.455	178.19
237.689	151.19
237.922	121.19
238.156	116.19
238.39	124.19
238.624	123.19
238.858	109.19
239.091	117.19
239.325	115.19
239.559	108.19
239.793	123.19
240.027	113.19
240.26	127.19
240.494	147.19
240.728	139.19
240.961	131.19
241.195	130.19
241.429	135.19
241.662	132.19
241.896	124.19
242.13	118.19
242.363	114.19
242.597	128.19
242.83	127.19
243.064	113.19
243.298	122.19
243.531	125.19
243.765	140.19
243.998	131.19
244.232	136.19
244.465	131.19
244.699	140.19
244.932	144.19
245.166	122.19
245.399	143.19
245.633	147.19
245.866	136.19
246.099	136.19
246.333	152.19
246.566	128.19
246.8	151.19
247.033	115.19
247.266	142.19
247.5	139.19
247.733	155.19
247.966	152.19
248.2	145.19
248.433	148.19
248.666	141.19
248.899	167.19
249.133	149.19
249.366	169.19
249.599	151.19
249.832	158.19
250.066	156.19
250.299	168.19
250.532	163.19
250.765	173.19
250.998	182.19
251.231	183.19
251.465	171.19
251.698	177.19
251.931	181.19
252.164	178.19
252.397	183.19
252.63	154.19
252.863	180.19
253.096	193.19
253.329	181.19
253.562	190.19
253.795	200.19
254.028	177.19
254.261	193.19
254.494	179.19
254.727	207.19
254.96	223.19
255.193	225.19
255.426	205.19
255.659	188.19
255.892	194.19
256.124	188.19
256.357	207.19
256.59	200.19
256.823	185.19
257.056	185.19
257.289	198.19
257.521	211.19
257.754	177.19
257.987	175.19
258.22	183.19
258.452	177.19
258.685	197.19
258.918	193.19
259.151	205.19
259.383	201.19
259.616	194.19
259.849	200.19
260.081	202.19
260.314	211.19
260.547	213.19
260.779	213.19
261.012	218.19
261.244	190.19
261.477	189.19
261.71	217.19
261.942	209.19
262.175	195.19
262.407	176.19
262.64	206.19
262.872	206.19
263.105	194.19
263.337	185.19
263.57	191.19
263.802	196.19
264.035	200.19
264.267	202.19
264.499	200.19
264.732	200.19
264.964	204.19
265.197	212.19
265.429	195.19
265.661	195.19
265.894	225.19
266.126	210.19
266.358	171.19
266.591	199.19
266.823	215.19
267.055	195.19
267.287	195.19
267.52	202.19
267.752	203.19
267.984	203.19
268.216	213.19
268.448	223.19
268.681	211.19
268.913	221.19
269.145	228.19
269.377	240.19
269.609	218.19
269.841	213.19
270.073	234.19
270.306	231.19
270.538	255.19
270.77	280.19
271.002	263.19
271.234	267.19
271.466	249.19
271.698	255.19
271.93	277.19
272.162	267.19
272.394	267.19
272.626	245.19
272.858	237.19
273.09	239.19
273.322	237.19
273.553	256.19
273.785	235.19
274.017	264.19
274.249	232.19
274.481	222.19
274.713	251.19
274.945	257.19
275.176	245.19
275.408	243.19
275.64	257.19
275.872	258.19
276.104	257.19
276.335	238.19
276.567	244.19
276.799	247.19
277.031	261.19
277.262	278.19
277.494	269.19
277.726	256.19
277.957	263.19
278.189	256.19
278.421	265.19
278.652	261.19
278.884	277.19
279.115	259.19
279.347	234.19
279.579	229.19
279.81	258.19
280.042	250.19
280.273	267.19
280.505	253.19
280.736	263.19
280.968	259.19
281.199	267.19
281.431	256.19
281.662	245.19
281.894	251.19
282.125	261.19
282.356	275.19
282.588	267.19
282.819	283.19
283.051	273.19
283.282	279.19
283.513	261.19
283.745	266.19
283.976	267.19
284.207	281.19
284.439	279.19
284.67	267.19
284.901	251.19
285.132	268.19
285.364	260.19
285.595	283.19
285.826	279.19
286.057	267.19
286.288	273.19
286.52	276.19
286.751	265.19
286.982	274.19
287.213	263.19
287.444	281.19
287.675	277.19
287.906	312.19
288.138	300.19
288.369	286.19
288.6	286.19
288.831	290.19
289.062	280.19
289.293	280.19
289.524	282.19
289.755	292.19
289.986	287.19
290.217	268.19
290.448	275.19
290.679	282.19
290.91	295.19
291.141	295.19
291.371	282.19
291.602	283.19
291.833	276.19
292.064	300.19
292.295	307.19
292.526	281.19
292.757	283.19
292.987	278.19
293.218	296.19
293.449	295.19
293.68	277.19
293.91	286.19
294.141	275.19
294.372	281.19
294.603	284.19
294.833	295.19
295.064	299.19
295.295	283.19
295.525	281.19
295.756	320.19
295.987	303.19
296.217	304.19
296.448	306.19
296.679	318.19
296.909	290.19
297.14	283.19
297.37	283.19
297.601	319.19
297.831	300.19
298.062	295.19
298.292	297.19
298.523	306.19
298.753	312.19
298.984	298.19
299.214	303.19
299.445	298.19
299.675	292.19
299.905	316.19
300.136	307.19
300.366	312.19
300.597	300.19
300.827	299.19
301.057	312.19
301.288	316.19
301.518	304.19
301.748	306.19
301.979	321.19
302.209	347.19
302.439	342.19
302.669	325.19
302.9	325.19
303.13	333.19
303.36	345.19
303.59	314.19
303.82	328.19
304.051	324.19
304.281	331.19
304.511	322.19
304.741	331.19
304.971	298.19
305.201	317.19
305.431	325.19
305.661	315.19
305.891	323.19
306.121	323.19
306.352	346.19
306.582	330.19
306.812	308.19
307.042	323.19
307.272	331.19
307.502	327.19
307.731	308.19
307.961	310.19
308.191	346.19
308.421	331.19
308.651	319.19
308.881	320.19
309.111	317.19
309.341	323.19
309.571	337.19
309.8	333.19
310.03	344.19
310.26	338.19
310.49	334.19
310.72	340.19
310.949	339.19
311.179	356.19
311.409	347.19
311.639	342.19
311.868	353.19
312.098	356.19
312.328	361.19
312.557	374.19
312.787	368.19
313.017	370.19
313.246	356.19
313.476	360.19
313.706	357.19
313.935	349.19
314.165	363.19
314.394	369.19
314.624	369.19
314.853	371.19
315.083	373.19
315.312	367.19
315.542	349.19
315.771	352.19
316.001	349.19
316.23	336.19
316.46	332.19
316.689	368.19
316.919	372.19
317.148	364.19
317.377	379.19
317.607	353.19
317.836	355.19
318.065	346.19
318.295	356.19
318.524	359.19
318.753	369.19
318.983	358.19
319.212	351.19
319.441	335.19
319.67	344.19
319.9	370.19
320.129	329.19
320.358	349.19
320.587	343.19
320.816	372.19
321.046	362.19
321.275	351.19
321.504	362.19
321.733	355.19
321.962	358.19
322.191	383.19
322.42	379.19
322.649	383.19
322.878	405.19
323.108	387.19
323.337	387.19
323.566	418.19
323.795	409.19
324.024	450.19
324.253	481.19
324.482	631.19
324.71	937.19
324.939	1297.19
325.168	1146.19
325.397	633.19
325.626	507.19
325.855	451.19
326.084	424.19
326.313	428.19
326.542	428.19
326.77	460.19
326.999	482.19
327.228	621.19
327.457	858.19
327.686	993.19
327.914	742.19
328.143	548.19
328.372	497.19
328.6	464.19
328.829	450.19
329.058	467.19
329.287	473.19
329.515	456.19
329.744	428.19
329.972	437.19
330.201	450.19
330.43	469.19
330.658	469.19
330.887	486.19
331.115	479.19
331.344	447.19
331.572	407.19
331.801	440.19
332.03	428.19
332.258	426.19
332.486	424.19
332.715	445.19
332.943	438.19
333.172	453.19
333.4	462.19
333.629	466.19
333.857	473.19
334.085	495.19
334.314	469.19
334.542	498.19
334.771	484.19
334.999	458.19
335.227	473.19
335.455	472.19
335.684	444.19
335.912	454.19
336.14	439.19
336.369	435.19
336.597	444.19
336.825	444.19
337.053	409.19
337.281	429.19
337.51	415.19
337.738	408.19
337.966	423.19
338.194	419.19
338.422	433.19
338.65	411.19
338.878	391.19
339.106	431.19
339.334	427.19
339.562	408.19
339.79	424.19
340.018	400.19
340.246	376.19
340.474	395.19
340.702	425.19
340.93	412.19
341.158	412.19
341.386	408.19
341.614	405.19
341.842	397.19
342.07	400.19
342.298	393.19
342.526	407.19
342.754	398.19
342.981	408.19
343.209	423.19
343.437	431.19
343.665	421.19
343.893	447.19
344.12	439.19
344.348	441.19
344.576	451.19
344.804	449.19
345.031	441.19
345.259	429.19
345.487	409.19
345.714	431.19
345.942	408.19
346.17	409.19
346.397	378.19
346.625	394.19
346.853	393.19
347.08	389.19
347.308	382.19
347.535	399.19
347.763	415.19
347.99	385.19
348.218	394.19
348.445	397.19
348.673	390.19
348.9	387.19
349.128	400.19
349.355	381.19
349.583	369.19
349.81	388.19
350.037	377.19
350.265	397.19
350.492	384.19
350.72	383.19
350.947	395.19
351.174	387.19
351.402	380.19
351.629	383.19
351.856	422.19
352.083	379.19
352.311	393.19
352.538	373.19
352.765	384.19
352.992	387.19
353.22	363.19
353.447	375.19
353.674	355.19
353.901	387.19
354.128	382.19
354.355	377.19
354.583	378.19
354.81	359.19
355.037	375.19
355.264	369.19
355.491	383.19
355.718	364.19
355.945	371.19
356.172	377.19
356.399	363.19
356.626	364.19
356.853	383.19
357.08	371.19
357.307	364.19
357.534	380.19
357.761	360.19
357.988	392.19
358.215	369.19
358.441	371.19
358.668	378.19
358.895	372.19
359.122	371.19
359.349	401.19
359.576	397.19
359.802	405.19
360.029	385.19
360.256	401.19
360.483	389.19
360.709	391.19
360.936	405.19
361.163	377.19
361.39	376.19
361.616	377.19
361.843	380.19
362.07	385.19
362.296	375.19
362.523	379.19
362.749	377.19
362.976	374.19
363.203	379.19
363.429	390.19
363.656	383.19
363.882	388.19
364.109	383.19
364.335	387.19
364.562	379.19
364.788	356.19
365.015	379.19
365.241	362.19
365.468	373.19
365.694	383.19
365.92	406.19
366.147	382.19
366.373	380.19
366.599	342.19
366.826	391.19
367.052	376.19
367.278	372.19
367.505	379.19
367.731	392.19
367.957	402.19
368.184	374.19
368.41	394.19
368.636	377.19
368.862	385.19
369.089	383.19
369.315	381.19
369.541	375.19
369.767	392.19
369.993	380.19
370.219	403.19
370.445	385.19
370.672	390.19
370.898	397.19
371.124	383.19
371.35	376.19
371.576	382.19
371.802	394.19
372.028	390.19
372.254	389.19
372.48	381.19
372.706	404.19
372.932	387.19
373.158	410.19
373.384	404.19
373.61	392.19
373.835	417.19
374.061	393.19
374.287	390.19
374.513	403.19
374.739	375.19
374.965	423.19
375.191	419.19
375.416	415.19
375.642	397.19
375.868	409.19
376.094	401.19
376.319	386.19
376.545	405.19
376.771	379.19
376.997	379.19
377.222	388.19
377.448	395.19
377.674	399.19
377.899	378.19
378.125	389.19
378.35	391.19
378.576	388.19
378.802	396.19
379.027	375.19
379.253	373.19
379.478	402.19
379.704	385.19
379.929	388.19
380.155	375.19
380.38	400.19
380.606	388.19
380.831	397.19
381.057	404.19
381.282	391.19
381.507	410.19
381.733	405.19
381.958	399.19
382.184	388.19
382.409	409.19
382.634	415.19
382.86	408.19
383.085	417.19
383.31	403.19
383.535	412.19
383.761	419.19
383.986	417.19
384.211	431.19
384.436	447.19
384.662	410.19
384.887	443.19
385.112	449.19
385.337	444.19
385.562	456.19
385.787	441.19
386.013	468.19
386.238	440.19
386.463	440.19
386.688	445.19
386.913	434.19
387.138	456.19
387.363	457.19
387.588	443.19
387.813	428.19
388.038	428.19
388.263	458.19
388.488	444.19
388.713	439.19
388.938	453.19
389.163	432.19
389.387	442.19
389.612	435.19
389.837	456.19
390.062	443.19
390.287	451.19
390.512	429.19
390.736	437.19
390.961	467.19
391.186	451.19
391.411	437.19
391.636	485.19
391.86	474.19
392.085	499.19
392.31	485.19
392.534	475.19
392.759	443.19
392.984	473.19
393.208	465.19
393.433	480.19
393.658	456.19
393.882	461.19
394.107	451.19
394.331	443.19
394.556	453.19
394.78	458.19
395.005	474.19
395.229	474.19
395.454	473.19
395.678	472.19
395.903	477.19
396.127	469.19
396.352	488.19
396.576	472.19
396.801	443.19
397.025	476.19
397.249	472.19
397.474	473.19
397.698	498.19
397.922	519.19
398.147	518.19
398.371	532.19
398.595	533.19
398.82	507.19
399.044	513.19
399.268	550.19
399.492	610.19
399.717	660.19
399.941	670.19
400.165	670.19
400.389	648.19
400.613	579.19
400.837	565.19
401.062	550.19
401.286	518.19
401.51	525.19
401.734	508.19
401.958	535.19
402.182	523.19
402.406	522.19
402.63	543.19
402.854	523.19
403.078	529.19
403.302	543.19
403.526	545.19
403.75	551.19
403.974	577.19
404.198	545.19
404.422	562.19
404.645	579.19
404.869	581.19
405.093	587.19
405.317	617.19
405.541	615.19
405.765	607.19
405.988	568.19
406.212	561.19
406.436	554.19
406.66	603.19
406.883	554.19
407.107	593.19
407.331	642.19
407.555	701.19
407.778	664.19
408.002	621.19
408.226	600.19
408.449	594.19
408.673	587.19
408.896	619.19
409.12	610.19
409.344	598.19
409.567	552.19
409.791	557.19
410.014	529.19
410.238	549.19
410.461	544.19
410.685	552.19
410.908	528.19
411.132	583.19
411.355	604.19
411.578	589.19
411.802	562.19
412.025	527.19
412.249	543.19
412.472	568.19
412.695	611.19
412.919	578.19
413.142	543.19
413.365	549.19
413.589	536.19
413.812	499.19
414.035	541.19
414.258	508.19
414.482	532.19
414.705	518.19
414.928	524.19
415.151	514.19
415.374	509.19
415.597	536.19
415.821	497.19
416.044	512.19
416.267	535.19
416.49	521.19
416.713	489.19
416.936	521.19
417.159	497.19
417.382	534.19
417.605	484.19
417.828	526.19
418.051	523.19
418.274	520.19
418.497	509.19
418.72	516.19
418.943	496.19
419.166	543.19
419.389	565.19
419.611	560.19
419.834	556.19
420.057	559.19
420.28	534.19
420.503	501.19
420.726	528.19
420.948	516.19
421.171	550.19
421.394	570.19
421.617	535.19
421.839	531.19
422.062	516.19
422.285	510.19
422.507	563.19
422.73	628.19
422.953	604.19
423.175	560.19
423.398	543.19
423.621	540.19
423.843	560.19
424.066	560.19
424.288	556.19
424.511	583.19
424.733	584.19
424.956	655.19
425.178	625.19
425.401	621.19
425.623	641.19
425.846	567.19
426.068	533.19
426.291	539.19
426.513	538.19
426.735	546.19
426.958	571.19
427.18	617.19
427.402	693.19
427.625	738.19
427.847	648.19
428.069	595.19
428.292	572.19
428.514	515.19
428.736	513.19
428.958	508.19
429.181	497.19
429.403	498.19
429.625	471.19
429.847	532.19
430.069	567.19
430.292	564.19
430.514	517.19
430.736	499.19
430.958	472.19
431.18	469.19
431.402	484.19
431.624	471.19
431.846	482.19
432.068	486.19
432.29	487.19
432.512	497.19
432.734	497.19
432.956	489.19
433.178	483.19
433.4	481.19
433.622	497.19
433.844	495.19
434.066	476.19
434.287	491.19
434.509	488.19
434.731	495.19
434.953	511.19
435.175	516.19
435.397	510.19
435.618	565.19
435.84	556.19
436.062	614.19
436.284	660.19
436.505	569.19
436.727	535.19
436.949	514.19
437.17	501.19
437.392	508.19
437.614	504.19
437.835	504.19
438.057	577.19
438.278	629.19
438.5	633.19
438.721	683.19
438.943	704.19
439.165	561.19
439.386	539.19
439.608	541.19
439.829	495.19
440.05	547.19
440.272	563.19
440.493	554.19
440.715	525.19
440.936	509.19
441.158	506.19
441.379	519.19
441.6	520.19
441.822	503.19
442.043	559.19
442.264	620.19
442.486	617.19
442.707	578.19
442.928	554.19
443.149	561.19
443.371	567.19
443.592	594.19
443.813	654.19
444.034	691.19
444.255	595.19
444.476	543.19
444.698	557.19
444.919	566.19
445.14	693.19
445.361	594.19
445.582	563.19
445.803	580.19
446.024	651.19
446.245	649.19
446.466	604.19
446.687	550.19
446.908	519.19
447.129	491.19
447.35	490.19
447.571	489.19
447.792	489.19
448.013	484.19
448.234	497.19
448.455	517.19
448.675	587.19
448.896	656.19
449.117	593.19
449.338	586.19
449.559	652.19
449.779	732.19
450	595.19
450.221	507.19
450.442	477.19
450.662	479.19
450.883	476.19
451.104	483.19
451.324	441.19
451.545	455.19
451.766	451.19
451.986	467.19
452.207	436.19
452.428	432.19
452.648	426.19
452.869	444.19
453.089	441.19
453.31	429.19
453.53	447.19
453.751	437.19
453.971	445.19
454.192	441.19
454.412	427.19
454.633	438.19
454.853	448.19
455.073	449.19
455.294	450.19
455.514	469.19
455.734	476.19
455.955	425.19
456.175	410.19
456.395	411.19
456.616	433.19
456.836	419.19
457.056	416.19
457.276	435.19
457.497	424.19
457.717	437.19
457.937	407.19
458.157	436.19
458.377	428.19
458.598	460.19
458.818	480.19
459.038	533.19
459.258	549.19
459.478	510.19
459.698	493.19
459.918	497.19
460.138	505.19
460.358	496.19
460.578	515.19
460.798	534.19
461.018	514.19
461.238	523.19
461.458	537.19
461.678	489.19
461.898	497.19
462.118	532.19
462.338	542.19
462.558	554.19
462.777	555.19
462.997	593.19
463.217	610.19
463.437	629.19
463.657	567.19
463.876	579.19
464.096	565.19
464.316	578.19
464.536	571.19
464.755	552.19
464.975	548.19
465.195	564.19
465.414	560.19
465.634	525.19
465.854	497.19
466.073	479.19
466.293	479.19
466.512	467.19
466.732	467.19
466.951	447.19
467.171	463.19
467.391	473.19
467.61	454.19
467.829	475.19
468.049	454.19
468.268	470.19
468.488	461.19
468.707	439.19
468.927	440.19
469.146	467.19
469.365	467.19
469.585	428.19
469.804	476.19
470.023	448.19
470.243	479.19
470.462	474.19
470.681	491.19
470.901	459.19
471.12	475.19
471.339	456.19
471.558	475.19
471.777	485.19
471.997	451.19
472.216	448.19
472.435	464.19
472.654	457.19
472.873	455.19
473.092	466.19
473.311	447.19
473.53	453.19
473.749	473.19
473.968	478.19
474.187	541.19
474.406	561.19
474.625	483.19
474.844	455.19
475.063	484.19
475.282	448.19
475.501	449.19
475.72	465.19
475.939	449.19
476.158	462.19
476.377	484.19
476.596	481.19
476.814	487.19
477.033	505.19
477.252	498.19
477.471	496.19
477.69	516.19
477.908	499.19
478.127	529.19
478.346	522.19
478.564	528.19
478.783	547.19
479.002	538.19
479.22	557.19
479.439	550.19
479.658	554.19
479.876	569.19
480.095	585.19
480.313	596.19
480.532	586.19
480.751	570.19
480.969	586.19
481.188	609.19
481.406	597.19
481.624	552.19
481.843	554.19
482.061	570.19
482.28	565.19
482.498	543.19
482.717	536.19
482.935	523.19
483.153	531.19
483.372	523.19
483.59	518.19
483.808	527.19
484.027	512.19
484.245	529.19
484.463	544.19
484.681	545.19
484.9	542.19
485.118	551.19
485.336	563.19
485.554	547.19
485.772	536.19
485.99	547.19
486.209	564.19
486.427	549.19
486.645	574.19
486.863	567.19
487.081	567.19
487.299	577.19
487.517	584.19
487.735	563.19
487.953	581.19
488.171	578.19
488.389	567.19
488.607	573.19
488.825	553.19
489.043	562.19
489.261	579.19
489.479	587.19
489.696	564.19
489.914	581.19
490.132	576.19
490.35	603.19
490.568	583.19
490.786	598.19
491.003	584.19
491.221	584.19
491.439	612.19
491.657	623.19
491.874	606.19
492.092	620.19
492.31	628.19
492.527	657.19
492.745	633.19
492.963	627.19
493.18	628.19
493.398	650.19
493.615	643.19
493.833	632.19
494.05	637.19
494.268	643.19
494.485	641.19
494.703	625.19
494.92	635.19
495.138	640.19
495.355	659.19
495.573	648.19
495.79	625.19
496.008	657.19
496.225	652.19
496.442	666.19
496.66	650.19
496.877	703.19
497.094	668.19
497.312	697.19
497.529	715.19
497.746	685.19
497.963	721.19
498.181	755.19
498.398	774.19
498.615	787.19
498.832	801.19
499.049	798.19
499.267	866.19
499.484	931.19
499.701	950.19
499.918	1031.19
500.135	1051.19
500.352	1114.19
500.569	1196.19
500.786	1201.19
501.003	1149.19
501.22	1096.19
501.437	1057.19
501.654	989.19
501.871	943.19
502.088	899.19
