Data from 1962.PennyLincolnUp.Lamp.En5.5.200Scan.071719.P1._HRD10591_13-54-38-060.txt Node
Date: Thu Jul 18 13:54:38 EDT 2019
User: cochatt
Spectrometer: HR+D1059
Trigger mode: 1
Integration Time (sec): 1.000000E-1
Scans to average: 1
Electric dark correction enabled: true
Nonlinearity correction enabled: false
Boxcar width: 0
XAxis mode: Wavelengths
Number of Pixels in Spectrum: 2048
>>>>>Begin Spectral Data<<<<<
223.165	-8.69
223.4	-8.69
223.635	-8.69
223.869	-15.69
224.104	-10.69
224.338	-22.69
224.573	-6.69
224.808	-8.69
225.042	-3.69
225.277	-7.69
225.511	-4.69
225.746	-0.69
225.98	3.31
226.215	9.31
226.449	11.31
226.683	15.31
226.918	22.31
227.152	28.31
227.387	27.31
227.621	32.31
227.856	52.31
228.09	47.31
228.324	44.31
228.559	41.31
228.793	59.31
229.027	80.31
229.262	98.31
229.496	101.31
229.73	111.31
229.964	127.31
230.199	111.31
230.433	105.31
230.667	115.31
230.901	116.31
231.136	109.31
231.37	121.31
231.604	91.31
231.838	109.31
232.072	108.31
232.306	101.31
232.541	112.31
232.775	109.31
233.009	115.31
233.243	117.31
233.477	135.31
233.711	120.31
233.945	116.31
234.179	103.31
234.413	122.31
234.647	117.31
234.881	112.31
235.115	131.31
235.349	125.31
235.583	134.31
235.817	109.31
236.051	103.31
236.285	130.31
236.519	110.31
236.753	133.31
236.987	133.31
237.221	163.31
237.455	182.31
237.689	164.31
237.922	139.31
238.156	133.31
238.39	121.31
238.624	111.31
238.858	113.31
239.091	129.31
239.325	99.31
239.559	125.31
239.793	117.31
240.027	142.31
240.26	133.31
240.494	135.31
240.728	138.31
240.961	148.31
241.195	135.31
241.429	139.31
241.662	135.31
241.896	139.31
242.13	125.31
242.363	138.31
242.597	128.31
242.83	139.31
243.064	124.31
243.298	132.31
243.531	141.31
243.765	128.31
243.998	145.31
244.232	146.31
244.465	113.31
244.699	138.31
244.932	147.31
245.166	141.31
245.399	151.31
245.633	144.31
245.866	136.31
246.099	136.31
246.333	160.31
246.566	143.31
246.8	146.31
247.033	153.31
247.266	147.31
247.5	153.31
247.733	175.31
247.966	149.31
248.2	169.31
248.433	164.31
248.666	155.31
248.899	164.31
249.133	172.31
249.366	190.31
249.599	182.31
249.832	175.31
250.066	160.31
250.299	160.31
250.532	166.31
250.765	185.31
250.998	197.31
251.231	196.31
251.465	215.31
251.698	190.31
251.931	185.31
252.164	183.31
252.397	199.31
252.63	189.31
252.863	193.31
253.096	185.31
253.329	204.31
253.562	205.31
253.795	198.31
254.028	197.31
254.261	196.31
254.494	188.31
254.727	217.31
254.96	244.31
255.193	229.31
255.426	203.31
255.659	200.31
255.892	209.31
256.124	206.31
256.357	208.31
256.59	208.31
256.823	184.31
257.056	201.31
257.289	199.31
257.521	203.31
257.754	186.31
257.987	197.31
258.22	197.31
258.452	197.31
258.685	192.31
258.918	214.31
259.151	216.31
259.383	219.31
259.616	202.31
259.849	188.31
260.081	230.31
260.314	218.31
260.547	233.31
260.779	213.31
261.012	213.31
261.244	212.31
261.477	220.31
261.71	212.31
261.942	196.31
262.175	214.31
262.407	201.31
262.64	215.31
262.872	197.31
263.105	204.31
263.337	216.31
263.57	206.31
263.802	189.31
264.035	199.31
264.267	229.31
264.499	212.31
264.732	212.31
264.964	203.31
265.197	209.31
265.429	198.31
265.661	201.31
265.894	198.31
266.126	201.31
266.358	219.31
266.591	213.31
266.823	212.31
267.055	226.31
267.287	226.31
267.52	231.31
267.752	237.31
267.984	246.31
268.216	228.31
268.448	229.31
268.681	212.31
268.913	245.31
269.145	247.31
269.377	267.31
269.609	238.31
269.841	256.31
270.073	268.31
270.306	289.31
270.538	269.31
270.77	280.31
271.002	254.31
271.234	268.31
271.466	261.31
271.698	296.31
271.93	267.31
272.162	281.31
272.394	295.31
272.626	276.31
272.858	261.31
273.09	266.31
273.322	278.31
273.553	246.31
273.785	241.31
274.017	254.31
274.249	274.31
274.481	272.31
274.713	259.31
274.945	260.31
275.176	253.31
275.408	254.31
275.64	265.31
275.872	239.31
276.104	263.31
276.335	263.31
276.567	263.31
276.799	272.31
277.031	295.31
277.262	303.31
277.494	283.31
277.726	303.31
277.957	276.31
278.189	267.31
278.421	277.31
278.652	272.31
278.884	261.31
279.115	265.31
279.347	285.31
279.579	269.31
279.81	258.31
280.042	261.31
280.273	285.31
280.505	273.31
280.736	256.31
280.968	287.31
281.199	284.31
281.431	264.31
281.662	264.31
281.894	273.31
282.125	295.31
282.356	279.31
282.588	272.31
282.819	271.31
283.051	288.31
283.282	273.31
283.513	278.31
283.745	291.31
283.976	284.31
284.207	281.31
284.439	272.31
284.67	283.31
284.901	277.31
285.132	298.31
285.364	288.31
285.595	284.31
285.826	291.31
286.057	276.31
286.288	272.31
286.52	282.31
286.751	278.31
286.982	295.31
287.213	289.31
287.444	293.31
287.675	298.31
287.906	291.31
288.138	311.31
288.369	290.31
288.6	302.31
288.831	308.31
289.062	304.31
289.293	297.31
289.524	296.31
289.755	284.31
289.986	291.31
290.217	293.31
290.448	279.31
290.679	293.31
290.91	315.31
291.141	316.31
291.371	289.31
291.602	311.31
291.833	314.31
292.064	293.31
292.295	291.31
292.526	284.31
292.757	292.31
292.987	295.31
293.218	309.31
293.449	311.31
293.68	314.31
293.91	309.31
294.141	292.31
294.372	303.31
294.603	291.31
294.833	307.31
295.064	302.31
295.295	297.31
295.525	293.31
295.756	297.31
295.987	300.31
296.217	314.31
296.448	310.31
296.679	312.31
296.909	306.31
297.14	289.31
297.37	310.31
297.601	308.31
297.831	297.31
298.062	312.31
298.292	310.31
298.523	317.31
298.753	323.31
298.984	317.31
299.214	333.31
299.445	314.31
299.675	328.31
299.905	329.31
300.136	318.31
300.366	321.31
300.597	316.31
300.827	328.31
301.057	336.31
301.288	337.31
301.518	333.31
301.748	347.31
301.979	331.31
302.209	334.31
302.439	336.31
302.669	324.31
302.9	337.31
303.13	318.31
303.36	345.31
303.59	351.31
303.82	344.31
304.051	343.31
304.281	332.31
304.511	357.31
304.741	326.31
304.971	335.31
305.201	327.31
305.431	334.31
305.661	342.31
305.891	337.31
306.121	336.31
306.352	353.31
306.582	340.31
306.812	344.31
307.042	337.31
307.272	333.31
307.502	344.31
307.731	344.31
307.961	337.31
308.191	350.31
308.421	312.31
308.651	342.31
308.881	357.31
309.111	334.31
309.341	343.31
309.571	344.31
309.8	367.31
310.03	358.31
310.26	340.31
310.49	363.31
310.72	349.31
310.949	367.31
311.179	357.31
311.409	361.31
311.639	377.31
311.868	372.31
312.098	362.31
312.328	377.31
312.557	373.31
312.787	373.31
313.017	392.31
313.246	374.31
313.476	363.31
313.706	361.31
313.935	360.31
314.165	376.31
314.394	394.31
314.624	379.31
314.853	375.31
315.083	352.31
315.312	371.31
315.542	373.31
315.771	369.31
316.001	383.31
316.23	372.31
316.46	373.31
316.689	371.31
316.919	374.31
317.148	381.31
317.377	358.31
317.607	390.31
317.836	375.31
318.065	377.31
318.295	372.31
318.524	378.31
318.753	385.31
318.983	387.31
319.212	380.31
319.441	403.31
319.67	383.31
319.9	367.31
320.129	392.31
320.358	390.31
320.587	370.31
320.816	357.31
321.046	367.31
321.275	381.31
321.504	395.31
321.733	385.31
321.962	392.31
322.191	407.31
322.42	380.31
322.649	401.31
322.878	421.31
323.108	414.31
323.337	441.31
323.566	443.31
323.795	443.31
324.024	458.31
324.253	549.31
324.482	691.31
324.71	1020.31
324.939	1431.31
325.168	1253.31
325.397	709.31
325.626	551.31
325.855	479.31
326.084	441.31
326.313	448.31
326.542	460.31
326.77	495.31
326.999	541.31
327.228	650.31
327.457	921.31
327.686	1087.31
327.914	788.31
328.143	570.31
328.372	493.31
328.6	482.31
328.829	489.31
329.058	496.31
329.287	476.31
329.515	475.31
329.744	445.31
329.972	444.31
330.201	448.31
330.43	471.31
330.658	503.31
330.887	495.31
331.115	523.31
331.344	452.31
331.572	458.31
331.801	473.31
332.03	461.31
332.258	442.31
332.486	453.31
332.715	455.31
332.943	445.31
333.172	451.31
333.4	476.31
333.629	501.31
333.857	482.31
334.085	492.31
334.314	515.31
334.542	508.31
334.771	515.31
334.999	499.31
335.227	493.31
335.455	472.31
335.684	469.31
335.912	473.31
336.14	462.31
336.369	468.31
336.597	460.31
336.825	456.31
337.053	439.31
337.281	453.31
337.51	431.31
337.738	452.31
337.966	459.31
338.194	431.31
338.422	437.31
338.65	424.31
338.878	419.31
339.106	426.31
339.334	430.31
339.562	418.31
339.79	427.31
340.018	428.31
340.246	430.31
340.474	436.31
340.702	452.31
340.93	445.31
341.158	423.31
341.386	429.31
341.614	430.31
341.842	430.31
342.07	423.31
342.298	426.31
342.526	425.31
342.754	423.31
342.981	430.31
343.209	405.31
343.437	424.31
343.665	427.31
343.893	457.31
344.12	456.31
344.348	474.31
344.576	446.31
344.804	438.31
345.031	437.31
345.259	425.31
345.487	429.31
345.714	425.31
345.942	410.31
346.17	412.31
346.397	422.31
346.625	397.31
346.853	398.31
347.08	406.31
347.308	413.31
347.535	414.31
347.763	397.31
347.99	400.31
348.218	410.31
348.445	417.31
348.673	424.31
348.9	421.31
349.128	416.31
349.355	393.31
349.583	407.31
349.81	399.31
350.037	406.31
350.265	386.31
350.492	395.31
350.72	397.31
350.947	401.31
351.174	399.31
351.402	419.31
351.629	417.31
351.856	420.31
352.083	411.31
352.311	405.31
352.538	395.31
352.765	417.31
352.992	402.31
353.22	403.31
353.447	398.31
353.674	403.31
353.901	399.31
354.128	392.31
354.355	387.31
354.583	397.31
354.81	399.31
355.037	399.31
355.264	395.31
355.491	378.31
355.718	398.31
355.945	384.31
356.172	382.31
356.399	382.31
356.626	365.31
356.853	375.31
357.08	372.31
357.307	380.31
357.534	384.31
357.761	392.31
357.988	393.31
358.215	402.31
358.441	392.31
358.668	392.31
358.895	393.31
359.122	408.31
359.349	398.31
359.576	413.31
359.802	424.31
360.029	427.31
360.256	434.31
360.483	436.31
360.709	431.31
360.936	399.31
361.163	408.31
361.39	401.31
361.616	392.31
361.843	414.31
362.07	415.31
362.296	396.31
362.523	386.31
362.749	398.31
362.976	425.31
363.203	412.31
363.429	399.31
363.656	391.31
363.882	387.31
364.109	387.31
364.335	393.31
364.562	378.31
364.788	392.31
365.015	395.31
365.241	399.31
365.468	405.31
365.694	402.31
365.92	389.31
366.147	399.31
366.373	399.31
366.599	407.31
366.826	388.31
367.052	376.31
367.278	381.31
367.505	387.31
367.731	392.31
367.957	382.31
368.184	395.31
368.41	396.31
368.636	405.31
368.862	411.31
369.089	392.31
369.315	401.31
369.541	404.31
369.767	369.31
369.993	385.31
370.219	393.31
370.445	389.31
370.672	407.31
370.898	381.31
371.124	431.31
371.35	415.31
371.576	399.31
371.802	393.31
372.028	395.31
372.254	411.31
372.48	393.31
372.706	391.31
372.932	416.31
373.158	406.31
373.384	411.31
373.61	397.31
373.835	402.31
374.061	408.31
374.287	418.31
374.513	423.31
374.739	429.31
374.965	419.31
375.191	440.31
375.416	436.31
375.642	424.31
375.868	404.31
376.094	415.31
376.319	405.31
376.545	404.31
376.771	428.31
376.997	387.31
377.222	392.31
377.448	399.31
377.674	420.31
377.899	387.31
378.125	407.31
378.35	400.31
378.576	404.31
378.802	386.31
379.027	412.31
379.253	390.31
379.478	415.31
379.704	405.31
379.929	404.31
380.155	405.31
380.38	399.31
380.606	418.31
380.831	397.31
381.057	423.31
381.282	398.31
381.507	396.31
381.733	403.31
381.958	411.31
382.184	406.31
382.409	426.31
382.634	424.31
382.86	417.31
383.085	453.31
383.31	432.31
383.535	427.31
383.761	436.31
383.986	454.31
384.211	456.31
384.436	432.31
384.662	468.31
384.887	448.31
385.112	443.31
385.337	459.31
385.562	455.31
385.787	455.31
386.013	473.31
386.238	460.31
386.463	474.31
386.688	478.31
386.913	445.31
387.138	462.31
387.363	470.31
387.588	479.31
387.813	461.31
388.038	447.31
388.263	443.31
388.488	477.31
388.713	454.31
388.938	447.31
389.163	460.31
389.387	456.31
389.612	451.31
389.837	460.31
390.062	440.31
390.287	464.31
390.512	464.31
390.736	444.31
390.961	435.31
391.186	464.31
391.411	478.31
391.636	463.31
391.86	486.31
392.085	494.31
392.31	502.31
392.534	491.31
392.759	475.31
392.984	470.31
393.208	476.31
393.433	473.31
393.658	485.31
393.882	452.31
394.107	479.31
394.331	490.31
394.556	453.31
394.78	473.31
395.005	459.31
395.229	467.31
395.454	502.31
395.678	491.31
395.903	496.31
396.127	523.31
396.352	516.31
396.576	479.31
396.801	480.31
397.025	496.31
397.249	494.31
397.474	518.31
397.698	510.31
397.922	525.31
398.147	534.31
398.371	512.31
398.595	504.31
398.82	534.31
399.044	553.31
399.268	585.31
399.492	639.31
399.717	671.31
399.941	687.31
400.165	709.31
400.389	665.31
400.613	619.31
400.837	590.31
401.062	571.31
401.286	558.31
401.51	558.31
401.734	529.31
401.958	550.31
402.182	559.31
402.406	576.31
402.63	553.31
402.854	554.31
403.078	602.31
403.302	587.31
403.526	580.31
403.75	587.31
403.974	569.31
404.198	561.31
404.422	600.31
404.645	575.31
404.869	582.31
405.093	612.31
405.317	615.31
405.541	652.31
405.765	607.31
405.988	597.31
406.212	575.31
406.436	587.31
406.66	596.31
406.883	627.31
407.107	615.31
407.331	666.31
407.555	725.31
407.778	732.31
408.002	688.31
408.226	643.31
408.449	623.31
408.673	589.31
408.896	614.31
409.12	662.31
409.344	638.31
409.567	578.31
409.791	591.31
410.014	575.31
410.238	565.31
410.461	587.31
410.685	579.31
410.908	592.31
411.132	612.31
411.355	608.31
411.578	582.31
411.802	560.31
412.025	569.31
412.249	588.31
412.472	593.31
412.695	615.31
412.919	604.31
413.142	569.31
413.365	535.31
413.589	555.31
413.812	551.31
414.035	551.31
414.258	528.31
414.482	543.31
414.705	516.31
414.928	543.31
415.151	542.31
415.374	518.31
415.597	538.31
415.821	519.31
416.044	535.31
416.267	529.31
416.49	519.31
416.713	499.31
416.936	501.31
417.159	512.31
417.382	510.31
417.605	527.31
417.828	555.31
418.051	533.31
418.274	555.31
418.497	500.31
418.72	541.31
418.943	525.31
419.166	552.31
419.389	585.31
419.611	563.31
419.834	567.31
420.057	544.31
420.28	557.31
420.503	538.31
420.726	530.31
420.948	540.31
421.171	570.31
421.394	605.31
421.617	579.31
421.839	567.31
422.062	543.31
422.285	568.31
422.507	581.31
422.73	648.31
422.953	618.31
423.175	566.31
423.398	553.31
423.621	569.31
423.843	598.31
424.066	567.31
424.288	566.31
424.511	585.31
424.733	611.31
424.956	672.31
425.178	665.31
425.401	649.31
425.623	687.31
425.846	591.31
426.068	573.31
426.291	572.31
426.513	540.31
426.735	567.31
426.958	582.31
427.18	639.31
427.402	764.31
427.625	809.31
427.847	686.31
428.069	616.31
428.292	563.31
428.514	531.31
428.736	526.31
428.958	527.31
429.181	518.31
429.403	525.31
429.625	540.31
429.847	560.31
430.069	596.31
430.292	591.31
430.514	545.31
430.736	496.31
430.958	524.31
431.18	509.31
431.402	503.31
431.624	525.31
431.846	487.31
432.068	508.31
432.29	504.31
432.512	480.31
432.734	506.31
432.956	501.31
433.178	498.31
433.4	518.31
433.622	488.31
433.844	508.31
434.066	494.31
434.287	500.31
434.509	501.31
434.731	523.31
434.953	547.31
435.175	544.31
435.397	559.31
435.618	552.31
435.84	586.31
436.062	658.31
436.284	686.31
436.505	603.31
436.727	548.31
436.949	517.31
437.17	524.31
437.392	516.31
437.614	530.31
437.835	507.31
438.057	594.31
438.278	675.31
438.5	688.31
438.721	728.31
438.943	713.31
439.165	584.31
439.386	557.31
439.608	533.31
439.829	552.31
440.05	544.31
440.272	567.31
440.493	583.31
440.715	541.31
440.936	529.31
441.158	520.31
441.379	525.31
441.6	528.31
441.822	551.31
442.043	580.31
442.264	637.31
442.486	649.31
442.707	584.31
442.928	541.31
443.149	568.31
443.371	579.31
443.592	611.31
443.813	689.31
444.034	735.31
444.255	667.31
444.476	606.31
444.698	583.31
444.919	580.31
445.14	712.31
445.361	629.31
445.582	601.31
445.803	623.31
446.024	686.31
446.245	700.31
446.466	629.31
446.687	588.31
446.908	544.31
447.129	528.31
447.35	524.31
447.571	524.31
447.792	515.31
448.013	515.31
448.234	495.31
448.455	519.31
448.675	628.31
448.896	720.31
449.117	620.31
449.338	597.31
449.559	685.31
449.779	739.31
450	631.31
450.221	558.31
450.442	503.31
450.662	503.31
450.883	491.31
451.104	489.31
451.324	505.31
451.545	484.31
451.766	490.31
451.986	457.31
452.207	466.31
452.428	480.31
452.648	470.31
452.869	456.31
453.089	459.31
453.31	480.31
453.53	473.31
453.751	462.31
453.971	462.31
454.192	460.31
454.412	469.31
454.633	451.31
454.853	428.31
455.073	450.31
455.294	463.31
455.514	506.31
455.734	505.31
455.955	463.31
456.175	448.31
456.395	445.31
456.616	428.31
456.836	460.31
457.056	434.31
457.276	451.31
457.497	431.31
457.717	422.31
457.937	458.31
458.157	467.31
458.377	447.31
458.598	457.31
458.818	485.31
459.038	548.31
459.258	558.31
459.478	533.31
459.698	520.31
459.918	490.31
460.138	515.31
460.358	543.31
460.578	561.31
460.798	525.31
461.018	547.31
461.238	533.31
461.458	552.31
461.678	560.31
461.898	544.31
462.118	542.31
462.338	540.31
462.558	582.31
462.777	592.31
462.997	590.31
463.217	615.31
463.437	636.31
463.657	620.31
463.876	602.31
464.096	585.31
464.316	595.31
464.536	603.31
464.755	583.31
464.975	601.31
465.195	583.31
465.414	600.31
465.634	544.31
465.854	537.31
466.073	515.31
466.293	492.31
466.512	502.31
466.732	482.31
466.951	479.31
467.171	464.31
467.391	459.31
467.61	456.31
467.829	494.31
468.049	474.31
468.268	487.31
468.488	462.31
468.707	459.31
468.927	476.31
469.146	483.31
469.365	465.31
469.585	469.31
469.804	472.31
470.023	472.31
470.243	469.31
470.462	494.31
470.681	500.31
470.901	498.31
471.12	474.31
471.339	487.31
471.558	481.31
471.777	503.31
471.997	481.31
472.216	492.31
472.435	492.31
472.654	485.31
472.873	483.31
473.092	481.31
473.311	468.31
473.53	489.31
473.749	487.31
473.968	506.31
474.187	565.31
474.406	570.31
474.625	508.31
474.844	519.31
475.063	486.31
475.282	487.31
475.501	469.31
475.72	483.31
475.939	477.31
476.158	480.31
476.377	487.31
476.596	499.31
476.814	511.31
477.033	501.31
477.252	515.31
477.471	499.31
477.69	514.31
477.908	542.31
478.127	563.31
478.346	540.31
478.564	534.31
478.783	531.31
479.002	571.31
479.22	559.31
479.439	584.31
479.658	581.31
479.876	577.31
480.095	585.31
480.313	620.31
480.532	603.31
480.751	606.31
480.969	612.31
481.188	620.31
481.406	635.31
481.624	582.31
481.843	587.31
482.061	560.31
482.28	567.31
482.498	549.31
482.717	555.31
482.935	554.31
483.153	542.31
483.372	557.31
483.59	550.31
483.808	543.31
484.027	548.31
484.245	556.31
484.463	557.31
484.681	567.31
484.9	572.31
485.118	567.31
485.336	569.31
485.554	572.31
485.772	581.31
485.99	583.31
486.209	584.31
486.427	580.31
486.645	572.31
486.863	589.31
487.081	585.31
487.299	612.31
487.517	593.31
487.735	582.31
487.953	597.31
488.171	581.31
488.389	592.31
488.607	594.31
488.825	612.31
489.043	602.31
489.261	589.31
489.479	602.31
489.696	608.31
489.914	608.31
490.132	595.31
490.35	598.31
490.568	607.31
490.786	627.31
491.003	636.31
491.221	627.31
491.439	647.31
491.657	661.31
491.874	637.31
492.092	636.31
492.31	639.31
492.527	637.31
492.745	658.31
492.963	671.31
493.18	667.31
493.398	676.31
493.615	643.31
493.833	661.31
494.05	696.31
494.268	681.31
494.485	659.31
494.703	682.31
494.92	685.31
495.138	662.31
495.355	673.31
495.573	710.31
495.79	661.31
496.008	664.31
496.225	698.31
496.442	663.31
496.66	711.31
496.877	692.31
497.094	704.31
497.312	726.31
497.529	717.31
497.746	747.31
497.963	726.31
498.181	750.31
498.398	765.31
498.615	807.31
498.832	810.31
499.049	858.31
499.267	880.31
499.484	936.31
499.701	1021.31
499.918	1041.31
500.135	1130.31
500.352	1215.31
500.569	1240.31
500.786	1227.31
501.003	1195.31
501.22	1141.31
501.437	1060.31
501.654	1032.31
501.871	965.31
