Data from 1962.PennyLincolnUp.Lamp.En5.5.200Scan.071719.P1._HRD10591_13-53-50-062.txt Node
Date: Thu Jul 18 13:53:50 EDT 2019
User: cochatt
Spectrometer: HR+D1059
Trigger mode: 1
Integration Time (sec): 1.000000E-1
Scans to average: 1
Electric dark correction enabled: true
Nonlinearity correction enabled: false
Boxcar width: 0
XAxis mode: Wavelengths
Number of Pixels in Spectrum: 2048
>>>>>Begin Spectral Data<<<<<
223.165	-20.12
223.4	-20.12
223.635	-20.12
223.869	-21.12
224.104	-24.12
224.338	-5.12
224.573	-11.12
224.808	-6.12
225.042	-14.12
225.277	-4.12
225.511	-15.12
225.746	0.88
225.98	4.88
226.215	9.88
226.449	20.88
226.683	17.88
226.918	39.88
227.152	26.88
227.387	39.88
227.621	50.88
227.856	45.88
228.09	37.88
228.324	40.88
228.559	48.88
228.793	66.88
229.027	86.88
229.262	87.88
229.496	82.88
229.73	114.88
229.964	121.88
230.199	99.88
230.433	102.88
230.667	101.88
230.901	83.88
231.136	118.88
231.37	115.88
231.604	109.88
231.838	91.88
232.072	102.88
232.306	109.88
232.541	125.88
232.775	114.88
233.009	105.88
233.243	101.88
233.477	95.88
233.711	105.88
233.945	103.88
234.179	98.88
234.413	106.88
234.647	96.88
234.881	109.88
235.115	102.88
235.349	116.88
235.583	87.88
235.817	108.88
236.051	121.88
236.285	117.88
236.519	115.88
236.753	111.88
236.987	118.88
237.221	143.88
237.455	149.88
237.689	156.88
237.922	133.88
238.156	125.88
238.39	128.88
238.624	103.88
238.858	113.88
239.091	113.88
239.325	118.88
239.559	120.88
239.793	123.88
240.027	116.88
240.26	117.88
240.494	140.88
240.728	129.88
240.961	133.88
241.195	134.88
241.429	121.88
241.662	121.88
241.896	126.88
242.13	115.88
242.363	115.88
242.597	137.88
242.83	125.88
243.064	120.88
243.298	130.88
243.531	121.88
243.765	127.88
243.998	129.88
244.232	134.88
244.465	129.88
244.699	129.88
244.932	130.88
245.166	125.88
245.399	134.88
245.633	121.88
245.866	133.88
246.099	133.88
246.333	136.88
246.566	122.88
246.8	143.88
247.033	147.88
247.266	148.88
247.5	145.88
247.733	147.88
247.966	135.88
248.2	138.88
248.433	149.88
248.666	158.88
248.899	163.88
249.133	159.88
249.366	178.88
249.599	151.88
249.832	165.88
250.066	159.88
250.299	153.88
250.532	157.88
250.765	176.88
250.998	177.88
251.231	181.88
251.465	171.88
251.698	166.88
251.931	175.88
252.164	168.88
252.397	179.88
252.63	165.88
252.863	173.88
253.096	165.88
253.329	195.88
253.562	175.88
253.795	185.88
254.028	177.88
254.261	182.88
254.494	184.88
254.727	199.88
254.96	209.88
255.193	196.88
255.426	223.88
255.659	190.88
255.892	195.88
256.124	201.88
256.357	210.88
256.59	202.88
256.823	179.88
257.056	180.88
257.289	191.88
257.521	177.88
257.754	186.88
257.987	195.88
258.22	188.88
258.452	184.88
258.685	183.88
258.918	181.88
259.151	182.88
259.383	191.88
259.616	174.88
259.849	173.88
260.081	202.88
260.314	196.88
260.547	206.88
260.779	200.88
261.012	193.88
261.244	207.88
261.477	202.88
261.71	202.88
261.942	192.88
262.175	201.88
262.407	207.88
262.64	193.88
262.872	177.88
263.105	186.88
263.337	200.88
263.57	214.88
263.802	191.88
264.035	195.88
264.267	198.88
264.499	195.88
264.732	194.88
264.964	199.88
265.197	192.88
265.429	201.88
265.661	198.88
265.894	217.88
266.126	206.88
266.358	207.88
266.591	214.88
266.823	219.88
267.055	196.88
267.287	208.88
267.52	218.88
267.752	219.88
267.984	195.88
268.216	206.88
268.448	215.88
268.681	203.88
268.913	214.88
269.145	225.88
269.377	256.88
269.609	232.88
269.841	236.88
270.073	240.88
270.306	253.88
270.538	258.88
270.77	261.88
271.002	261.88
271.234	244.88
271.466	258.88
271.698	260.88
271.93	274.88
272.162	256.88
272.394	277.88
272.626	256.88
272.858	257.88
273.09	233.88
273.322	232.88
273.553	223.88
273.785	222.88
274.017	241.88
274.249	231.88
274.481	259.88
274.713	259.88
274.945	255.88
275.176	245.88
275.408	235.88
275.64	233.88
275.872	245.88
276.104	250.88
276.335	242.88
276.567	266.88
276.799	249.88
277.031	255.88
277.262	259.88
277.494	272.88
277.726	266.88
277.957	261.88
278.189	262.88
278.421	243.88
278.652	268.88
278.884	253.88
279.115	238.88
279.347	251.88
279.579	249.88
279.81	236.88
280.042	241.88
280.273	245.88
280.505	240.88
280.736	259.88
280.968	243.88
281.199	266.88
281.431	261.88
281.662	256.88
281.894	264.88
282.125	277.88
282.356	271.88
282.588	271.88
282.819	260.88
283.051	269.88
283.282	262.88
283.513	285.88
283.745	272.88
283.976	274.88
284.207	278.88
284.439	249.88
284.67	275.88
284.901	277.88
285.132	260.88
285.364	280.88
285.595	269.88
285.826	275.88
286.057	275.88
286.288	287.88
286.52	257.88
286.751	271.88
286.982	285.88
287.213	286.88
287.444	285.88
287.675	282.88
287.906	282.88
288.138	294.88
288.369	284.88
288.6	286.88
288.831	281.88
289.062	277.88
289.293	290.88
289.524	287.88
289.755	269.88
289.986	289.88
290.217	279.88
290.448	273.88
290.679	279.88
290.91	296.88
291.141	301.88
291.371	295.88
291.602	285.88
291.833	289.88
292.064	294.88
292.295	270.88
292.526	278.88
292.757	285.88
292.987	280.88
293.218	288.88
293.449	267.88
293.68	286.88
293.91	287.88
294.141	286.88
294.372	283.88
294.603	274.88
294.833	283.88
295.064	293.88
295.295	296.88
295.525	266.88
295.756	277.88
295.987	289.88
296.217	290.88
296.448	296.88
296.679	275.88
296.909	283.88
297.14	280.88
297.37	299.88
297.601	310.88
297.831	305.88
298.062	288.88
298.292	287.88
298.523	282.88
298.753	301.88
298.984	298.88
299.214	312.88
299.445	306.88
299.675	295.88
299.905	301.88
300.136	301.88
300.366	280.88
300.597	316.88
300.827	284.88
301.057	286.88
301.288	325.88
301.518	315.88
301.748	337.88
301.979	317.88
302.209	323.88
302.439	299.88
302.669	318.88
302.9	323.88
303.13	292.88
303.36	323.88
303.59	308.88
303.82	325.88
304.051	317.88
304.281	327.88
304.511	334.88
304.741	311.88
304.971	314.88
305.201	318.88
305.431	309.88
305.661	319.88
305.891	313.88
306.121	319.88
306.352	330.88
306.582	332.88
306.812	338.88
307.042	304.88
307.272	322.88
307.502	314.88
307.731	318.88
307.961	320.88
308.191	321.88
308.421	328.88
308.651	324.88
308.881	321.88
309.111	328.88
309.341	313.88
309.571	323.88
309.8	341.88
310.03	336.88
310.26	335.88
310.49	335.88
310.72	340.88
310.949	346.88
311.179	376.88
311.409	331.88
311.639	343.88
311.868	330.88
312.098	338.88
312.328	338.88
312.557	360.88
312.787	346.88
313.017	362.88
313.246	366.88
313.476	357.88
313.706	361.88
313.935	357.88
314.165	353.88
314.394	358.88
314.624	356.88
314.853	350.88
315.083	349.88
315.312	349.88
315.542	341.88
315.771	343.88
316.001	355.88
316.23	341.88
316.46	358.88
316.689	353.88
316.919	340.88
317.148	356.88
317.377	365.88
317.607	367.88
317.836	370.88
318.065	349.88
318.295	347.88
318.524	353.88
318.753	334.88
318.983	346.88
319.212	357.88
319.441	355.88
319.67	367.88
319.9	350.88
320.129	344.88
320.358	366.88
320.587	352.88
320.816	325.88
321.046	359.88
321.275	375.88
321.504	373.88
321.733	334.88
321.962	367.88
322.191	367.88
322.42	382.88
322.649	378.88
322.878	393.88
323.108	402.88
323.337	395.88
323.566	402.88
323.795	408.88
324.024	442.88
324.253	501.88
324.482	633.88
324.71	897.88
324.939	1193.88
325.168	1101.88
325.397	613.88
325.626	470.88
325.855	441.88
326.084	411.88
326.313	404.88
326.542	404.88
326.77	418.88
326.999	483.88
327.228	592.88
327.457	817.88
327.686	930.88
327.914	682.88
328.143	517.88
328.372	477.88
328.6	443.88
328.829	454.88
329.058	449.88
329.287	438.88
329.515	449.88
329.744	439.88
329.972	442.88
330.201	428.88
330.43	440.88
330.658	471.88
330.887	454.88
331.115	475.88
331.344	441.88
331.572	440.88
331.801	433.88
332.03	423.88
332.258	435.88
332.486	425.88
332.715	437.88
332.943	447.88
333.172	433.88
333.4	445.88
333.629	463.88
333.857	457.88
334.085	458.88
334.314	458.88
334.542	471.88
334.771	495.88
334.999	484.88
335.227	467.88
335.455	425.88
335.684	441.88
335.912	423.88
336.14	439.88
336.369	417.88
336.597	415.88
336.825	441.88
337.053	410.88
337.281	436.88
337.51	430.88
337.738	420.88
337.966	413.88
338.194	420.88
338.422	399.88
338.65	414.88
338.878	424.88
339.106	412.88
339.334	440.88
339.562	397.88
339.79	401.88
340.018	389.88
340.246	396.88
340.474	399.88
340.702	387.88
340.93	416.88
341.158	383.88
341.386	397.88
341.614	422.88
341.842	395.88
342.07	394.88
342.298	404.88
342.526	407.88
342.754	374.88
342.981	386.88
343.209	366.88
343.437	404.88
343.665	414.88
343.893	444.88
344.12	447.88
344.348	437.88
344.576	449.88
344.804	417.88
345.031	395.88
345.259	409.88
345.487	405.88
345.714	382.88
345.942	403.88
346.17	362.88
346.397	385.88
346.625	409.88
346.853	383.88
347.08	396.88
347.308	399.88
347.535	377.88
347.763	381.88
347.99	395.88
348.218	392.88
348.445	382.88
348.673	381.88
348.9	381.88
349.128	377.88
349.355	393.88
349.583	371.88
349.81	356.88
350.037	371.88
350.265	389.88
350.492	395.88
350.72	381.88
350.947	377.88
351.174	381.88
351.402	391.88
351.629	392.88
351.856	386.88
352.083	386.88
352.311	352.88
352.538	377.88
352.765	375.88
352.992	386.88
353.22	371.88
353.447	382.88
353.674	377.88
353.901	367.88
354.128	369.88
354.355	382.88
354.583	354.88
354.81	368.88
355.037	366.88
355.264	371.88
355.491	372.88
355.718	357.88
355.945	376.88
356.172	385.88
356.399	367.88
356.626	369.88
356.853	381.88
357.08	378.88
357.307	358.88
357.534	363.88
357.761	374.88
357.988	376.88
358.215	372.88
358.441	377.88
358.668	369.88
358.895	377.88
359.122	385.88
359.349	358.88
359.576	385.88
359.802	400.88
360.029	385.88
360.256	403.88
360.483	409.88
360.709	383.88
360.936	386.88
361.163	393.88
361.39	375.88
361.616	363.88
361.843	369.88
362.07	363.88
362.296	392.88
362.523	375.88
362.749	386.88
362.976	384.88
363.203	362.88
363.429	357.88
363.656	374.88
363.882	369.88
364.109	373.88
364.335	375.88
364.562	363.88
364.788	365.88
365.015	393.88
365.241	370.88
365.468	356.88
365.694	381.88
365.92	362.88
366.147	371.88
366.373	383.88
366.599	371.88
366.826	372.88
367.052	371.88
367.278	376.88
367.505	379.88
367.731	373.88
367.957	361.88
368.184	379.88
368.41	358.88
368.636	395.88
368.862	391.88
369.089	385.88
369.315	374.88
369.541	383.88
369.767	384.88
369.993	370.88
370.219	372.88
370.445	382.88
370.672	362.88
370.898	374.88
371.124	377.88
371.35	397.88
371.576	390.88
371.802	379.88
372.028	377.88
372.254	393.88
372.48	399.88
372.706	383.88
372.932	393.88
373.158	383.88
373.384	405.88
373.61	388.88
373.835	387.88
374.061	365.88
374.287	389.88
374.513	384.88
374.739	396.88
374.965	411.88
375.191	394.88
375.416	384.88
375.642	389.88
375.868	401.88
376.094	385.88
376.319	381.88
376.545	391.88
376.771	380.88
376.997	376.88
377.222	381.88
377.448	368.88
377.674	373.88
377.899	383.88
378.125	375.88
378.35	383.88
378.576	367.88
378.802	376.88
379.027	374.88
379.253	374.88
379.478	390.88
379.704	374.88
379.929	411.88
380.155	396.88
380.38	385.88
380.606	390.88
380.831	402.88
381.057	394.88
381.282	393.88
381.507	385.88
381.733	387.88
381.958	400.88
382.184	389.88
382.409	377.88
382.634	409.88
382.86	404.88
383.085	384.88
383.31	395.88
383.535	421.88
383.761	417.88
383.986	407.88
384.211	423.88
384.436	408.88
384.662	435.88
384.887	409.88
385.112	419.88
385.337	442.88
385.562	415.88
385.787	430.88
386.013	451.88
386.238	453.88
386.463	418.88
386.688	433.88
386.913	405.88
387.138	442.88
387.363	441.88
387.588	440.88
387.813	435.88
388.038	445.88
388.263	444.88
388.488	423.88
388.713	431.88
388.938	438.88
389.163	419.88
389.387	445.88
389.612	445.88
389.837	435.88
390.062	414.88
390.287	438.88
390.512	447.88
390.736	444.88
390.961	434.88
391.186	426.88
391.411	439.88
391.636	474.88
391.86	461.88
392.085	457.88
392.31	459.88
392.534	459.88
392.759	463.88
392.984	450.88
393.208	452.88
393.433	455.88
393.658	466.88
393.882	423.88
394.107	452.88
394.331	439.88
394.556	429.88
394.78	447.88
395.005	450.88
395.229	425.88
395.454	469.88
395.678	467.88
395.903	479.88
396.127	486.88
396.352	485.88
396.576	485.88
396.801	442.88
397.025	454.88
397.249	465.88
397.474	474.88
397.698	461.88
397.922	495.88
398.147	496.88
398.371	491.88
398.595	508.88
398.82	493.88
399.044	513.88
399.268	564.88
399.492	616.88
399.717	641.88
399.941	677.88
400.165	656.88
400.389	615.88
400.613	575.88
400.837	543.88
401.062	528.88
401.286	545.88
401.51	510.88
401.734	494.88
401.958	535.88
402.182	533.88
402.406	521.88
402.63	517.88
402.854	542.88
403.078	547.88
403.302	533.88
403.526	532.88
403.75	552.88
403.974	534.88
404.198	537.88
404.422	562.88
404.645	549.88
404.869	553.88
405.093	571.88
405.317	597.88
405.541	598.88
405.765	565.88
405.988	557.88
406.212	544.88
406.436	551.88
406.66	566.88
406.883	567.88
407.107	584.88
407.331	640.88
407.555	689.88
407.778	652.88
408.002	639.88
408.226	607.88
408.449	601.88
408.673	588.88
408.896	603.88
409.12	621.88
409.344	602.88
409.567	573.88
409.791	584.88
410.014	544.88
410.238	529.88
410.461	535.88
410.685	532.88
410.908	524.88
411.132	574.88
411.355	600.88
411.578	578.88
411.802	542.88
412.025	525.88
412.249	542.88
412.472	542.88
412.695	562.88
412.919	565.88
413.142	533.88
413.365	545.88
413.589	505.88
413.812	493.88
414.035	500.88
414.258	502.88
414.482	500.88
414.705	511.88
414.928	501.88
415.151	522.88
415.374	515.88
415.597	499.88
415.821	496.88
416.044	500.88
416.267	503.88
416.49	511.88
416.713	511.88
416.936	482.88
417.159	499.88
417.382	488.88
417.605	495.88
417.828	493.88
418.051	503.88
418.274	494.88
418.497	499.88
418.72	518.88
418.943	495.88
419.166	509.88
419.389	551.88
419.611	543.88
419.834	546.88
420.057	513.88
420.28	525.88
420.503	534.88
420.726	521.88
420.948	535.88
421.171	545.88
421.394	568.88
421.617	529.88
421.839	514.88
422.062	527.88
422.285	523.88
422.507	582.88
422.73	596.88
422.953	586.88
423.175	527.88
423.398	533.88
423.621	536.88
423.843	531.88
424.066	547.88
424.288	559.88
424.511	553.88
424.733	571.88
424.956	644.88
425.178	610.88
425.401	592.88
425.623	632.88
425.846	569.88
426.068	528.88
426.291	528.88
426.513	545.88
426.735	524.88
426.958	549.88
427.18	577.88
427.402	691.88
427.625	736.88
427.847	649.88
428.069	573.88
428.292	552.88
428.514	511.88
428.736	517.88
428.958	510.88
429.181	476.88
429.403	481.88
429.625	493.88
429.847	516.88
430.069	572.88
430.292	582.88
430.514	512.88
430.736	474.88
430.958	482.88
431.18	481.88
431.402	475.88
431.624	467.88
431.846	470.88
432.068	470.88
432.29	470.88
432.512	460.88
432.734	480.88
432.956	472.88
433.178	498.88
433.4	483.88
433.622	461.88
433.844	457.88
434.066	472.88
434.287	471.88
434.509	473.88
434.731	487.88
434.953	507.88
435.175	522.88
435.397	550.88
435.618	536.88
435.84	539.88
436.062	598.88
436.284	647.88
436.505	590.88
436.727	518.88
436.949	494.88
437.17	505.88
437.392	485.88
437.614	502.88
437.835	510.88
438.057	596.88
438.278	617.88
438.5	632.88
438.721	663.88
438.943	650.88
439.165	537.88
439.386	495.88
439.608	497.88
439.829	519.88
440.05	526.88
440.272	535.88
440.493	540.88
440.715	497.88
440.936	503.88
441.158	481.88
441.379	523.88
441.6	514.88
441.822	527.88
442.043	541.88
442.264	586.88
442.486	626.88
442.707	543.88
442.928	543.88
443.149	524.88
443.371	545.88
443.592	575.88
443.813	625.88
444.034	677.88
444.255	616.88
444.476	560.88
444.698	561.88
444.919	570.88
445.14	699.88
445.361	610.88
445.582	566.88
445.803	579.88
446.024	654.88
446.245	654.88
446.466	569.88
446.687	535.88
446.908	517.88
447.129	470.88
447.35	488.88
447.571	472.88
447.792	471.88
448.013	475.88
448.234	480.88
448.455	520.88
448.675	579.88
448.896	639.88
449.117	565.88
449.338	555.88
449.559	619.88
449.779	691.88
450	572.88
450.221	513.88
450.442	463.88
450.662	463.88
450.883	472.88
451.104	464.88
451.324	437.88
451.545	445.88
451.766	440.88
451.986	433.88
452.207	430.88
452.428	425.88
452.648	439.88
452.869	436.88
453.089	432.88
453.31	449.88
453.53	435.88
453.751	443.88
453.971	435.88
454.192	453.88
454.412	439.88
454.633	437.88
454.853	423.88
455.073	419.88
455.294	445.88
455.514	487.88
455.734	477.88
455.955	423.88
456.175	420.88
456.395	408.88
456.616	409.88
456.836	407.88
457.056	420.88
457.276	399.88
457.497	427.88
457.717	411.88
457.937	434.88
458.157	410.88
458.377	426.88
458.598	431.88
458.818	453.88
459.038	519.88
459.258	546.88
459.478	484.88
459.698	490.88
459.918	493.88
460.138	499.88
460.358	512.88
460.578	508.88
460.798	513.88
461.018	507.88
461.238	522.88
461.458	511.88
461.678	515.88
461.898	544.88
462.118	526.88
462.338	535.88
462.558	547.88
462.777	543.88
462.997	570.88
463.217	588.88
463.437	605.88
463.657	596.88
463.876	574.88
464.096	556.88
464.316	552.88
464.536	565.88
464.755	561.88
464.975	539.88
465.195	525.88
465.414	552.88
465.634	516.88
465.854	474.88
466.073	478.88
466.293	469.88
466.512	467.88
466.732	447.88
466.951	474.88
467.171	458.88
467.391	439.88
467.61	447.88
467.829	464.88
468.049	467.88
468.268	464.88
468.488	438.88
468.707	444.88
468.927	447.88
469.146	437.88
469.365	441.88
469.585	456.88
469.804	478.88
470.023	466.88
470.243	475.88
470.462	467.88
470.681	491.88
470.901	473.88
471.12	454.88
471.339	444.88
471.558	449.88
471.777	467.88
471.997	457.88
472.216	449.88
472.435	470.88
472.654	465.88
472.873	451.88
473.092	458.88
473.311	465.88
473.53	453.88
473.749	467.88
473.968	481.88
474.187	535.88
474.406	565.88
474.625	495.88
474.844	470.88
475.063	464.88
475.282	451.88
475.501	442.88
475.72	455.88
475.939	465.88
476.158	457.88
476.377	471.88
476.596	438.88
476.814	456.88
477.033	461.88
477.252	493.88
477.471	493.88
477.69	486.88
477.908	489.88
478.127	510.88
478.346	515.88
478.564	528.88
478.783	531.88
479.002	566.88
479.22	543.88
479.439	554.88
479.658	547.88
479.876	543.88
480.095	553.88
480.313	575.88
480.532	577.88
480.751	571.88
480.969	575.88
481.188	606.88
481.406	599.88
481.624	549.88
481.843	542.88
482.061	534.88
482.28	537.88
482.498	545.88
482.717	527.88
482.935	527.88
483.153	555.88
483.372	526.88
483.59	542.88
483.808	550.88
484.027	538.88
484.245	520.88
484.463	547.88
484.681	537.88
484.9	529.88
485.118	554.88
485.336	534.88
485.554	566.88
485.772	558.88
485.99	539.88
486.209	561.88
486.427	559.88
486.645	547.88
486.863	551.88
487.081	554.88
487.299	560.88
487.517	561.88
487.735	582.88
487.953	550.88
488.171	568.88
488.389	563.88
488.607	554.88
488.825	551.88
489.043	563.88
489.261	563.88
489.479	575.88
489.696	587.88
489.914	584.88
490.132	569.88
490.35	555.88
490.568	576.88
490.786	578.88
491.003	581.88
491.221	582.88
491.439	599.88
491.657	616.88
491.874	597.88
492.092	635.88
492.31	614.88
492.527	597.88
492.745	608.88
492.963	622.88
493.18	629.88
493.398	622.88
493.615	628.88
493.833	621.88
494.05	616.88
494.268	637.88
494.485	626.88
494.703	627.88
494.92	600.88
495.138	611.88
495.355	633.88
495.573	641.88
495.79	631.88
496.008	644.88
496.225	631.88
496.442	643.88
496.66	657.88
496.877	655.88
497.094	677.88
497.312	661.88
497.529	644.88
497.746	689.88
497.963	697.88
498.181	719.88
498.398	760.88
498.615	773.88
498.832	802.88
499.049	809.88
499.267	857.88
499.484	902.88
499.701	973.88
499.918	982.88
500.135	1068.88
500.352	1159.88
500.569	1181.88
500.786	1195.88
501.003	1153.88
501.22	1073.88
501.437	1014.88
501.654	967.88
501.871	913.88
502.088	865.88
