Data from 1962.PennyLincolnUp.Lamp.En5.5.200Scan.071719.P1._HRD10591_13-52-39-060.txt Node
Date: Thu Jul 18 13:52:39 EDT 2019
User: cochatt
Spectrometer: HR+D1059
Trigger mode: 1
Integration Time (sec): 1.000000E-1
Scans to average: 1
Electric dark correction enabled: true
Nonlinearity correction enabled: false
Boxcar width: 0
XAxis mode: Wavelengths
Number of Pixels in Spectrum: 2048
>>>>>Begin Spectral Data<<<<<
223.165	-17.5
223.4	-17.5
223.635	-17.5
223.869	-19.5
224.104	-18.5
224.338	-21.5
224.573	-6.5
224.808	-14.5
225.042	-8.5
225.277	14.5
225.511	-14.5
225.746	4.5
225.98	15.5
226.215	4.5
226.449	16.5
226.683	24.5
226.918	19.5
227.152	21.5
227.387	42.5
227.621	35.5
227.856	43.5
228.09	45.5
228.324	61.5
228.559	56.5
228.793	65.5
229.027	85.5
229.262	78.5
229.496	80.5
229.73	98.5
229.964	115.5
230.199	95.5
230.433	99.5
230.667	97.5
230.901	99.5
231.136	100.5
231.37	93.5
231.604	109.5
231.838	116.5
232.072	115.5
232.306	113.5
232.541	122.5
232.775	107.5
233.009	105.5
233.243	91.5
233.477	109.5
233.711	98.5
233.945	106.5
234.179	103.5
234.413	108.5
234.647	110.5
234.881	132.5
235.115	115.5
235.349	105.5
235.583	102.5
235.817	106.5
236.051	109.5
236.285	114.5
236.519	110.5
236.753	119.5
236.987	122.5
237.221	122.5
237.455	146.5
237.689	131.5
237.922	132.5
238.156	120.5
238.39	115.5
238.624	105.5
238.858	115.5
239.091	105.5
239.325	110.5
239.559	109.5
239.793	115.5
240.027	125.5
240.26	131.5
240.494	125.5
240.728	135.5
240.961	111.5
241.195	131.5
241.429	118.5
241.662	121.5
241.896	113.5
242.13	119.5
242.363	139.5
242.597	122.5
242.83	133.5
243.064	123.5
243.298	120.5
243.531	120.5
243.765	135.5
243.998	139.5
244.232	106.5
244.465	142.5
244.699	123.5
244.932	135.5
245.166	140.5
245.399	144.5
245.633	129.5
245.866	125.5
246.099	146.5
246.333	135.5
246.566	133.5
246.8	134.5
247.033	153.5
247.266	143.5
247.5	136.5
247.733	139.5
247.966	153.5
248.2	142.5
248.433	140.5
248.666	161.5
248.899	160.5
249.133	149.5
249.366	165.5
249.599	158.5
249.832	156.5
250.066	174.5
250.299	164.5
250.532	167.5
250.765	165.5
250.998	172.5
251.231	182.5
251.465	178.5
251.698	166.5
251.931	151.5
252.164	159.5
252.397	157.5
252.63	154.5
252.863	166.5
253.096	167.5
253.329	166.5
253.562	169.5
253.795	172.5
254.028	158.5
254.261	181.5
254.494	164.5
254.727	179.5
254.96	182.5
255.193	194.5
255.426	192.5
255.659	198.5
255.892	182.5
256.124	184.5
256.357	185.5
256.59	178.5
256.823	163.5
257.056	167.5
257.289	180.5
257.521	178.5
257.754	166.5
257.987	161.5
258.22	185.5
258.452	175.5
258.685	180.5
258.918	173.5
259.151	174.5
259.383	187.5
259.616	196.5
259.849	185.5
260.081	190.5
260.314	204.5
260.547	191.5
260.779	185.5
261.012	197.5
261.244	178.5
261.477	201.5
261.71	193.5
261.942	189.5
262.175	204.5
262.407	189.5
262.64	185.5
262.872	210.5
263.105	194.5
263.337	186.5
263.57	189.5
263.802	192.5
264.035	202.5
264.267	185.5
264.499	194.5
264.732	195.5
264.964	189.5
265.197	187.5
265.429	197.5
265.661	186.5
265.894	193.5
266.126	195.5
266.358	198.5
266.591	196.5
266.823	201.5
267.055	185.5
267.287	193.5
267.52	199.5
267.752	195.5
267.984	206.5
268.216	207.5
268.448	209.5
268.681	208.5
268.913	220.5
269.145	208.5
269.377	218.5
269.609	226.5
269.841	218.5
270.073	228.5
270.306	213.5
270.538	230.5
270.77	226.5
271.002	258.5
271.234	226.5
271.466	244.5
271.698	223.5
271.93	244.5
272.162	252.5
272.394	250.5
272.626	234.5
272.858	222.5
273.09	249.5
273.322	239.5
273.553	229.5
273.785	229.5
274.017	223.5
274.249	229.5
274.481	218.5
274.713	199.5
274.945	238.5
275.176	254.5
275.408	240.5
275.64	242.5
275.872	241.5
276.104	223.5
276.335	247.5
276.567	245.5
276.799	243.5
277.031	243.5
277.262	235.5
277.494	254.5
277.726	241.5
277.957	236.5
278.189	241.5
278.421	241.5
278.652	251.5
278.884	243.5
279.115	248.5
279.347	246.5
279.579	239.5
279.81	255.5
280.042	248.5
280.273	234.5
280.505	245.5
280.736	229.5
280.968	238.5
281.199	238.5
281.431	241.5
281.662	253.5
281.894	259.5
282.125	237.5
282.356	257.5
282.588	276.5
282.819	258.5
283.051	245.5
283.282	248.5
283.513	268.5
283.745	241.5
283.976	242.5
284.207	270.5
284.439	270.5
284.67	270.5
284.901	250.5
285.132	253.5
285.364	257.5
285.595	262.5
285.826	246.5
286.057	266.5
286.288	269.5
286.52	260.5
286.751	262.5
286.982	270.5
287.213	261.5
287.444	269.5
287.675	267.5
287.906	257.5
288.138	260.5
288.369	285.5
288.6	276.5
288.831	270.5
289.062	284.5
289.293	270.5
289.524	272.5
289.755	268.5
289.986	263.5
290.217	286.5
290.448	255.5
290.679	256.5
290.91	269.5
291.141	259.5
291.371	290.5
291.602	277.5
291.833	277.5
292.064	273.5
292.295	262.5
292.526	258.5
292.757	264.5
292.987	265.5
293.218	279.5
293.449	275.5
293.68	275.5
293.91	273.5
294.141	261.5
294.372	268.5
294.603	280.5
294.833	278.5
295.064	288.5
295.295	278.5
295.525	273.5
295.756	277.5
295.987	278.5
296.217	292.5
296.448	286.5
296.679	270.5
296.909	274.5
297.14	299.5
297.37	282.5
297.601	277.5
297.831	280.5
298.062	308.5
298.292	285.5
298.523	305.5
298.753	289.5
298.984	293.5
299.214	296.5
299.445	267.5
299.675	295.5
299.905	286.5
300.136	319.5
300.366	276.5
300.597	267.5
300.827	299.5
301.057	285.5
301.288	287.5
301.518	318.5
301.748	306.5
301.979	324.5
302.209	317.5
302.439	310.5
302.669	315.5
302.9	298.5
303.13	296.5
303.36	294.5
303.59	323.5
303.82	311.5
304.051	319.5
304.281	307.5
304.511	299.5
304.741	300.5
304.971	314.5
305.201	318.5
305.431	293.5
305.661	300.5
305.891	299.5
306.121	295.5
306.352	327.5
306.582	326.5
306.812	309.5
307.042	317.5
307.272	307.5
307.502	302.5
307.731	284.5
307.961	313.5
308.191	309.5
308.421	300.5
308.651	294.5
308.881	317.5
309.111	315.5
309.341	277.5
309.571	341.5
309.8	322.5
310.03	341.5
310.26	317.5
310.49	323.5
310.72	332.5
310.949	323.5
311.179	349.5
311.409	313.5
311.639	317.5
311.868	328.5
312.098	319.5
312.328	328.5
312.557	332.5
312.787	333.5
313.017	318.5
313.246	341.5
313.476	325.5
313.706	315.5
313.935	309.5
314.165	334.5
314.394	330.5
314.624	358.5
314.853	355.5
315.083	327.5
315.312	325.5
315.542	325.5
315.771	350.5
316.001	331.5
316.23	321.5
316.46	338.5
316.689	338.5
316.919	326.5
317.148	343.5
317.377	349.5
317.607	354.5
317.836	337.5
318.065	343.5
318.295	339.5
318.524	329.5
318.753	318.5
318.983	329.5
319.212	331.5
319.441	322.5
319.67	345.5
319.9	355.5
320.129	329.5
320.358	333.5
320.587	332.5
320.816	330.5
321.046	340.5
321.275	341.5
321.504	344.5
321.733	333.5
321.962	357.5
322.191	345.5
322.42	341.5
322.649	353.5
322.878	350.5
323.108	366.5
323.337	381.5
323.566	367.5
323.795	379.5
324.024	391.5
324.253	451.5
324.482	550.5
324.71	775.5
324.939	1075.5
325.168	941.5
325.397	541.5
325.626	419.5
325.855	390.5
326.084	395.5
326.313	372.5
326.542	383.5
326.77	387.5
326.999	435.5
327.228	526.5
327.457	711.5
327.686	847.5
327.914	608.5
328.143	459.5
328.372	422.5
328.6	381.5
328.829	393.5
329.058	389.5
329.287	408.5
329.515	398.5
329.744	391.5
329.972	397.5
330.201	390.5
330.43	383.5
330.658	390.5
330.887	409.5
331.115	398.5
331.344	370.5
331.572	395.5
331.801	391.5
332.03	398.5
332.258	388.5
332.486	420.5
332.715	392.5
332.943	391.5
333.172	399.5
333.4	418.5
333.629	409.5
333.857	428.5
334.085	428.5
334.314	434.5
334.542	449.5
334.771	452.5
334.999	437.5
335.227	443.5
335.455	420.5
335.684	435.5
335.912	435.5
336.14	410.5
336.369	415.5
336.597	417.5
336.825	414.5
337.053	402.5
337.281	406.5
337.51	403.5
337.738	395.5
337.966	383.5
338.194	417.5
338.422	419.5
338.65	393.5
338.878	379.5
339.106	380.5
339.334	380.5
339.562	379.5
339.79	374.5
340.018	398.5
340.246	361.5
340.474	369.5
340.702	373.5
340.93	400.5
341.158	375.5
341.386	387.5
341.614	381.5
341.842	383.5
342.07	387.5
342.298	385.5
342.526	363.5
342.754	379.5
342.981	368.5
343.209	377.5
343.437	375.5
343.665	401.5
343.893	402.5
344.12	420.5
344.348	415.5
344.576	403.5
344.804	395.5
345.031	397.5
345.259	382.5
345.487	385.5
345.714	389.5
345.942	369.5
346.17	377.5
346.397	386.5
346.625	372.5
346.853	360.5
347.08	374.5
347.308	358.5
347.535	369.5
347.763	361.5
347.99	353.5
348.218	371.5
348.445	368.5
348.673	356.5
348.9	365.5
349.128	375.5
349.355	371.5
349.583	371.5
349.81	359.5
350.037	361.5
350.265	370.5
350.492	361.5
350.72	361.5
350.947	352.5
351.174	367.5
351.402	373.5
351.629	354.5
351.856	373.5
352.083	367.5
352.311	362.5
352.538	396.5
352.765	373.5
352.992	354.5
353.22	344.5
353.447	349.5
353.674	352.5
353.901	352.5
354.128	344.5
354.355	364.5
354.583	366.5
354.81	353.5
355.037	361.5
355.264	360.5
355.491	362.5
355.718	353.5
355.945	351.5
356.172	356.5
356.399	363.5
356.626	347.5
356.853	354.5
357.08	338.5
357.307	370.5
357.534	348.5
357.761	349.5
357.988	349.5
358.215	353.5
358.441	338.5
358.668	362.5
358.895	350.5
359.122	365.5
359.349	358.5
359.576	356.5
359.802	357.5
360.029	355.5
360.256	372.5
360.483	345.5
360.709	362.5
360.936	366.5
361.163	385.5
361.39	365.5
361.616	365.5
361.843	370.5
362.07	358.5
362.296	360.5
362.523	354.5
362.749	349.5
362.976	359.5
363.203	379.5
363.429	360.5
363.656	354.5
363.882	360.5
364.109	349.5
364.335	364.5
364.562	386.5
364.788	355.5
365.015	364.5
365.241	350.5
365.468	361.5
365.694	364.5
365.92	354.5
366.147	352.5
366.373	353.5
366.599	364.5
366.826	358.5
367.052	359.5
367.278	353.5
367.505	343.5
367.731	352.5
367.957	344.5
368.184	344.5
368.41	377.5
368.636	358.5
368.862	364.5
369.089	363.5
369.315	350.5
369.541	351.5
369.767	358.5
369.993	366.5
370.219	372.5
370.445	373.5
370.672	366.5
370.898	368.5
371.124	377.5
371.35	365.5
371.576	389.5
371.802	357.5
372.028	362.5
372.254	363.5
372.48	350.5
372.706	364.5
372.932	385.5
373.158	378.5
373.384	385.5
373.61	377.5
373.835	391.5
374.061	379.5
374.287	389.5
374.513	381.5
374.739	375.5
374.965	390.5
375.191	392.5
375.416	383.5
375.642	380.5
375.868	363.5
376.094	366.5
376.319	376.5
376.545	385.5
376.771	364.5
376.997	369.5
377.222	375.5
377.448	393.5
377.674	379.5
377.899	342.5
378.125	383.5
378.35	356.5
378.576	367.5
378.802	380.5
379.027	387.5
379.253	371.5
379.478	381.5
379.704	375.5
379.929	390.5
380.155	364.5
380.38	364.5
380.606	373.5
380.831	385.5
381.057	387.5
381.282	376.5
381.507	391.5
381.733	387.5
381.958	375.5
382.184	371.5
382.409	375.5
382.634	388.5
382.86	383.5
383.085	383.5
383.31	394.5
383.535	397.5
383.761	388.5
383.986	396.5
384.211	381.5
384.436	409.5
384.662	397.5
384.887	428.5
385.112	405.5
385.337	417.5
385.562	415.5
385.787	441.5
386.013	439.5
386.238	452.5
386.463	437.5
386.688	424.5
386.913	433.5
387.138	429.5
387.363	433.5
387.588	400.5
387.813	431.5
388.038	422.5
388.263	425.5
388.488	435.5
388.713	440.5
388.938	425.5
389.163	406.5
389.387	412.5
389.612	424.5
389.837	436.5
390.062	409.5
390.287	427.5
390.512	429.5
390.736	412.5
390.961	404.5
391.186	425.5
391.411	428.5
391.636	421.5
391.86	451.5
392.085	459.5
392.31	443.5
392.534	459.5
392.759	451.5
392.984	418.5
393.208	456.5
393.433	441.5
393.658	459.5
393.882	442.5
394.107	436.5
394.331	430.5
394.556	451.5
394.78	435.5
395.005	445.5
395.229	445.5
395.454	449.5
395.678	462.5
395.903	442.5
396.127	463.5
396.352	468.5
396.576	471.5
396.801	462.5
397.025	487.5
397.249	471.5
397.474	459.5
397.698	448.5
397.922	478.5
398.147	477.5
398.371	492.5
398.595	498.5
398.82	477.5
399.044	516.5
399.268	525.5
399.492	577.5
399.717	598.5
399.941	609.5
400.165	600.5
400.389	612.5
400.613	552.5
400.837	549.5
401.062	528.5
401.286	504.5
401.51	494.5
401.734	501.5
401.958	500.5
402.182	494.5
402.406	501.5
402.63	515.5
402.854	510.5
403.078	536.5
403.302	497.5
403.526	513.5
403.75	516.5
403.974	505.5
404.198	553.5
404.422	505.5
404.645	537.5
404.869	529.5
405.093	537.5
405.317	562.5
405.541	595.5
405.765	544.5
405.988	511.5
406.212	522.5
406.436	527.5
406.66	550.5
406.883	509.5
407.107	564.5
407.331	593.5
407.555	634.5
407.778	640.5
408.002	601.5
408.226	574.5
408.449	554.5
408.673	542.5
408.896	544.5
409.12	576.5
409.344	571.5
409.567	532.5
409.791	529.5
410.014	524.5
410.238	523.5
410.461	526.5
410.685	515.5
410.908	517.5
411.132	529.5
411.355	573.5
411.578	523.5
411.802	516.5
412.025	507.5
412.249	503.5
412.472	525.5
412.695	528.5
412.919	526.5
413.142	505.5
413.365	493.5
413.589	501.5
413.812	496.5
414.035	491.5
414.258	483.5
414.482	470.5
414.705	485.5
414.928	484.5
415.151	469.5
415.374	470.5
415.597	484.5
415.821	486.5
416.044	487.5
416.267	481.5
416.49	468.5
416.713	473.5
416.936	479.5
417.159	479.5
417.382	469.5
417.605	492.5
417.828	475.5
418.051	476.5
418.274	478.5
418.497	479.5
418.72	500.5
418.943	476.5
419.166	506.5
419.389	530.5
419.611	520.5
419.834	518.5
420.057	513.5
420.28	507.5
420.503	482.5
420.726	482.5
420.948	495.5
421.171	519.5
421.394	527.5
421.617	485.5
421.839	468.5
422.062	484.5
422.285	493.5
422.507	534.5
422.73	560.5
422.953	539.5
423.175	509.5
423.398	518.5
423.621	511.5
423.843	516.5
424.066	523.5
424.288	485.5
424.511	493.5
424.733	575.5
424.956	584.5
425.178	568.5
425.401	585.5
425.623	581.5
425.846	523.5
426.068	489.5
426.291	483.5
426.513	514.5
426.735	500.5
426.958	515.5
427.18	558.5
427.402	633.5
427.625	685.5
427.847	600.5
428.069	544.5
428.292	499.5
428.514	477.5
428.736	479.5
428.958	479.5
429.181	473.5
429.403	469.5
429.625	484.5
429.847	470.5
430.069	500.5
430.292	513.5
430.514	459.5
430.736	465.5
430.958	469.5
431.18	437.5
431.402	459.5
431.624	441.5
431.846	449.5
432.068	443.5
432.29	451.5
432.512	463.5
432.734	449.5
432.956	459.5
433.178	464.5
433.4	446.5
433.622	443.5
433.844	463.5
434.066	462.5
434.287	454.5
434.509	487.5
434.731	510.5
434.953	491.5
435.175	489.5
435.397	512.5
435.618	492.5
435.84	520.5
436.062	556.5
436.284	593.5
436.505	534.5
436.727	485.5
436.949	478.5
437.17	465.5
437.392	462.5
437.614	462.5
437.835	471.5
438.057	534.5
438.278	581.5
438.5	589.5
438.721	633.5
438.943	595.5
439.165	504.5
439.386	467.5
439.608	473.5
439.829	484.5
440.05	486.5
440.272	513.5
440.493	505.5
440.715	500.5
440.936	466.5
441.158	493.5
441.379	470.5
441.6	488.5
441.822	505.5
442.043	528.5
442.264	576.5
442.486	597.5
442.707	545.5
442.928	517.5
443.149	493.5
443.371	500.5
443.592	536.5
443.813	571.5
444.034	635.5
444.255	590.5
444.476	547.5
444.698	517.5
444.919	533.5
445.14	646.5
445.361	590.5
445.582	526.5
445.803	563.5
446.024	598.5
446.245	580.5
446.466	541.5
446.687	511.5
446.908	493.5
447.129	490.5
447.35	446.5
447.571	472.5
447.792	458.5
448.013	457.5
448.234	449.5
448.455	453.5
448.675	539.5
448.896	626.5
449.117	533.5
449.338	527.5
449.559	588.5
449.779	640.5
450	518.5
450.221	467.5
450.442	440.5
450.662	417.5
450.883	437.5
451.104	427.5
451.324	421.5
451.545	439.5
451.766	407.5
451.986	408.5
452.207	422.5
452.428	421.5
452.648	400.5
452.869	409.5
453.089	411.5
453.31	429.5
453.53	418.5
453.751	410.5
453.971	397.5
454.192	418.5
454.412	399.5
454.633	411.5
454.853	401.5
455.073	400.5
455.294	430.5
455.514	442.5
455.734	447.5
455.955	419.5
456.175	421.5
456.395	396.5
456.616	410.5
456.836	394.5
457.056	396.5
457.276	372.5
457.497	402.5
457.717	393.5
457.937	403.5
458.157	417.5
458.377	398.5
458.598	414.5
458.818	454.5
459.038	484.5
459.258	508.5
459.478	469.5
459.698	458.5
459.918	446.5
460.138	478.5
460.358	488.5
460.578	500.5
460.798	513.5
461.018	497.5
461.238	491.5
461.458	498.5
461.678	483.5
461.898	504.5
462.118	509.5
462.338	519.5
462.558	524.5
462.777	543.5
462.997	563.5
463.217	579.5
463.437	567.5
463.657	580.5
463.876	551.5
464.096	550.5
464.316	532.5
464.536	544.5
464.755	547.5
464.975	539.5
465.195	527.5
465.414	523.5
465.634	486.5
465.854	469.5
466.073	454.5
466.293	448.5
466.512	448.5
466.732	436.5
466.951	428.5
467.171	437.5
467.391	431.5
467.61	443.5
467.829	437.5
468.049	434.5
468.268	440.5
468.488	454.5
468.707	416.5
468.927	426.5
469.146	414.5
469.365	429.5
469.585	437.5
469.804	442.5
470.023	426.5
470.243	437.5
470.462	446.5
470.681	453.5
470.901	443.5
471.12	457.5
471.339	462.5
471.558	422.5
471.777	440.5
471.997	425.5
472.216	444.5
472.435	444.5
472.654	449.5
472.873	423.5
473.092	448.5
473.311	451.5
473.53	434.5
473.749	441.5
473.968	474.5
474.187	485.5
474.406	509.5
474.625	460.5
474.844	457.5
475.063	437.5
475.282	425.5
475.501	439.5
475.72	433.5
475.939	427.5
476.158	465.5
476.377	474.5
476.596	449.5
476.814	458.5
477.033	462.5
477.252	445.5
477.471	468.5
477.69	494.5
477.908	484.5
478.127	516.5
478.346	506.5
478.564	514.5
478.783	514.5
479.002	516.5
479.22	520.5
479.439	541.5
479.658	511.5
479.876	521.5
480.095	537.5
480.313	570.5
480.532	544.5
480.751	539.5
480.969	540.5
481.188	550.5
481.406	537.5
481.624	539.5
481.843	531.5
482.061	522.5
482.28	536.5
482.498	504.5
482.717	510.5
482.935	498.5
483.153	504.5
483.372	515.5
483.59	521.5
483.808	517.5
484.027	530.5
484.245	523.5
484.463	546.5
484.681	532.5
484.9	542.5
485.118	529.5
485.336	545.5
485.554	524.5
485.772	537.5
485.99	525.5
486.209	547.5
486.427	541.5
486.645	555.5
486.863	531.5
487.081	539.5
487.299	557.5
487.517	542.5
487.735	532.5
487.953	552.5
488.171	564.5
488.389	543.5
488.607	537.5
488.825	542.5
489.043	556.5
489.261	531.5
489.479	543.5
489.696	541.5
489.914	531.5
490.132	543.5
490.35	556.5
490.568	561.5
490.786	544.5
491.003	560.5
491.221	551.5
491.439	548.5
491.657	570.5
491.874	601.5
492.092	559.5
492.31	582.5
492.527	579.5
492.745	591.5
492.963	628.5
493.18	597.5
493.398	599.5
493.615	583.5
493.833	554.5
494.05	590.5
494.268	588.5
494.485	583.5
494.703	579.5
494.92	582.5
495.138	596.5
495.355	572.5
495.573	622.5
495.79	613.5
496.008	619.5
496.225	618.5
496.442	575.5
496.66	616.5
496.877	645.5
497.094	632.5
497.312	619.5
497.529	647.5
497.746	638.5
497.963	666.5
498.181	701.5
498.398	709.5
498.615	729.5
498.832	766.5
499.049	783.5
499.267	816.5
499.484	837.5
499.701	897.5
499.918	955.5
500.135	1021.5
500.352	1122.5
500.569	1150.5
500.786	1115.5
501.003	1093.5
501.22	1025.5
501.437	939.5
501.654	926.5
501.871	893.5
502.088	839.5
502.305	781.5
502.522	749.5
502.739	722.5
502.956	701.5
503.172	687.5
503.389	679.5
503.606	689.5
503.823	670.5
504.04	659.5
504.256	656.5
504.473	659.5
504.69	670.5
504.907	664.5
505.123	647.5
505.34	626.5
505.557	585.5
505.773	591.5
505.99	566.5
506.207	584.5
506.423	610.5
506.64	561.5
506.856	579.5
507.073	551.5
507.289	544.5
507.506	531.5
507.722	547.5
507.939	547.5
508.155	542.5
508.372	538.5
508.588	543.5
508.805	534.5
509.021	536.5
509.238	542.5
509.454	512.5
509.67	517.5
509.887	520.5
510.103	540.5
510.319	523.5
510.536	562.5
510.752	699.5
510.968	606.5
511.184	509.5
511.401	502.5
511.617	517.5
511.833	502.5
512.049	478.5
512.265	516.5
512.481	510.5
512.698	504.5
512.914	488.5
513.13	513.5
513.346	492.5
513.562	499.5
513.778	507.5
513.994	482.5
514.21	501.5
514.426	495.5
514.642	502.5
514.858	543.5
515.074	528.5
515.29	562.5
515.506	671.5
515.721	635.5
515.937	535.5
516.153	534.5
516.369	533.5
516.585	546.5
516.801	542.5
517.016	571.5
517.232	585.5
517.448	582.5
517.664	578.5
517.879	575.5
518.095	600.5
518.311	594.5
518.527	592.5
518.742	561.5
518.958	557.5
519.173	538.5
519.389	517.5
519.605	537.5
519.82	506.5
520.036	527.5
