Data from 1962.PennyLincolnUp.Lamp.En5.5.200Scan.071719.P1._HRD10591_13-54-48-061.txt Node
Date: Thu Jul 18 13:54:48 EDT 2019
User: cochatt
Spectrometer: HR+D1059
Trigger mode: 1
Integration Time (sec): 1.000000E-1
Scans to average: 1
Electric dark correction enabled: true
Nonlinearity correction enabled: false
Boxcar width: 0
XAxis mode: Wavelengths
Number of Pixels in Spectrum: 2048
>>>>>Begin Spectral Data<<<<<
223.165	-13.12
223.4	-13.12
223.635	-13.12
223.869	-16.12
224.104	-27.12
224.338	-23.12
224.573	-7.12
224.808	-22.12
225.042	-8.12
225.277	-11.12
225.511	-0.12
225.746	-2.12
225.98	15.88
226.215	22.88
226.449	13.88
226.683	24.88
226.918	30.88
227.152	21.88
227.387	32.88
227.621	30.88
227.856	34.88
228.09	37.88
228.324	48.88
228.559	49.88
228.793	51.88
229.027	100.88
229.262	97.88
229.496	100.88
229.73	113.88
229.964	127.88
230.199	117.88
230.433	103.88
230.667	98.88
230.901	103.88
231.136	99.88
231.37	95.88
231.604	95.88
231.838	110.88
232.072	106.88
232.306	98.88
232.541	109.88
232.775	113.88
233.009	104.88
233.243	120.88
233.477	113.88
233.711	112.88
233.945	119.88
234.179	95.88
234.413	107.88
234.647	110.88
234.881	100.88
235.115	109.88
235.349	109.88
235.583	109.88
235.817	101.88
236.051	112.88
236.285	105.88
236.519	109.88
236.753	115.88
236.987	123.88
237.221	138.88
237.455	186.88
237.689	163.88
237.922	126.88
238.156	118.88
238.39	119.88
238.624	116.88
238.858	114.88
239.091	106.88
239.325	122.88
239.559	111.88
239.793	115.88
240.027	127.88
240.26	138.88
240.494	125.88
240.728	131.88
240.961	131.88
241.195	130.88
241.429	121.88
241.662	111.88
241.896	128.88
242.13	127.88
242.363	124.88
242.597	120.88
242.83	135.88
243.064	123.88
243.298	124.88
243.531	125.88
243.765	119.88
243.998	115.88
244.232	127.88
244.465	137.88
244.699	125.88
244.932	127.88
245.166	159.88
245.399	142.88
245.633	120.88
245.866	131.88
246.099	143.88
246.333	154.88
246.566	140.88
246.8	146.88
247.033	134.88
247.266	147.88
247.5	151.88
247.733	147.88
247.966	154.88
248.2	154.88
248.433	146.88
248.666	162.88
248.899	153.88
249.133	165.88
249.366	156.88
249.599	164.88
249.832	180.88
250.066	161.88
250.299	149.88
250.532	169.88
250.765	187.88
250.998	183.88
251.231	186.88
251.465	190.88
251.698	169.88
251.931	177.88
252.164	177.88
252.397	182.88
252.63	177.88
252.863	165.88
253.096	191.88
253.329	173.88
253.562	191.88
253.795	197.88
254.028	203.88
254.261	205.88
254.494	213.88
254.727	211.88
254.96	223.88
255.193	226.88
255.426	219.88
255.659	212.88
255.892	201.88
256.124	198.88
256.357	196.88
256.59	201.88
256.823	189.88
257.056	198.88
257.289	194.88
257.521	189.88
257.754	188.88
257.987	194.88
258.22	202.88
258.452	192.88
258.685	170.88
258.918	189.88
259.151	173.88
259.383	199.88
259.616	192.88
259.849	199.88
260.081	216.88
260.314	214.88
260.547	229.88
260.779	216.88
261.012	214.88
261.244	208.88
261.477	215.88
261.71	218.88
261.942	208.88
262.175	206.88
262.407	200.88
262.64	186.88
262.872	201.88
263.105	212.88
263.337	207.88
263.57	208.88
263.802	193.88
264.035	207.88
264.267	195.88
264.499	199.88
264.732	198.88
264.964	200.88
265.197	221.88
265.429	211.88
265.661	191.88
265.894	221.88
266.126	202.88
266.358	192.88
266.591	220.88
266.823	215.88
267.055	205.88
267.287	217.88
267.52	216.88
267.752	223.88
267.984	218.88
268.216	219.88
268.448	219.88
268.681	240.88
268.913	253.88
269.145	257.88
269.377	255.88
269.609	249.88
269.841	258.88
270.073	258.88
270.306	257.88
270.538	273.88
270.77	263.88
271.002	280.88
271.234	279.88
271.466	271.88
271.698	290.88
271.93	296.88
272.162	277.88
272.394	283.88
272.626	281.88
272.858	256.88
273.09	242.88
273.322	276.88
273.553	253.88
273.785	257.88
274.017	250.88
274.249	253.88
274.481	255.88
274.713	247.88
274.945	264.88
275.176	283.88
275.408	260.88
275.64	247.88
275.872	256.88
276.104	267.88
276.335	258.88
276.567	261.88
276.799	264.88
277.031	284.88
277.262	303.88
277.494	291.88
277.726	293.88
277.957	286.88
278.189	278.88
278.421	247.88
278.652	249.88
278.884	269.88
279.115	261.88
279.347	260.88
279.579	280.88
279.81	279.88
280.042	260.88
280.273	257.88
280.505	274.88
280.736	277.88
280.968	261.88
281.199	263.88
281.431	262.88
281.662	268.88
281.894	275.88
282.125	245.88
282.356	265.88
282.588	313.88
282.819	288.88
283.051	295.88
283.282	288.88
283.513	280.88
283.745	277.88
283.976	261.88
284.207	281.88
284.439	281.88
284.67	286.88
284.901	284.88
285.132	290.88
285.364	265.88
285.595	302.88
285.826	271.88
286.057	282.88
286.288	313.88
286.52	295.88
286.751	280.88
286.982	294.88
287.213	281.88
287.444	296.88
287.675	290.88
287.906	303.88
288.138	306.88
288.369	313.88
288.6	319.88
288.831	294.88
289.062	295.88
289.293	312.88
289.524	293.88
289.755	280.88
289.986	303.88
290.217	284.88
290.448	293.88
290.679	305.88
290.91	291.88
291.141	289.88
291.371	296.88
291.602	305.88
291.833	293.88
292.064	302.88
292.295	309.88
292.526	295.88
292.757	307.88
292.987	282.88
293.218	297.88
293.449	305.88
293.68	295.88
293.91	318.88
294.141	299.88
294.372	304.88
294.603	306.88
294.833	293.88
295.064	308.88
295.295	297.88
295.525	293.88
295.756	295.88
295.987	294.88
296.217	314.88
296.448	329.88
296.679	307.88
296.909	294.88
297.14	301.88
297.37	312.88
297.601	306.88
297.831	313.88
298.062	310.88
298.292	322.88
298.523	307.88
298.753	296.88
298.984	311.88
299.214	294.88
299.445	313.88
299.675	330.88
299.905	324.88
300.136	323.88
300.366	323.88
300.597	329.88
300.827	329.88
301.057	336.88
301.288	342.88
301.518	335.88
301.748	331.88
301.979	324.88
302.209	319.88
302.439	316.88
302.669	339.88
302.9	326.88
303.13	333.88
303.36	315.88
303.59	304.88
303.82	352.88
304.051	345.88
304.281	330.88
304.511	363.88
304.741	327.88
304.971	325.88
305.201	331.88
305.431	315.88
305.661	343.88
305.891	336.88
306.121	327.88
306.352	321.88
306.582	354.88
306.812	319.88
307.042	338.88
307.272	337.88
307.502	306.88
307.731	342.88
307.961	327.88
308.191	350.88
308.421	327.88
308.651	342.88
308.881	342.88
309.111	328.88
309.341	346.88
309.571	340.88
309.8	349.88
310.03	364.88
310.26	368.88
310.49	344.88
310.72	358.88
310.949	363.88
311.179	367.88
311.409	355.88
311.639	389.88
311.868	360.88
312.098	359.88
312.328	369.88
312.557	365.88
312.787	372.88
313.017	376.88
313.246	363.88
313.476	369.88
313.706	377.88
313.935	380.88
314.165	374.88
314.394	374.88
314.624	375.88
314.853	375.88
315.083	377.88
315.312	392.88
315.542	375.88
315.771	377.88
316.001	373.88
316.23	374.88
316.46	350.88
316.689	351.88
316.919	359.88
317.148	391.88
317.377	394.88
317.607	365.88
317.836	387.88
318.065	384.88
318.295	377.88
318.524	382.88
318.753	369.88
318.983	365.88
319.212	378.88
319.441	357.88
319.67	382.88
319.9	385.88
320.129	373.88
320.358	386.88
320.587	371.88
320.816	374.88
321.046	383.88
321.275	385.88
321.504	362.88
321.733	379.88
321.962	385.88
322.191	399.88
322.42	411.88
322.649	403.88
322.878	408.88
323.108	407.88
323.337	429.88
323.566	443.88
323.795	457.88
324.024	463.88
324.253	548.88
324.482	710.88
324.71	1057.88
324.939	1484.88
325.168	1291.88
325.397	719.88
325.626	523.88
325.855	491.88
326.084	450.88
326.313	461.88
326.542	451.88
326.77	500.88
326.999	523.88
327.228	667.88
327.457	951.88
327.686	1165.88
327.914	792.88
328.143	566.88
328.372	520.88
328.6	474.88
328.829	494.88
329.058	472.88
329.287	494.88
329.515	458.88
329.744	451.88
329.972	456.88
330.201	475.88
330.43	487.88
330.658	508.88
330.887	529.88
331.115	509.88
331.344	469.88
331.572	448.88
331.801	472.88
332.03	454.88
332.258	459.88
332.486	453.88
332.715	452.88
332.943	466.88
333.172	459.88
333.4	479.88
333.629	478.88
333.857	499.88
334.085	481.88
334.314	513.88
334.542	506.88
334.771	516.88
334.999	497.88
335.227	473.88
335.455	469.88
335.684	461.88
335.912	473.88
336.14	461.88
336.369	473.88
336.597	463.88
336.825	446.88
337.053	444.88
337.281	434.88
337.51	431.88
337.738	448.88
337.966	453.88
338.194	461.88
338.422	441.88
338.65	455.88
338.878	422.88
339.106	427.88
339.334	451.88
339.562	427.88
339.79	437.88
340.018	422.88
340.246	411.88
340.474	433.88
340.702	415.88
340.93	433.88
341.158	424.88
341.386	417.88
341.614	408.88
341.842	413.88
342.07	427.88
342.298	426.88
342.526	426.88
342.754	420.88
342.981	411.88
343.209	434.88
343.437	446.88
343.665	441.88
343.893	469.88
344.12	449.88
344.348	469.88
344.576	422.88
344.804	421.88
345.031	436.88
345.259	447.88
345.487	441.88
345.714	438.88
345.942	405.88
346.17	391.88
346.397	405.88
346.625	403.88
346.853	417.88
347.08	429.88
347.308	407.88
347.535	418.88
347.763	409.88
347.99	429.88
348.218	388.88
348.445	405.88
348.673	418.88
348.9	401.88
349.128	393.88
349.355	411.88
349.583	395.88
349.81	403.88
350.037	408.88
350.265	400.88
350.492	398.88
350.72	401.88
350.947	395.88
351.174	409.88
351.402	409.88
351.629	424.88
351.856	410.88
352.083	404.88
352.311	405.88
352.538	409.88
352.765	408.88
352.992	417.88
353.22	393.88
353.447	392.88
353.674	400.88
353.901	395.88
354.128	393.88
354.355	389.88
354.583	403.88
354.81	375.88
355.037	389.88
355.264	383.88
355.491	384.88
355.718	372.88
355.945	384.88
356.172	393.88
356.399	388.88
356.626	392.88
356.853	391.88
357.08	398.88
357.307	404.88
357.534	374.88
357.761	395.88
357.988	383.88
358.215	380.88
358.441	382.88
358.668	389.88
358.895	382.88
359.122	377.88
359.349	401.88
359.576	407.88
359.802	404.88
360.029	406.88
360.256	418.88
360.483	429.88
360.709	418.88
360.936	395.88
361.163	391.88
361.39	409.88
361.616	409.88
361.843	413.88
362.07	406.88
362.296	395.88
362.523	392.88
362.749	386.88
362.976	418.88
363.203	384.88
363.429	394.88
363.656	388.88
363.882	406.88
364.109	396.88
364.335	388.88
364.562	403.88
364.788	394.88
365.015	390.88
365.241	394.88
365.468	390.88
365.694	398.88
365.92	384.88
366.147	402.88
366.373	390.88
366.599	385.88
366.826	362.88
367.052	382.88
367.278	389.88
367.505	383.88
367.731	401.88
367.957	413.88
368.184	406.88
368.41	413.88
368.636	384.88
368.862	392.88
369.089	401.88
369.315	390.88
369.541	395.88
369.767	404.88
369.993	393.88
370.219	392.88
370.445	418.88
370.672	403.88
370.898	384.88
371.124	393.88
371.35	411.88
371.576	392.88
371.802	401.88
372.028	403.88
372.254	386.88
372.48	392.88
372.706	413.88
372.932	421.88
373.158	417.88
373.384	405.88
373.61	416.88
373.835	413.88
374.061	424.88
374.287	416.88
374.513	422.88
374.739	421.88
374.965	399.88
375.191	422.88
375.416	421.88
375.642	418.88
375.868	424.88
376.094	409.88
376.319	408.88
376.545	405.88
376.771	423.88
376.997	419.88
377.222	396.88
377.448	409.88
377.674	409.88
377.899	391.88
378.125	390.88
378.35	403.88
378.576	422.88
378.802	390.88
379.027	398.88
379.253	395.88
379.478	413.88
379.704	399.88
379.929	388.88
380.155	400.88
380.38	407.88
380.606	396.88
380.831	390.88
381.057	426.88
381.282	407.88
381.507	398.88
381.733	409.88
381.958	390.88
382.184	418.88
382.409	409.88
382.634	401.88
382.86	426.88
383.085	441.88
383.31	401.88
383.535	411.88
383.761	431.88
383.986	430.88
384.211	446.88
384.436	451.88
384.662	432.88
384.887	447.88
385.112	457.88
385.337	450.88
385.562	450.88
385.787	444.88
386.013	446.88
386.238	460.88
386.463	457.88
386.688	472.88
386.913	447.88
387.138	442.88
387.363	454.88
387.588	487.88
387.813	467.88
388.038	449.88
388.263	450.88
388.488	462.88
388.713	460.88
388.938	447.88
389.163	438.88
389.387	480.88
389.612	452.88
389.837	453.88
390.062	440.88
390.287	465.88
390.512	456.88
390.736	447.88
390.961	456.88
391.186	454.88
391.411	469.88
391.636	477.88
391.86	480.88
392.085	480.88
392.31	511.88
392.534	482.88
392.759	482.88
392.984	461.88
393.208	471.88
393.433	471.88
393.658	480.88
393.882	455.88
394.107	474.88
394.331	457.88
394.556	482.88
394.78	482.88
395.005	499.88
395.229	467.88
395.454	488.88
395.678	501.88
395.903	494.88
396.127	508.88
396.352	490.88
396.576	466.88
396.801	477.88
397.025	490.88
397.249	486.88
397.474	502.88
397.698	497.88
397.922	490.88
398.147	520.88
398.371	514.88
398.595	522.88
398.82	549.88
399.044	562.88
399.268	580.88
399.492	630.88
399.717	667.88
399.941	697.88
400.165	662.88
400.389	675.88
400.613	614.88
400.837	584.88
401.062	549.88
401.286	587.88
401.51	545.88
401.734	542.88
401.958	558.88
402.182	565.88
402.406	546.88
402.63	542.88
402.854	565.88
403.078	561.88
403.302	563.88
403.526	571.88
403.75	581.88
403.974	579.88
404.198	570.88
404.422	591.88
404.645	593.88
404.869	589.88
405.093	600.88
405.317	639.88
405.541	671.88
405.765	615.88
405.988	615.88
406.212	591.88
406.436	594.88
406.66	613.88
406.883	603.88
407.107	632.88
407.331	681.88
407.555	734.88
407.778	726.88
408.002	682.88
408.226	637.88
408.449	623.88
408.673	630.88
408.896	631.88
409.12	671.88
409.344	619.88
409.567	585.88
409.791	581.88
410.014	585.88
410.238	565.88
410.461	561.88
410.685	558.88
410.908	574.88
411.132	606.88
411.355	609.88
411.578	602.88
411.802	561.88
412.025	554.88
412.249	567.88
412.472	582.88
412.695	614.88
412.919	598.88
413.142	566.88
413.365	553.88
413.589	566.88
413.812	542.88
414.035	536.88
414.258	533.88
414.482	536.88
414.705	535.88
414.928	530.88
415.151	535.88
415.374	531.88
415.597	513.88
415.821	527.88
416.044	510.88
416.267	529.88
416.49	525.88
416.713	504.88
416.936	530.88
417.159	522.88
417.382	507.88
417.605	530.88
417.828	531.88
418.051	560.88
418.274	564.88
418.497	533.88
418.72	532.88
418.943	498.88
419.166	562.88
419.389	577.88
419.611	585.88
419.834	559.88
420.057	585.88
420.28	562.88
420.503	559.88
420.726	551.88
420.948	544.88
421.171	592.88
421.394	627.88
421.617	551.88
421.839	552.88
422.062	537.88
422.285	571.88
422.507	605.88
422.73	644.88
422.953	631.88
423.175	567.88
423.398	554.88
423.621	550.88
423.843	579.88
424.066	591.88
424.288	588.88
424.511	591.88
424.733	626.88
424.956	682.88
425.178	644.88
425.401	643.88
425.623	686.88
425.846	609.88
426.068	561.88
426.291	545.88
426.513	549.88
426.735	559.88
426.958	578.88
427.18	624.88
427.402	727.88
427.625	823.88
427.847	687.88
428.069	638.88
428.292	589.88
428.514	549.88
428.736	536.88
428.958	518.88
429.181	516.88
429.403	532.88
429.625	506.88
429.847	537.88
430.069	603.88
430.292	596.88
430.514	523.88
430.736	520.88
430.958	507.88
431.18	517.88
431.402	518.88
431.624	498.88
431.846	523.88
432.068	508.88
432.29	533.88
432.512	507.88
432.734	501.88
432.956	497.88
433.178	520.88
433.4	505.88
433.622	502.88
433.844	507.88
434.066	507.88
434.287	500.88
434.509	511.88
434.731	519.88
434.953	538.88
435.175	544.88
435.397	586.88
435.618	581.88
435.84	583.88
436.062	638.88
436.284	685.88
436.505	627.88
436.727	559.88
436.949	532.88
437.17	527.88
437.392	530.88
437.614	534.88
437.835	559.88
438.057	633.88
438.278	665.88
438.5	663.88
438.721	731.88
438.943	724.88
439.165	615.88
439.386	546.88
439.608	545.88
439.829	557.88
440.05	567.88
440.272	601.88
440.493	561.88
440.715	555.88
440.936	565.88
441.158	511.88
441.379	515.88
441.6	534.88
441.822	559.88
442.043	582.88
442.264	676.88
442.486	690.88
442.707	608.88
442.928	570.88
443.149	577.88
443.371	555.88
443.592	649.88
443.813	697.88
444.034	729.88
444.255	637.88
444.476	608.88
444.698	599.88
444.919	592.88
445.14	709.88
445.361	650.88
445.582	609.88
445.803	637.88
446.024	694.88
446.245	713.88
446.466	628.88
446.687	582.88
446.908	545.88
447.129	515.88
447.35	515.88
447.571	518.88
447.792	506.88
448.013	502.88
448.234	502.88
448.455	542.88
448.675	631.88
448.896	740.88
449.117	631.88
449.338	614.88
449.559	704.88
449.779	769.88
450	627.88
450.221	541.88
450.442	497.88
450.662	494.88
450.883	491.88
451.104	497.88
451.324	496.88
451.545	474.88
451.766	489.88
451.986	466.88
452.207	457.88
452.428	466.88
452.648	445.88
452.869	457.88
453.089	455.88
453.31	487.88
453.53	471.88
453.751	461.88
453.971	455.88
454.192	470.88
454.412	463.88
454.633	453.88
454.853	461.88
455.073	450.88
455.294	481.88
455.514	517.88
455.734	487.88
455.955	464.88
456.175	440.88
456.395	427.88
456.616	443.88
456.836	427.88
457.056	441.88
457.276	431.88
457.497	426.88
457.717	437.88
457.937	443.88
458.157	442.88
458.377	452.88
458.598	481.88
458.818	495.88
459.038	525.88
459.258	590.88
459.478	519.88
459.698	514.88
459.918	511.88
460.138	509.88
460.358	518.88
460.578	537.88
460.798	531.88
461.018	555.88
461.238	533.88
461.458	532.88
461.678	557.88
461.898	555.88
462.118	529.88
462.338	557.88
462.558	579.88
462.777	582.88
462.997	586.88
463.217	630.88
463.437	649.88
463.657	596.88
463.876	588.88
464.096	595.88
464.316	565.88
464.536	591.88
464.755	602.88
464.975	576.88
465.195	580.88
465.414	577.88
465.634	557.88
465.854	538.88
466.073	518.88
466.293	519.88
466.512	475.88
466.732	476.88
466.951	485.88
467.171	469.88
467.391	504.88
467.61	470.88
467.829	490.88
468.049	483.88
468.268	457.88
468.488	459.88
468.707	456.88
468.927	466.88
469.146	450.88
469.365	475.88
469.585	478.88
469.804	475.88
470.023	480.88
470.243	485.88
470.462	474.88
470.681	489.88
470.901	505.88
471.12	513.88
471.339	522.88
471.558	503.88
471.777	490.88
471.997	468.88
472.216	497.88
472.435	499.88
472.654	509.88
472.873	478.88
473.092	476.88
473.311	481.88
473.53	472.88
473.749	468.88
473.968	501.88
474.187	589.88
474.406	591.88
474.625	529.88
474.844	496.88
475.063	487.88
475.282	486.88
475.501	502.88
475.72	486.88
475.939	493.88
476.158	481.88
476.377	497.88
476.596	487.88
476.814	505.88
477.033	511.88
477.252	493.88
477.471	495.88
477.69	534.88
477.908	519.88
478.127	553.88
478.346	558.88
478.564	565.88
478.783	547.88
479.002	555.88
479.22	529.88
479.439	569.88
479.658	584.88
479.876	619.88
480.095	621.88
480.313	603.88
480.532	616.88
480.751	614.88
480.969	598.88
481.188	639.88
481.406	631.88
481.624	595.88
481.843	581.88
482.061	571.88
482.28	557.88
482.498	532.88
482.717	587.88
482.935	567.88
483.153	567.88
483.372	531.88
483.59	549.88
483.808	566.88
484.027	553.88
484.245	553.88
484.463	552.88
484.681	555.88
484.9	569.88
485.118	557.88
485.336	574.88
485.554	588.88
485.772	583.88
485.99	604.88
486.209	575.88
486.427	599.88
486.645	571.88
486.863	578.88
487.081	558.88
487.299	579.88
487.517	596.88
487.735	595.88
487.953	609.88
488.171	603.88
488.389	565.88
488.607	604.88
488.825	594.88
489.043	584.88
489.261	609.88
489.479	611.88
489.696	600.88
489.914	596.88
490.132	612.88
490.35	635.88
490.568	635.88
490.786	615.88
491.003	642.88
491.221	629.88
491.439	637.88
491.657	658.88
491.874	635.88
492.092	659.88
492.31	670.88
492.527	650.88
492.745	650.88
492.963	662.88
493.18	679.88
493.398	671.88
493.615	655.88
493.833	659.88
494.05	697.88
494.268	682.88
494.485	653.88
494.703	671.88
494.92	670.88
495.138	689.88
495.355	657.88
495.573	682.88
495.79	693.88
496.008	674.88
496.225	681.88
496.442	661.88
496.66	711.88
496.877	706.88
497.094	724.88
497.312	699.88
497.529	733.88
497.746	734.88
497.963	722.88
498.181	752.88
498.398	794.88
498.615	827.88
498.832	839.88
499.049	864.88
499.267	887.88
499.484	955.88
499.701	972.88
499.918	1050.88
500.135	1109.88
500.352	1180.88
500.569	1247.88
500.786	1235.88
501.003	1191.88
501.22	1146.88
501.437	1071.88
501.654	1011.88
501.871	958.88
