Data from 1962.PennyLincolnUp.Lamp.En5.5.200Scan.071719.P1._HRD10591_13-53-19-061.txt Node
Date: Thu Jul 18 13:53:19 EDT 2019
User: cochatt
Spectrometer: HR+D1059
Trigger mode: 1
Integration Time (sec): 1.000000E-1
Scans to average: 1
Electric dark correction enabled: true
Nonlinearity correction enabled: false
Boxcar width: 0
XAxis mode: Wavelengths
Number of Pixels in Spectrum: 2048
>>>>>Begin Spectral Data<<<<<
223.165	-23.44
223.4	-23.44
223.635	-23.44
223.869	-27.44
224.104	-13.44
224.338	-21.44
224.573	1.56
224.808	-30.44
225.042	-8.44
225.277	-4.44
225.511	-2.44
225.746	2.56
225.98	1.56
226.215	18.56
226.449	17.56
226.683	25.56
226.918	37.56
227.152	26.56
227.387	38.56
227.621	24.56
227.856	38.56
228.09	40.56
228.324	38.56
228.559	51.56
228.793	59.56
229.027	87.56
229.262	97.56
229.496	88.56
229.73	94.56
229.964	117.56
230.199	106.56
230.433	97.56
230.667	92.56
230.901	99.56
231.136	100.56
231.37	101.56
231.604	113.56
231.838	114.56
232.072	115.56
232.306	116.56
232.541	118.56
232.775	104.56
233.009	105.56
233.243	104.56
233.477	118.56
233.711	118.56
233.945	110.56
234.179	111.56
234.413	102.56
234.647	111.56
234.881	106.56
235.115	111.56
235.349	109.56
235.583	121.56
235.817	114.56
236.051	103.56
236.285	114.56
236.519	119.56
236.753	113.56
236.987	125.56
237.221	148.56
237.455	172.56
237.689	143.56
237.922	137.56
238.156	117.56
238.39	113.56
238.624	107.56
238.858	116.56
239.091	114.56
239.325	111.56
239.559	112.56
239.793	108.56
240.027	121.56
240.26	128.56
240.494	131.56
240.728	135.56
240.961	127.56
241.195	119.56
241.429	138.56
241.662	124.56
241.896	124.56
242.13	119.56
242.363	115.56
242.597	133.56
242.83	124.56
243.064	130.56
243.298	130.56
243.531	142.56
243.765	113.56
243.998	130.56
244.232	138.56
244.465	128.56
244.699	131.56
244.932	133.56
245.166	122.56
245.399	137.56
245.633	132.56
245.866	133.56
246.099	142.56
246.333	153.56
246.566	139.56
246.8	135.56
247.033	151.56
247.266	128.56
247.5	147.56
247.733	135.56
247.966	161.56
248.2	150.56
248.433	160.56
248.666	164.56
248.899	169.56
249.133	169.56
249.366	170.56
249.599	175.56
249.832	161.56
250.066	165.56
250.299	165.56
250.532	173.56
250.765	182.56
250.998	187.56
251.231	171.56
251.465	189.56
251.698	170.56
251.931	161.56
252.164	190.56
252.397	163.56
252.63	179.56
252.863	197.56
253.096	201.56
253.329	191.56
253.562	211.56
253.795	191.56
254.028	179.56
254.261	179.56
254.494	185.56
254.727	183.56
254.96	199.56
255.193	202.56
255.426	203.56
255.659	205.56
255.892	192.56
256.124	207.56
256.357	204.56
256.59	185.56
256.823	194.56
257.056	169.56
257.289	192.56
257.521	189.56
257.754	185.56
257.987	179.56
258.22	191.56
258.452	197.56
258.685	188.56
258.918	193.56
259.151	192.56
259.383	181.56
259.616	180.56
259.849	186.56
260.081	202.56
260.314	213.56
260.547	225.56
260.779	205.56
261.012	197.56
261.244	202.56
261.477	195.56
261.71	192.56
261.942	186.56
262.175	204.56
262.407	202.56
262.64	199.56
262.872	211.56
263.105	195.56
263.337	203.56
263.57	195.56
263.802	194.56
264.035	209.56
264.267	211.56
264.499	182.56
264.732	202.56
264.964	206.56
265.197	181.56
265.429	194.56
265.661	217.56
265.894	218.56
266.126	202.56
266.358	205.56
266.591	207.56
266.823	209.56
267.055	212.56
267.287	212.56
267.52	206.56
267.752	221.56
267.984	209.56
268.216	223.56
268.448	220.56
268.681	224.56
268.913	242.56
269.145	226.56
269.377	249.56
269.609	232.56
269.841	229.56
270.073	241.56
270.306	269.56
270.538	249.56
270.77	259.56
271.002	245.56
271.234	265.56
271.466	266.56
271.698	253.56
271.93	283.56
272.162	282.56
272.394	251.56
272.626	256.56
272.858	243.56
273.09	248.56
273.322	245.56
273.553	237.56
273.785	234.56
274.017	256.56
274.249	243.56
274.481	247.56
274.713	233.56
274.945	243.56
275.176	245.56
275.408	235.56
275.64	251.56
275.872	247.56
276.104	240.56
276.335	223.56
276.567	227.56
276.799	253.56
277.031	268.56
277.262	263.56
277.494	280.56
277.726	273.56
277.957	262.56
278.189	260.56
278.421	256.56
278.652	236.56
278.884	264.56
279.115	255.56
279.347	252.56
279.579	266.56
279.81	270.56
280.042	257.56
280.273	263.56
280.505	261.56
280.736	265.56
280.968	252.56
281.199	248.56
281.431	245.56
281.662	279.56
281.894	266.56
282.125	284.56
282.356	264.56
282.588	293.56
282.819	275.56
283.051	265.56
283.282	271.56
283.513	278.56
283.745	260.56
283.976	258.56
284.207	260.56
284.439	277.56
284.67	303.56
284.901	285.56
285.132	265.56
285.364	276.56
285.595	305.56
285.826	270.56
286.057	283.56
286.288	275.56
286.52	284.56
286.751	260.56
286.982	274.56
287.213	285.56
287.444	283.56
287.675	280.56
287.906	285.56
288.138	284.56
288.369	274.56
288.6	319.56
288.831	279.56
289.062	307.56
289.293	265.56
289.524	277.56
289.755	298.56
289.986	291.56
290.217	285.56
290.448	288.56
290.679	296.56
290.91	282.56
291.141	291.56
291.371	273.56
291.602	281.56
291.833	303.56
292.064	296.56
292.295	281.56
292.526	292.56
292.757	271.56
292.987	289.56
293.218	275.56
293.449	302.56
293.68	286.56
293.91	292.56
294.141	284.56
294.372	286.56
294.603	278.56
294.833	296.56
295.064	289.56
295.295	291.56
295.525	279.56
295.756	286.56
295.987	266.56
296.217	290.56
296.448	298.56
296.679	297.56
296.909	316.56
297.14	311.56
297.37	303.56
297.601	324.56
297.831	313.56
298.062	312.56
298.292	299.56
298.523	292.56
298.753	301.56
298.984	311.56
299.214	304.56
299.445	321.56
299.675	330.56
299.905	305.56
300.136	305.56
300.366	288.56
300.597	313.56
300.827	335.56
301.057	307.56
301.288	311.56
301.518	332.56
301.748	329.56
301.979	330.56
302.209	340.56
302.439	326.56
302.669	322.56
302.9	320.56
303.13	300.56
303.36	330.56
303.59	347.56
303.82	331.56
304.051	333.56
304.281	313.56
304.511	326.56
304.741	315.56
304.971	315.56
305.201	324.56
305.431	324.56
305.661	328.56
305.891	328.56
306.121	308.56
306.352	339.56
306.582	316.56
306.812	333.56
307.042	341.56
307.272	332.56
307.502	338.56
307.731	323.56
307.961	331.56
308.191	355.56
308.421	325.56
308.651	325.56
308.881	330.56
309.111	330.56
309.341	312.56
309.571	341.56
309.8	304.56
310.03	330.56
310.26	340.56
310.49	347.56
310.72	341.56
310.949	347.56
311.179	347.56
311.409	349.56
311.639	336.56
311.868	333.56
312.098	347.56
312.328	339.56
312.557	365.56
312.787	362.56
313.017	370.56
313.246	372.56
313.476	347.56
313.706	355.56
313.935	355.56
314.165	340.56
314.394	349.56
314.624	377.56
314.853	359.56
315.083	367.56
315.312	356.56
315.542	369.56
315.771	359.56
316.001	353.56
316.23	376.56
316.46	353.56
316.689	373.56
316.919	361.56
317.148	371.56
317.377	367.56
317.607	382.56
317.836	357.56
318.065	358.56
318.295	351.56
318.524	352.56
318.753	357.56
318.983	330.56
319.212	354.56
319.441	359.56
319.67	354.56
319.9	343.56
320.129	351.56
320.358	367.56
320.587	359.56
320.816	375.56
321.046	362.56
321.275	362.56
321.504	355.56
321.733	356.56
321.962	371.56
322.191	382.56
322.42	367.56
322.649	379.56
322.878	391.56
323.108	386.56
323.337	412.56
323.566	409.56
323.795	413.56
324.024	442.56
324.253	482.56
324.482	653.56
324.71	915.56
324.939	1217.56
325.168	1048.56
325.397	639.56
325.626	473.56
325.855	442.56
326.084	407.56
326.313	420.56
326.542	423.56
326.77	443.56
326.999	489.56
327.228	600.56
327.457	807.56
327.686	969.56
327.914	701.56
328.143	506.56
328.372	469.56
328.6	478.56
328.829	463.56
329.058	445.56
329.287	470.56
329.515	435.56
329.744	431.56
329.972	448.56
330.201	443.56
330.43	473.56
330.658	457.56
330.887	470.56
331.115	486.56
331.344	431.56
331.572	429.56
331.801	429.56
332.03	441.56
332.258	411.56
332.486	427.56
332.715	441.56
332.943	429.56
333.172	440.56
333.4	450.56
333.629	483.56
333.857	474.56
334.085	464.56
334.314	468.56
334.542	499.56
334.771	463.56
334.999	474.56
335.227	467.56
335.455	449.56
335.684	454.56
335.912	451.56
336.14	425.56
336.369	428.56
336.597	432.56
336.825	423.56
337.053	441.56
337.281	427.56
337.51	431.56
337.738	424.56
337.966	442.56
338.194	424.56
338.422	419.56
338.65	414.56
338.878	424.56
339.106	422.56
339.334	434.56
339.562	417.56
339.79	396.56
340.018	405.56
340.246	398.56
340.474	412.56
340.702	404.56
340.93	404.56
341.158	406.56
341.386	413.56
341.614	400.56
341.842	421.56
342.07	389.56
342.298	414.56
342.526	385.56
342.754	409.56
342.981	406.56
343.209	410.56
343.437	424.56
343.665	413.56
343.893	420.56
344.12	446.56
344.348	425.56
344.576	430.56
344.804	440.56
345.031	426.56
345.259	414.56
345.487	410.56
345.714	394.56
345.942	415.56
346.17	389.56
346.397	384.56
346.625	391.56
346.853	379.56
347.08	384.56
347.308	381.56
347.535	383.56
347.763	394.56
347.99	400.56
348.218	375.56
348.445	391.56
348.673	387.56
348.9	405.56
349.128	383.56
349.355	391.56
349.583	391.56
349.81	392.56
350.037	388.56
350.265	395.56
350.492	378.56
350.72	384.56
350.947	394.56
351.174	378.56
351.402	402.56
351.629	378.56
351.856	395.56
352.083	391.56
352.311	404.56
352.538	370.56
352.765	406.56
352.992	378.56
353.22	378.56
353.447	388.56
353.674	392.56
353.901	379.56
354.128	371.56
354.355	376.56
354.583	369.56
354.81	396.56
355.037	376.56
355.264	376.56
355.491	369.56
355.718	369.56
355.945	376.56
356.172	378.56
356.399	383.56
356.626	376.56
356.853	375.56
357.08	362.56
357.307	387.56
357.534	407.56
357.761	374.56
357.988	385.56
358.215	356.56
358.441	381.56
358.668	364.56
358.895	378.56
359.122	369.56
359.349	363.56
359.576	381.56
359.802	396.56
360.029	391.56
360.256	418.56
360.483	385.56
360.709	382.56
360.936	396.56
361.163	385.56
361.39	377.56
361.616	373.56
361.843	375.56
362.07	376.56
362.296	380.56
362.523	371.56
362.749	395.56
362.976	388.56
363.203	388.56
363.429	363.56
363.656	387.56
363.882	385.56
364.109	388.56
364.335	383.56
364.562	378.56
364.788	386.56
365.015	360.56
365.241	397.56
365.468	375.56
365.694	373.56
365.92	381.56
366.147	389.56
366.373	379.56
366.599	396.56
366.826	384.56
367.052	380.56
367.278	377.56
367.505	361.56
367.731	377.56
367.957	369.56
368.184	380.56
368.41	372.56
368.636	365.56
368.862	388.56
369.089	411.56
369.315	410.56
369.541	381.56
369.767	355.56
369.993	381.56
370.219	391.56
370.445	362.56
370.672	391.56
370.898	391.56
371.124	388.56
371.35	383.56
371.576	377.56
371.802	397.56
372.028	402.56
372.254	393.56
372.48	383.56
372.706	392.56
372.932	386.56
373.158	397.56
373.384	418.56
373.61	407.56
373.835	392.56
374.061	383.56
374.287	394.56
374.513	400.56
374.739	402.56
374.965	410.56
375.191	404.56
375.416	389.56
375.642	403.56
375.868	424.56
376.094	413.56
376.319	413.56
376.545	382.56
376.771	395.56
376.997	395.56
377.222	412.56
377.448	398.56
377.674	415.56
377.899	400.56
378.125	403.56
378.35	395.56
378.576	381.56
378.802	385.56
379.027	400.56
379.253	395.56
379.478	395.56
379.704	392.56
379.929	371.56
380.155	390.56
380.38	398.56
380.606	392.56
380.831	384.56
381.057	396.56
381.282	376.56
381.507	394.56
381.733	405.56
381.958	389.56
382.184	377.56
382.409	393.56
382.634	419.56
382.86	408.56
383.085	412.56
383.31	415.56
383.535	437.56
383.761	409.56
383.986	415.56
384.211	430.56
384.436	423.56
384.662	431.56
384.887	444.56
385.112	415.56
385.337	426.56
385.562	450.56
385.787	435.56
386.013	472.56
386.238	439.56
386.463	451.56
386.688	462.56
386.913	460.56
387.138	428.56
387.363	457.56
387.588	452.56
387.813	461.56
388.038	448.56
388.263	444.56
388.488	458.56
388.713	455.56
388.938	446.56
389.163	438.56
389.387	442.56
389.612	448.56
389.837	439.56
390.062	427.56
390.287	441.56
390.512	442.56
390.736	441.56
390.961	447.56
391.186	457.56
391.411	454.56
391.636	430.56
391.86	468.56
392.085	478.56
392.31	476.56
392.534	480.56
392.759	461.56
392.984	475.56
393.208	475.56
393.433	464.56
393.658	456.56
393.882	453.56
394.107	476.56
394.331	453.56
394.556	460.56
394.78	462.56
395.005	469.56
395.229	459.56
395.454	492.56
395.678	504.56
395.903	487.56
396.127	477.56
396.352	480.56
396.576	495.56
396.801	486.56
397.025	483.56
397.249	468.56
397.474	478.56
397.698	479.56
397.922	493.56
398.147	507.56
398.371	507.56
398.595	501.56
398.82	523.56
399.044	534.56
399.268	539.56
399.492	593.56
399.717	669.56
399.941	666.56
400.165	656.56
400.389	651.56
400.613	596.56
400.837	577.56
401.062	567.56
401.286	543.56
401.51	537.56
401.734	536.56
401.958	552.56
402.182	526.56
402.406	516.56
402.63	527.56
402.854	549.56
403.078	556.56
403.302	567.56
403.526	566.56
403.75	543.56
403.974	563.56
404.198	550.56
404.422	564.56
404.645	554.56
404.869	571.56
405.093	584.56
405.317	609.56
405.541	620.56
405.765	591.56
405.988	565.56
406.212	566.56
406.436	570.56
406.66	568.56
406.883	570.56
407.107	600.56
407.331	655.56
407.555	693.56
407.778	687.56
408.002	646.56
408.226	613.56
408.449	601.56
408.673	589.56
408.896	619.56
409.12	616.56
409.344	592.56
409.567	556.56
409.791	549.56
410.014	544.56
410.238	557.56
410.461	559.56
410.685	552.56
410.908	547.56
411.132	554.56
411.355	610.56
411.578	564.56
411.802	531.56
412.025	548.56
412.249	547.56
412.472	541.56
412.695	581.56
412.919	581.56
413.142	534.56
413.365	519.56
413.589	529.56
413.812	514.56
414.035	527.56
414.258	509.56
414.482	497.56
414.705	488.56
414.928	521.56
415.151	526.56
415.374	523.56
415.597	524.56
415.821	502.56
416.044	521.56
416.267	512.56
416.49	499.56
416.713	496.56
416.936	524.56
417.159	489.56
417.382	506.56
417.605	519.56
417.828	515.56
418.051	503.56
418.274	522.56
418.497	515.56
418.72	511.56
418.943	500.56
419.166	541.56
419.389	561.56
419.611	563.56
419.834	545.56
420.057	548.56
420.28	541.56
420.503	538.56
420.726	536.56
420.948	539.56
421.171	550.56
421.394	599.56
421.617	526.56
421.839	533.56
422.062	500.56
422.285	500.56
422.507	560.56
422.73	619.56
422.953	635.56
423.175	584.56
423.398	552.56
423.621	529.56
423.843	549.56
424.066	534.56
424.288	548.56
424.511	576.56
424.733	596.56
424.956	639.56
425.178	632.56
425.401	611.56
425.623	635.56
425.846	583.56
426.068	525.56
426.291	556.56
426.513	529.56
426.735	561.56
426.958	551.56
427.18	614.56
427.402	712.56
427.625	733.56
427.847	655.56
428.069	604.56
428.292	563.56
428.514	531.56
428.736	487.56
428.958	501.56
429.181	488.56
429.403	462.56
429.625	520.56
429.847	505.56
430.069	554.56
430.292	564.56
430.514	487.56
430.736	498.56
430.958	491.56
431.18	475.56
431.402	506.56
431.624	479.56
431.846	494.56
432.068	499.56
432.29	491.56
432.512	486.56
432.734	489.56
432.956	484.56
433.178	477.56
433.4	495.56
433.622	496.56
433.844	498.56
434.066	485.56
434.287	491.56
434.509	491.56
434.731	513.56
434.953	495.56
435.175	539.56
435.397	540.56
435.618	535.56
435.84	570.56
436.062	596.56
436.284	659.56
436.505	569.56
436.727	519.56
436.949	483.56
437.17	501.56
437.392	475.56
437.614	511.56
437.835	516.56
438.057	568.56
438.278	628.56
438.5	631.56
438.721	682.56
438.943	665.56
439.165	564.56
439.386	526.56
439.608	526.56
439.829	504.56
440.05	529.56
440.272	547.56
440.493	517.56
440.715	521.56
440.936	522.56
441.158	483.56
441.379	487.56
441.6	504.56
441.822	525.56
442.043	555.56
442.264	618.56
442.486	610.56
442.707	561.56
442.928	557.56
443.149	548.56
443.371	544.56
443.592	582.56
443.813	669.56
444.034	698.56
444.255	608.56
444.476	603.56
444.698	573.56
444.919	552.56
445.14	720.56
445.361	620.56
445.582	552.56
445.803	588.56
446.024	673.56
446.245	655.56
446.466	609.56
446.687	555.56
446.908	523.56
447.129	505.56
447.35	495.56
447.571	483.56
447.792	482.56
448.013	485.56
448.234	503.56
448.455	535.56
448.675	597.56
448.896	679.56
449.117	563.56
449.338	556.56
449.559	623.56
449.779	724.56
450	584.56
450.221	503.56
450.442	492.56
450.662	459.56
450.883	474.56
451.104	467.56
451.324	479.56
451.545	433.56
451.766	449.56
451.986	410.56
452.207	439.56
452.428	457.56
452.648	455.56
452.869	452.56
453.089	439.56
453.31	431.56
453.53	451.56
453.751	451.56
453.971	449.56
454.192	452.56
454.412	431.56
454.633	433.56
454.853	440.56
455.073	431.56
455.294	458.56
455.514	483.56
455.734	458.56
455.955	452.56
456.175	407.56
456.395	399.56
456.616	424.56
456.836	433.56
457.056	417.56
457.276	420.56
457.497	442.56
457.717	408.56
457.937	451.56
458.157	437.56
458.377	454.56
458.598	467.56
458.818	477.56
459.038	536.56
459.258	522.56
459.478	512.56
459.698	484.56
459.918	517.56
460.138	505.56
460.358	521.56
460.578	501.56
460.798	522.56
461.018	522.56
461.238	519.56
461.458	513.56
461.678	538.56
461.898	514.56
462.118	525.56
462.338	543.56
462.558	556.56
462.777	591.56
462.997	590.56
463.217	623.56
463.437	641.56
463.657	589.56
463.876	600.56
464.096	581.56
464.316	575.56
464.536	573.56
464.755	593.56
464.975	545.56
465.195	547.56
465.414	567.56
465.634	529.56
465.854	506.56
466.073	503.56
466.293	511.56
466.512	486.56
466.732	473.56
466.951	469.56
467.171	458.56
467.391	470.56
467.61	487.56
467.829	470.56
468.049	479.56
468.268	459.56
468.488	487.56
468.707	442.56
468.927	453.56
469.146	438.56
469.365	444.56
469.585	460.56
469.804	460.56
470.023	472.56
470.243	480.56
470.462	481.56
470.681	448.56
470.901	490.56
471.12	449.56
471.339	460.56
471.558	468.56
471.777	455.56
471.997	468.56
472.216	485.56
472.435	488.56
472.654	460.56
472.873	478.56
473.092	463.56
473.311	456.56
473.53	458.56
473.749	472.56
473.968	498.56
474.187	521.56
474.406	558.56
474.625	488.56
474.844	459.56
475.063	472.56
475.282	473.56
475.501	460.56
475.72	467.56
475.939	478.56
476.158	471.56
476.377	460.56
476.596	489.56
476.814	479.56
477.033	489.56
477.252	508.56
477.471	506.56
477.69	498.56
477.908	509.56
478.127	518.56
478.346	529.56
478.564	539.56
478.783	532.56
479.002	537.56
479.22	573.56
479.439	539.56
479.658	538.56
479.876	559.56
480.095	553.56
480.313	575.56
480.532	585.56
480.751	601.56
480.969	583.56
481.188	620.56
481.406	605.56
481.624	570.56
481.843	554.56
482.061	532.56
482.28	545.56
482.498	529.56
482.717	553.56
482.935	532.56
483.153	543.56
483.372	545.56
483.59	549.56
483.808	533.56
484.027	551.56
484.245	561.56
484.463	553.56
484.681	543.56
484.9	557.56
485.118	539.56
485.336	575.56
485.554	565.56
485.772	567.56
485.99	573.56
486.209	568.56
486.427	550.56
486.645	538.56
486.863	566.56
487.081	571.56
487.299	581.56
487.517	569.56
487.735	579.56
487.953	587.56
488.171	569.56
488.389	581.56
488.607	583.56
488.825	548.56
489.043	559.56
489.261	580.56
489.479	555.56
489.696	578.56
489.914	575.56
490.132	596.56
490.35	585.56
490.568	577.56
490.786	576.56
491.003	576.56
491.221	603.56
491.439	601.56
491.657	623.56
491.874	632.56
492.092	620.56
492.31	625.56
492.527	625.56
492.745	623.56
492.963	629.56
493.18	633.56
493.398	643.56
493.615	623.56
493.833	627.56
494.05	641.56
494.268	657.56
494.485	649.56
494.703	638.56
494.92	613.56
495.138	645.56
495.355	652.56
495.573	642.56
495.79	671.56
496.008	645.56
496.225	664.56
496.442	635.56
496.66	663.56
496.877	649.56
497.094	657.56
497.312	672.56
497.529	678.56
497.746	698.56
497.963	714.56
498.181	764.56
498.398	764.56
498.615	798.56
498.832	785.56
499.049	815.56
499.267	852.56
499.484	904.56
499.701	974.56
499.918	1007.56
500.135	1056.56
500.352	1147.56
500.569	1205.56
500.786	1215.56
501.003	1132.56
501.22	1114.56
501.437	1027.56
501.654	973.56
501.871	915.56
