Data from 1962.PennyLincolnUp.Lamp.En5.5.200Scan.071719.P1._HRD10591_13-54-34-061.txt Node
Date: Thu Jul 18 13:54:34 EDT 2019
User: cochatt
Spectrometer: HR+D1059
Trigger mode: 1
Integration Time (sec): 1.000000E-1
Scans to average: 1
Electric dark correction enabled: true
Nonlinearity correction enabled: false
Boxcar width: 0
XAxis mode: Wavelengths
Number of Pixels in Spectrum: 2048
>>>>>Begin Spectral Data<<<<<
223.165	-18.94
223.4	-18.94
223.635	-18.94
223.869	-9.94
224.104	-29.94
224.338	-21.94
224.573	-23.94
224.808	-7.94
225.042	-2.94
225.277	-3.94
225.511	-0.94
225.746	13.06
225.98	10.06
226.215	5.06
226.449	12.06
226.683	22.06
226.918	25.06
227.152	33.06
227.387	40.06
227.621	33.06
227.856	32.06
228.09	53.06
228.324	46.06
228.559	42.06
228.793	62.06
229.027	88.06
229.262	100.06
229.496	98.06
229.73	95.06
229.964	108.06
230.199	107.06
230.433	121.06
230.667	109.06
230.901	97.06
231.136	100.06
231.37	112.06
231.604	106.06
231.838	103.06
232.072	119.06
232.306	113.06
232.541	113.06
232.775	100.06
233.009	105.06
233.243	118.06
233.477	123.06
233.711	109.06
233.945	128.06
234.179	115.06
234.413	126.06
234.647	123.06
234.881	106.06
235.115	123.06
235.349	117.06
235.583	122.06
235.817	107.06
236.051	117.06
236.285	119.06
236.519	112.06
236.753	114.06
236.987	121.06
237.221	148.06
237.455	180.06
237.689	148.06
237.922	134.06
238.156	116.06
238.39	120.06
238.624	121.06
238.858	119.06
239.091	113.06
239.325	106.06
239.559	133.06
239.793	125.06
240.027	132.06
240.26	130.06
240.494	148.06
240.728	131.06
240.961	127.06
241.195	126.06
241.429	133.06
241.662	129.06
241.896	124.06
242.13	117.06
242.363	130.06
242.597	144.06
242.83	141.06
243.064	119.06
243.298	120.06
243.531	135.06
243.765	141.06
243.998	137.06
244.232	138.06
244.465	136.06
244.699	148.06
244.932	134.06
245.166	135.06
245.399	144.06
245.633	146.06
245.866	148.06
246.099	136.06
246.333	139.06
246.566	136.06
246.8	149.06
247.033	133.06
247.266	153.06
247.5	140.06
247.733	156.06
247.966	163.06
248.2	154.06
248.433	150.06
248.666	167.06
248.899	156.06
249.133	185.06
249.366	178.06
249.599	161.06
249.832	162.06
250.066	158.06
250.299	183.06
250.532	188.06
250.765	181.06
250.998	181.06
251.231	186.06
251.465	195.06
251.698	185.06
251.931	177.06
252.164	183.06
252.397	181.06
252.63	162.06
252.863	175.06
253.096	184.06
253.329	201.06
253.562	194.06
253.795	192.06
254.028	188.06
254.261	199.06
254.494	207.06
254.727	208.06
254.96	217.06
255.193	215.06
255.426	213.06
255.659	204.06
255.892	204.06
256.124	200.06
256.357	210.06
256.59	211.06
256.823	177.06
257.056	196.06
257.289	203.06
257.521	190.06
257.754	187.06
257.987	196.06
258.22	207.06
258.452	194.06
258.685	199.06
258.918	201.06
259.151	194.06
259.383	202.06
259.616	193.06
259.849	202.06
260.081	219.06
260.314	215.06
260.547	234.06
260.779	206.06
261.012	224.06
261.244	208.06
261.477	219.06
261.71	191.06
261.942	208.06
262.175	219.06
262.407	209.06
262.64	193.06
262.872	209.06
263.105	196.06
263.337	210.06
263.57	200.06
263.802	209.06
264.035	207.06
264.267	208.06
264.499	213.06
264.732	207.06
264.964	205.06
265.197	215.06
265.429	219.06
265.661	216.06
265.894	201.06
266.126	224.06
266.358	211.06
266.591	220.06
266.823	216.06
267.055	215.06
267.287	217.06
267.52	214.06
267.752	227.06
267.984	224.06
268.216	228.06
268.448	234.06
268.681	232.06
268.913	243.06
269.145	243.06
269.377	235.06
269.609	256.06
269.841	239.06
270.073	237.06
270.306	243.06
270.538	283.06
270.77	267.06
271.002	256.06
271.234	264.06
271.466	260.06
271.698	283.06
271.93	271.06
272.162	270.06
272.394	266.06
272.626	252.06
272.858	280.06
273.09	246.06
273.322	258.06
273.553	254.06
273.785	259.06
274.017	230.06
274.249	262.06
274.481	236.06
274.713	247.06
274.945	252.06
275.176	264.06
275.408	255.06
275.64	236.06
275.872	259.06
276.104	255.06
276.335	263.06
276.567	264.06
276.799	267.06
277.031	265.06
277.262	278.06
277.494	288.06
277.726	285.06
277.957	280.06
278.189	275.06
278.421	273.06
278.652	268.06
278.884	247.06
279.115	264.06
279.347	273.06
279.579	278.06
279.81	279.06
280.042	263.06
280.273	275.06
280.505	267.06
280.736	260.06
280.968	247.06
281.199	261.06
281.431	268.06
281.662	272.06
281.894	268.06
282.125	276.06
282.356	274.06
282.588	279.06
282.819	296.06
283.051	273.06
283.282	274.06
283.513	275.06
283.745	298.06
283.976	283.06
284.207	270.06
284.439	280.06
284.67	267.06
284.901	295.06
285.132	273.06
285.364	273.06
285.595	275.06
285.826	281.06
286.057	300.06
286.288	274.06
286.52	294.06
286.751	285.06
286.982	283.06
287.213	272.06
287.444	280.06
287.675	284.06
287.906	295.06
288.138	300.06
288.369	292.06
288.6	297.06
288.831	297.06
289.062	291.06
289.293	293.06
289.524	304.06
289.755	291.06
289.986	288.06
290.217	295.06
290.448	276.06
290.679	293.06
290.91	275.06
291.141	291.06
291.371	281.06
291.602	296.06
291.833	281.06
292.064	306.06
292.295	305.06
292.526	284.06
292.757	287.06
292.987	296.06
293.218	309.06
293.449	295.06
293.68	293.06
293.91	281.06
294.141	291.06
294.372	281.06
294.603	277.06
294.833	306.06
295.064	290.06
295.295	297.06
295.525	307.06
295.756	298.06
295.987	310.06
296.217	309.06
296.448	309.06
296.679	306.06
296.909	303.06
297.14	313.06
297.37	305.06
297.601	314.06
297.831	308.06
298.062	312.06
298.292	313.06
298.523	327.06
298.753	320.06
298.984	315.06
299.214	318.06
299.445	327.06
299.675	296.06
299.905	314.06
300.136	320.06
300.366	317.06
300.597	327.06
300.827	323.06
301.057	351.06
301.288	315.06
301.518	308.06
301.748	333.06
301.979	328.06
302.209	336.06
302.439	327.06
302.669	328.06
302.9	314.06
303.13	324.06
303.36	347.06
303.59	328.06
303.82	332.06
304.051	332.06
304.281	348.06
304.511	331.06
304.741	328.06
304.971	334.06
305.201	328.06
305.431	333.06
305.661	321.06
305.891	338.06
306.121	328.06
306.352	329.06
306.582	319.06
306.812	315.06
307.042	313.06
307.272	328.06
307.502	324.06
307.731	329.06
307.961	328.06
308.191	334.06
308.421	345.06
308.651	310.06
308.881	336.06
309.111	346.06
309.341	356.06
309.571	333.06
309.8	341.06
310.03	346.06
310.26	356.06
310.49	365.06
310.72	365.06
310.949	373.06
311.179	359.06
311.409	344.06
311.639	349.06
311.868	359.06
312.098	365.06
312.328	368.06
312.557	369.06
312.787	388.06
313.017	371.06
313.246	359.06
313.476	362.06
313.706	362.06
313.935	347.06
314.165	385.06
314.394	377.06
314.624	365.06
314.853	362.06
315.083	348.06
315.312	377.06
315.542	368.06
315.771	375.06
316.001	364.06
316.23	379.06
316.46	357.06
316.689	361.06
316.919	365.06
317.148	373.06
317.377	369.06
317.607	344.06
317.836	348.06
318.065	352.06
318.295	372.06
318.524	336.06
318.753	353.06
318.983	364.06
319.212	364.06
319.441	375.06
319.67	380.06
319.9	373.06
320.129	369.06
320.358	377.06
320.587	379.06
320.816	386.06
321.046	392.06
321.275	385.06
321.504	391.06
321.733	384.06
321.962	396.06
322.191	393.06
322.42	410.06
322.649	387.06
322.878	385.06
323.108	405.06
323.337	403.06
323.566	426.06
323.795	463.06
324.024	457.06
324.253	533.06
324.482	691.06
324.71	1005.06
324.939	1404.06
325.168	1249.06
325.397	703.06
325.626	513.06
325.855	456.06
326.084	465.06
326.313	442.06
326.542	449.06
326.77	467.06
326.999	521.06
327.228	649.06
327.457	920.06
327.686	1111.06
327.914	795.06
328.143	571.06
328.372	511.06
328.6	474.06
328.829	487.06
329.058	468.06
329.287	472.06
329.515	460.06
329.744	447.06
329.972	458.06
330.201	443.06
330.43	484.06
330.658	476.06
330.887	484.06
331.115	495.06
331.344	457.06
331.572	447.06
331.801	442.06
332.03	457.06
332.258	437.06
332.486	447.06
332.715	428.06
332.943	458.06
333.172	471.06
333.4	479.06
333.629	478.06
333.857	475.06
334.085	514.06
334.314	495.06
334.542	515.06
334.771	520.06
334.999	500.06
335.227	500.06
335.455	472.06
335.684	460.06
335.912	448.06
336.14	436.06
336.369	428.06
336.597	463.06
336.825	473.06
337.053	459.06
337.281	451.06
337.51	427.06
337.738	445.06
337.966	451.06
338.194	421.06
338.422	436.06
338.65	440.06
338.878	428.06
339.106	462.06
339.334	443.06
339.562	423.06
339.79	436.06
340.018	412.06
340.246	422.06
340.474	408.06
340.702	433.06
340.93	415.06
341.158	417.06
341.386	411.06
341.614	420.06
341.842	415.06
342.07	416.06
342.298	405.06
342.526	423.06
342.754	406.06
342.981	425.06
343.209	428.06
343.437	429.06
343.665	451.06
343.893	450.06
344.12	463.06
344.348	457.06
344.576	439.06
344.804	447.06
345.031	442.06
345.259	466.06
345.487	423.06
345.714	424.06
345.942	409.06
346.17	409.06
346.397	418.06
346.625	421.06
346.853	391.06
347.08	413.06
347.308	392.06
347.535	405.06
347.763	404.06
347.99	407.06
348.218	407.06
348.445	411.06
348.673	406.06
348.9	400.06
349.128	388.06
349.355	380.06
349.583	394.06
349.81	409.06
350.037	404.06
350.265	398.06
350.492	391.06
350.72	379.06
350.947	396.06
351.174	409.06
351.402	412.06
351.629	398.06
351.856	404.06
352.083	381.06
352.311	410.06
352.538	406.06
352.765	405.06
352.992	399.06
353.22	376.06
353.447	392.06
353.674	398.06
353.901	373.06
354.128	384.06
354.355	387.06
354.583	397.06
354.81	383.06
355.037	394.06
355.264	396.06
355.491	395.06
355.718	376.06
355.945	380.06
356.172	394.06
356.399	399.06
356.626	371.06
356.853	383.06
357.08	404.06
357.307	398.06
357.534	393.06
357.761	390.06
357.988	380.06
358.215	383.06
358.441	390.06
358.668	379.06
358.895	374.06
359.122	409.06
359.349	395.06
359.576	407.06
359.802	412.06
360.029	415.06
360.256	422.06
360.483	428.06
360.709	406.06
360.936	394.06
361.163	382.06
361.39	399.06
361.616	405.06
361.843	412.06
362.07	411.06
362.296	410.06
362.523	403.06
362.749	395.06
362.976	384.06
363.203	379.06
363.429	382.06
363.656	398.06
363.882	395.06
364.109	385.06
364.335	384.06
364.562	371.06
364.788	382.06
365.015	405.06
365.241	387.06
365.468	394.06
365.694	399.06
365.92	395.06
366.147	386.06
366.373	394.06
366.599	387.06
366.826	388.06
367.052	383.06
367.278	377.06
367.505	397.06
367.731	412.06
367.957	388.06
368.184	397.06
368.41	406.06
368.636	384.06
368.862	408.06
369.089	405.06
369.315	396.06
369.541	393.06
369.767	385.06
369.993	407.06
370.219	396.06
370.445	409.06
370.672	394.06
370.898	409.06
371.124	395.06
371.35	383.06
371.576	394.06
371.802	393.06
372.028	420.06
372.254	406.06
372.48	403.06
372.706	400.06
372.932	415.06
373.158	420.06
373.384	409.06
373.61	398.06
373.835	382.06
374.061	406.06
374.287	400.06
374.513	417.06
374.739	415.06
374.965	408.06
375.191	428.06
375.416	428.06
375.642	428.06
375.868	404.06
376.094	418.06
376.319	405.06
376.545	416.06
376.771	392.06
376.997	416.06
377.222	414.06
377.448	401.06
377.674	403.06
377.899	405.06
378.125	387.06
378.35	371.06
378.576	399.06
378.802	389.06
379.027	412.06
379.253	390.06
379.478	401.06
379.704	421.06
379.929	415.06
380.155	409.06
380.38	397.06
380.606	428.06
380.831	412.06
381.057	403.06
381.282	409.06
381.507	426.06
381.733	419.06
381.958	411.06
382.184	388.06
382.409	416.06
382.634	411.06
382.86	431.06
383.085	419.06
383.31	443.06
383.535	430.06
383.761	441.06
383.986	419.06
384.211	415.06
384.436	426.06
384.662	435.06
384.887	474.06
385.112	465.06
385.337	465.06
385.562	445.06
385.787	461.06
386.013	481.06
386.238	459.06
386.463	455.06
386.688	459.06
386.913	457.06
387.138	459.06
387.363	453.06
387.588	462.06
387.813	468.06
388.038	422.06
388.263	476.06
388.488	447.06
388.713	467.06
388.938	460.06
389.163	451.06
389.387	462.06
389.612	473.06
389.837	457.06
390.062	460.06
390.287	459.06
390.512	466.06
390.736	445.06
390.961	441.06
391.186	471.06
391.411	466.06
391.636	486.06
391.86	467.06
392.085	475.06
392.31	490.06
392.534	484.06
392.759	486.06
392.984	490.06
393.208	467.06
393.433	458.06
393.658	480.06
393.882	473.06
394.107	456.06
394.331	455.06
394.556	444.06
394.78	464.06
395.005	485.06
395.229	465.06
395.454	491.06
395.678	474.06
395.903	501.06
396.127	501.06
396.352	513.06
396.576	489.06
396.801	496.06
397.025	480.06
397.249	492.06
397.474	495.06
397.698	489.06
397.922	495.06
398.147	501.06
398.371	518.06
398.595	537.06
398.82	553.06
399.044	546.06
399.268	586.06
399.492	625.06
399.717	666.06
399.941	675.06
400.165	677.06
400.389	674.06
400.613	626.06
400.837	581.06
401.062	541.06
401.286	572.06
401.51	546.06
401.734	540.06
401.958	547.06
402.182	543.06
402.406	561.06
402.63	556.06
402.854	559.06
403.078	552.06
403.302	594.06
403.526	552.06
403.75	573.06
403.974	580.06
404.198	568.06
404.422	565.06
404.645	580.06
404.869	567.06
405.093	613.06
405.317	607.06
405.541	652.06
405.765	617.06
405.988	601.06
406.212	583.06
406.436	623.06
406.66	582.06
406.883	611.06
407.107	615.06
407.331	646.06
407.555	708.06
407.778	724.06
408.002	675.06
408.226	607.06
408.449	602.06
408.673	603.06
408.896	630.06
409.12	649.06
409.344	631.06
409.567	587.06
409.791	585.06
410.014	556.06
410.238	572.06
410.461	561.06
410.685	596.06
410.908	571.06
411.132	608.06
411.355	600.06
411.578	595.06
411.802	556.06
412.025	556.06
412.249	565.06
412.472	581.06
412.695	597.06
412.919	603.06
413.142	566.06
413.365	547.06
413.589	535.06
413.812	554.06
414.035	543.06
414.258	536.06
414.482	532.06
414.705	520.06
414.928	548.06
415.151	556.06
415.374	530.06
415.597	526.06
415.821	539.06
416.044	519.06
416.267	517.06
416.49	528.06
416.713	545.06
416.936	539.06
417.159	534.06
417.382	544.06
417.605	511.06
417.828	539.06
418.051	536.06
418.274	532.06
418.497	564.06
418.72	540.06
418.943	532.06
419.166	560.06
419.389	583.06
419.611	594.06
419.834	560.06
420.057	560.06
420.28	537.06
420.503	542.06
420.726	533.06
420.948	534.06
421.171	595.06
421.394	596.06
421.617	534.06
421.839	537.06
422.062	544.06
422.285	545.06
422.507	584.06
422.73	641.06
422.953	645.06
423.175	575.06
423.398	566.06
423.621	592.06
423.843	596.06
424.066	572.06
424.288	576.06
424.511	577.06
424.733	627.06
424.956	675.06
425.178	649.06
425.401	656.06
425.623	659.06
425.846	575.06
426.068	540.06
426.291	577.06
426.513	540.06
426.735	563.06
426.958	587.06
427.18	661.06
427.402	743.06
427.625	783.06
427.847	663.06
428.069	615.06
428.292	567.06
428.514	554.06
428.736	509.06
428.958	519.06
429.181	489.06
429.403	523.06
429.625	491.06
429.847	545.06
430.069	581.06
430.292	571.06
430.514	533.06
430.736	505.06
430.958	506.06
431.18	499.06
431.402	491.06
431.624	488.06
431.846	488.06
432.068	507.06
432.29	506.06
432.512	516.06
432.734	528.06
432.956	489.06
433.178	482.06
433.4	528.06
433.622	504.06
433.844	485.06
434.066	507.06
434.287	505.06
434.509	502.06
434.731	537.06
434.953	531.06
435.175	548.06
435.397	575.06
435.618	535.06
435.84	563.06
436.062	643.06
436.284	674.06
436.505	581.06
436.727	588.06
436.949	524.06
437.17	514.06
437.392	514.06
437.614	522.06
437.835	541.06
438.057	596.06
438.278	673.06
438.5	653.06
438.721	743.06
438.943	697.06
439.165	597.06
439.386	569.06
439.608	555.06
439.829	565.06
440.05	562.06
440.272	581.06
440.493	586.06
440.715	539.06
440.936	514.06
441.158	547.06
441.379	547.06
441.6	538.06
441.822	584.06
442.043	576.06
442.264	620.06
442.486	647.06
442.707	612.06
442.928	571.06
443.149	573.06
443.371	587.06
443.592	595.06
443.813	680.06
444.034	722.06
444.255	629.06
444.476	601.06
444.698	584.06
444.919	613.06
445.14	704.06
445.361	638.06
445.582	585.06
445.803	619.06
446.024	676.06
446.245	687.06
446.466	639.06
446.687	570.06
446.908	539.06
447.129	524.06
447.35	508.06
447.571	511.06
447.792	509.06
448.013	504.06
448.234	511.06
448.455	538.06
448.675	649.06
448.896	714.06
449.117	629.06
449.338	563.06
449.559	696.06
449.779	733.06
450	600.06
450.221	548.06
450.442	524.06
450.662	481.06
450.883	505.06
451.104	476.06
451.324	483.06
451.545	473.06
451.766	464.06
451.986	456.06
452.207	459.06
452.428	447.06
452.648	451.06
452.869	458.06
453.089	457.06
453.31	479.06
453.53	461.06
453.751	452.06
453.971	479.06
454.192	461.06
454.412	442.06
454.633	451.06
454.853	456.06
455.073	447.06
455.294	474.06
455.514	511.06
455.734	521.06
455.955	443.06
456.175	437.06
456.395	436.06
456.616	436.06
456.836	432.06
457.056	457.06
457.276	426.06
457.497	415.06
457.717	423.06
457.937	437.06
458.157	435.06
458.377	457.06
458.598	480.06
458.818	495.06
459.038	545.06
459.258	568.06
459.478	513.06
459.698	497.06
459.918	523.06
460.138	504.06
460.358	524.06
460.578	514.06
460.798	540.06
461.018	537.06
461.238	535.06
461.458	552.06
461.678	548.06
461.898	574.06
462.118	553.06
462.338	555.06
462.558	583.06
462.777	593.06
462.997	588.06
463.217	628.06
463.437	607.06
463.657	601.06
463.876	585.06
464.096	581.06
464.316	597.06
464.536	608.06
464.755	581.06
464.975	565.06
465.195	574.06
465.414	575.06
465.634	539.06
465.854	528.06
466.073	515.06
466.293	479.06
466.512	481.06
466.732	485.06
466.951	507.06
467.171	483.06
467.391	488.06
467.61	499.06
467.829	491.06
468.049	479.06
468.268	479.06
468.488	468.06
468.707	465.06
468.927	459.06
469.146	459.06
469.365	474.06
469.585	468.06
469.804	475.06
470.023	496.06
470.243	486.06
470.462	488.06
470.681	487.06
470.901	507.06
471.12	472.06
471.339	509.06
471.558	487.06
471.777	480.06
471.997	472.06
472.216	477.06
472.435	491.06
472.654	501.06
472.873	472.06
473.092	459.06
473.311	478.06
473.53	469.06
473.749	481.06
473.968	512.06
474.187	559.06
474.406	577.06
474.625	509.06
474.844	480.06
475.063	478.06
475.282	464.06
475.501	470.06
475.72	492.06
475.939	485.06
476.158	477.06
476.377	499.06
476.596	499.06
476.814	532.06
477.033	527.06
477.252	515.06
477.471	517.06
477.69	522.06
477.908	523.06
478.127	521.06
478.346	533.06
478.564	541.06
478.783	534.06
479.002	563.06
479.22	537.06
479.439	563.06
479.658	585.06
479.876	582.06
480.095	599.06
480.313	629.06
480.532	595.06
480.751	610.06
480.969	582.06
481.188	614.06
481.406	609.06
481.624	601.06
481.843	561.06
482.061	565.06
482.28	564.06
482.498	574.06
482.717	562.06
482.935	549.06
483.153	538.06
483.372	551.06
483.59	538.06
483.808	551.06
484.027	559.06
484.245	553.06
484.463	568.06
484.681	574.06
484.9	568.06
485.118	597.06
485.336	579.06
485.554	571.06
485.772	582.06
485.99	556.06
486.209	591.06
486.427	584.06
486.645	588.06
486.863	593.06
487.081	586.06
487.299	566.06
487.517	572.06
487.735	589.06
487.953	595.06
488.171	584.06
488.389	593.06
488.607	593.06
488.825	585.06
489.043	590.06
489.261	587.06
489.479	593.06
489.696	580.06
489.914	592.06
490.132	606.06
490.35	614.06
490.568	610.06
490.786	626.06
491.003	624.06
491.221	609.06
491.439	616.06
491.657	616.06
491.874	643.06
492.092	647.06
492.31	633.06
492.527	645.06
492.745	647.06
492.963	656.06
493.18	662.06
493.398	668.06
493.615	651.06
493.833	665.06
494.05	652.06
494.268	658.06
494.485	671.06
494.703	640.06
494.92	682.06
495.138	683.06
495.355	674.06
495.573	659.06
495.79	666.06
496.008	660.06
496.225	676.06
496.442	681.06
496.66	675.06
496.877	696.06
497.094	713.06
497.312	707.06
497.529	689.06
497.746	741.06
497.963	726.06
498.181	770.06
498.398	787.06
498.615	779.06
498.832	807.06
499.049	858.06
499.267	905.06
499.484	943.06
499.701	976.06
499.918	1023.06
500.135	1083.06
500.352	1227.06
500.569	1219.06
500.786	1192.06
501.003	1189.06
501.22	1123.06
501.437	1075.06
501.654	994.06
501.871	968.06
