Data from 1962.PennyLincolnUp.Lamp.En5.5.200Scan.071719.P1._HRD10591_13-54-31-061.txt Node
Date: Thu Jul 18 13:54:31 EDT 2019
User: cochatt
Spectrometer: HR+D1059
Trigger mode: 1
Integration Time (sec): 1.000000E-1
Scans to average: 1
Electric dark correction enabled: true
Nonlinearity correction enabled: false
Boxcar width: 0
XAxis mode: Wavelengths
Number of Pixels in Spectrum: 2048
>>>>>Begin Spectral Data<<<<<
223.165	-6.81
223.4	-6.81
223.635	-6.81
223.869	-1.81
224.104	-23.81
224.338	-12.81
224.573	-13.81
224.808	-17.81
225.042	-19.81
225.277	-12.81
225.511	-6.81
225.746	-5.81
225.98	6.19
226.215	17.19
226.449	24.19
226.683	20.19
226.918	21.19
227.152	33.19
227.387	41.19
227.621	25.19
227.856	38.19
228.09	41.19
228.324	51.19
228.559	52.19
228.793	62.19
229.027	105.19
229.262	89.19
229.496	87.19
229.73	107.19
229.964	128.19
230.199	115.19
230.433	118.19
230.667	99.19
230.901	106.19
231.136	114.19
231.37	109.19
231.604	98.19
231.838	116.19
232.072	117.19
232.306	104.19
232.541	101.19
232.775	96.19
233.009	119.19
233.243	113.19
233.477	126.19
233.711	118.19
233.945	110.19
234.179	128.19
234.413	112.19
234.647	114.19
234.881	115.19
235.115	113.19
235.349	112.19
235.583	115.19
235.817	116.19
236.051	113.19
236.285	112.19
236.519	121.19
236.753	128.19
236.987	119.19
237.221	142.19
237.455	186.19
237.689	149.19
237.922	123.19
238.156	130.19
238.39	116.19
238.624	122.19
238.858	124.19
239.091	134.19
239.325	126.19
239.559	115.19
239.793	116.19
240.027	122.19
240.26	132.19
240.494	140.19
240.728	151.19
240.961	141.19
241.195	138.19
241.429	124.19
241.662	136.19
241.896	128.19
242.13	115.19
242.363	116.19
242.597	132.19
242.83	128.19
243.064	124.19
243.298	122.19
243.531	139.19
243.765	135.19
243.998	141.19
244.232	147.19
244.465	137.19
244.699	139.19
244.932	124.19
245.166	138.19
245.399	150.19
245.633	140.19
245.866	141.19
246.099	117.19
246.333	141.19
246.566	149.19
246.8	142.19
247.033	158.19
247.266	150.19
247.5	145.19
247.733	147.19
247.966	150.19
248.2	150.19
248.433	156.19
248.666	154.19
248.899	180.19
249.133	173.19
249.366	176.19
249.599	170.19
249.832	178.19
250.066	187.19
250.299	171.19
250.532	153.19
250.765	181.19
250.998	181.19
251.231	183.19
251.465	191.19
251.698	177.19
251.931	200.19
252.164	159.19
252.397	171.19
252.63	164.19
252.863	187.19
253.096	189.19
253.329	209.19
253.562	205.19
253.795	200.19
254.028	211.19
254.261	200.19
254.494	203.19
254.727	236.19
254.96	241.19
255.193	219.19
255.426	207.19
255.659	212.19
255.892	220.19
256.124	198.19
256.357	224.19
256.59	203.19
256.823	198.19
257.056	205.19
257.289	187.19
257.521	206.19
257.754	203.19
257.987	202.19
258.22	192.19
258.452	206.19
258.685	189.19
258.918	200.19
259.151	201.19
259.383	210.19
259.616	200.19
259.849	219.19
260.081	222.19
260.314	220.19
260.547	227.19
260.779	210.19
261.012	215.19
261.244	236.19
261.477	210.19
261.71	206.19
261.942	227.19
262.175	227.19
262.407	214.19
262.64	216.19
262.872	186.19
263.105	209.19
263.337	208.19
263.57	217.19
263.802	209.19
264.035	186.19
264.267	201.19
264.499	200.19
264.732	210.19
264.964	208.19
265.197	209.19
265.429	216.19
265.661	211.19
265.894	209.19
266.126	200.19
266.358	213.19
266.591	212.19
266.823	208.19
267.055	204.19
267.287	222.19
267.52	212.19
267.752	210.19
267.984	218.19
268.216	226.19
268.448	228.19
268.681	235.19
268.913	234.19
269.145	226.19
269.377	265.19
269.609	257.19
269.841	263.19
270.073	253.19
270.306	266.19
270.538	274.19
270.77	282.19
271.002	291.19
271.234	257.19
271.466	260.19
271.698	261.19
271.93	278.19
272.162	298.19
272.394	260.19
272.626	278.19
272.858	259.19
273.09	272.19
273.322	254.19
273.553	265.19
273.785	249.19
274.017	249.19
274.249	243.19
274.481	241.19
274.713	253.19
274.945	258.19
275.176	237.19
275.408	263.19
275.64	250.19
275.872	248.19
276.104	260.19
276.335	257.19
276.567	242.19
276.799	268.19
277.031	277.19
277.262	291.19
277.494	309.19
277.726	280.19
277.957	264.19
278.189	284.19
278.421	268.19
278.652	268.19
278.884	285.19
279.115	256.19
279.347	276.19
279.579	252.19
279.81	274.19
280.042	265.19
280.273	278.19
280.505	260.19
280.736	254.19
280.968	238.19
281.199	243.19
281.431	282.19
281.662	281.19
281.894	277.19
282.125	284.19
282.356	266.19
282.588	287.19
282.819	299.19
283.051	270.19
283.282	267.19
283.513	296.19
283.745	277.19
283.976	280.19
284.207	279.19
284.439	296.19
284.67	297.19
284.901	291.19
285.132	276.19
285.364	288.19
285.595	282.19
285.826	266.19
286.057	283.19
286.288	284.19
286.52	285.19
286.751	276.19
286.982	296.19
287.213	293.19
287.444	282.19
287.675	289.19
287.906	286.19
288.138	296.19
288.369	291.19
288.6	295.19
288.831	314.19
289.062	301.19
289.293	298.19
289.524	289.19
289.755	290.19
289.986	300.19
290.217	289.19
290.448	294.19
290.679	285.19
290.91	304.19
291.141	282.19
291.371	295.19
291.602	267.19
291.833	289.19
292.064	295.19
292.295	286.19
292.526	313.19
292.757	281.19
292.987	291.19
293.218	301.19
293.449	306.19
293.68	302.19
293.91	313.19
294.141	296.19
294.372	302.19
294.603	293.19
294.833	300.19
295.064	287.19
295.295	310.19
295.525	298.19
295.756	300.19
295.987	313.19
296.217	318.19
296.448	316.19
296.679	312.19
296.909	309.19
297.14	324.19
297.37	312.19
297.601	314.19
297.831	292.19
298.062	312.19
298.292	313.19
298.523	320.19
298.753	314.19
298.984	309.19
299.214	313.19
299.445	310.19
299.675	320.19
299.905	318.19
300.136	315.19
300.366	317.19
300.597	315.19
300.827	314.19
301.057	317.19
301.288	355.19
301.518	328.19
301.748	327.19
301.979	334.19
302.209	329.19
302.439	337.19
302.669	334.19
302.9	330.19
303.13	333.19
303.36	334.19
303.59	328.19
303.82	338.19
304.051	351.19
304.281	331.19
304.511	350.19
304.741	325.19
304.971	335.19
305.201	338.19
305.431	336.19
305.661	320.19
305.891	329.19
306.121	331.19
306.352	322.19
306.582	331.19
306.812	352.19
307.042	329.19
307.272	322.19
307.502	333.19
307.731	357.19
307.961	358.19
308.191	318.19
308.421	346.19
308.651	326.19
308.881	344.19
309.111	326.19
309.341	347.19
309.571	343.19
309.8	336.19
310.03	341.19
310.26	360.19
310.49	368.19
310.72	344.19
310.949	382.19
311.179	375.19
311.409	364.19
311.639	356.19
311.868	358.19
312.098	350.19
312.328	354.19
312.557	380.19
312.787	382.19
313.017	383.19
313.246	368.19
313.476	380.19
313.706	355.19
313.935	359.19
314.165	359.19
314.394	378.19
314.624	374.19
314.853	364.19
315.083	368.19
315.312	369.19
315.542	358.19
315.771	380.19
316.001	341.19
316.23	351.19
316.46	347.19
316.689	369.19
316.919	365.19
317.148	372.19
317.377	376.19
317.607	376.19
317.836	373.19
318.065	346.19
318.295	377.19
318.524	354.19
318.753	364.19
318.983	368.19
319.212	380.19
319.441	374.19
319.67	370.19
319.9	398.19
320.129	368.19
320.358	366.19
320.587	386.19
320.816	370.19
321.046	368.19
321.275	380.19
321.504	380.19
321.733	381.19
321.962	379.19
322.191	379.19
322.42	374.19
322.649	398.19
322.878	419.19
323.108	402.19
323.337	397.19
323.566	411.19
323.795	459.19
324.024	472.19
324.253	507.19
324.482	689.19
324.71	991.19
324.939	1410.19
325.168	1216.19
325.397	700.19
325.626	514.19
325.855	468.19
326.084	446.19
326.313	444.19
326.542	438.19
326.77	453.19
326.999	520.19
327.228	640.19
327.457	907.19
327.686	1085.19
327.914	755.19
328.143	550.19
328.372	505.19
328.6	493.19
328.829	475.19
329.058	478.19
329.287	467.19
329.515	460.19
329.744	433.19
329.972	450.19
330.201	469.19
330.43	472.19
330.658	478.19
330.887	509.19
331.115	491.19
331.344	484.19
331.572	457.19
331.801	443.19
332.03	452.19
332.258	454.19
332.486	436.19
332.715	453.19
332.943	464.19
333.172	468.19
333.4	473.19
333.629	479.19
333.857	485.19
334.085	482.19
334.314	502.19
334.542	507.19
334.771	520.19
334.999	485.19
335.227	452.19
335.455	476.19
335.684	460.19
335.912	464.19
336.14	459.19
336.369	457.19
336.597	461.19
336.825	443.19
337.053	451.19
337.281	429.19
337.51	432.19
337.738	418.19
337.966	440.19
338.194	442.19
338.422	432.19
338.65	430.19
338.878	446.19
339.106	418.19
339.334	425.19
339.562	418.19
339.79	401.19
340.018	408.19
340.246	426.19
340.474	423.19
340.702	416.19
340.93	408.19
341.158	406.19
341.386	417.19
341.614	415.19
341.842	416.19
342.07	412.19
342.298	426.19
342.526	396.19
342.754	409.19
342.981	407.19
343.209	437.19
343.437	415.19
343.665	419.19
343.893	464.19
344.12	459.19
344.348	452.19
344.576	470.19
344.804	444.19
345.031	428.19
345.259	437.19
345.487	416.19
345.714	414.19
345.942	408.19
346.17	413.19
346.397	414.19
346.625	416.19
346.853	404.19
347.08	389.19
347.308	411.19
347.535	429.19
347.763	420.19
347.99	416.19
348.218	405.19
348.445	404.19
348.673	405.19
348.9	418.19
349.128	396.19
349.355	402.19
349.583	404.19
349.81	386.19
350.037	406.19
350.265	388.19
350.492	382.19
350.72	398.19
350.947	399.19
351.174	388.19
351.402	398.19
351.629	387.19
351.856	396.19
352.083	406.19
352.311	397.19
352.538	392.19
352.765	388.19
352.992	378.19
353.22	396.19
353.447	409.19
353.674	381.19
353.901	398.19
354.128	392.19
354.355	377.19
354.583	385.19
354.81	386.19
355.037	391.19
355.264	392.19
355.491	368.19
355.718	394.19
355.945	385.19
356.172	385.19
356.399	380.19
356.626	390.19
356.853	379.19
357.08	378.19
357.307	384.19
357.534	374.19
357.761	388.19
357.988	374.19
358.215	386.19
358.441	374.19
358.668	397.19
358.895	381.19
359.122	400.19
359.349	380.19
359.576	370.19
359.802	406.19
360.029	408.19
360.256	426.19
360.483	437.19
360.709	388.19
360.936	400.19
361.163	385.19
361.39	397.19
361.616	396.19
361.843	396.19
362.07	407.19
362.296	393.19
362.523	393.19
362.749	411.19
362.976	409.19
363.203	405.19
363.429	384.19
363.656	386.19
363.882	373.19
364.109	384.19
364.335	382.19
364.562	365.19
364.788	388.19
365.015	372.19
365.241	402.19
365.468	389.19
365.694	387.19
365.92	398.19
366.147	389.19
366.373	380.19
366.599	409.19
366.826	383.19
367.052	383.19
367.278	402.19
367.505	392.19
367.731	379.19
367.957	383.19
368.184	396.19
368.41	400.19
368.636	405.19
368.862	404.19
369.089	397.19
369.315	383.19
369.541	389.19
369.767	375.19
369.993	410.19
370.219	412.19
370.445	409.19
370.672	394.19
370.898	404.19
371.124	390.19
371.35	383.19
371.576	416.19
371.802	400.19
372.028	396.19
372.254	420.19
372.48	407.19
372.706	411.19
372.932	402.19
373.158	416.19
373.384	423.19
373.61	421.19
373.835	408.19
374.061	402.19
374.287	417.19
374.513	406.19
374.739	412.19
374.965	418.19
375.191	424.19
375.416	425.19
375.642	412.19
375.868	412.19
376.094	422.19
376.319	418.19
376.545	403.19
376.771	410.19
376.997	397.19
377.222	388.19
377.448	409.19
377.674	402.19
377.899	396.19
378.125	415.19
378.35	386.19
378.576	398.19
378.802	395.19
379.027	395.19
379.253	406.19
379.478	393.19
379.704	409.19
379.929	408.19
380.155	421.19
380.38	404.19
380.606	405.19
380.831	414.19
381.057	403.19
381.282	407.19
381.507	408.19
381.733	410.19
381.958	410.19
382.184	410.19
382.409	409.19
382.634	425.19
382.86	393.19
383.085	429.19
383.31	429.19
383.535	432.19
383.761	434.19
383.986	425.19
384.211	418.19
384.436	445.19
384.662	458.19
384.887	443.19
385.112	460.19
385.337	437.19
385.562	452.19
385.787	467.19
386.013	444.19
386.238	448.19
386.463	433.19
386.688	456.19
386.913	450.19
387.138	460.19
387.363	463.19
387.588	469.19
387.813	444.19
388.038	462.19
388.263	453.19
388.488	463.19
388.713	442.19
388.938	454.19
389.163	460.19
389.387	452.19
389.612	454.19
389.837	437.19
390.062	449.19
390.287	448.19
390.512	442.19
390.736	441.19
390.961	461.19
391.186	465.19
391.411	457.19
391.636	484.19
391.86	479.19
392.085	495.19
392.31	489.19
392.534	487.19
392.759	480.19
392.984	455.19
393.208	473.19
393.433	456.19
393.658	446.19
393.882	455.19
394.107	445.19
394.331	442.19
394.556	465.19
394.78	482.19
395.005	475.19
395.229	468.19
395.454	484.19
395.678	489.19
395.903	516.19
396.127	508.19
396.352	508.19
396.576	474.19
396.801	473.19
397.025	481.19
397.249	493.19
397.474	509.19
397.698	509.19
397.922	516.19
398.147	506.19
398.371	541.19
398.595	519.19
398.82	524.19
399.044	536.19
399.268	599.19
399.492	593.19
399.717	681.19
399.941	702.19
400.165	717.19
400.389	653.19
400.613	622.19
400.837	586.19
401.062	579.19
401.286	577.19
401.51	547.19
401.734	546.19
401.958	552.19
402.182	536.19
402.406	546.19
402.63	544.19
402.854	561.19
403.078	566.19
403.302	556.19
403.526	554.19
403.75	570.19
403.974	562.19
404.198	565.19
404.422	573.19
404.645	570.19
404.869	577.19
405.093	603.19
405.317	640.19
405.541	638.19
405.765	589.19
405.988	572.19
406.212	582.19
406.436	588.19
406.66	608.19
406.883	591.19
407.107	635.19
407.331	654.19
407.555	713.19
407.778	688.19
408.002	659.19
408.226	620.19
408.449	603.19
408.673	619.19
408.896	595.19
409.12	651.19
409.344	634.19
409.567	580.19
409.791	569.19
410.014	567.19
410.238	544.19
410.461	572.19
410.685	548.19
410.908	546.19
411.132	578.19
411.355	609.19
411.578	590.19
411.802	576.19
412.025	540.19
412.249	563.19
412.472	581.19
412.695	589.19
412.919	573.19
413.142	572.19
413.365	546.19
413.589	567.19
413.812	518.19
414.035	538.19
414.258	555.19
414.482	530.19
414.705	557.19
414.928	530.19
415.151	542.19
415.374	537.19
415.597	546.19
415.821	518.19
416.044	538.19
416.267	485.19
416.49	510.19
416.713	514.19
416.936	525.19
417.159	511.19
417.382	519.19
417.605	524.19
417.828	510.19
418.051	565.19
418.274	545.19
418.497	537.19
418.72	535.19
418.943	505.19
419.166	533.19
419.389	562.19
419.611	566.19
419.834	542.19
420.057	549.19
420.28	548.19
420.503	536.19
420.726	536.19
420.948	544.19
421.171	574.19
421.394	592.19
421.617	560.19
421.839	523.19
422.062	548.19
422.285	550.19
422.507	614.19
422.73	654.19
422.953	623.19
423.175	601.19
423.398	556.19
423.621	569.19
423.843	585.19
424.066	562.19
424.288	578.19
424.511	584.19
424.733	622.19
424.956	664.19
425.178	638.19
425.401	658.19
425.623	666.19
425.846	593.19
426.068	554.19
426.291	555.19
426.513	536.19
426.735	571.19
426.958	578.19
427.18	636.19
427.402	736.19
427.625	809.19
427.847	685.19
428.069	626.19
428.292	582.19
428.514	541.19
428.736	530.19
428.958	520.19
429.181	512.19
429.403	483.19
429.625	520.19
429.847	521.19
430.069	581.19
430.292	601.19
430.514	521.19
430.736	512.19
430.958	482.19
431.18	481.19
431.402	496.19
431.624	510.19
431.846	485.19
432.068	485.19
432.29	498.19
432.512	501.19
432.734	496.19
432.956	489.19
433.178	520.19
433.4	508.19
433.622	517.19
433.844	494.19
434.066	483.19
434.287	493.19
434.509	507.19
434.731	525.19
434.953	523.19
435.175	538.19
435.397	566.19
435.618	547.19
435.84	579.19
436.062	651.19
436.284	691.19
436.505	602.19
436.727	539.19
436.949	530.19
437.17	512.19
437.392	505.19
437.614	530.19
437.835	534.19
438.057	597.19
438.278	660.19
438.5	668.19
438.721	716.19
438.943	689.19
439.165	590.19
439.386	552.19
439.608	561.19
439.829	518.19
440.05	568.19
440.272	602.19
440.493	545.19
440.715	534.19
440.936	533.19
441.158	528.19
441.379	526.19
441.6	546.19
441.822	544.19
442.043	596.19
442.264	616.19
442.486	653.19
442.707	584.19
442.928	572.19
443.149	576.19
443.371	581.19
443.592	620.19
443.813	673.19
444.034	713.19
444.255	656.19
444.476	589.19
444.698	589.19
444.919	613.19
445.14	702.19
445.361	642.19
445.582	610.19
445.803	623.19
446.024	704.19
446.245	638.19
446.466	633.19
446.687	543.19
446.908	532.19
447.129	524.19
447.35	534.19
447.571	504.19
447.792	487.19
448.013	496.19
448.234	512.19
448.455	539.19
448.675	588.19
448.896	682.19
449.117	615.19
449.338	591.19
449.559	679.19
449.779	776.19
450	618.19
450.221	528.19
450.442	514.19
450.662	470.19
450.883	479.19
451.104	496.19
451.324	470.19
451.545	479.19
451.766	461.19
451.986	450.19
452.207	444.19
452.428	466.19
452.648	434.19
452.869	454.19
453.089	451.19
453.31	480.19
453.53	451.19
453.751	463.19
453.971	447.19
454.192	456.19
454.412	460.19
454.633	448.19
454.853	437.19
455.073	452.19
455.294	473.19
455.514	513.19
455.734	516.19
455.955	462.19
456.175	438.19
456.395	442.19
456.616	440.19
456.836	441.19
457.056	447.19
457.276	423.19
457.497	439.19
457.717	442.19
457.937	455.19
458.157	451.19
458.377	424.19
458.598	468.19
458.818	490.19
459.038	546.19
459.258	558.19
459.478	532.19
459.698	495.19
459.918	499.19
460.138	547.19
460.358	501.19
460.578	527.19
460.798	558.19
461.018	534.19
461.238	540.19
461.458	544.19
461.678	548.19
461.898	541.19
462.118	558.19
462.338	565.19
462.558	575.19
462.777	580.19
462.997	602.19
463.217	616.19
463.437	625.19
463.657	589.19
463.876	597.19
464.096	610.19
464.316	598.19
464.536	578.19
464.755	578.19
464.975	561.19
465.195	571.19
465.414	566.19
465.634	538.19
465.854	525.19
466.073	513.19
466.293	470.19
466.512	482.19
466.732	475.19
466.951	480.19
467.171	470.19
467.391	481.19
467.61	479.19
467.829	494.19
468.049	466.19
468.268	480.19
468.488	461.19
468.707	478.19
468.927	475.19
469.146	466.19
469.365	469.19
469.585	467.19
469.804	480.19
470.023	490.19
470.243	500.19
470.462	493.19
470.681	510.19
470.901	473.19
471.12	469.19
471.339	512.19
471.558	502.19
471.777	478.19
471.997	485.19
472.216	474.19
472.435	496.19
472.654	500.19
472.873	499.19
473.092	466.19
473.311	459.19
473.53	460.19
473.749	494.19
473.968	493.19
474.187	556.19
474.406	592.19
474.625	506.19
474.844	496.19
475.063	493.19
475.282	474.19
475.501	482.19
475.72	504.19
475.939	496.19
476.158	493.19
476.377	484.19
476.596	491.19
476.814	500.19
477.033	508.19
477.252	518.19
477.471	505.19
477.69	512.19
477.908	506.19
478.127	553.19
478.346	553.19
478.564	526.19
478.783	540.19
479.002	528.19
479.22	564.19
479.439	571.19
479.658	561.19
479.876	560.19
480.095	601.19
480.313	616.19
480.532	608.19
480.751	597.19
480.969	603.19
481.188	616.19
481.406	640.19
481.624	588.19
481.843	578.19
482.061	557.19
482.28	572.19
482.498	559.19
482.717	561.19
482.935	553.19
483.153	553.19
483.372	537.19
483.59	556.19
483.808	566.19
484.027	559.19
484.245	555.19
484.463	547.19
484.681	564.19
484.9	567.19
485.118	562.19
485.336	580.19
485.554	547.19
485.772	564.19
485.99	580.19
486.209	581.19
486.427	570.19
486.645	580.19
486.863	574.19
487.081	599.19
487.299	584.19
487.517	605.19
487.735	604.19
487.953	580.19
488.171	580.19
488.389	588.19
488.607	590.19
488.825	596.19
489.043	602.19
489.261	589.19
489.479	580.19
489.696	600.19
489.914	618.19
490.132	612.19
490.35	606.19
490.568	622.19
490.786	609.19
491.003	622.19
491.221	630.19
491.439	634.19
491.657	649.19
491.874	641.19
492.092	637.19
492.31	638.19
492.527	660.19
492.745	633.19
492.963	624.19
493.18	660.19
493.398	692.19
493.615	694.19
493.833	678.19
494.05	663.19
494.268	666.19
494.485	673.19
494.703	666.19
494.92	699.19
495.138	666.19
495.355	673.19
495.573	656.19
495.79	677.19
496.008	664.19
496.225	693.19
496.442	677.19
496.66	697.19
496.877	706.19
497.094	690.19
497.312	705.19
497.529	731.19
497.746	735.19
497.963	741.19
498.181	765.19
498.398	790.19
498.615	799.19
498.832	840.19
499.049	864.19
499.267	864.19
499.484	948.19
499.701	984.19
499.918	1030.19
500.135	1121.19
500.352	1212.19
500.569	1220.19
500.786	1232.19
501.003	1191.19
501.22	1158.19
501.437	1067.19
501.654	1005.19
501.871	976.19
