Data from 1962.PennyLincolnUp.Lamp.En5.5.200Scan.071719.P1._HRD10591_13-55-05-061.txt Node
Date: Thu Jul 18 13:55:05 EDT 2019
User: cochatt
Spectrometer: HR+D1059
Trigger mode: 1
Integration Time (sec): 1.000000E-1
Scans to average: 1
Electric dark correction enabled: true
Nonlinearity correction enabled: false
Boxcar width: 0
XAxis mode: Wavelengths
Number of Pixels in Spectrum: 2048
>>>>>Begin Spectral Data<<<<<
223.165	-10.38
223.4	-10.38
223.635	-10.38
223.869	-18.38
224.104	-18.38
224.338	-19.38
224.573	-12.38
224.808	-19.38
225.042	-11.38
225.277	-4.38
225.511	1.62
225.746	-2.38
225.98	-2.38
226.215	22.62
226.449	15.62
226.683	20.62
226.918	37.62
227.152	20.62
227.387	48.62
227.621	41.62
227.856	50.62
228.09	49.62
228.324	40.62
228.559	56.62
228.793	69.62
229.027	92.62
229.262	97.62
229.496	108.62
229.73	107.62
229.964	135.62
230.199	116.62
230.433	106.62
230.667	109.62
230.901	101.62
231.136	102.62
231.37	98.62
231.604	101.62
231.838	105.62
232.072	98.62
232.306	114.62
232.541	110.62
232.775	106.62
233.009	101.62
233.243	106.62
233.477	101.62
233.711	108.62
233.945	109.62
234.179	121.62
234.413	108.62
234.647	126.62
234.881	100.62
235.115	101.62
235.349	118.62
235.583	98.62
235.817	102.62
236.051	109.62
236.285	104.62
236.519	106.62
236.753	105.62
236.987	128.62
237.221	149.62
237.455	180.62
237.689	160.62
237.922	134.62
238.156	132.62
238.39	123.62
238.624	112.62
238.858	125.62
239.091	119.62
239.325	119.62
239.559	122.62
239.793	134.62
240.027	128.62
240.26	119.62
240.494	139.62
240.728	131.62
240.961	145.62
241.195	136.62
241.429	138.62
241.662	122.62
241.896	121.62
242.13	118.62
242.363	130.62
242.597	130.62
242.83	135.62
243.064	146.62
243.298	142.62
243.531	132.62
243.765	138.62
243.998	134.62
244.232	142.62
244.465	130.62
244.699	142.62
244.932	142.62
245.166	123.62
245.399	136.62
245.633	131.62
245.866	139.62
246.099	139.62
246.333	142.62
246.566	141.62
246.8	142.62
247.033	148.62
247.266	149.62
247.5	143.62
247.733	153.62
247.966	150.62
248.2	158.62
248.433	157.62
248.666	152.62
248.899	157.62
249.133	182.62
249.366	179.62
249.599	184.62
249.832	158.62
250.066	164.62
250.299	170.62
250.532	179.62
250.765	189.62
250.998	205.62
251.231	190.62
251.465	188.62
251.698	181.62
251.931	176.62
252.164	174.62
252.397	197.62
252.63	181.62
252.863	184.62
253.096	201.62
253.329	210.62
253.562	198.62
253.795	190.62
254.028	197.62
254.261	181.62
254.494	204.62
254.727	215.62
254.96	248.62
255.193	236.62
255.426	224.62
255.659	218.62
255.892	220.62
256.124	206.62
256.357	213.62
256.59	193.62
256.823	192.62
257.056	203.62
257.289	202.62
257.521	191.62
257.754	194.62
257.987	194.62
258.22	197.62
258.452	207.62
258.685	201.62
258.918	185.62
259.151	198.62
259.383	197.62
259.616	198.62
259.849	189.62
260.081	214.62
260.314	227.62
260.547	233.62
260.779	221.62
261.012	209.62
261.244	204.62
261.477	203.62
261.71	209.62
261.942	199.62
262.175	217.62
262.407	210.62
262.64	216.62
262.872	201.62
263.105	199.62
263.337	193.62
263.57	204.62
263.802	205.62
264.035	217.62
264.267	187.62
264.499	203.62
264.732	213.62
264.964	209.62
265.197	196.62
265.429	201.62
265.661	191.62
265.894	210.62
266.126	210.62
266.358	210.62
266.591	190.62
266.823	220.62
267.055	209.62
267.287	203.62
267.52	218.62
267.752	207.62
267.984	215.62
268.216	220.62
268.448	220.62
268.681	234.62
268.913	243.62
269.145	238.62
269.377	270.62
269.609	269.62
269.841	236.62
270.073	250.62
270.306	273.62
270.538	270.62
270.77	288.62
271.002	277.62
271.234	279.62
271.466	263.62
271.698	276.62
271.93	278.62
272.162	273.62
272.394	288.62
272.626	283.62
272.858	268.62
273.09	250.62
273.322	267.62
273.553	260.62
273.785	249.62
274.017	257.62
274.249	246.62
274.481	258.62
274.713	255.62
274.945	261.62
275.176	257.62
275.408	252.62
275.64	238.62
275.872	262.62
276.104	260.62
276.335	254.62
276.567	254.62
276.799	274.62
277.031	281.62
277.262	297.62
277.494	304.62
277.726	277.62
277.957	269.62
278.189	268.62
278.421	257.62
278.652	254.62
278.884	283.62
279.115	264.62
279.347	260.62
279.579	280.62
279.81	273.62
280.042	269.62
280.273	274.62
280.505	268.62
280.736	274.62
280.968	268.62
281.199	261.62
281.431	256.62
281.662	259.62
281.894	246.62
282.125	263.62
282.356	276.62
282.588	294.62
282.819	300.62
283.051	266.62
283.282	278.62
283.513	274.62
283.745	268.62
283.976	277.62
284.207	300.62
284.439	267.62
284.67	280.62
284.901	274.62
285.132	265.62
285.364	281.62
285.595	277.62
285.826	285.62
286.057	286.62
286.288	285.62
286.52	281.62
286.751	276.62
286.982	293.62
287.213	266.62
287.444	280.62
287.675	299.62
287.906	289.62
288.138	305.62
288.369	301.62
288.6	302.62
288.831	277.62
289.062	282.62
289.293	312.62
289.524	297.62
289.755	286.62
289.986	289.62
290.217	291.62
290.448	285.62
290.679	281.62
290.91	281.62
291.141	269.62
291.371	284.62
291.602	300.62
291.833	299.62
292.064	277.62
292.295	277.62
292.526	301.62
292.757	283.62
292.987	312.62
293.218	288.62
293.449	290.62
293.68	294.62
293.91	293.62
294.141	288.62
294.372	278.62
294.603	297.62
294.833	312.62
295.064	310.62
295.295	301.62
295.525	297.62
295.756	290.62
295.987	325.62
296.217	310.62
296.448	316.62
296.679	303.62
296.909	304.62
297.14	312.62
297.37	310.62
297.601	302.62
297.831	300.62
298.062	307.62
298.292	298.62
298.523	322.62
298.753	315.62
298.984	320.62
299.214	300.62
299.445	313.62
299.675	303.62
299.905	315.62
300.136	316.62
300.366	296.62
300.597	321.62
300.827	329.62
301.057	308.62
301.288	357.62
301.518	323.62
301.748	323.62
301.979	350.62
302.209	327.62
302.439	331.62
302.669	328.62
302.9	314.62
303.13	333.62
303.36	326.62
303.59	324.62
303.82	328.62
304.051	321.62
304.281	347.62
304.511	338.62
304.741	352.62
304.971	299.62
305.201	343.62
305.431	313.62
305.661	342.62
305.891	344.62
306.121	336.62
306.352	317.62
306.582	338.62
306.812	349.62
307.042	305.62
307.272	317.62
307.502	333.62
307.731	329.62
307.961	330.62
308.191	337.62
308.421	324.62
308.651	324.62
308.881	333.62
309.111	338.62
309.341	337.62
309.571	339.62
309.8	344.62
310.03	346.62
310.26	336.62
310.49	354.62
310.72	372.62
310.949	372.62
311.179	348.62
311.409	351.62
311.639	364.62
311.868	363.62
312.098	363.62
312.328	371.62
312.557	365.62
312.787	380.62
313.017	370.62
313.246	392.62
313.476	363.62
313.706	362.62
313.935	371.62
314.165	388.62
314.394	380.62
314.624	372.62
314.853	368.62
315.083	371.62
315.312	380.62
315.542	392.62
315.771	358.62
316.001	362.62
316.23	360.62
316.46	362.62
316.689	371.62
316.919	363.62
317.148	381.62
317.377	378.62
317.607	356.62
317.836	366.62
318.065	376.62
318.295	359.62
318.524	365.62
318.753	360.62
318.983	354.62
319.212	358.62
319.441	381.62
319.67	386.62
319.9	379.62
320.129	352.62
320.358	361.62
320.587	371.62
320.816	376.62
321.046	362.62
321.275	375.62
321.504	380.62
321.733	398.62
321.962	376.62
322.191	389.62
322.42	384.62
322.649	406.62
322.878	375.62
323.108	410.62
323.337	416.62
323.566	408.62
323.795	452.62
324.024	466.62
324.253	529.62
324.482	717.62
324.71	1033.62
324.939	1462.62
325.168	1275.62
325.397	713.62
325.626	516.62
325.855	462.62
326.084	450.62
326.313	435.62
326.542	454.62
326.77	469.62
326.999	525.62
327.228	662.62
327.457	922.62
327.686	1117.62
327.914	793.62
328.143	563.62
328.372	504.62
328.6	483.62
328.829	475.62
329.058	474.62
329.287	479.62
329.515	473.62
329.744	452.62
329.972	427.62
330.201	462.62
330.43	464.62
330.658	488.62
330.887	498.62
331.115	512.62
331.344	470.62
331.572	448.62
331.801	450.62
332.03	443.62
332.258	429.62
332.486	458.62
332.715	462.62
332.943	462.62
333.172	447.62
333.4	469.62
333.629	497.62
333.857	480.62
334.085	480.62
334.314	481.62
334.542	502.62
334.771	502.62
334.999	509.62
335.227	479.62
335.455	434.62
335.684	475.62
335.912	471.62
336.14	454.62
336.369	444.62
336.597	452.62
336.825	458.62
337.053	453.62
337.281	436.62
337.51	425.62
337.738	445.62
337.966	454.62
338.194	433.62
338.422	429.62
338.65	434.62
338.878	436.62
339.106	433.62
339.334	414.62
339.562	421.62
339.79	427.62
340.018	419.62
340.246	418.62
340.474	417.62
340.702	432.62
340.93	417.62
341.158	407.62
341.386	416.62
341.614	436.62
341.842	419.62
342.07	410.62
342.298	411.62
342.526	426.62
342.754	403.62
342.981	408.62
343.209	413.62
343.437	435.62
343.665	429.62
343.893	428.62
344.12	458.62
344.348	463.62
344.576	433.62
344.804	441.62
345.031	444.62
345.259	417.62
345.487	444.62
345.714	416.62
345.942	406.62
346.17	400.62
346.397	420.62
346.625	412.62
346.853	404.62
347.08	390.62
347.308	424.62
347.535	419.62
347.763	408.62
347.99	410.62
348.218	412.62
348.445	413.62
348.673	393.62
348.9	391.62
349.128	397.62
349.355	393.62
349.583	384.62
349.81	391.62
350.037	398.62
350.265	390.62
350.492	393.62
350.72	384.62
350.947	392.62
351.174	389.62
351.402	410.62
351.629	414.62
351.856	383.62
352.083	414.62
352.311	412.62
352.538	409.62
352.765	413.62
352.992	397.62
353.22	373.62
353.447	409.62
353.674	405.62
353.901	378.62
354.128	396.62
354.355	388.62
354.583	382.62
354.81	384.62
355.037	391.62
355.264	386.62
355.491	392.62
355.718	389.62
355.945	365.62
356.172	390.62
356.399	393.62
356.626	398.62
356.853	372.62
357.08	394.62
357.307	380.62
357.534	393.62
357.761	390.62
357.988	380.62
358.215	398.62
358.441	374.62
358.668	377.62
358.895	385.62
359.122	388.62
359.349	396.62
359.576	386.62
359.802	408.62
360.029	410.62
360.256	433.62
360.483	424.62
360.709	401.62
360.936	378.62
361.163	386.62
361.39	395.62
361.616	384.62
361.843	398.62
362.07	404.62
362.296	380.62
362.523	403.62
362.749	402.62
362.976	399.62
363.203	389.62
363.429	386.62
363.656	399.62
363.882	388.62
364.109	394.62
364.335	385.62
364.562	380.62
364.788	380.62
365.015	388.62
365.241	395.62
365.468	362.62
365.694	397.62
365.92	375.62
366.147	372.62
366.373	390.62
366.599	414.62
366.826	384.62
367.052	398.62
367.278	386.62
367.505	378.62
367.731	394.62
367.957	383.62
368.184	398.62
368.41	400.62
368.636	420.62
368.862	390.62
369.089	390.62
369.315	416.62
369.541	403.62
369.767	401.62
369.993	381.62
370.219	381.62
370.445	404.62
370.672	380.62
370.898	393.62
371.124	416.62
371.35	393.62
371.576	394.62
371.802	398.62
372.028	395.62
372.254	395.62
372.48	402.62
372.706	398.62
372.932	405.62
373.158	396.62
373.384	414.62
373.61	386.62
373.835	396.62
374.061	403.62
374.287	421.62
374.513	394.62
374.739	409.62
374.965	420.62
375.191	428.62
375.416	429.62
375.642	408.62
375.868	402.62
376.094	421.62
376.319	409.62
376.545	418.62
376.771	413.62
376.997	407.62
377.222	379.62
377.448	391.62
377.674	400.62
377.899	393.62
378.125	404.62
378.35	409.62
378.576	392.62
378.802	390.62
379.027	365.62
379.253	406.62
379.478	408.62
379.704	395.62
379.929	393.62
380.155	387.62
380.38	405.62
380.606	383.62
380.831	398.62
381.057	403.62
381.282	403.62
381.507	396.62
381.733	411.62
381.958	412.62
382.184	419.62
382.409	413.62
382.634	412.62
382.86	392.62
383.085	408.62
383.31	424.62
383.535	435.62
383.761	420.62
383.986	444.62
384.211	440.62
384.436	437.62
384.662	426.62
384.887	427.62
385.112	441.62
385.337	443.62
385.562	441.62
385.787	444.62
386.013	466.62
386.238	460.62
386.463	442.62
386.688	463.62
386.913	480.62
387.138	452.62
387.363	438.62
387.588	453.62
387.813	442.62
388.038	427.62
388.263	445.62
388.488	440.62
388.713	459.62
388.938	457.62
389.163	449.62
389.387	451.62
389.612	449.62
389.837	437.62
390.062	450.62
390.287	440.62
390.512	471.62
390.736	441.62
390.961	437.62
391.186	458.62
391.411	446.62
391.636	461.62
391.86	477.62
392.085	490.62
392.31	467.62
392.534	476.62
392.759	471.62
392.984	469.62
393.208	501.62
393.433	480.62
393.658	455.62
393.882	488.62
394.107	469.62
394.331	442.62
394.556	426.62
394.78	467.62
395.005	481.62
395.229	465.62
395.454	485.62
395.678	473.62
395.903	482.62
396.127	501.62
396.352	507.62
396.576	487.62
396.801	483.62
397.025	478.62
397.249	483.62
397.474	479.62
397.698	477.62
397.922	499.62
398.147	492.62
398.371	515.62
398.595	532.62
398.82	509.62
399.044	568.62
399.268	578.62
399.492	632.62
399.717	658.62
399.941	667.62
400.165	682.62
400.389	665.62
400.613	601.62
400.837	566.62
401.062	560.62
401.286	543.62
401.51	530.62
401.734	528.62
401.958	539.62
402.182	534.62
402.406	556.62
402.63	542.62
402.854	539.62
403.078	542.62
403.302	529.62
403.526	561.62
403.75	551.62
403.974	538.62
404.198	578.62
404.422	586.62
404.645	581.62
404.869	576.62
405.093	592.62
405.317	631.62
405.541	645.62
405.765	600.62
405.988	571.62
406.212	588.62
406.436	587.62
406.66	610.62
406.883	609.62
407.107	611.62
407.331	651.62
407.555	714.62
407.778	712.62
408.002	654.62
408.226	628.62
408.449	603.62
408.673	600.62
408.896	614.62
409.12	640.62
409.344	605.62
409.567	594.62
409.791	572.62
410.014	553.62
410.238	552.62
410.461	560.62
410.685	573.62
410.908	561.62
411.132	580.62
411.355	558.62
411.578	584.62
411.802	531.62
412.025	527.62
412.249	559.62
412.472	564.62
412.695	600.62
412.919	567.62
413.142	552.62
413.365	540.62
413.589	544.62
413.812	526.62
414.035	526.62
414.258	537.62
414.482	518.62
414.705	530.62
414.928	560.62
415.151	519.62
415.374	519.62
415.597	524.62
415.821	526.62
416.044	504.62
416.267	512.62
416.49	536.62
416.713	547.62
416.936	536.62
417.159	524.62
417.382	530.62
417.605	511.62
417.828	530.62
418.051	540.62
418.274	530.62
418.497	519.62
418.72	552.62
418.943	520.62
419.166	530.62
419.389	580.62
419.611	594.62
419.834	547.62
420.057	547.62
420.28	555.62
420.503	524.62
420.726	545.62
420.948	526.62
421.171	584.62
421.394	592.62
421.617	548.62
421.839	516.62
422.062	545.62
422.285	550.62
422.507	582.62
422.73	655.62
422.953	626.62
423.175	570.62
423.398	560.62
423.621	561.62
423.843	572.62
424.066	578.62
424.288	560.62
424.511	580.62
424.733	607.62
424.956	698.62
425.178	660.62
425.401	660.62
425.623	695.62
425.846	594.62
426.068	550.62
426.291	574.62
426.513	542.62
426.735	569.62
426.958	579.62
427.18	642.62
427.402	732.62
427.625	794.62
427.847	689.62
428.069	633.62
428.292	572.62
428.514	534.62
428.736	534.62
428.958	506.62
429.181	508.62
429.403	486.62
429.625	492.62
429.847	521.62
430.069	599.62
430.292	593.62
430.514	526.62
430.736	490.62
430.958	489.62
431.18	501.62
431.402	476.62
431.624	506.62
431.846	488.62
432.068	499.62
432.29	508.62
432.512	516.62
432.734	486.62
432.956	516.62
433.178	488.62
433.4	523.62
433.622	487.62
433.844	498.62
434.066	480.62
434.287	502.62
434.509	528.62
434.731	526.62
434.953	509.62
435.175	532.62
435.397	542.62
435.618	557.62
435.84	582.62
436.062	644.62
436.284	679.62
436.505	589.62
436.727	547.62
436.949	535.62
437.17	522.62
437.392	502.62
437.614	529.62
437.835	530.62
438.057	571.62
438.278	666.62
438.5	676.62
438.721	708.62
438.943	722.62
439.165	593.62
439.386	552.62
439.608	535.62
439.829	549.62
440.05	537.62
440.272	590.62
440.493	563.62
440.715	526.62
440.936	526.62
441.158	535.62
441.379	532.62
441.6	521.62
441.822	552.62
442.043	586.62
442.264	629.62
442.486	668.62
442.707	588.62
442.928	570.62
443.149	551.62
443.371	570.62
443.592	611.62
443.813	675.62
444.034	714.62
444.255	640.62
444.476	591.62
444.698	590.62
444.919	602.62
445.14	708.62
445.361	660.62
445.582	602.62
445.803	615.62
446.024	697.62
446.245	679.62
446.466	631.62
446.687	577.62
446.908	544.62
447.129	531.62
447.35	496.62
447.571	505.62
447.792	490.62
448.013	493.62
448.234	496.62
448.455	547.62
448.675	630.62
448.896	700.62
449.117	619.62
449.338	588.62
449.559	656.62
449.779	759.62
450	618.62
450.221	552.62
450.442	522.62
450.662	493.62
450.883	475.62
451.104	500.62
451.324	501.62
451.545	470.62
451.766	463.62
451.986	455.62
452.207	452.62
452.428	467.62
452.648	449.62
452.869	457.62
453.089	459.62
453.31	468.62
453.53	466.62
453.751	437.62
453.971	456.62
454.192	452.62
454.412	478.62
454.633	450.62
454.853	441.62
455.073	446.62
455.294	455.62
455.514	489.62
455.734	500.62
455.955	444.62
456.175	438.62
456.395	440.62
456.616	452.62
456.836	440.62
457.056	448.62
457.276	427.62
457.497	438.62
457.717	433.62
457.937	417.62
458.157	437.62
458.377	445.62
458.598	476.62
458.818	501.62
459.038	556.62
459.258	577.62
459.478	508.62
459.698	500.62
459.918	496.62
460.138	506.62
460.358	500.62
460.578	518.62
460.798	509.62
461.018	508.62
461.238	526.62
461.458	539.62
461.678	513.62
461.898	545.62
462.118	533.62
462.338	548.62
462.558	560.62
462.777	559.62
462.997	574.62
463.217	617.62
463.437	624.62
463.657	593.62
463.876	586.62
464.096	582.62
464.316	569.62
464.536	589.62
464.755	572.62
464.975	568.62
465.195	552.62
465.414	588.62
465.634	544.62
465.854	516.62
466.073	519.62
466.293	479.62
466.512	483.62
466.732	474.62
466.951	504.62
467.171	466.62
467.391	472.62
467.61	487.62
467.829	474.62
468.049	459.62
468.268	459.62
468.488	461.62
468.707	484.62
468.927	470.62
469.146	466.62
469.365	451.62
469.585	461.62
469.804	472.62
470.023	496.62
470.243	495.62
470.462	492.62
470.681	468.62
470.901	488.62
471.12	471.62
471.339	472.62
471.558	492.62
471.777	471.62
471.997	483.62
472.216	461.62
472.435	470.62
472.654	478.62
472.873	468.62
473.092	457.62
473.311	478.62
473.53	474.62
473.749	465.62
473.968	495.62
474.187	566.62
474.406	582.62
474.625	543.62
474.844	487.62
475.063	471.62
475.282	476.62
475.501	449.62
475.72	493.62
475.939	468.62
476.158	473.62
476.377	509.62
476.596	472.62
476.814	481.62
477.033	487.62
477.252	492.62
477.471	520.62
477.69	514.62
477.908	516.62
478.127	542.62
478.346	524.62
478.564	532.62
478.783	549.62
479.002	568.62
479.22	561.62
479.439	569.62
479.658	563.62
479.876	556.62
480.095	572.62
480.313	593.62
480.532	604.62
480.751	608.62
480.969	580.62
481.188	611.62
481.406	631.62
481.624	594.62
481.843	558.62
482.061	558.62
482.28	537.62
482.498	530.62
482.717	532.62
482.935	533.62
483.153	561.62
483.372	549.62
483.59	565.62
483.808	542.62
484.027	556.62
484.245	562.62
484.463	568.62
484.681	568.62
484.9	569.62
485.118	580.62
485.336	578.62
485.554	543.62
485.772	570.62
485.99	574.62
486.209	588.62
486.427	584.62
486.645	592.62
486.863	570.62
487.081	575.62
487.299	576.62
487.517	583.62
487.735	564.62
487.953	573.62
488.171	549.62
488.389	581.62
488.607	566.62
488.825	578.62
489.043	589.62
489.261	593.62
489.479	595.62
489.696	585.62
489.914	601.62
490.132	606.62
490.35	600.62
490.568	624.62
490.786	607.62
491.003	614.62
491.221	625.62
491.439	640.62
491.657	652.62
491.874	618.62
492.092	628.62
492.31	651.62
492.527	647.62
492.745	638.62
492.963	672.62
493.18	660.62
493.398	660.62
493.615	668.62
493.833	671.62
494.05	682.62
494.268	652.62
494.485	666.62
494.703	674.62
494.92	661.62
495.138	679.62
495.355	667.62
495.573	669.62
495.79	693.62
496.008	682.62
496.225	684.62
496.442	653.62
496.66	708.62
496.877	690.62
497.094	702.62
497.312	672.62
497.529	724.62
497.746	737.62
497.963	753.62
498.181	781.62
498.398	778.62
498.615	816.62
498.832	842.62
499.049	862.62
499.267	880.62
499.484	938.62
499.701	967.62
499.918	1050.62
500.135	1094.62
500.352	1176.62
500.569	1220.62
500.786	1204.62
501.003	1172.62
501.22	1117.62
501.437	1033.62
501.654	977.62
501.871	948.62
