Data from 1962.PennyLincolnUp.Lamp.En5.5.200Scan.071719.P1._HRD10591_13-55-03-061.txt Node
Date: Thu Jul 18 13:55:03 EDT 2019
User: cochatt
Spectrometer: HR+D1059
Trigger mode: 1
Integration Time (sec): 1.000000E-1
Scans to average: 1
Electric dark correction enabled: true
Nonlinearity correction enabled: false
Boxcar width: 0
XAxis mode: Wavelengths
Number of Pixels in Spectrum: 2048
>>>>>Begin Spectral Data<<<<<
223.165	-12.44
223.4	-12.44
223.635	-12.44
223.869	-15.44
224.104	-12.44
224.338	-16.44
224.573	-17.44
224.808	-3.44
225.042	-13.44
225.277	-0.44
225.511	-2.44
225.746	7.56
225.98	-6.44
226.215	10.56
226.449	6.56
226.683	22.56
226.918	26.56
227.152	26.56
227.387	41.56
227.621	40.56
227.856	42.56
228.09	29.56
228.324	40.56
228.559	54.56
228.793	74.56
229.027	93.56
229.262	100.56
229.496	98.56
229.73	114.56
229.964	129.56
230.199	119.56
230.433	115.56
230.667	111.56
230.901	103.56
231.136	113.56
231.37	119.56
231.604	107.56
231.838	97.56
232.072	116.56
232.306	117.56
232.541	130.56
232.775	108.56
233.009	108.56
233.243	117.56
233.477	111.56
233.711	112.56
233.945	115.56
234.179	112.56
234.413	108.56
234.647	104.56
234.881	107.56
235.115	116.56
235.349	108.56
235.583	109.56
235.817	101.56
236.051	122.56
236.285	103.56
236.519	123.56
236.753	124.56
236.987	144.56
237.221	159.56
237.455	204.56
237.689	166.56
237.922	123.56
238.156	137.56
238.39	128.56
238.624	124.56
238.858	117.56
239.091	115.56
239.325	128.56
239.559	127.56
239.793	113.56
240.027	124.56
240.26	131.56
240.494	125.56
240.728	127.56
240.961	127.56
241.195	153.56
241.429	133.56
241.662	124.56
241.896	127.56
242.13	125.56
242.363	130.56
242.597	132.56
242.83	126.56
243.064	136.56
243.298	116.56
243.531	127.56
243.765	139.56
243.998	143.56
244.232	129.56
244.465	130.56
244.699	131.56
244.932	146.56
245.166	141.56
245.399	143.56
245.633	139.56
245.866	151.56
246.099	154.56
246.333	142.56
246.566	167.56
246.8	145.56
247.033	153.56
247.266	139.56
247.5	149.56
247.733	168.56
247.966	158.56
248.2	158.56
248.433	152.56
248.666	161.56
248.899	169.56
249.133	162.56
249.366	180.56
249.599	192.56
249.832	171.56
250.066	171.56
250.299	163.56
250.532	173.56
250.765	188.56
250.998	185.56
251.231	205.56
251.465	200.56
251.698	178.56
251.931	172.56
252.164	179.56
252.397	183.56
252.63	197.56
252.863	193.56
253.096	200.56
253.329	197.56
253.562	213.56
253.795	201.56
254.028	193.56
254.261	200.56
254.494	200.56
254.727	214.56
254.96	241.56
255.193	224.56
255.426	218.56
255.659	224.56
255.892	211.56
256.124	222.56
256.357	213.56
256.59	212.56
256.823	221.56
257.056	203.56
257.289	202.56
257.521	215.56
257.754	188.56
257.987	191.56
258.22	201.56
258.452	207.56
258.685	187.56
258.918	203.56
259.151	199.56
259.383	197.56
259.616	208.56
259.849	200.56
260.081	205.56
260.314	236.56
260.547	225.56
260.779	213.56
261.012	226.56
261.244	208.56
261.477	214.56
261.71	197.56
261.942	203.56
262.175	220.56
262.407	231.56
262.64	214.56
262.872	193.56
263.105	203.56
263.337	208.56
263.57	200.56
263.802	207.56
264.035	219.56
264.267	193.56
264.499	202.56
264.732	214.56
264.964	205.56
265.197	210.56
265.429	210.56
265.661	202.56
265.894	215.56
266.126	214.56
266.358	225.56
266.591	224.56
266.823	233.56
267.055	223.56
267.287	207.56
267.52	213.56
267.752	211.56
267.984	233.56
268.216	215.56
268.448	222.56
268.681	222.56
268.913	235.56
269.145	249.56
269.377	263.56
269.609	231.56
269.841	247.56
270.073	241.56
270.306	261.56
270.538	278.56
270.77	291.56
271.002	273.56
271.234	284.56
271.466	285.56
271.698	289.56
271.93	284.56
272.162	287.56
272.394	295.56
272.626	262.56
272.858	262.56
273.09	259.56
273.322	272.56
273.553	255.56
273.785	250.56
274.017	256.56
274.249	251.56
274.481	261.56
274.713	261.56
274.945	271.56
275.176	259.56
275.408	255.56
275.64	261.56
275.872	269.56
276.104	273.56
276.335	256.56
276.567	255.56
276.799	252.56
277.031	270.56
277.262	271.56
277.494	295.56
277.726	280.56
277.957	284.56
278.189	275.56
278.421	266.56
278.652	255.56
278.884	261.56
279.115	275.56
279.347	287.56
279.579	259.56
279.81	268.56
280.042	270.56
280.273	283.56
280.505	278.56
280.736	282.56
280.968	291.56
281.199	273.56
281.431	279.56
281.662	278.56
281.894	283.56
282.125	285.56
282.356	297.56
282.588	300.56
282.819	305.56
283.051	272.56
283.282	261.56
283.513	281.56
283.745	276.56
283.976	282.56
284.207	313.56
284.439	279.56
284.67	287.56
284.901	284.56
285.132	283.56
285.364	278.56
285.595	292.56
285.826	279.56
286.057	286.56
286.288	279.56
286.52	288.56
286.751	297.56
286.982	279.56
287.213	291.56
287.444	300.56
287.675	294.56
287.906	295.56
288.138	320.56
288.369	313.56
288.6	310.56
288.831	309.56
289.062	311.56
289.293	286.56
289.524	293.56
289.755	301.56
289.986	286.56
290.217	304.56
290.448	293.56
290.679	292.56
290.91	310.56
291.141	298.56
291.371	311.56
291.602	298.56
291.833	299.56
292.064	300.56
292.295	306.56
292.526	302.56
292.757	291.56
292.987	298.56
293.218	282.56
293.449	311.56
293.68	310.56
293.91	312.56
294.141	287.56
294.372	298.56
294.603	293.56
294.833	316.56
295.064	307.56
295.295	301.56
295.525	298.56
295.756	297.56
295.987	304.56
296.217	330.56
296.448	324.56
296.679	293.56
296.909	314.56
297.14	292.56
297.37	317.56
297.601	307.56
297.831	319.56
298.062	314.56
298.292	299.56
298.523	312.56
298.753	300.56
298.984	313.56
299.214	301.56
299.445	320.56
299.675	320.56
299.905	321.56
300.136	315.56
300.366	304.56
300.597	317.56
300.827	319.56
301.057	319.56
301.288	342.56
301.518	326.56
301.748	333.56
301.979	346.56
302.209	324.56
302.439	336.56
302.669	331.56
302.9	337.56
303.13	329.56
303.36	342.56
303.59	362.56
303.82	338.56
304.051	353.56
304.281	339.56
304.511	331.56
304.741	344.56
304.971	320.56
305.201	328.56
305.431	337.56
305.661	343.56
305.891	339.56
306.121	336.56
306.352	348.56
306.582	345.56
306.812	339.56
307.042	344.56
307.272	348.56
307.502	320.56
307.731	337.56
307.961	339.56
308.191	338.56
308.421	313.56
308.651	329.56
308.881	338.56
309.111	347.56
309.341	352.56
309.571	357.56
309.8	326.56
310.03	364.56
310.26	368.56
310.49	359.56
310.72	378.56
310.949	369.56
311.179	398.56
311.409	361.56
311.639	377.56
311.868	379.56
312.098	370.56
312.328	379.56
312.557	381.56
312.787	392.56
313.017	384.56
313.246	377.56
313.476	375.56
313.706	377.56
313.935	383.56
314.165	389.56
314.394	434.56
314.624	397.56
314.853	380.56
315.083	397.56
315.312	375.56
315.542	363.56
315.771	353.56
316.001	375.56
316.23	361.56
316.46	386.56
316.689	401.56
316.919	396.56
317.148	372.56
317.377	391.56
317.607	377.56
317.836	383.56
318.065	381.56
318.295	362.56
318.524	365.56
318.753	380.56
318.983	358.56
319.212	361.56
319.441	387.56
319.67	385.56
319.9	355.56
320.129	387.56
320.358	379.56
320.587	377.56
320.816	375.56
321.046	367.56
321.275	408.56
321.504	380.56
321.733	394.56
321.962	380.56
322.191	385.56
322.42	397.56
322.649	413.56
322.878	397.56
323.108	414.56
323.337	416.56
323.566	447.56
323.795	485.56
324.024	492.56
324.253	578.56
324.482	715.56
324.71	1062.56
324.939	1461.56
325.168	1269.56
325.397	723.56
325.626	529.56
325.855	501.56
326.084	466.56
326.313	476.56
326.542	464.56
326.77	480.56
326.999	546.56
327.228	704.56
327.457	935.56
327.686	1165.56
327.914	804.56
328.143	575.56
328.372	528.56
328.6	501.56
328.829	495.56
329.058	501.56
329.287	509.56
329.515	461.56
329.744	451.56
329.972	455.56
330.201	475.56
330.43	506.56
330.658	516.56
330.887	530.56
331.115	511.56
331.344	463.56
331.572	479.56
331.801	459.56
332.03	466.56
332.258	459.56
332.486	453.56
332.715	460.56
332.943	449.56
333.172	457.56
333.4	467.56
333.629	487.56
333.857	483.56
334.085	505.56
334.314	512.56
334.542	490.56
334.771	514.56
334.999	503.56
335.227	499.56
335.455	455.56
335.684	477.56
335.912	458.56
336.14	457.56
336.369	457.56
336.597	468.56
336.825	455.56
337.053	472.56
337.281	420.56
337.51	443.56
337.738	471.56
337.966	438.56
338.194	454.56
338.422	435.56
338.65	431.56
338.878	441.56
339.106	433.56
339.334	432.56
339.562	426.56
339.79	417.56
340.018	421.56
340.246	412.56
340.474	448.56
340.702	437.56
340.93	426.56
341.158	425.56
341.386	420.56
341.614	413.56
341.842	419.56
342.07	433.56
342.298	408.56
342.526	423.56
342.754	418.56
342.981	426.56
343.209	431.56
343.437	428.56
343.665	450.56
343.893	447.56
344.12	456.56
344.348	457.56
344.576	446.56
344.804	442.56
345.031	441.56
345.259	449.56
345.487	459.56
345.714	417.56
345.942	431.56
346.17	418.56
346.397	415.56
346.625	412.56
346.853	419.56
347.08	411.56
347.308	416.56
347.535	395.56
347.763	419.56
347.99	416.56
348.218	409.56
348.445	409.56
348.673	404.56
348.9	431.56
349.128	404.56
349.355	402.56
349.583	400.56
349.81	388.56
350.037	411.56
350.265	403.56
350.492	412.56
350.72	412.56
350.947	411.56
351.174	400.56
351.402	400.56
351.629	403.56
351.856	395.56
352.083	416.56
352.311	410.56
352.538	396.56
352.765	416.56
352.992	404.56
353.22	406.56
353.447	393.56
353.674	395.56
353.901	397.56
354.128	380.56
354.355	409.56
354.583	383.56
354.81	389.56
355.037	399.56
355.264	404.56
355.491	414.56
355.718	375.56
355.945	400.56
356.172	396.56
356.399	412.56
356.626	395.56
356.853	389.56
357.08	397.56
357.307	404.56
357.534	392.56
357.761	383.56
357.988	407.56
358.215	412.56
358.441	376.56
358.668	393.56
358.895	411.56
359.122	395.56
359.349	385.56
359.576	402.56
359.802	427.56
360.029	433.56
360.256	430.56
360.483	459.56
360.709	397.56
360.936	406.56
361.163	417.56
361.39	408.56
361.616	417.56
361.843	419.56
362.07	386.56
362.296	406.56
362.523	408.56
362.749	387.56
362.976	395.56
363.203	391.56
363.429	391.56
363.656	402.56
363.882	387.56
364.109	389.56
364.335	385.56
364.562	400.56
364.788	383.56
365.015	372.56
365.241	401.56
365.468	408.56
365.694	407.56
365.92	391.56
366.147	394.56
366.373	395.56
366.599	395.56
366.826	395.56
367.052	394.56
367.278	408.56
367.505	385.56
367.731	399.56
367.957	393.56
368.184	398.56
368.41	410.56
368.636	388.56
368.862	414.56
369.089	393.56
369.315	378.56
369.541	392.56
369.767	417.56
369.993	391.56
370.219	404.56
370.445	395.56
370.672	405.56
370.898	408.56
371.124	416.56
371.35	418.56
371.576	404.56
371.802	396.56
372.028	394.56
372.254	405.56
372.48	424.56
372.706	428.56
372.932	410.56
373.158	426.56
373.384	415.56
373.61	417.56
373.835	410.56
374.061	388.56
374.287	380.56
374.513	412.56
374.739	436.56
374.965	427.56
375.191	425.56
375.416	434.56
375.642	422.56
375.868	435.56
376.094	435.56
376.319	409.56
376.545	411.56
376.771	401.56
376.997	415.56
377.222	407.56
377.448	424.56
377.674	415.56
377.899	394.56
378.125	392.56
378.35	385.56
378.576	430.56
378.802	416.56
379.027	399.56
379.253	413.56
379.478	411.56
379.704	407.56
379.929	391.56
380.155	432.56
380.38	407.56
380.606	397.56
380.831	394.56
381.057	428.56
381.282	401.56
381.507	394.56
381.733	419.56
381.958	420.56
382.184	408.56
382.409	392.56
382.634	420.56
382.86	430.56
383.085	421.56
383.31	422.56
383.535	433.56
383.761	423.56
383.986	442.56
384.211	435.56
384.436	444.56
384.662	465.56
384.887	428.56
385.112	462.56
385.337	470.56
385.562	456.56
385.787	469.56
386.013	459.56
386.238	464.56
386.463	449.56
386.688	458.56
386.913	453.56
387.138	451.56
387.363	450.56
387.588	452.56
387.813	463.56
388.038	453.56
388.263	448.56
388.488	452.56
388.713	456.56
388.938	454.56
389.163	454.56
389.387	450.56
389.612	458.56
389.837	448.56
390.062	450.56
390.287	466.56
390.512	449.56
390.736	462.56
390.961	471.56
391.186	463.56
391.411	460.56
391.636	451.56
391.86	479.56
392.085	483.56
392.31	496.56
392.534	497.56
392.759	481.56
392.984	475.56
393.208	463.56
393.433	496.56
393.658	486.56
393.882	462.56
394.107	458.56
394.331	468.56
394.556	459.56
394.78	476.56
395.005	486.56
395.229	498.56
395.454	500.56
395.678	479.56
395.903	505.56
396.127	502.56
396.352	509.56
396.576	494.56
396.801	509.56
397.025	497.56
397.249	485.56
397.474	494.56
397.698	490.56
397.922	515.56
398.147	522.56
398.371	520.56
398.595	514.56
398.82	544.56
399.044	555.56
399.268	590.56
399.492	633.56
399.717	658.56
399.941	703.56
400.165	689.56
400.389	665.56
400.613	599.56
400.837	572.56
401.062	561.56
401.286	545.56
401.51	549.56
401.734	537.56
401.958	562.56
402.182	542.56
402.406	545.56
402.63	568.56
402.854	571.56
403.078	570.56
403.302	577.56
403.526	570.56
403.75	559.56
403.974	561.56
404.198	564.56
404.422	601.56
404.645	599.56
404.869	583.56
405.093	610.56
405.317	634.56
405.541	665.56
405.765	613.56
405.988	608.56
406.212	586.56
406.436	619.56
406.66	625.56
406.883	609.56
407.107	647.56
407.331	634.56
407.555	729.56
407.778	711.56
408.002	665.56
408.226	613.56
408.449	626.56
408.673	617.56
408.896	633.56
409.12	666.56
409.344	616.56
409.567	571.56
409.791	575.56
410.014	572.56
410.238	591.56
410.461	576.56
410.685	585.56
410.908	595.56
411.132	590.56
411.355	621.56
411.578	597.56
411.802	583.56
412.025	585.56
412.249	580.56
412.472	593.56
412.695	617.56
412.919	605.56
413.142	575.56
413.365	547.56
413.589	559.56
413.812	525.56
414.035	539.56
414.258	531.56
414.482	518.56
414.705	537.56
414.928	534.56
415.151	555.56
415.374	508.56
415.597	522.56
415.821	527.56
416.044	545.56
416.267	528.56
416.49	539.56
416.713	531.56
416.936	540.56
417.159	534.56
417.382	544.56
417.605	518.56
417.828	546.56
418.051	549.56
418.274	553.56
418.497	537.56
418.72	538.56
418.943	543.56
419.166	549.56
419.389	582.56
419.611	573.56
419.834	559.56
420.057	552.56
420.28	541.56
420.503	550.56
420.726	552.56
420.948	562.56
421.171	594.56
421.394	603.56
421.617	569.56
421.839	550.56
422.062	525.56
422.285	543.56
422.507	599.56
422.73	666.56
422.953	622.56
423.175	585.56
423.398	585.56
423.621	576.56
423.843	588.56
424.066	584.56
424.288	601.56
424.511	583.56
424.733	616.56
424.956	677.56
425.178	653.56
425.401	675.56
425.623	701.56
425.846	613.56
426.068	556.56
426.291	565.56
426.513	561.56
426.735	563.56
426.958	593.56
427.18	675.56
427.402	753.56
427.625	799.56
427.847	707.56
428.069	615.56
428.292	581.56
428.514	559.56
428.736	531.56
428.958	517.56
429.181	519.56
429.403	514.56
429.625	522.56
429.847	562.56
430.069	617.56
430.292	594.56
430.514	533.56
430.736	512.56
430.958	500.56
431.18	498.56
431.402	490.56
431.624	488.56
431.846	501.56
432.068	504.56
432.29	515.56
432.512	515.56
432.734	505.56
432.956	490.56
433.178	515.56
433.4	519.56
433.622	517.56
433.844	501.56
434.066	496.56
434.287	515.56
434.509	521.56
434.731	506.56
434.953	545.56
435.175	562.56
435.397	580.56
435.618	537.56
435.84	581.56
436.062	655.56
436.284	713.56
436.505	619.56
436.727	552.56
436.949	541.56
437.17	538.56
437.392	523.56
437.614	540.56
437.835	549.56
438.057	617.56
438.278	677.56
438.5	682.56
438.721	743.56
438.943	704.56
439.165	605.56
439.386	559.56
439.608	581.56
439.829	539.56
440.05	573.56
440.272	595.56
440.493	573.56
440.715	545.56
440.936	516.56
441.158	520.56
441.379	512.56
441.6	546.56
441.822	570.56
442.043	587.56
442.264	643.56
442.486	697.56
442.707	594.56
442.928	582.56
443.149	577.56
443.371	568.56
443.592	592.56
443.813	708.56
444.034	727.56
444.255	635.56
444.476	605.56
444.698	604.56
444.919	603.56
445.14	713.56
445.361	661.56
445.582	619.56
445.803	613.56
446.024	708.56
446.245	716.56
446.466	659.56
446.687	586.56
446.908	546.56
447.129	536.56
447.35	517.56
447.571	519.56
447.792	516.56
448.013	507.56
448.234	517.56
448.455	555.56
448.675	642.56
448.896	730.56
449.117	621.56
449.338	611.56
449.559	694.56
449.779	751.56
450	631.56
450.221	556.56
450.442	484.56
450.662	503.56
450.883	515.56
451.104	496.56
451.324	493.56
451.545	489.56
451.766	489.56
451.986	477.56
452.207	473.56
452.428	437.56
452.648	463.56
452.869	452.56
453.089	456.56
453.31	476.56
453.53	449.56
453.751	460.56
453.971	457.56
454.192	471.56
454.412	452.56
454.633	462.56
454.853	444.56
455.073	459.56
455.294	489.56
455.514	529.56
455.734	530.56
455.955	449.56
456.175	440.56
456.395	420.56
456.616	453.56
456.836	468.56
457.056	443.56
457.276	419.56
457.497	442.56
457.717	443.56
457.937	448.56
458.157	461.56
458.377	449.56
458.598	485.56
458.818	492.56
459.038	543.56
459.258	580.56
459.478	532.56
459.698	508.56
459.918	511.56
460.138	533.56
460.358	521.56
460.578	531.56
460.798	538.56
461.018	529.56
461.238	554.56
461.458	539.56
461.678	549.56
461.898	556.56
462.118	567.56
462.338	587.56
462.558	572.56
462.777	570.56
462.997	600.56
463.217	629.56
463.437	643.56
463.657	610.56
463.876	587.56
464.096	600.56
464.316	581.56
464.536	589.56
464.755	566.56
464.975	582.56
465.195	594.56
465.414	618.56
465.634	549.56
465.854	514.56
466.073	481.56
466.293	502.56
466.512	469.56
466.732	491.56
466.951	497.56
467.171	467.56
467.391	480.56
467.61	495.56
467.829	503.56
468.049	472.56
468.268	486.56
468.488	469.56
468.707	481.56
468.927	474.56
469.146	479.56
469.365	487.56
469.585	464.56
469.804	491.56
470.023	480.56
470.243	475.56
470.462	506.56
470.681	495.56
470.901	520.56
471.12	487.56
471.339	472.56
471.558	503.56
471.777	489.56
471.997	491.56
472.216	479.56
472.435	496.56
472.654	502.56
472.873	466.56
473.092	482.56
473.311	472.56
473.53	492.56
473.749	481.56
473.968	514.56
474.187	560.56
474.406	604.56
474.625	517.56
474.844	527.56
475.063	491.56
475.282	471.56
475.501	497.56
475.72	496.56
475.939	490.56
476.158	481.56
476.377	504.56
476.596	481.56
476.814	486.56
477.033	511.56
477.252	512.56
477.471	506.56
477.69	521.56
477.908	538.56
478.127	543.56
478.346	534.56
478.564	559.56
478.783	562.56
479.002	543.56
479.22	567.56
479.439	586.56
479.658	590.56
479.876	602.56
480.095	593.56
480.313	614.56
480.532	607.56
480.751	608.56
480.969	614.56
481.188	627.56
481.406	637.56
481.624	587.56
481.843	589.56
482.061	572.56
482.28	560.56
482.498	549.56
482.717	556.56
482.935	566.56
483.153	539.56
483.372	569.56
483.59	559.56
483.808	568.56
484.027	548.56
484.245	559.56
484.463	548.56
484.681	578.56
484.9	568.56
485.118	584.56
485.336	565.56
485.554	584.56
485.772	592.56
485.99	589.56
486.209	586.56
486.427	556.56
486.645	605.56
486.863	608.56
487.081	601.56
487.299	613.56
487.517	611.56
487.735	589.56
487.953	579.56
488.171	603.56
488.389	601.56
488.607	580.56
488.825	599.56
489.043	585.56
489.261	587.56
489.479	618.56
489.696	586.56
489.914	609.56
490.132	610.56
490.35	617.56
490.568	645.56
490.786	605.56
491.003	626.56
491.221	638.56
491.439	650.56
491.657	633.56
491.874	634.56
492.092	666.56
492.31	665.56
492.527	676.56
492.745	659.56
492.963	684.56
493.18	667.56
493.398	668.56
493.615	691.56
493.833	663.56
494.05	675.56
494.268	677.56
494.485	670.56
494.703	687.56
494.92	680.56
495.138	690.56
495.355	657.56
495.573	704.56
495.79	690.56
496.008	712.56
496.225	703.56
496.442	677.56
496.66	709.56
496.877	696.56
497.094	710.56
497.312	715.56
497.529	711.56
497.746	723.56
497.963	767.56
498.181	771.56
498.398	779.56
498.615	812.56
498.832	823.56
499.049	894.56
499.267	903.56
499.484	955.56
499.701	988.56
499.918	1051.56
500.135	1124.56
500.352	1213.56
500.569	1243.56
500.786	1230.56
501.003	1217.56
501.22	1124.56
501.437	1086.56
501.654	1028.56
501.871	966.56
