Data from 1962.PennyLincolnUp.Lamp.En5.5.200Scan.071719.P1._HRD10591_13-52-47-059.txt Node
Date: Thu Jul 18 13:52:47 EDT 2019
User: cochatt
Spectrometer: HR+D1059
Trigger mode: 1
Integration Time (sec): 1.000000E-1
Scans to average: 1
Electric dark correction enabled: true
Nonlinearity correction enabled: false
Boxcar width: 0
XAxis mode: Wavelengths
Number of Pixels in Spectrum: 2048
>>>>>Begin Spectral Data<<<<<
223.165	-7.06
223.4	-7.06
223.635	-7.06
223.869	-5.06
224.104	-15.06
224.338	-5.06
224.573	-18.06
224.808	-10.06
225.042	-22.06
225.277	-18.06
225.511	-9.06
225.746	8.94
225.98	15.94
226.215	4.94
226.449	18.94
226.683	16.94
226.918	13.94
227.152	29.94
227.387	21.94
227.621	33.94
227.856	39.94
228.09	41.94
228.324	47.94
228.559	60.94
228.793	67.94
229.027	93.94
229.262	95.94
229.496	89.94
229.73	94.94
229.964	104.94
230.199	113.94
230.433	89.94
230.667	99.94
230.901	96.94
231.136	98.94
231.37	114.94
231.604	120.94
231.838	108.94
232.072	97.94
232.306	108.94
232.541	110.94
232.775	88.94
233.009	104.94
233.243	117.94
233.477	126.94
233.711	100.94
233.945	105.94
234.179	101.94
234.413	110.94
234.647	105.94
234.881	108.94
235.115	101.94
235.349	112.94
235.583	105.94
235.817	108.94
236.051	111.94
236.285	105.94
236.519	113.94
236.753	112.94
236.987	117.94
237.221	128.94
237.455	158.94
237.689	153.94
237.922	127.94
238.156	102.94
238.39	97.94
238.624	99.94
238.858	115.94
239.091	101.94
239.325	120.94
239.559	108.94
239.793	122.94
240.027	110.94
240.26	122.94
240.494	128.94
240.728	136.94
240.961	128.94
241.195	130.94
241.429	109.94
241.662	117.94
241.896	129.94
242.13	121.94
242.363	121.94
242.597	117.94
242.83	125.94
243.064	115.94
243.298	124.94
243.531	136.94
243.765	130.94
243.998	118.94
244.232	129.94
244.465	134.94
244.699	124.94
244.932	130.94
245.166	134.94
245.399	135.94
245.633	127.94
245.866	149.94
246.099	123.94
246.333	142.94
246.566	138.94
246.8	132.94
247.033	138.94
247.266	142.94
247.5	145.94
247.733	138.94
247.966	134.94
248.2	152.94
248.433	163.94
248.666	163.94
248.899	162.94
249.133	160.94
249.366	158.94
249.599	169.94
249.832	172.94
250.066	161.94
250.299	156.94
250.532	152.94
250.765	167.94
250.998	154.94
251.231	168.94
251.465	168.94
251.698	182.94
251.931	168.94
252.164	163.94
252.397	158.94
252.63	180.94
252.863	161.94
253.096	169.94
253.329	180.94
253.562	172.94
253.795	170.94
254.028	169.94
254.261	185.94
254.494	165.94
254.727	186.94
254.96	204.94
255.193	206.94
255.426	192.94
255.659	219.94
255.892	199.94
256.124	184.94
256.357	172.94
256.59	175.94
256.823	194.94
257.056	190.94
257.289	184.94
257.521	192.94
257.754	192.94
257.987	176.94
258.22	176.94
258.452	173.94
258.685	166.94
258.918	177.94
259.151	189.94
259.383	175.94
259.616	197.94
259.849	188.94
260.081	202.94
260.314	174.94
260.547	210.94
260.779	174.94
261.012	210.94
261.244	193.94
261.477	188.94
261.71	182.94
261.942	193.94
262.175	180.94
262.407	191.94
262.64	182.94
262.872	192.94
263.105	184.94
263.337	196.94
263.57	176.94
263.802	180.94
264.035	168.94
264.267	184.94
264.499	194.94
264.732	185.94
264.964	192.94
265.197	181.94
265.429	183.94
265.661	185.94
265.894	205.94
266.126	201.94
266.358	199.94
266.591	194.94
266.823	202.94
267.055	198.94
267.287	204.94
267.52	198.94
267.752	211.94
267.984	211.94
268.216	201.94
268.448	200.94
268.681	227.94
268.913	209.94
269.145	217.94
269.377	240.94
269.609	228.94
269.841	223.94
270.073	235.94
270.306	220.94
270.538	262.94
270.77	254.94
271.002	241.94
271.234	240.94
271.466	256.94
271.698	232.94
271.93	248.94
272.162	241.94
272.394	264.94
272.626	259.94
272.858	252.94
273.09	244.94
273.322	244.94
273.553	222.94
273.785	231.94
274.017	238.94
274.249	223.94
274.481	248.94
274.713	244.94
274.945	243.94
275.176	230.94
275.408	222.94
275.64	245.94
275.872	224.94
276.104	224.94
276.335	250.94
276.567	229.94
276.799	250.94
277.031	271.94
277.262	254.94
277.494	256.94
277.726	262.94
277.957	252.94
278.189	262.94
278.421	233.94
278.652	228.94
278.884	240.94
279.115	236.94
279.347	242.94
279.579	247.94
279.81	260.94
280.042	244.94
280.273	252.94
280.505	241.94
280.736	261.94
280.968	249.94
281.199	230.94
281.431	225.94
281.662	261.94
281.894	253.94
282.125	243.94
282.356	253.94
282.588	263.94
282.819	263.94
283.051	256.94
283.282	257.94
283.513	262.94
283.745	272.94
283.976	269.94
284.207	264.94
284.439	258.94
284.67	263.94
284.901	269.94
285.132	239.94
285.364	255.94
285.595	252.94
285.826	259.94
286.057	257.94
286.288	264.94
286.52	258.94
286.751	270.94
286.982	275.94
287.213	282.94
287.444	264.94
287.675	273.94
287.906	257.94
288.138	287.94
288.369	290.94
288.6	271.94
288.831	273.94
289.062	284.94
289.293	278.94
289.524	275.94
289.755	278.94
289.986	276.94
290.217	275.94
290.448	269.94
290.679	278.94
290.91	272.94
291.141	278.94
291.371	259.94
291.602	280.94
291.833	270.94
292.064	267.94
292.295	270.94
292.526	269.94
292.757	279.94
292.987	281.94
293.218	283.94
293.449	282.94
293.68	272.94
293.91	267.94
294.141	291.94
294.372	285.94
294.603	282.94
294.833	282.94
295.064	296.94
295.295	306.94
295.525	293.94
295.756	294.94
295.987	277.94
296.217	288.94
296.448	276.94
296.679	289.94
296.909	283.94
297.14	277.94
297.37	298.94
297.601	294.94
297.831	284.94
298.062	287.94
298.292	300.94
298.523	290.94
298.753	292.94
298.984	288.94
299.214	295.94
299.445	298.94
299.675	293.94
299.905	274.94
300.136	295.94
300.366	321.94
300.597	312.94
300.827	320.94
301.057	316.94
301.288	332.94
301.518	310.94
301.748	308.94
301.979	296.94
302.209	330.94
302.439	320.94
302.669	337.94
302.9	320.94
303.13	320.94
303.36	330.94
303.59	313.94
303.82	321.94
304.051	312.94
304.281	310.94
304.511	319.94
304.741	319.94
304.971	313.94
305.201	310.94
305.431	319.94
305.661	307.94
305.891	318.94
306.121	325.94
306.352	315.94
306.582	321.94
306.812	288.94
307.042	318.94
307.272	297.94
307.502	308.94
307.731	324.94
307.961	308.94
308.191	296.94
308.421	306.94
308.651	315.94
308.881	292.94
309.111	324.94
309.341	314.94
309.571	329.94
309.8	310.94
310.03	329.94
310.26	336.94
310.49	329.94
310.72	331.94
310.949	328.94
311.179	337.94
311.409	322.94
311.639	338.94
311.868	333.94
312.098	336.94
312.328	340.94
312.557	340.94
312.787	345.94
313.017	339.94
313.246	320.94
313.476	345.94
313.706	328.94
313.935	333.94
314.165	314.94
314.394	351.94
314.624	358.94
314.853	357.94
315.083	347.94
315.312	359.94
315.542	324.94
315.771	344.94
316.001	325.94
316.23	352.94
316.46	349.94
316.689	350.94
316.919	342.94
317.148	345.94
317.377	353.94
317.607	337.94
317.836	333.94
318.065	343.94
318.295	327.94
318.524	338.94
318.753	326.94
318.983	351.94
319.212	337.94
319.441	351.94
319.67	352.94
319.9	333.94
320.129	359.94
320.358	335.94
320.587	354.94
320.816	350.94
321.046	356.94
321.275	360.94
321.504	343.94
321.733	354.94
321.962	343.94
322.191	352.94
322.42	367.94
322.649	357.94
322.878	360.94
323.108	372.94
323.337	385.94
323.566	388.94
323.795	392.94
324.024	403.94
324.253	457.94
324.482	550.94
324.71	788.94
324.939	1034.94
325.168	929.94
325.397	562.94
325.626	461.94
325.855	412.94
326.084	393.94
326.313	389.94
326.542	420.94
326.77	424.94
326.999	425.94
327.228	523.94
327.457	704.94
327.686	820.94
327.914	626.94
328.143	462.94
328.372	425.94
328.6	425.94
328.829	398.94
329.058	408.94
329.287	392.94
329.515	415.94
329.744	402.94
329.972	401.94
330.201	393.94
330.43	421.94
330.658	422.94
330.887	432.94
331.115	435.94
331.344	414.94
331.572	384.94
331.801	388.94
332.03	400.94
332.258	406.94
332.486	425.94
332.715	434.94
332.943	428.94
333.172	404.94
333.4	429.94
333.629	433.94
333.857	453.94
334.085	441.94
334.314	459.94
334.542	460.94
334.771	456.94
334.999	433.94
335.227	439.94
335.455	426.94
335.684	424.94
335.912	401.94
336.14	400.94
336.369	441.94
336.597	409.94
336.825	404.94
337.053	424.94
337.281	407.94
337.51	411.94
337.738	404.94
337.966	389.94
338.194	411.94
338.422	416.94
338.65	409.94
338.878	391.94
339.106	376.94
339.334	389.94
339.562	392.94
339.79	393.94
340.018	398.94
340.246	388.94
340.474	391.94
340.702	387.94
340.93	393.94
341.158	389.94
341.386	397.94
341.614	389.94
341.842	391.94
342.07	391.94
342.298	380.94
342.526	393.94
342.754	372.94
342.981	387.94
343.209	385.94
343.437	408.94
343.665	407.94
343.893	414.94
344.12	438.94
344.348	452.94
344.576	409.94
344.804	416.94
345.031	413.94
345.259	406.94
345.487	389.94
345.714	396.94
345.942	389.94
346.17	363.94
346.397	394.94
346.625	374.94
346.853	374.94
347.08	375.94
347.308	373.94
347.535	388.94
347.763	375.94
347.99	383.94
348.218	381.94
348.445	375.94
348.673	391.94
348.9	373.94
349.128	378.94
349.355	367.94
349.583	367.94
349.81	376.94
350.037	337.94
350.265	357.94
350.492	352.94
350.72	369.94
350.947	372.94
351.174	382.94
351.402	384.94
351.629	376.94
351.856	377.94
352.083	396.94
352.311	368.94
352.538	378.94
352.765	372.94
352.992	381.94
353.22	382.94
353.447	356.94
353.674	376.94
353.901	374.94
354.128	366.94
354.355	372.94
354.583	351.94
354.81	356.94
355.037	365.94
355.264	362.94
355.491	353.94
355.718	378.94
355.945	366.94
356.172	368.94
356.399	344.94
356.626	372.94
356.853	360.94
357.08	375.94
357.307	370.94
357.534	346.94
357.761	373.94
357.988	364.94
358.215	353.94
358.441	374.94
358.668	368.94
358.895	361.94
359.122	349.94
359.349	352.94
359.576	378.94
359.802	378.94
360.029	378.94
360.256	395.94
360.483	384.94
360.709	376.94
360.936	380.94
361.163	382.94
361.39	364.94
361.616	360.94
361.843	374.94
362.07	353.94
362.296	368.94
362.523	367.94
362.749	366.94
362.976	378.94
363.203	369.94
363.429	372.94
363.656	376.94
363.882	395.94
364.109	366.94
364.335	365.94
364.562	366.94
364.788	360.94
365.015	343.94
365.241	356.94
365.468	353.94
365.694	368.94
365.92	372.94
366.147	356.94
366.373	353.94
366.599	386.94
366.826	371.94
367.052	357.94
367.278	364.94
367.505	350.94
367.731	395.94
367.957	366.94
368.184	357.94
368.41	370.94
368.636	368.94
368.862	375.94
369.089	377.94
369.315	362.94
369.541	369.94
369.767	361.94
369.993	372.94
370.219	362.94
370.445	364.94
370.672	368.94
370.898	382.94
371.124	378.94
371.35	373.94
371.576	390.94
371.802	386.94
372.028	385.94
372.254	377.94
372.48	395.94
372.706	388.94
372.932	380.94
373.158	391.94
373.384	378.94
373.61	394.94
373.835	387.94
374.061	394.94
374.287	355.94
374.513	379.94
374.739	382.94
374.965	390.94
375.191	386.94
375.416	406.94
375.642	418.94
375.868	407.94
376.094	374.94
376.319	387.94
376.545	370.94
376.771	384.94
376.997	364.94
377.222	377.94
377.448	375.94
377.674	372.94
377.899	370.94
378.125	390.94
378.35	382.94
378.576	372.94
378.802	373.94
379.027	404.94
379.253	369.94
379.478	380.94
379.704	370.94
379.929	373.94
380.155	375.94
380.38	383.94
380.606	401.94
380.831	376.94
381.057	371.94
381.282	401.94
381.507	379.94
381.733	397.94
381.958	392.94
382.184	384.94
382.409	373.94
382.634	394.94
382.86	405.94
383.085	399.94
383.31	393.94
383.535	389.94
383.761	412.94
383.986	411.94
384.211	413.94
384.436	402.94
384.662	420.94
384.887	431.94
385.112	426.94
385.337	454.94
385.562	441.94
385.787	438.94
386.013	440.94
386.238	448.94
386.463	442.94
386.688	454.94
386.913	441.94
387.138	436.94
387.363	444.94
387.588	431.94
387.813	454.94
388.038	439.94
388.263	444.94
388.488	433.94
388.713	436.94
388.938	412.94
389.163	451.94
389.387	433.94
389.612	428.94
389.837	436.94
390.062	442.94
390.287	424.94
390.512	441.94
390.736	448.94
390.961	441.94
391.186	430.94
391.411	424.94
391.636	451.94
391.86	461.94
392.085	467.94
392.31	435.94
392.534	448.94
392.759	453.94
392.984	445.94
393.208	455.94
393.433	440.94
393.658	454.94
393.882	434.94
394.107	425.94
394.331	447.94
394.556	440.94
394.78	457.94
395.005	462.94
395.229	461.94
395.454	469.94
395.678	455.94
395.903	441.94
396.127	456.94
396.352	467.94
396.576	468.94
396.801	475.94
397.025	451.94
397.249	471.94
397.474	492.94
397.698	462.94
397.922	479.94
398.147	504.94
398.371	495.94
398.595	500.94
398.82	513.94
399.044	516.94
399.268	535.94
399.492	584.94
399.717	644.94
399.941	648.94
400.165	656.94
400.389	605.94
400.613	578.94
400.837	546.94
401.062	515.94
401.286	492.94
401.51	514.94
401.734	501.94
401.958	527.94
402.182	504.94
402.406	496.94
402.63	507.94
402.854	519.94
403.078	522.94
403.302	517.94
403.526	547.94
403.75	536.94
403.974	556.94
404.198	527.94
404.422	546.94
404.645	532.94
404.869	556.94
405.093	564.94
405.317	569.94
405.541	597.94
405.765	592.94
405.988	534.94
406.212	546.94
406.436	545.94
406.66	559.94
406.883	533.94
407.107	586.94
407.331	627.94
407.555	654.94
407.778	646.94
408.002	627.94
408.226	572.94
408.449	583.94
408.673	570.94
408.896	609.94
409.12	597.94
409.344	587.94
409.567	561.94
409.791	535.94
410.014	553.94
410.238	533.94
410.461	527.94
410.685	523.94
410.908	549.94
411.132	561.94
411.355	569.94
411.578	534.94
411.802	519.94
412.025	495.94
412.249	533.94
412.472	519.94
412.695	517.94
412.919	538.94
413.142	526.94
413.365	510.94
413.589	505.94
413.812	517.94
414.035	504.94
414.258	496.94
414.482	495.94
414.705	478.94
414.928	516.94
415.151	487.94
415.374	489.94
415.597	497.94
415.821	486.94
416.044	480.94
416.267	494.94
416.49	503.94
416.713	498.94
416.936	473.94
417.159	483.94
417.382	479.94
417.605	471.94
417.828	471.94
418.051	483.94
418.274	493.94
418.497	490.94
418.72	504.94
418.943	489.94
419.166	501.94
419.389	555.94
419.611	550.94
419.834	532.94
420.057	513.94
420.28	526.94
420.503	500.94
420.726	524.94
420.948	507.94
421.171	534.94
421.394	546.94
421.617	519.94
421.839	505.94
422.062	507.94
422.285	520.94
422.507	557.94
422.73	602.94
422.953	568.94
423.175	520.94
423.398	546.94
423.621	508.94
423.843	525.94
424.066	548.94
424.288	525.94
424.511	533.94
424.733	559.94
424.956	601.94
425.178	591.94
425.401	579.94
425.623	621.94
425.846	536.94
426.068	516.94
426.291	497.94
426.513	514.94
426.735	529.94
426.958	516.94
427.18	546.94
427.402	660.94
427.625	730.94
427.847	613.94
428.069	560.94
428.292	524.94
428.514	488.94
428.736	487.94
428.958	495.94
429.181	474.94
429.403	471.94
429.625	483.94
429.847	489.94
430.069	503.94
430.292	545.94
430.514	472.94
430.736	472.94
430.958	490.94
431.18	476.94
431.402	452.94
431.624	469.94
431.846	452.94
432.068	469.94
432.29	480.94
432.512	463.94
432.734	471.94
432.956	460.94
433.178	458.94
433.4	477.94
433.622	481.94
433.844	476.94
434.066	461.94
434.287	479.94
434.509	466.94
434.731	478.94
434.953	514.94
435.175	503.94
435.397	513.94
435.618	490.94
435.84	527.94
436.062	580.94
436.284	596.94
436.505	559.94
436.727	519.94
436.949	497.94
437.17	472.94
437.392	467.94
437.614	479.94
437.835	480.94
438.057	532.94
438.278	592.94
438.5	596.94
438.721	646.94
438.943	642.94
439.165	532.94
439.386	478.94
439.608	489.94
439.829	510.94
440.05	494.94
440.272	526.94
440.493	523.94
440.715	502.94
440.936	501.94
441.158	482.94
441.379	466.94
441.6	515.94
441.822	498.94
442.043	534.94
442.264	574.94
442.486	579.94
442.707	530.94
442.928	516.94
443.149	526.94
443.371	531.94
443.592	564.94
443.813	606.94
444.034	653.94
444.255	581.94
444.476	552.94
444.698	528.94
444.919	562.94
445.14	687.94
445.361	588.94
445.582	533.94
445.803	541.94
446.024	623.94
446.245	604.94
446.466	580.94
446.687	528.94
446.908	516.94
447.129	470.94
447.35	473.94
447.571	452.94
447.792	449.94
448.013	456.94
448.234	469.94
448.455	484.94
448.675	578.94
448.896	628.94
449.117	558.94
449.338	523.94
449.559	591.94
449.779	641.94
450	535.94
450.221	483.94
450.442	472.94
450.662	466.94
450.883	431.94
451.104	432.94
451.324	453.94
451.545	449.94
451.766	434.94
451.986	421.94
452.207	430.94
452.428	426.94
452.648	436.94
452.869	430.94
453.089	411.94
453.31	434.94
453.53	432.94
453.751	416.94
453.971	414.94
454.192	438.94
454.412	415.94
454.633	412.94
454.853	426.94
455.073	418.94
455.294	424.94
455.514	469.94
455.734	467.94
455.955	414.94
456.175	416.94
456.395	393.94
456.616	402.94
456.836	422.94
457.056	421.94
457.276	403.94
457.497	416.94
457.717	427.94
457.937	408.94
458.157	421.94
458.377	421.94
458.598	431.94
458.818	447.94
459.038	508.94
459.258	506.94
459.478	485.94
459.698	463.94
459.918	476.94
460.138	488.94
460.358	510.94
460.578	506.94
460.798	508.94
461.018	495.94
461.238	512.94
461.458	510.94
461.678	512.94
461.898	520.94
462.118	534.94
462.338	512.94
462.558	540.94
462.777	567.94
462.997	554.94
463.217	581.94
463.437	600.94
463.657	538.94
463.876	534.94
464.096	563.94
464.316	553.94
464.536	561.94
464.755	567.94
464.975	526.94
465.195	513.94
465.414	497.94
465.634	503.94
465.854	501.94
466.073	470.94
466.293	473.94
466.512	468.94
466.732	432.94
466.951	447.94
467.171	440.94
467.391	439.94
467.61	433.94
467.829	428.94
468.049	435.94
468.268	410.94
468.488	440.94
468.707	449.94
468.927	438.94
469.146	438.94
469.365	429.94
469.585	446.94
469.804	441.94
470.023	479.94
470.243	457.94
470.462	436.94
470.681	460.94
470.901	480.94
471.12	469.94
471.339	448.94
471.558	452.94
471.777	437.94
471.997	449.94
472.216	442.94
472.435	447.94
472.654	454.94
472.873	461.94
473.092	435.94
473.311	445.94
473.53	449.94
473.749	433.94
473.968	463.94
474.187	492.94
474.406	495.94
474.625	466.94
474.844	449.94
475.063	451.94
475.282	462.94
475.501	450.94
475.72	445.94
475.939	468.94
476.158	466.94
476.377	432.94
476.596	445.94
476.814	480.94
477.033	463.94
477.252	489.94
477.471	509.94
477.69	488.94
477.908	502.94
478.127	490.94
478.346	509.94
478.564	497.94
478.783	507.94
479.002	542.94
479.22	525.94
479.439	533.94
479.658	561.94
479.876	562.94
480.095	542.94
480.313	567.94
480.532	576.94
480.751	565.94
480.969	580.94
481.188	578.94
481.406	568.94
481.624	532.94
481.843	540.94
482.061	555.94
482.28	544.94
482.498	522.94
482.717	521.94
482.935	545.94
483.153	534.94
483.372	529.94
483.59	510.94
483.808	508.94
484.027	537.94
484.245	532.94
484.463	514.94
484.681	534.94
484.9	536.94
485.118	540.94
485.336	528.94
485.554	553.94
485.772	560.94
485.99	542.94
486.209	554.94
486.427	543.94
486.645	553.94
486.863	594.94
487.081	567.94
487.299	540.94
487.517	552.94
487.735	574.94
487.953	540.94
488.171	563.94
488.389	556.94
488.607	537.94
488.825	544.94
489.043	546.94
489.261	559.94
489.479	548.94
489.696	570.94
489.914	576.94
490.132	556.94
490.35	568.94
490.568	583.94
490.786	572.94
491.003	582.94
491.221	580.94
491.439	598.94
491.657	585.94
491.874	604.94
492.092	588.94
492.31	598.94
492.527	604.94
492.745	617.94
492.963	604.94
493.18	616.94
493.398	593.94
493.615	606.94
493.833	599.94
494.05	607.94
494.268	630.94
494.485	567.94
494.703	607.94
494.92	622.94
495.138	606.94
495.355	634.94
495.573	612.94
495.79	607.94
496.008	635.94
496.225	620.94
496.442	633.94
496.66	649.94
496.877	642.94
497.094	654.94
497.312	644.94
497.529	653.94
497.746	672.94
497.963	689.94
498.181	684.94
498.398	718.94
498.615	737.94
498.832	749.94
499.049	806.94
499.267	839.94
499.484	882.94
499.701	912.94
499.918	978.94
500.135	1044.94
500.352	1143.94
500.569	1171.94
500.786	1119.94
501.003	1109.94
501.22	1078.94
501.437	984.94
501.654	935.94
501.871	885.94
502.088	869.94
