Data from 1962.PennyLincolnUp.Lamp.En5.5.200Scan.071719.P1._HRD10591_13-54-23-061.txt Node
Date: Thu Jul 18 13:54:23 EDT 2019
User: cochatt
Spectrometer: HR+D1059
Trigger mode: 1
Integration Time (sec): 1.000000E-1
Scans to average: 1
Electric dark correction enabled: true
Nonlinearity correction enabled: false
Boxcar width: 0
XAxis mode: Wavelengths
Number of Pixels in Spectrum: 2048
>>>>>Begin Spectral Data<<<<<
223.165	-26.38
223.4	-26.38
223.635	-26.38
223.869	-16.38
224.104	-15.38
224.338	-14.38
224.573	-6.38
224.808	-15.38
225.042	-1.38
225.277	2.62
225.511	7.62
225.746	2.62
225.98	7.62
226.215	2.62
226.449	20.62
226.683	20.62
226.918	7.62
227.152	23.62
227.387	23.62
227.621	48.62
227.856	40.62
228.09	45.62
228.324	51.62
228.559	63.62
228.793	67.62
229.027	75.62
229.262	101.62
229.496	94.62
229.73	105.62
229.964	118.62
230.199	127.62
230.433	104.62
230.667	121.62
230.901	116.62
231.136	90.62
231.37	101.62
231.604	104.62
231.838	102.62
232.072	104.62
232.306	107.62
232.541	127.62
232.775	111.62
233.009	103.62
233.243	119.62
233.477	126.62
233.711	112.62
233.945	106.62
234.179	123.62
234.413	110.62
234.647	122.62
234.881	131.62
235.115	112.62
235.349	122.62
235.583	113.62
235.817	131.62
236.051	113.62
236.285	117.62
236.519	109.62
236.753	143.62
236.987	130.62
237.221	141.62
237.455	195.62
237.689	158.62
237.922	127.62
238.156	119.62
238.39	141.62
238.624	128.62
238.858	103.62
239.091	118.62
239.325	119.62
239.559	113.62
239.793	121.62
240.027	129.62
240.26	134.62
240.494	142.62
240.728	140.62
240.961	140.62
241.195	140.62
241.429	131.62
241.662	121.62
241.896	124.62
242.13	139.62
242.363	120.62
242.597	121.62
242.83	117.62
243.064	136.62
243.298	144.62
243.531	147.62
243.765	146.62
243.998	140.62
244.232	137.62
244.465	144.62
244.699	138.62
244.932	138.62
245.166	145.62
245.399	143.62
245.633	157.62
245.866	144.62
246.099	152.62
246.333	144.62
246.566	140.62
246.8	144.62
247.033	151.62
247.266	142.62
247.5	142.62
247.733	167.62
247.966	150.62
248.2	166.62
248.433	152.62
248.666	152.62
248.899	145.62
249.133	180.62
249.366	179.62
249.599	162.62
249.832	167.62
250.066	164.62
250.299	172.62
250.532	171.62
250.765	179.62
250.998	180.62
251.231	196.62
251.465	187.62
251.698	186.62
251.931	183.62
252.164	185.62
252.397	184.62
252.63	188.62
252.863	195.62
253.096	186.62
253.329	178.62
253.562	205.62
253.795	206.62
254.028	204.62
254.261	182.62
254.494	213.62
254.727	212.62
254.96	247.62
255.193	238.62
255.426	205.62
255.659	206.62
255.892	194.62
256.124	190.62
256.357	210.62
256.59	200.62
256.823	210.62
257.056	212.62
257.289	199.62
257.521	199.62
257.754	171.62
257.987	180.62
258.22	189.62
258.452	188.62
258.685	200.62
258.918	194.62
259.151	191.62
259.383	198.62
259.616	213.62
259.849	199.62
260.081	224.62
260.314	215.62
260.547	212.62
260.779	237.62
261.012	219.62
261.244	217.62
261.477	217.62
261.71	194.62
261.942	202.62
262.175	212.62
262.407	222.62
262.64	224.62
262.872	209.62
263.105	207.62
263.337	199.62
263.57	203.62
263.802	203.62
264.035	193.62
264.267	208.62
264.499	195.62
264.732	205.62
264.964	212.62
265.197	212.62
265.429	211.62
265.661	198.62
265.894	216.62
266.126	215.62
266.358	220.62
266.591	209.62
266.823	218.62
267.055	222.62
267.287	212.62
267.52	232.62
267.752	223.62
267.984	219.62
268.216	218.62
268.448	225.62
268.681	238.62
268.913	242.62
269.145	234.62
269.377	247.62
269.609	253.62
269.841	246.62
270.073	260.62
270.306	274.62
270.538	258.62
270.77	280.62
271.002	262.62
271.234	266.62
271.466	276.62
271.698	285.62
271.93	293.62
272.162	280.62
272.394	291.62
272.626	255.62
272.858	277.62
273.09	253.62
273.322	253.62
273.553	248.62
273.785	255.62
274.017	239.62
274.249	263.62
274.481	249.62
274.713	250.62
274.945	255.62
275.176	257.62
275.408	242.62
275.64	248.62
275.872	262.62
276.104	257.62
276.335	271.62
276.567	273.62
276.799	268.62
277.031	292.62
277.262	290.62
277.494	284.62
277.726	281.62
277.957	274.62
278.189	258.62
278.421	266.62
278.652	277.62
278.884	262.62
279.115	259.62
279.347	246.62
279.579	256.62
279.81	264.62
280.042	279.62
280.273	281.62
280.505	253.62
280.736	271.62
280.968	261.62
281.199	276.62
281.431	284.62
281.662	271.62
281.894	271.62
282.125	275.62
282.356	294.62
282.588	285.62
282.819	297.62
283.051	277.62
283.282	272.62
283.513	280.62
283.745	261.62
283.976	287.62
284.207	270.62
284.439	290.62
284.67	296.62
284.901	296.62
285.132	283.62
285.364	293.62
285.595	290.62
285.826	266.62
286.057	296.62
286.288	273.62
286.52	286.62
286.751	263.62
286.982	298.62
287.213	282.62
287.444	295.62
287.675	307.62
287.906	302.62
288.138	316.62
288.369	304.62
288.6	318.62
288.831	312.62
289.062	294.62
289.293	293.62
289.524	300.62
289.755	306.62
289.986	294.62
290.217	300.62
290.448	323.62
290.679	301.62
290.91	308.62
291.141	274.62
291.371	288.62
291.602	292.62
291.833	297.62
292.064	298.62
292.295	297.62
292.526	294.62
292.757	308.62
292.987	280.62
293.218	292.62
293.449	315.62
293.68	294.62
293.91	292.62
294.141	296.62
294.372	302.62
294.603	303.62
294.833	307.62
295.064	290.62
295.295	300.62
295.525	306.62
295.756	321.62
295.987	319.62
296.217	324.62
296.448	331.62
296.679	316.62
296.909	311.62
297.14	320.62
297.37	310.62
297.601	285.62
297.831	308.62
298.062	314.62
298.292	299.62
298.523	317.62
298.753	323.62
298.984	318.62
299.214	312.62
299.445	310.62
299.675	317.62
299.905	297.62
300.136	301.62
300.366	338.62
300.597	310.62
300.827	314.62
301.057	333.62
301.288	340.62
301.518	331.62
301.748	327.62
301.979	336.62
302.209	337.62
302.439	329.62
302.669	335.62
302.9	340.62
303.13	338.62
303.36	341.62
303.59	331.62
303.82	338.62
304.051	342.62
304.281	345.62
304.511	339.62
304.741	325.62
304.971	335.62
305.201	349.62
305.431	327.62
305.661	330.62
305.891	334.62
306.121	336.62
306.352	357.62
306.582	326.62
306.812	349.62
307.042	348.62
307.272	322.62
307.502	362.62
307.731	354.62
307.961	338.62
308.191	325.62
308.421	334.62
308.651	348.62
308.881	328.62
309.111	326.62
309.341	339.62
309.571	366.62
309.8	359.62
310.03	345.62
310.26	361.62
310.49	359.62
310.72	357.62
310.949	366.62
311.179	369.62
311.409	388.62
311.639	377.62
311.868	364.62
312.098	380.62
312.328	370.62
312.557	372.62
312.787	374.62
313.017	373.62
313.246	373.62
313.476	379.62
313.706	371.62
313.935	376.62
314.165	373.62
314.394	380.62
314.624	387.62
314.853	377.62
315.083	397.62
315.312	390.62
315.542	360.62
315.771	390.62
316.001	356.62
316.23	374.62
316.46	360.62
316.689	382.62
316.919	380.62
317.148	384.62
317.377	377.62
317.607	358.62
317.836	353.62
318.065	364.62
318.295	377.62
318.524	366.62
318.753	370.62
318.983	372.62
319.212	368.62
319.441	360.62
319.67	363.62
319.9	371.62
320.129	378.62
320.358	380.62
320.587	379.62
320.816	379.62
321.046	405.62
321.275	372.62
321.504	388.62
321.733	372.62
321.962	394.62
322.191	416.62
322.42	397.62
322.649	404.62
322.878	408.62
323.108	420.62
323.337	420.62
323.566	426.62
323.795	453.62
324.024	459.62
324.253	554.62
324.482	723.62
324.71	997.62
324.939	1329.62
325.168	1230.62
325.397	694.62
325.626	505.62
325.855	453.62
326.084	438.62
326.313	458.62
326.542	454.62
326.77	467.62
326.999	531.62
327.228	643.62
327.457	933.62
327.686	1098.62
327.914	776.62
328.143	567.62
328.372	516.62
328.6	463.62
328.829	460.62
329.058	483.62
329.287	483.62
329.515	466.62
329.744	448.62
329.972	450.62
330.201	459.62
330.43	473.62
330.658	478.62
330.887	487.62
331.115	488.62
331.344	470.62
331.572	463.62
331.801	460.62
332.03	462.62
332.258	474.62
332.486	442.62
332.715	458.62
332.943	471.62
333.172	459.62
333.4	449.62
333.629	472.62
333.857	489.62
334.085	500.62
334.314	519.62
334.542	503.62
334.771	519.62
334.999	475.62
335.227	466.62
335.455	432.62
335.684	472.62
335.912	467.62
336.14	450.62
336.369	446.62
336.597	448.62
336.825	487.62
337.053	452.62
337.281	454.62
337.51	424.62
337.738	459.62
337.966	437.62
338.194	458.62
338.422	464.62
338.65	449.62
338.878	442.62
339.106	440.62
339.334	437.62
339.562	422.62
339.79	420.62
340.018	422.62
340.246	422.62
340.474	438.62
340.702	440.62
340.93	453.62
341.158	418.62
341.386	422.62
341.614	441.62
341.842	443.62
342.07	422.62
342.298	427.62
342.526	409.62
342.754	407.62
342.981	436.62
343.209	427.62
343.437	429.62
343.665	444.62
343.893	461.62
344.12	455.62
344.348	457.62
344.576	452.62
344.804	463.62
345.031	449.62
345.259	453.62
345.487	429.62
345.714	450.62
345.942	422.62
346.17	430.62
346.397	400.62
346.625	409.62
346.853	408.62
347.08	422.62
347.308	420.62
347.535	415.62
347.763	406.62
347.99	411.62
348.218	414.62
348.445	419.62
348.673	415.62
348.9	401.62
349.128	396.62
349.355	386.62
349.583	415.62
349.81	401.62
350.037	394.62
350.265	409.62
350.492	388.62
350.72	396.62
350.947	388.62
351.174	416.62
351.402	385.62
351.629	390.62
351.856	420.62
352.083	411.62
352.311	407.62
352.538	425.62
352.765	407.62
352.992	400.62
353.22	396.62
353.447	394.62
353.674	388.62
353.901	415.62
354.128	378.62
354.355	389.62
354.583	391.62
354.81	395.62
355.037	401.62
355.264	408.62
355.491	396.62
355.718	377.62
355.945	395.62
356.172	389.62
356.399	382.62
356.626	384.62
356.853	395.62
357.08	401.62
357.307	398.62
357.534	379.62
357.761	397.62
357.988	418.62
358.215	406.62
358.441	386.62
358.668	377.62
358.895	382.62
359.122	422.62
359.349	381.62
359.576	400.62
359.802	406.62
360.029	427.62
360.256	426.62
360.483	446.62
360.709	415.62
360.936	403.62
361.163	401.62
361.39	403.62
361.616	396.62
361.843	391.62
362.07	391.62
362.296	418.62
362.523	406.62
362.749	391.62
362.976	397.62
363.203	400.62
363.429	383.62
363.656	383.62
363.882	387.62
364.109	398.62
364.335	380.62
364.562	398.62
364.788	393.62
365.015	391.62
365.241	403.62
365.468	393.62
365.694	394.62
365.92	395.62
366.147	379.62
366.373	392.62
366.599	382.62
366.826	394.62
367.052	386.62
367.278	388.62
367.505	405.62
367.731	397.62
367.957	379.62
368.184	410.62
368.41	394.62
368.636	398.62
368.862	402.62
369.089	426.62
369.315	408.62
369.541	404.62
369.767	390.62
369.993	399.62
370.219	402.62
370.445	392.62
370.672	404.62
370.898	407.62
371.124	395.62
371.35	408.62
371.576	390.62
371.802	404.62
372.028	403.62
372.254	396.62
372.48	416.62
372.706	402.62
372.932	419.62
373.158	407.62
373.384	408.62
373.61	404.62
373.835	401.62
374.061	418.62
374.287	404.62
374.513	423.62
374.739	424.62
374.965	416.62
375.191	417.62
375.416	429.62
375.642	422.62
375.868	420.62
376.094	400.62
376.319	413.62
376.545	402.62
376.771	401.62
376.997	404.62
377.222	404.62
377.448	391.62
377.674	399.62
377.899	413.62
378.125	416.62
378.35	398.62
378.576	401.62
378.802	412.62
379.027	399.62
379.253	418.62
379.478	388.62
379.704	394.62
379.929	398.62
380.155	406.62
380.38	375.62
380.606	401.62
380.831	388.62
381.057	421.62
381.282	396.62
381.507	399.62
381.733	420.62
381.958	428.62
382.184	429.62
382.409	424.62
382.634	406.62
382.86	406.62
383.085	434.62
383.31	424.62
383.535	418.62
383.761	427.62
383.986	442.62
384.211	429.62
384.436	432.62
384.662	448.62
384.887	462.62
385.112	442.62
385.337	452.62
385.562	443.62
385.787	437.62
386.013	466.62
386.238	460.62
386.463	461.62
386.688	463.62
386.913	446.62
387.138	454.62
387.363	467.62
387.588	452.62
387.813	446.62
388.038	456.62
388.263	460.62
388.488	469.62
388.713	459.62
388.938	469.62
389.163	478.62
389.387	460.62
389.612	463.62
389.837	453.62
390.062	457.62
390.287	455.62
390.512	439.62
390.736	455.62
390.961	456.62
391.186	475.62
391.411	458.62
391.636	476.62
391.86	472.62
392.085	471.62
392.31	498.62
392.534	488.62
392.759	471.62
392.984	480.62
393.208	462.62
393.433	498.62
393.658	491.62
393.882	465.62
394.107	472.62
394.331	459.62
394.556	484.62
394.78	474.62
395.005	469.62
395.229	454.62
395.454	495.62
395.678	514.62
395.903	482.62
396.127	511.62
396.352	526.62
396.576	490.62
396.801	482.62
397.025	493.62
397.249	496.62
397.474	502.62
397.698	502.62
397.922	524.62
398.147	525.62
398.371	550.62
398.595	526.62
398.82	536.62
399.044	564.62
399.268	591.62
399.492	627.62
399.717	674.62
399.941	690.62
400.165	671.62
400.389	672.62
400.613	627.62
400.837	575.62
401.062	553.62
401.286	559.62
401.51	546.62
401.734	536.62
401.958	544.62
402.182	544.62
402.406	545.62
402.63	564.62
402.854	557.62
403.078	564.62
403.302	574.62
403.526	566.62
403.75	557.62
403.974	570.62
404.198	568.62
404.422	602.62
404.645	599.62
404.869	578.62
405.093	609.62
405.317	628.62
405.541	652.62
405.765	598.62
405.988	602.62
406.212	592.62
406.436	622.62
406.66	629.62
406.883	595.62
407.107	651.62
407.331	693.62
407.555	730.62
407.778	703.62
408.002	685.62
408.226	628.62
408.449	626.62
408.673	589.62
408.896	620.62
409.12	662.62
409.344	650.62
409.567	590.62
409.791	552.62
410.014	572.62
410.238	574.62
410.461	576.62
410.685	571.62
410.908	588.62
411.132	619.62
411.355	606.62
411.578	598.62
411.802	581.62
412.025	571.62
412.249	581.62
412.472	596.62
412.695	599.62
412.919	585.62
413.142	550.62
413.365	556.62
413.589	536.62
413.812	551.62
414.035	521.62
414.258	517.62
414.482	548.62
414.705	543.62
414.928	552.62
415.151	523.62
415.374	534.62
415.597	536.62
415.821	515.62
416.044	519.62
416.267	535.62
416.49	537.62
416.713	526.62
416.936	546.62
417.159	504.62
417.382	517.62
417.605	539.62
417.828	529.62
418.051	549.62
418.274	517.62
418.497	525.62
418.72	534.62
418.943	524.62
419.166	547.62
419.389	588.62
419.611	575.62
419.834	547.62
420.057	559.62
420.28	549.62
420.503	540.62
420.726	555.62
420.948	542.62
421.171	590.62
421.394	602.62
421.617	556.62
421.839	536.62
422.062	540.62
422.285	534.62
422.507	602.62
422.73	638.62
422.953	620.62
423.175	580.62
423.398	590.62
423.621	570.62
423.843	582.62
424.066	587.62
424.288	575.62
424.511	575.62
424.733	639.62
424.956	697.62
425.178	647.62
425.401	656.62
425.623	683.62
425.846	600.62
426.068	571.62
426.291	541.62
426.513	564.62
426.735	555.62
426.958	620.62
427.18	647.62
427.402	756.62
427.625	806.62
427.847	707.62
428.069	619.62
428.292	583.62
428.514	510.62
428.736	556.62
428.958	536.62
429.181	503.62
429.403	520.62
429.625	515.62
429.847	536.62
430.069	570.62
430.292	597.62
430.514	533.62
430.736	499.62
430.958	503.62
431.18	515.62
431.402	495.62
431.624	501.62
431.846	518.62
432.068	509.62
432.29	506.62
432.512	507.62
432.734	503.62
432.956	504.62
433.178	529.62
433.4	500.62
433.622	492.62
433.844	520.62
434.066	495.62
434.287	514.62
434.509	508.62
434.731	567.62
434.953	536.62
435.175	543.62
435.397	573.62
435.618	562.62
435.84	572.62
436.062	652.62
436.284	713.62
436.505	586.62
436.727	528.62
436.949	540.62
437.17	532.62
437.392	543.62
437.614	526.62
437.835	562.62
438.057	591.62
438.278	665.62
438.5	694.62
438.721	739.62
438.943	710.62
439.165	600.62
439.386	556.62
439.608	562.62
439.829	528.62
440.05	581.62
440.272	598.62
440.493	558.62
440.715	528.62
440.936	514.62
441.158	534.62
441.379	524.62
441.6	540.62
441.822	580.62
442.043	558.62
442.264	646.62
442.486	667.62
442.707	603.62
442.928	570.62
443.149	583.62
443.371	566.62
443.592	607.62
443.813	719.62
444.034	750.62
444.255	638.62
444.476	602.62
444.698	602.62
444.919	615.62
445.14	698.62
445.361	629.62
445.582	612.62
445.803	638.62
446.024	690.62
446.245	692.62
446.466	633.62
446.687	560.62
446.908	544.62
447.129	495.62
447.35	546.62
447.571	518.62
447.792	520.62
448.013	513.62
448.234	493.62
448.455	550.62
448.675	646.62
448.896	717.62
449.117	623.62
449.338	591.62
449.559	683.62
449.779	760.62
450	619.62
450.221	516.62
450.442	493.62
450.662	496.62
450.883	475.62
451.104	494.62
451.324	473.62
451.545	479.62
451.766	467.62
451.986	457.62
452.207	478.62
452.428	443.62
452.648	456.62
452.869	462.62
453.089	463.62
453.31	475.62
453.53	458.62
453.751	474.62
453.971	458.62
454.192	462.62
454.412	441.62
454.633	430.62
454.853	449.62
455.073	448.62
455.294	468.62
455.514	511.62
455.734	514.62
455.955	445.62
456.175	440.62
456.395	442.62
456.616	429.62
456.836	444.62
457.056	442.62
457.276	429.62
457.497	428.62
457.717	440.62
457.937	457.62
458.157	463.62
458.377	462.62
458.598	477.62
458.818	498.62
459.038	564.62
459.258	579.62
459.478	519.62
459.698	522.62
459.918	496.62
460.138	524.62
460.358	526.62
460.578	560.62
460.798	534.62
461.018	544.62
461.238	552.62
461.458	541.62
461.678	539.62
461.898	545.62
462.118	546.62
462.338	570.62
462.558	567.62
462.777	576.62
462.997	601.62
463.217	646.62
463.437	624.62
463.657	622.62
463.876	587.62
464.096	595.62
464.316	599.62
464.536	592.62
464.755	597.62
464.975	584.62
465.195	582.62
465.414	581.62
465.634	553.62
465.854	516.62
466.073	512.62
466.293	506.62
466.512	486.62
466.732	496.62
466.951	484.62
467.171	487.62
467.391	496.62
467.61	484.62
467.829	479.62
468.049	486.62
468.268	483.62
468.488	464.62
468.707	484.62
468.927	477.62
469.146	488.62
469.365	459.62
469.585	461.62
469.804	489.62
470.023	480.62
470.243	492.62
470.462	502.62
470.681	501.62
470.901	504.62
471.12	499.62
471.339	486.62
471.558	494.62
471.777	488.62
471.997	480.62
472.216	486.62
472.435	488.62
472.654	495.62
472.873	482.62
473.092	474.62
473.311	470.62
473.53	486.62
473.749	480.62
473.968	522.62
474.187	568.62
474.406	580.62
474.625	539.62
474.844	505.62
475.063	470.62
475.282	483.62
475.501	510.62
475.72	482.62
475.939	478.62
476.158	503.62
476.377	514.62
476.596	512.62
476.814	518.62
477.033	529.62
477.252	519.62
477.471	537.62
477.69	524.62
477.908	532.62
478.127	554.62
478.346	534.62
478.564	570.62
478.783	567.62
479.002	572.62
479.22	562.62
479.439	568.62
479.658	583.62
479.876	582.62
480.095	589.62
480.313	614.62
480.532	601.62
480.751	627.62
480.969	598.62
481.188	613.62
481.406	638.62
481.624	587.62
481.843	588.62
482.061	585.62
482.28	569.62
482.498	566.62
482.717	573.62
482.935	566.62
483.153	539.62
483.372	572.62
483.59	564.62
483.808	571.62
484.027	553.62
484.245	566.62
484.463	579.62
484.681	549.62
484.9	578.62
485.118	567.62
485.336	594.62
485.554	575.62
485.772	589.62
485.99	591.62
486.209	573.62
486.427	579.62
486.645	610.62
486.863	594.62
487.081	600.62
487.299	608.62
487.517	585.62
487.735	583.62
487.953	615.62
488.171	603.62
488.389	585.62
488.607	586.62
488.825	596.62
489.043	606.62
489.261	579.62
489.479	597.62
489.696	604.62
489.914	617.62
490.132	582.62
490.35	607.62
490.568	623.62
490.786	637.62
491.003	630.62
491.221	620.62
491.439	642.62
491.657	653.62
491.874	648.62
492.092	651.62
492.31	670.62
492.527	666.62
492.745	679.62
492.963	662.62
493.18	670.62
493.398	657.62
493.615	686.62
493.833	687.62
494.05	684.62
494.268	667.62
494.485	665.62
494.703	686.62
494.92	663.62
495.138	671.62
495.355	688.62
495.573	702.62
495.79	674.62
496.008	692.62
496.225	667.62
496.442	702.62
496.66	692.62
496.877	700.62
497.094	681.62
497.312	699.62
497.529	725.62
497.746	734.62
497.963	770.62
498.181	748.62
498.398	799.62
498.615	823.62
498.832	846.62
499.049	899.62
499.267	916.62
499.484	929.62
499.701	994.62
499.918	1069.62
500.135	1111.62
500.352	1156.62
500.569	1210.62
500.786	1275.62
501.003	1173.62
501.22	1117.62
501.437	1063.62
501.654	1040.62
501.871	939.62
