Data from 1962.PennyLincolnUp.Lamp.En5.5.200Scan.071719.P1._HRD10591_13-52-50-060.txt Node
Date: Thu Jul 18 13:52:50 EDT 2019
User: cochatt
Spectrometer: HR+D1059
Trigger mode: 1
Integration Time (sec): 1.000000E-1
Scans to average: 1
Electric dark correction enabled: true
Nonlinearity correction enabled: false
Boxcar width: 0
XAxis mode: Wavelengths
Number of Pixels in Spectrum: 2048
>>>>>Begin Spectral Data<<<<<
223.165	-21.94
223.4	-21.94
223.635	-21.94
223.869	-4.94
224.104	-9.94
224.338	-15.94
224.573	-1.94
224.808	-20.94
225.042	-6.94
225.277	-5.94
225.511	-0.94
225.746	4.06
225.98	1.06
226.215	18.06
226.449	1.06
226.683	23.06
226.918	23.06
227.152	19.06
227.387	36.06
227.621	31.06
227.856	43.06
228.09	48.06
228.324	64.06
228.559	59.06
228.793	65.06
229.027	86.06
229.262	94.06
229.496	104.06
229.73	104.06
229.964	84.06
230.199	104.06
230.433	102.06
230.667	112.06
230.901	98.06
231.136	104.06
231.37	92.06
231.604	92.06
231.838	112.06
232.072	105.06
232.306	107.06
232.541	110.06
232.775	91.06
233.009	101.06
233.243	110.06
233.477	89.06
233.711	106.06
233.945	87.06
234.179	104.06
234.413	103.06
234.647	110.06
234.881	112.06
235.115	112.06
235.349	101.06
235.583	124.06
235.817	104.06
236.051	110.06
236.285	98.06
236.519	110.06
236.753	130.06
236.987	112.06
237.221	125.06
237.455	163.06
237.689	146.06
237.922	113.06
238.156	126.06
238.39	98.06
238.624	120.06
238.858	116.06
239.091	124.06
239.325	123.06
239.559	122.06
239.793	114.06
240.027	103.06
240.26	124.06
240.494	115.06
240.728	120.06
240.961	119.06
241.195	101.06
241.429	139.06
241.662	110.06
241.896	120.06
242.13	125.06
242.363	120.06
242.597	134.06
242.83	129.06
243.064	134.06
243.298	116.06
243.531	124.06
243.765	136.06
243.998	130.06
244.232	131.06
244.465	133.06
244.699	138.06
244.932	121.06
245.166	136.06
245.399	131.06
245.633	126.06
245.866	122.06
246.099	124.06
246.333	139.06
246.566	132.06
246.8	131.06
247.033	150.06
247.266	138.06
247.5	123.06
247.733	155.06
247.966	150.06
248.2	151.06
248.433	154.06
248.666	142.06
248.899	159.06
249.133	146.06
249.366	155.06
249.599	163.06
249.832	155.06
250.066	164.06
250.299	162.06
250.532	163.06
250.765	164.06
250.998	172.06
251.231	180.06
251.465	185.06
251.698	168.06
251.931	154.06
252.164	177.06
252.397	158.06
252.63	168.06
252.863	163.06
253.096	174.06
253.329	180.06
253.562	191.06
253.795	185.06
254.028	183.06
254.261	170.06
254.494	196.06
254.727	192.06
254.96	212.06
255.193	203.06
255.426	191.06
255.659	183.06
255.892	180.06
256.124	182.06
256.357	193.06
256.59	198.06
256.823	180.06
257.056	187.06
257.289	176.06
257.521	169.06
257.754	184.06
257.987	186.06
258.22	182.06
258.452	160.06
258.685	179.06
258.918	180.06
259.151	189.06
259.383	183.06
259.616	171.06
259.849	186.06
260.081	182.06
260.314	190.06
260.547	214.06
260.779	200.06
261.012	190.06
261.244	204.06
261.477	180.06
261.71	186.06
261.942	190.06
262.175	187.06
262.407	190.06
262.64	194.06
262.872	179.06
263.105	186.06
263.337	212.06
263.57	191.06
263.802	192.06
264.035	197.06
264.267	210.06
264.499	197.06
264.732	190.06
264.964	198.06
265.197	196.06
265.429	195.06
265.661	202.06
265.894	204.06
266.126	197.06
266.358	194.06
266.591	182.06
266.823	205.06
267.055	221.06
267.287	210.06
267.52	198.06
267.752	201.06
267.984	202.06
268.216	202.06
268.448	224.06
268.681	211.06
268.913	240.06
269.145	215.06
269.377	223.06
269.609	230.06
269.841	236.06
270.073	232.06
270.306	241.06
270.538	248.06
270.77	253.06
271.002	237.06
271.234	244.06
271.466	235.06
271.698	216.06
271.93	249.06
272.162	262.06
272.394	244.06
272.626	249.06
272.858	256.06
273.09	221.06
273.322	229.06
273.553	219.06
273.785	247.06
274.017	227.06
274.249	244.06
274.481	223.06
274.713	242.06
274.945	240.06
275.176	250.06
275.408	245.06
275.64	224.06
275.872	246.06
276.104	244.06
276.335	257.06
276.567	248.06
276.799	246.06
277.031	259.06
277.262	270.06
277.494	270.06
277.726	269.06
277.957	261.06
278.189	248.06
278.421	235.06
278.652	246.06
278.884	256.06
279.115	247.06
279.347	250.06
279.579	251.06
279.81	244.06
280.042	243.06
280.273	250.06
280.505	242.06
280.736	239.06
280.968	250.06
281.199	258.06
281.431	268.06
281.662	241.06
281.894	284.06
282.125	252.06
282.356	271.06
282.588	275.06
282.819	267.06
283.051	256.06
283.282	258.06
283.513	280.06
283.745	283.06
283.976	262.06
284.207	264.06
284.439	252.06
284.67	280.06
284.901	283.06
285.132	282.06
285.364	257.06
285.595	254.06
285.826	269.06
286.057	264.06
286.288	255.06
286.52	295.06
286.751	267.06
286.982	272.06
287.213	264.06
287.444	275.06
287.675	274.06
287.906	276.06
288.138	275.06
288.369	286.06
288.6	279.06
288.831	274.06
289.062	268.06
289.293	283.06
289.524	288.06
289.755	277.06
289.986	263.06
290.217	272.06
290.448	279.06
290.679	278.06
290.91	268.06
291.141	264.06
291.371	294.06
291.602	264.06
291.833	281.06
292.064	274.06
292.295	280.06
292.526	273.06
292.757	278.06
292.987	282.06
293.218	293.06
293.449	295.06
293.68	258.06
293.91	286.06
294.141	272.06
294.372	274.06
294.603	273.06
294.833	279.06
295.064	270.06
295.295	279.06
295.525	287.06
295.756	291.06
295.987	277.06
296.217	315.06
296.448	290.06
296.679	300.06
296.909	290.06
297.14	286.06
297.37	288.06
297.601	299.06
297.831	300.06
298.062	295.06
298.292	288.06
298.523	295.06
298.753	298.06
298.984	283.06
299.214	289.06
299.445	291.06
299.675	290.06
299.905	303.06
300.136	303.06
300.366	303.06
300.597	328.06
300.827	310.06
301.057	298.06
301.288	292.06
301.518	290.06
301.748	328.06
301.979	308.06
302.209	324.06
302.439	324.06
302.669	322.06
302.9	318.06
303.13	328.06
303.36	309.06
303.59	329.06
303.82	316.06
304.051	336.06
304.281	307.06
304.511	311.06
304.741	315.06
304.971	315.06
305.201	315.06
305.431	310.06
305.661	323.06
305.891	294.06
306.121	324.06
306.352	323.06
306.582	329.06
306.812	322.06
307.042	330.06
307.272	314.06
307.502	316.06
307.731	338.06
307.961	323.06
308.191	297.06
308.421	316.06
308.651	333.06
308.881	323.06
309.111	304.06
309.341	315.06
309.571	328.06
309.8	320.06
310.03	323.06
310.26	303.06
310.49	342.06
310.72	323.06
310.949	343.06
311.179	355.06
311.409	321.06
311.639	334.06
311.868	338.06
312.098	328.06
312.328	339.06
312.557	359.06
312.787	355.06
313.017	340.06
313.246	345.06
313.476	328.06
313.706	327.06
313.935	332.06
314.165	361.06
314.394	339.06
314.624	362.06
314.853	337.06
315.083	345.06
315.312	340.06
315.542	350.06
315.771	340.06
316.001	329.06
316.23	357.06
316.46	347.06
316.689	346.06
316.919	348.06
317.148	348.06
317.377	346.06
317.607	358.06
317.836	355.06
318.065	336.06
318.295	338.06
318.524	340.06
318.753	359.06
318.983	340.06
319.212	338.06
319.441	353.06
319.67	339.06
319.9	356.06
320.129	326.06
320.358	350.06
320.587	350.06
320.816	361.06
321.046	349.06
321.275	348.06
321.504	354.06
321.733	363.06
321.962	341.06
322.191	378.06
322.42	369.06
322.649	356.06
322.878	361.06
323.108	365.06
323.337	375.06
323.566	394.06
323.795	386.06
324.024	411.06
324.253	444.06
324.482	559.06
324.71	781.06
324.939	1076.06
325.168	952.06
325.397	574.06
325.626	447.06
325.855	405.06
326.084	406.06
326.313	389.06
326.542	392.06
326.77	418.06
326.999	442.06
327.228	514.06
327.457	722.06
327.686	846.06
327.914	616.06
328.143	470.06
328.372	444.06
328.6	418.06
328.829	434.06
329.058	417.06
329.287	403.06
329.515	430.06
329.744	425.06
329.972	406.06
330.201	416.06
330.43	421.06
330.658	425.06
330.887	443.06
331.115	424.06
331.344	422.06
331.572	416.06
331.801	417.06
332.03	414.06
332.258	399.06
332.486	415.06
332.715	405.06
332.943	435.06
333.172	438.06
333.4	419.06
333.629	445.06
333.857	452.06
334.085	435.06
334.314	433.06
334.542	440.06
334.771	450.06
334.999	466.06
335.227	447.06
335.455	444.06
335.684	428.06
335.912	420.06
336.14	413.06
336.369	421.06
336.597	427.06
336.825	424.06
337.053	406.06
337.281	402.06
337.51	400.06
337.738	391.06
337.966	405.06
338.194	408.06
338.422	415.06
338.65	412.06
338.878	424.06
339.106	383.06
339.334	405.06
339.562	396.06
339.79	400.06
340.018	391.06
340.246	404.06
340.474	378.06
340.702	393.06
340.93	389.06
341.158	386.06
341.386	396.06
341.614	394.06
341.842	393.06
342.07	383.06
342.298	386.06
342.526	386.06
342.754	374.06
342.981	378.06
343.209	394.06
343.437	406.06
343.665	420.06
343.893	426.06
344.12	440.06
344.348	434.06
344.576	423.06
344.804	424.06
345.031	421.06
345.259	399.06
345.487	414.06
345.714	382.06
345.942	381.06
346.17	392.06
346.397	376.06
346.625	352.06
346.853	362.06
347.08	392.06
347.308	380.06
347.535	367.06
347.763	371.06
347.99	377.06
348.218	379.06
348.445	390.06
348.673	372.06
348.9	400.06
349.128	370.06
349.355	378.06
349.583	375.06
349.81	366.06
350.037	381.06
350.265	377.06
350.492	342.06
350.72	366.06
350.947	334.06
351.174	376.06
351.402	378.06
351.629	379.06
351.856	368.06
352.083	347.06
352.311	366.06
352.538	376.06
352.765	378.06
352.992	384.06
353.22	359.06
353.447	356.06
353.674	370.06
353.901	363.06
354.128	368.06
354.355	344.06
354.583	353.06
354.81	351.06
355.037	352.06
355.264	355.06
355.491	368.06
355.718	372.06
355.945	368.06
356.172	378.06
356.399	360.06
356.626	358.06
356.853	379.06
357.08	372.06
357.307	340.06
357.534	379.06
357.761	368.06
357.988	362.06
358.215	367.06
358.441	378.06
358.668	369.06
358.895	388.06
359.122	365.06
359.349	361.06
359.576	369.06
359.802	388.06
360.029	384.06
360.256	380.06
360.483	384.06
360.709	378.06
360.936	397.06
361.163	380.06
361.39	379.06
361.616	380.06
361.843	379.06
362.07	347.06
362.296	382.06
362.523	366.06
362.749	371.06
362.976	378.06
363.203	379.06
363.429	351.06
363.656	364.06
363.882	380.06
364.109	373.06
364.335	356.06
364.562	375.06
364.788	386.06
365.015	360.06
365.241	374.06
365.468	383.06
365.694	363.06
365.92	394.06
366.147	378.06
366.373	376.06
366.599	361.06
366.826	360.06
367.052	361.06
367.278	382.06
367.505	375.06
367.731	368.06
367.957	375.06
368.184	368.06
368.41	382.06
368.636	374.06
368.862	371.06
369.089	379.06
369.315	381.06
369.541	375.06
369.767	381.06
369.993	374.06
370.219	367.06
370.445	362.06
370.672	374.06
370.898	364.06
371.124	380.06
371.35	353.06
371.576	370.06
371.802	384.06
372.028	363.06
372.254	372.06
372.48	376.06
372.706	384.06
372.932	394.06
373.158	387.06
373.384	404.06
373.61	391.06
373.835	366.06
374.061	385.06
374.287	383.06
374.513	380.06
374.739	416.06
374.965	420.06
375.191	391.06
375.416	385.06
375.642	402.06
375.868	399.06
376.094	382.06
376.319	402.06
376.545	382.06
376.771	384.06
376.997	369.06
377.222	359.06
377.448	359.06
377.674	375.06
377.899	370.06
378.125	383.06
378.35	384.06
378.576	385.06
378.802	385.06
379.027	394.06
379.253	372.06
379.478	374.06
379.704	380.06
379.929	382.06
380.155	370.06
380.38	380.06
380.606	377.06
380.831	372.06
381.057	386.06
381.282	383.06
381.507	368.06
381.733	401.06
381.958	392.06
382.184	372.06
382.409	407.06
382.634	400.06
382.86	402.06
383.085	395.06
383.31	407.06
383.535	410.06
383.761	416.06
383.986	404.06
384.211	436.06
384.436	428.06
384.662	427.06
384.887	422.06
385.112	431.06
385.337	443.06
385.562	435.06
385.787	436.06
386.013	441.06
386.238	444.06
386.463	448.06
386.688	457.06
386.913	447.06
387.138	436.06
387.363	436.06
387.588	427.06
387.813	437.06
388.038	425.06
388.263	422.06
388.488	429.06
388.713	438.06
388.938	424.06
389.163	453.06
389.387	436.06
389.612	438.06
389.837	414.06
390.062	427.06
390.287	439.06
390.512	427.06
390.736	433.06
390.961	448.06
391.186	431.06
391.411	448.06
391.636	453.06
391.86	449.06
392.085	455.06
392.31	464.06
392.534	460.06
392.759	469.06
392.984	443.06
393.208	443.06
393.433	454.06
393.658	435.06
393.882	429.06
394.107	449.06
394.331	440.06
394.556	415.06
394.78	424.06
395.005	451.06
395.229	461.06
395.454	466.06
395.678	460.06
395.903	455.06
396.127	471.06
396.352	473.06
396.576	451.06
396.801	461.06
397.025	458.06
397.249	464.06
397.474	477.06
397.698	496.06
397.922	486.06
398.147	470.06
398.371	500.06
398.595	503.06
398.82	510.06
399.044	518.06
399.268	547.06
399.492	592.06
399.717	630.06
399.941	667.06
400.165	646.06
400.389	616.06
400.613	553.06
400.837	544.06
401.062	520.06
401.286	518.06
401.51	508.06
401.734	502.06
401.958	523.06
402.182	528.06
402.406	497.06
402.63	513.06
402.854	515.06
403.078	528.06
403.302	550.06
403.526	535.06
403.75	548.06
403.974	545.06
404.198	538.06
404.422	550.06
404.645	518.06
404.869	542.06
405.093	576.06
405.317	595.06
405.541	623.06
405.765	572.06
405.988	560.06
406.212	571.06
406.436	569.06
406.66	563.06
406.883	549.06
407.107	582.06
407.331	605.06
407.555	666.06
407.778	663.06
408.002	626.06
408.226	575.06
408.449	604.06
408.673	582.06
408.896	600.06
409.12	602.06
409.344	584.06
409.567	547.06
409.791	556.06
410.014	543.06
410.238	548.06
410.461	525.06
410.685	524.06
410.908	569.06
411.132	547.06
411.355	563.06
411.578	554.06
411.802	528.06
412.025	535.06
412.249	509.06
412.472	558.06
412.695	564.06
412.919	566.06
413.142	539.06
413.365	500.06
413.589	518.06
413.812	512.06
414.035	511.06
414.258	502.06
414.482	503.06
414.705	498.06
414.928	498.06
415.151	487.06
415.374	500.06
415.597	495.06
415.821	495.06
416.044	504.06
416.267	487.06
416.49	497.06
416.713	508.06
416.936	503.06
417.159	506.06
417.382	486.06
417.605	503.06
417.828	518.06
418.051	516.06
418.274	496.06
418.497	500.06
418.72	501.06
418.943	482.06
419.166	537.06
419.389	554.06
419.611	539.06
419.834	524.06
420.057	508.06
420.28	520.06
420.503	491.06
420.726	481.06
420.948	515.06
421.171	540.06
421.394	546.06
421.617	491.06
421.839	525.06
422.062	475.06
422.285	512.06
422.507	543.06
422.73	590.06
422.953	594.06
423.175	541.06
423.398	533.06
423.621	545.06
423.843	536.06
424.066	547.06
424.288	521.06
424.511	570.06
424.733	575.06
424.956	608.06
425.178	597.06
425.401	587.06
425.623	607.06
425.846	552.06
426.068	527.06
426.291	528.06
426.513	515.06
426.735	511.06
426.958	541.06
427.18	580.06
427.402	673.06
427.625	730.06
427.847	608.06
428.069	552.06
428.292	542.06
428.514	516.06
428.736	486.06
428.958	496.06
429.181	465.06
429.403	475.06
429.625	484.06
429.847	518.06
430.069	545.06
430.292	533.06
430.514	491.06
430.736	483.06
430.958	460.06
431.18	476.06
431.402	442.06
431.624	477.06
431.846	460.06
432.068	473.06
432.29	476.06
432.512	460.06
432.734	468.06
432.956	474.06
433.178	468.06
433.4	463.06
433.622	474.06
433.844	472.06
434.066	475.06
434.287	472.06
434.509	473.06
434.731	481.06
434.953	497.06
435.175	524.06
435.397	498.06
435.618	489.06
435.84	514.06
436.062	570.06
436.284	622.06
436.505	549.06
436.727	492.06
436.949	494.06
437.17	477.06
437.392	494.06
437.614	477.06
437.835	479.06
438.057	522.06
438.278	610.06
438.5	608.06
438.721	639.06
438.943	634.06
439.165	540.06
439.386	505.06
439.608	519.06
439.829	500.06
440.05	503.06
440.272	528.06
440.493	489.06
440.715	491.06
440.936	511.06
441.158	491.06
441.379	472.06
441.6	504.06
441.822	528.06
442.043	534.06
442.264	570.06
442.486	568.06
442.707	541.06
442.928	514.06
443.149	527.06
443.371	533.06
443.592	570.06
443.813	623.06
444.034	653.06
444.255	591.06
444.476	547.06
444.698	545.06
444.919	552.06
445.14	675.06
445.361	583.06
445.582	552.06
445.803	574.06
446.024	618.06
446.245	598.06
446.466	557.06
446.687	519.06
446.908	518.06
447.129	506.06
447.35	466.06
447.571	473.06
447.792	448.06
448.013	432.06
448.234	478.06
448.455	499.06
448.675	553.06
448.896	633.06
449.117	566.06
449.338	524.06
449.559	586.06
449.779	664.06
450	537.06
450.221	482.06
450.442	459.06
450.662	447.06
450.883	450.06
451.104	459.06
451.324	436.06
451.545	436.06
451.766	439.06
451.986	426.06
452.207	408.06
452.428	439.06
452.648	434.06
452.869	430.06
453.089	428.06
453.31	417.06
453.53	416.06
453.751	414.06
453.971	425.06
454.192	442.06
454.412	412.06
454.633	419.06
454.853	427.06
455.073	420.06
455.294	437.06
455.514	464.06
455.734	449.06
455.955	428.06
456.175	402.06
456.395	404.06
456.616	404.06
456.836	419.06
457.056	410.06
457.276	401.06
457.497	421.06
457.717	426.06
457.937	434.06
458.157	427.06
458.377	418.06
458.598	445.06
458.818	478.06
459.038	450.06
459.258	511.06
459.478	476.06
459.698	476.06
459.918	504.06
460.138	486.06
460.358	490.06
460.578	523.06
460.798	504.06
461.018	525.06
461.238	523.06
461.458	518.06
461.678	497.06
461.898	543.06
462.118	512.06
462.338	546.06
462.558	537.06
462.777	556.06
462.997	575.06
463.217	583.06
463.437	590.06
463.657	558.06
463.876	554.06
464.096	553.06
464.316	542.06
464.536	551.06
464.755	538.06
464.975	543.06
465.195	531.06
465.414	522.06
465.634	495.06
465.854	496.06
466.073	496.06
466.293	465.06
466.512	447.06
466.732	451.06
466.951	448.06
467.171	451.06
467.391	442.06
467.61	469.06
467.829	438.06
468.049	437.06
468.268	441.06
468.488	431.06
468.707	464.06
468.927	435.06
469.146	444.06
469.365	414.06
469.585	453.06
469.804	438.06
470.023	449.06
470.243	462.06
470.462	456.06
470.681	478.06
470.901	459.06
471.12	466.06
471.339	466.06
471.558	453.06
471.777	458.06
471.997	440.06
472.216	441.06
472.435	454.06
472.654	446.06
472.873	423.06
473.092	448.06
473.311	435.06
473.53	455.06
473.749	464.06
473.968	470.06
474.187	504.06
474.406	515.06
474.625	497.06
474.844	462.06
475.063	476.06
475.282	434.06
475.501	467.06
475.72	459.06
475.939	468.06
476.158	455.06
476.377	444.06
476.596	440.06
476.814	489.06
477.033	463.06
477.252	482.06
477.471	467.06
477.69	475.06
477.908	497.06
478.127	516.06
478.346	478.06
478.564	506.06
478.783	535.06
479.002	530.06
479.22	547.06
479.439	529.06
479.658	518.06
479.876	549.06
480.095	546.06
480.313	556.06
480.532	562.06
480.751	566.06
480.969	564.06
481.188	576.06
481.406	566.06
481.624	559.06
481.843	538.06
482.061	535.06
482.28	556.06
482.498	549.06
482.717	511.06
482.935	506.06
483.153	518.06
483.372	517.06
483.59	535.06
483.808	512.06
484.027	500.06
484.245	523.06
484.463	526.06
484.681	545.06
484.9	531.06
485.118	573.06
485.336	525.06
485.554	535.06
485.772	559.06
485.99	570.06
486.209	556.06
486.427	558.06
486.645	560.06
486.863	573.06
487.081	568.06
487.299	572.06
487.517	563.06
487.735	575.06
487.953	574.06
488.171	550.06
488.389	566.06
488.607	549.06
488.825	544.06
489.043	541.06
489.261	564.06
489.479	558.06
489.696	559.06
489.914	563.06
490.132	588.06
490.35	573.06
490.568	583.06
490.786	586.06
491.003	584.06
491.221	588.06
491.439	563.06
491.657	577.06
491.874	586.06
492.092	587.06
492.31	588.06
492.527	616.06
492.745	594.06
492.963	601.06
493.18	632.06
493.398	619.06
493.615	601.06
493.833	598.06
494.05	587.06
494.268	602.06
494.485	630.06
494.703	617.06
494.92	607.06
495.138	632.06
495.355	617.06
495.573	610.06
495.79	648.06
496.008	634.06
496.225	630.06
496.442	605.06
496.66	647.06
496.877	639.06
497.094	657.06
497.312	658.06
497.529	680.06
497.746	660.06
497.963	669.06
498.181	711.06
498.398	727.06
498.615	755.06
498.832	766.06
499.049	826.06
499.267	826.06
499.484	875.06
499.701	931.06
499.918	979.06
500.135	1056.06
500.352	1130.06
500.569	1185.06
500.786	1137.06
501.003	1108.06
501.22	1072.06
501.437	978.06
501.654	945.06
501.871	870.06
502.088	848.06
