Data from 1962.PennyLincolnUp.Lamp.En5.5.200Scan.071719.P1._HRD10591_13-53-28-060.txt Node
Date: Thu Jul 18 13:53:28 EDT 2019
User: cochatt
Spectrometer: HR+D1059
Trigger mode: 1
Integration Time (sec): 1.000000E-1
Scans to average: 1
Electric dark correction enabled: true
Nonlinearity correction enabled: false
Boxcar width: 0
XAxis mode: Wavelengths
Number of Pixels in Spectrum: 2048
>>>>>Begin Spectral Data<<<<<
223.165	-3.12
223.4	-3.12
223.635	-3.12
223.869	-22.12
224.104	-13.12
224.338	-31.12
224.573	-21.12
224.808	-10.12
225.042	-11.12
225.277	-10.12
225.511	3.88
225.746	4.88
225.98	3.88
226.215	7.88
226.449	15.88
226.683	11.88
226.918	37.88
227.152	35.88
227.387	41.88
227.621	53.88
227.856	28.88
228.09	37.88
228.324	41.88
228.559	56.88
228.793	66.88
229.027	88.88
229.262	87.88
229.496	86.88
229.73	107.88
229.964	104.88
230.199	112.88
230.433	94.88
230.667	103.88
230.901	97.88
231.136	106.88
231.37	101.88
231.604	111.88
231.838	96.88
232.072	108.88
232.306	107.88
232.541	113.88
232.775	113.88
233.009	103.88
233.243	115.88
233.477	116.88
233.711	111.88
233.945	109.88
234.179	111.88
234.413	111.88
234.647	107.88
234.881	128.88
235.115	109.88
235.349	115.88
235.583	120.88
235.817	106.88
236.051	109.88
236.285	124.88
236.519	131.88
236.753	111.88
236.987	127.88
237.221	124.88
237.455	172.88
237.689	141.88
237.922	118.88
238.156	104.88
238.39	127.88
238.624	119.88
238.858	114.88
239.091	106.88
239.325	135.88
239.559	115.88
239.793	103.88
240.027	108.88
240.26	126.88
240.494	128.88
240.728	131.88
240.961	129.88
241.195	120.88
241.429	136.88
241.662	114.88
241.896	105.88
242.13	142.88
242.363	136.88
242.597	136.88
242.83	125.88
243.064	113.88
243.298	131.88
243.531	127.88
243.765	128.88
243.998	137.88
244.232	135.88
244.465	145.88
244.699	120.88
244.932	141.88
245.166	140.88
245.399	125.88
245.633	138.88
245.866	130.88
246.099	141.88
246.333	147.88
246.566	143.88
246.8	136.88
247.033	136.88
247.266	139.88
247.5	136.88
247.733	127.88
247.966	148.88
248.2	152.88
248.433	163.88
248.666	162.88
248.899	160.88
249.133	159.88
249.366	159.88
249.599	168.88
249.832	146.88
250.066	171.88
250.299	162.88
250.532	159.88
250.765	169.88
250.998	188.88
251.231	184.88
251.465	185.88
251.698	182.88
251.931	176.88
252.164	162.88
252.397	191.88
252.63	175.88
252.863	186.88
253.096	198.88
253.329	179.88
253.562	180.88
253.795	180.88
254.028	183.88
254.261	188.88
254.494	192.88
254.727	220.88
254.96	233.88
255.193	211.88
255.426	192.88
255.659	193.88
255.892	200.88
256.124	177.88
256.357	204.88
256.59	187.88
256.823	198.88
257.056	187.88
257.289	175.88
257.521	187.88
257.754	189.88
257.987	192.88
258.22	166.88
258.452	188.88
258.685	200.88
258.918	175.88
259.151	184.88
259.383	201.88
259.616	205.88
259.849	190.88
260.081	197.88
260.314	207.88
260.547	206.88
260.779	215.88
261.012	212.88
261.244	212.88
261.477	192.88
261.71	209.88
261.942	204.88
262.175	195.88
262.407	197.88
262.64	196.88
262.872	193.88
263.105	198.88
263.337	189.88
263.57	197.88
263.802	200.88
264.035	189.88
264.267	201.88
264.499	201.88
264.732	188.88
264.964	204.88
265.197	201.88
265.429	209.88
265.661	210.88
265.894	187.88
266.126	193.88
266.358	215.88
266.591	214.88
266.823	201.88
267.055	220.88
267.287	211.88
267.52	215.88
267.752	202.88
267.984	211.88
268.216	215.88
268.448	217.88
268.681	226.88
268.913	223.88
269.145	232.88
269.377	246.88
269.609	236.88
269.841	239.88
270.073	244.88
270.306	249.88
270.538	248.88
270.77	265.88
271.002	263.88
271.234	269.88
271.466	244.88
271.698	241.88
271.93	271.88
272.162	249.88
272.394	275.88
272.626	258.88
272.858	259.88
273.09	255.88
273.322	231.88
273.553	229.88
273.785	243.88
274.017	246.88
274.249	247.88
274.481	247.88
274.713	224.88
274.945	219.88
275.176	264.88
275.408	235.88
275.64	254.88
275.872	250.88
276.104	236.88
276.335	231.88
276.567	261.88
276.799	257.88
277.031	255.88
277.262	272.88
277.494	263.88
277.726	254.88
277.957	257.88
278.189	261.88
278.421	242.88
278.652	254.88
278.884	229.88
279.115	249.88
279.347	272.88
279.579	255.88
279.81	249.88
280.042	261.88
280.273	256.88
280.505	267.88
280.736	277.88
280.968	261.88
281.199	245.88
281.431	292.88
281.662	271.88
281.894	262.88
282.125	270.88
282.356	261.88
282.588	275.88
282.819	283.88
283.051	272.88
283.282	273.88
283.513	268.88
283.745	260.88
283.976	266.88
284.207	259.88
284.439	266.88
284.67	274.88
284.901	263.88
285.132	274.88
285.364	279.88
285.595	287.88
285.826	269.88
286.057	283.88
286.288	260.88
286.52	270.88
286.751	267.88
286.982	259.88
287.213	280.88
287.444	277.88
287.675	277.88
287.906	269.88
288.138	292.88
288.369	284.88
288.6	272.88
288.831	288.88
289.062	277.88
289.293	277.88
289.524	297.88
289.755	285.88
289.986	298.88
290.217	269.88
290.448	298.88
290.679	289.88
290.91	307.88
291.141	289.88
291.371	277.88
291.602	293.88
291.833	291.88
292.064	294.88
292.295	278.88
292.526	300.88
292.757	280.88
292.987	283.88
293.218	287.88
293.449	278.88
293.68	277.88
293.91	288.88
294.141	290.88
294.372	290.88
294.603	292.88
294.833	282.88
295.064	292.88
295.295	280.88
295.525	281.88
295.756	301.88
295.987	265.88
296.217	311.88
296.448	322.88
296.679	313.88
296.909	279.88
297.14	304.88
297.37	283.88
297.601	287.88
297.831	311.88
298.062	296.88
298.292	299.88
298.523	288.88
298.753	310.88
298.984	292.88
299.214	313.88
299.445	299.88
299.675	292.88
299.905	320.88
300.136	311.88
300.366	308.88
300.597	306.88
300.827	306.88
301.057	300.88
301.288	305.88
301.518	313.88
301.748	326.88
301.979	325.88
302.209	342.88
302.439	329.88
302.669	297.88
302.9	309.88
303.13	325.88
303.36	324.88
303.59	329.88
303.82	332.88
304.051	326.88
304.281	331.88
304.511	322.88
304.741	319.88
304.971	323.88
305.201	341.88
305.431	310.88
305.661	327.88
305.891	330.88
306.121	329.88
306.352	325.88
306.582	333.88
306.812	310.88
307.042	322.88
307.272	312.88
307.502	327.88
307.731	342.88
307.961	325.88
308.191	333.88
308.421	330.88
308.651	311.88
308.881	319.88
309.111	323.88
309.341	330.88
309.571	328.88
309.8	328.88
310.03	328.88
310.26	342.88
310.49	357.88
310.72	361.88
310.949	348.88
311.179	342.88
311.409	331.88
311.639	346.88
311.868	352.88
312.098	348.88
312.328	356.88
312.557	337.88
312.787	365.88
313.017	394.88
313.246	377.88
313.476	337.88
313.706	379.88
313.935	339.88
314.165	357.88
314.394	371.88
314.624	345.88
314.853	360.88
315.083	371.88
315.312	345.88
315.542	371.88
315.771	356.88
316.001	353.88
316.23	387.88
316.46	360.88
316.689	362.88
316.919	352.88
317.148	345.88
317.377	372.88
317.607	359.88
317.836	371.88
318.065	342.88
318.295	343.88
318.524	361.88
318.753	355.88
318.983	347.88
319.212	353.88
319.441	374.88
319.67	371.88
319.9	359.88
320.129	348.88
320.358	376.88
320.587	369.88
320.816	358.88
321.046	370.88
321.275	360.88
321.504	363.88
321.733	369.88
321.962	371.88
322.191	374.88
322.42	375.88
322.649	398.88
322.878	395.88
323.108	396.88
323.337	397.88
323.566	415.88
323.795	415.88
324.024	446.88
324.253	490.88
324.482	630.88
324.71	881.88
324.939	1244.88
325.168	1105.88
325.397	636.88
325.626	483.88
325.855	437.88
326.084	433.88
326.313	404.88
326.542	413.88
326.77	418.88
326.999	490.88
327.228	613.88
327.457	823.88
327.686	972.88
327.914	700.88
328.143	540.88
328.372	507.88
328.6	459.88
328.829	431.88
329.058	450.88
329.287	472.88
329.515	462.88
329.744	435.88
329.972	407.88
330.201	444.88
330.43	434.88
330.658	461.88
330.887	471.88
331.115	469.88
331.344	437.88
331.572	434.88
331.801	423.88
332.03	444.88
332.258	439.88
332.486	417.88
332.715	417.88
332.943	451.88
333.172	410.88
333.4	450.88
333.629	465.88
333.857	460.88
334.085	472.88
334.314	475.88
334.542	469.88
334.771	493.88
334.999	482.88
335.227	443.88
335.455	445.88
335.684	418.88
335.912	458.88
336.14	438.88
336.369	447.88
336.597	458.88
336.825	441.88
337.053	417.88
337.281	426.88
337.51	419.88
337.738	423.88
337.966	435.88
338.194	431.88
338.422	400.88
338.65	431.88
338.878	423.88
339.106	403.88
339.334	416.88
339.562	419.88
339.79	408.88
340.018	408.88
340.246	424.88
340.474	403.88
340.702	402.88
340.93	415.88
341.158	401.88
341.386	401.88
341.614	417.88
341.842	393.88
342.07	401.88
342.298	406.88
342.526	409.88
342.754	383.88
342.981	394.88
343.209	404.88
343.437	421.88
343.665	417.88
343.893	441.88
344.12	452.88
344.348	448.88
344.576	434.88
344.804	428.88
345.031	409.88
345.259	427.88
345.487	423.88
345.714	407.88
345.942	420.88
346.17	399.88
346.397	373.88
346.625	395.88
346.853	384.88
347.08	417.88
347.308	394.88
347.535	395.88
347.763	378.88
347.99	397.88
348.218	402.88
348.445	415.88
348.673	390.88
348.9	407.88
349.128	391.88
349.355	375.88
349.583	381.88
349.81	381.88
350.037	375.88
350.265	389.88
350.492	377.88
350.72	393.88
350.947	412.88
351.174	385.88
351.402	379.88
351.629	401.88
351.856	368.88
352.083	378.88
352.311	379.88
352.538	405.88
352.765	397.88
352.992	397.88
353.22	390.88
353.447	385.88
353.674	360.88
353.901	377.88
354.128	388.88
354.355	375.88
354.583	379.88
354.81	382.88
355.037	377.88
355.264	364.88
355.491	378.88
355.718	376.88
355.945	365.88
356.172	373.88
356.399	385.88
356.626	361.88
356.853	374.88
357.08	390.88
357.307	372.88
357.534	357.88
357.761	367.88
357.988	387.88
358.215	386.88
358.441	388.88
358.668	370.88
358.895	381.88
359.122	383.88
359.349	402.88
359.576	391.88
359.802	403.88
360.029	394.88
360.256	414.88
360.483	393.88
360.709	401.88
360.936	396.88
361.163	387.88
361.39	367.88
361.616	396.88
361.843	393.88
362.07	398.88
362.296	381.88
362.523	385.88
362.749	395.88
362.976	379.88
363.203	380.88
363.429	401.88
363.656	404.88
363.882	388.88
364.109	381.88
364.335	363.88
364.562	377.88
364.788	373.88
365.015	393.88
365.241	379.88
365.468	383.88
365.694	365.88
365.92	375.88
366.147	365.88
366.373	357.88
366.599	385.88
366.826	375.88
367.052	375.88
367.278	391.88
367.505	376.88
367.731	389.88
367.957	374.88
368.184	391.88
368.41	380.88
368.636	388.88
368.862	415.88
369.089	385.88
369.315	379.88
369.541	376.88
369.767	384.88
369.993	389.88
370.219	394.88
370.445	401.88
370.672	397.88
370.898	399.88
371.124	400.88
371.35	401.88
371.576	414.88
371.802	389.88
372.028	388.88
372.254	405.88
372.48	383.88
372.706	394.88
372.932	387.88
373.158	405.88
373.384	384.88
373.61	392.88
373.835	401.88
374.061	387.88
374.287	383.88
374.513	394.88
374.739	401.88
374.965	418.88
375.191	435.88
375.416	405.88
375.642	404.88
375.868	412.88
376.094	391.88
376.319	387.88
376.545	395.88
376.771	411.88
376.997	381.88
377.222	392.88
377.448	395.88
377.674	398.88
377.899	404.88
378.125	367.88
378.35	389.88
378.576	391.88
378.802	370.88
379.027	385.88
379.253	393.88
379.478	376.88
379.704	393.88
379.929	404.88
380.155	380.88
380.38	390.88
380.606	403.88
380.831	401.88
381.057	413.88
381.282	403.88
381.507	403.88
381.733	400.88
381.958	393.88
382.184	388.88
382.409	373.88
382.634	383.88
382.86	417.88
383.085	409.88
383.31	418.88
383.535	422.88
383.761	419.88
383.986	420.88
384.211	415.88
384.436	442.88
384.662	422.88
384.887	422.88
385.112	440.88
385.337	442.88
385.562	444.88
385.787	447.88
386.013	463.88
386.238	477.88
386.463	451.88
386.688	456.88
386.913	442.88
387.138	440.88
387.363	436.88
387.588	465.88
387.813	454.88
388.038	432.88
388.263	439.88
388.488	449.88
388.713	434.88
388.938	463.88
389.163	443.88
389.387	453.88
389.612	454.88
389.837	444.88
390.062	423.88
390.287	453.88
390.512	444.88
390.736	456.88
390.961	476.88
391.186	435.88
391.411	457.88
391.636	448.88
391.86	471.88
392.085	455.88
392.31	479.88
392.534	477.88
392.759	455.88
392.984	474.88
393.208	451.88
393.433	455.88
393.658	452.88
393.882	449.88
394.107	446.88
394.331	459.88
394.556	428.88
394.78	447.88
395.005	452.88
395.229	472.88
395.454	489.88
395.678	445.88
395.903	465.88
396.127	476.88
396.352	487.88
396.576	469.88
396.801	476.88
397.025	470.88
397.249	471.88
397.474	484.88
397.698	499.88
397.922	495.88
398.147	512.88
398.371	518.88
398.595	514.88
398.82	513.88
399.044	540.88
399.268	579.88
399.492	618.88
399.717	648.88
399.941	679.88
400.165	660.88
400.389	657.88
400.613	613.88
400.837	556.88
401.062	552.88
401.286	520.88
401.51	546.88
401.734	536.88
401.958	534.88
402.182	500.88
402.406	526.88
402.63	526.88
402.854	543.88
403.078	520.88
403.302	542.88
403.526	519.88
403.75	547.88
403.974	565.88
404.198	513.88
404.422	554.88
404.645	559.88
404.869	566.88
405.093	583.88
405.317	599.88
405.541	620.88
405.765	575.88
405.988	567.88
406.212	584.88
406.436	582.88
406.66	607.88
406.883	587.88
407.107	585.88
407.331	637.88
407.555	699.88
407.778	691.88
408.002	639.88
408.226	620.88
408.449	584.88
408.673	584.88
408.896	599.88
409.12	624.88
409.344	593.88
409.567	562.88
409.791	559.88
410.014	537.88
410.238	530.88
410.461	555.88
410.685	565.88
410.908	543.88
411.132	595.88
411.355	597.88
411.578	600.88
411.802	546.88
412.025	547.88
412.249	538.88
412.472	567.88
412.695	571.88
412.919	572.88
413.142	536.88
413.365	534.88
413.589	498.88
413.812	538.88
414.035	525.88
414.258	503.88
414.482	516.88
414.705	513.88
414.928	528.88
415.151	501.88
415.374	496.88
415.597	514.88
415.821	509.88
416.044	514.88
416.267	485.88
416.49	500.88
416.713	506.88
416.936	496.88
417.159	532.88
417.382	493.88
417.605	516.88
417.828	511.88
418.051	516.88
418.274	514.88
418.497	499.88
418.72	521.88
418.943	526.88
419.166	534.88
419.389	564.88
419.611	575.88
419.834	557.88
420.057	521.88
420.28	534.88
420.503	523.88
420.726	517.88
420.948	539.88
421.171	549.88
421.394	571.88
421.617	520.88
421.839	511.88
422.062	538.88
422.285	538.88
422.507	556.88
422.73	588.88
422.953	617.88
423.175	543.88
423.398	551.88
423.621	551.88
423.843	539.88
424.066	543.88
424.288	563.88
424.511	562.88
424.733	596.88
424.956	626.88
425.178	605.88
425.401	605.88
425.623	608.88
425.846	551.88
426.068	563.88
426.291	533.88
426.513	531.88
426.735	553.88
426.958	565.88
427.18	611.88
427.402	693.88
427.625	737.88
427.847	627.88
428.069	585.88
428.292	559.88
428.514	514.88
428.736	477.88
428.958	480.88
429.181	478.88
429.403	491.88
429.625	498.88
429.847	516.88
430.069	557.88
430.292	560.88
430.514	491.88
430.736	487.88
430.958	463.88
431.18	483.88
431.402	488.88
431.624	453.88
431.846	468.88
432.068	479.88
432.29	482.88
432.512	460.88
432.734	484.88
432.956	471.88
433.178	490.88
433.4	488.88
433.622	492.88
433.844	482.88
434.066	480.88
434.287	487.88
434.509	514.88
434.731	502.88
434.953	507.88
435.175	531.88
435.397	545.88
435.618	530.88
435.84	553.88
436.062	614.88
436.284	661.88
436.505	542.88
436.727	519.88
436.949	509.88
437.17	513.88
437.392	509.88
437.614	509.88
437.835	507.88
438.057	549.88
438.278	633.88
438.5	633.88
438.721	680.88
438.943	657.88
439.165	561.88
439.386	512.88
439.608	521.88
439.829	531.88
440.05	519.88
440.272	564.88
440.493	539.88
440.715	499.88
440.936	507.88
441.158	518.88
441.379	499.88
441.6	517.88
441.822	520.88
442.043	541.88
442.264	599.88
442.486	637.88
442.707	571.88
442.928	529.88
443.149	543.88
443.371	554.88
443.592	567.88
443.813	618.88
444.034	666.88
444.255	591.88
444.476	579.88
444.698	575.88
444.919	575.88
445.14	676.88
445.361	613.88
445.582	558.88
445.803	580.88
446.024	648.88
446.245	646.88
446.466	600.88
446.687	517.88
446.908	529.88
447.129	519.88
447.35	500.88
447.571	483.88
447.792	468.88
448.013	475.88
448.234	482.88
448.455	509.88
448.675	599.88
448.896	665.88
449.117	603.88
449.338	565.88
449.559	636.88
449.779	699.88
450	571.88
450.221	497.88
450.442	483.88
450.662	458.88
450.883	468.88
451.104	475.88
451.324	471.88
451.545	486.88
451.766	449.88
451.986	452.88
452.207	443.88
452.428	442.88
452.648	451.88
452.869	447.88
453.089	442.88
453.31	444.88
453.53	445.88
453.751	449.88
453.971	430.88
454.192	440.88
454.412	446.88
454.633	425.88
454.853	435.88
455.073	453.88
455.294	446.88
455.514	473.88
455.734	492.88
455.955	425.88
456.175	426.88
456.395	432.88
456.616	416.88
456.836	420.88
457.056	435.88
457.276	401.88
457.497	428.88
457.717	425.88
457.937	432.88
458.157	428.88
458.377	419.88
458.598	444.88
458.818	486.88
459.038	515.88
459.258	553.88
459.478	480.88
459.698	480.88
459.918	490.88
460.138	501.88
460.358	521.88
460.578	505.88
460.798	536.88
461.018	510.88
461.238	519.88
461.458	522.88
461.678	524.88
461.898	523.88
462.118	513.88
462.338	556.88
462.558	548.88
462.777	542.88
462.997	591.88
463.217	635.88
463.437	618.88
463.657	597.88
463.876	586.88
464.096	553.88
464.316	583.88
464.536	585.88
464.755	552.88
464.975	538.88
465.195	566.88
465.414	548.88
465.634	515.88
465.854	491.88
466.073	479.88
466.293	463.88
466.512	491.88
466.732	464.88
466.951	461.88
467.171	454.88
467.391	468.88
467.61	457.88
467.829	458.88
468.049	460.88
468.268	472.88
468.488	440.88
468.707	432.88
468.927	450.88
469.146	428.88
469.365	462.88
469.585	431.88
469.804	447.88
470.023	471.88
470.243	461.88
470.462	478.88
470.681	478.88
470.901	486.88
471.12	464.88
471.339	473.88
471.558	463.88
471.777	481.88
471.997	461.88
472.216	473.88
472.435	483.88
472.654	456.88
472.873	434.88
473.092	466.88
473.311	455.88
473.53	464.88
473.749	479.88
473.968	470.88
474.187	535.88
474.406	547.88
474.625	489.88
474.844	468.88
475.063	445.88
475.282	455.88
475.501	457.88
475.72	478.88
475.939	481.88
476.158	468.88
476.377	452.88
476.596	467.88
476.814	482.88
477.033	475.88
477.252	481.88
477.471	503.88
477.69	525.88
477.908	499.88
478.127	511.88
478.346	519.88
478.564	520.88
478.783	537.88
479.002	527.88
479.22	557.88
479.439	549.88
479.658	544.88
479.876	559.88
480.095	546.88
480.313	594.88
480.532	578.88
480.751	582.88
480.969	570.88
481.188	588.88
481.406	611.88
481.624	582.88
481.843	564.88
482.061	561.88
482.28	551.88
482.498	537.88
482.717	554.88
482.935	549.88
483.153	546.88
483.372	552.88
483.59	554.88
483.808	547.88
484.027	557.88
484.245	543.88
484.463	541.88
484.681	577.88
484.9	547.88
485.118	552.88
485.336	559.88
485.554	559.88
485.772	560.88
485.99	547.88
486.209	550.88
486.427	575.88
486.645	569.88
486.863	571.88
487.081	567.88
487.299	568.88
487.517	580.88
487.735	564.88
487.953	584.88
488.171	546.88
488.389	549.88
488.607	584.88
488.825	580.88
489.043	557.88
489.261	562.88
489.479	572.88
489.696	559.88
489.914	573.88
490.132	581.88
490.35	585.88
490.568	581.88
490.786	602.88
491.003	572.88
491.221	613.88
491.439	586.88
491.657	599.88
491.874	612.88
492.092	597.88
492.31	604.88
492.527	614.88
492.745	617.88
492.963	631.88
493.18	622.88
493.398	630.88
493.615	634.88
493.833	668.88
494.05	610.88
494.268	633.88
494.485	619.88
494.703	641.88
494.92	647.88
495.138	636.88
495.355	676.88
495.573	658.88
495.79	657.88
496.008	660.88
496.225	636.88
496.442	662.88
496.66	661.88
496.877	689.88
497.094	664.88
497.312	676.88
497.529	700.88
497.746	720.88
497.963	720.88
498.181	747.88
498.398	776.88
498.615	768.88
498.832	801.88
499.049	832.88
499.267	866.88
499.484	900.88
499.701	957.88
499.918	1011.88
500.135	1095.88
500.352	1145.88
500.569	1193.88
500.786	1178.88
501.003	1150.88
501.22	1079.88
501.437	1003.88
501.654	968.88
501.871	943.88
