Data from 1962.PennyLincolnUp.Lamp.En5.5.200Scan.071719.P1._HRD10591_13-52-33-062.txt Node
Date: Thu Jul 18 13:52:33 EDT 2019
User: cochatt
Spectrometer: HR+D1059
Trigger mode: 1
Integration Time (sec): 1.000000E-1
Scans to average: 1
Electric dark correction enabled: true
Nonlinearity correction enabled: false
Boxcar width: 0
XAxis mode: Wavelengths
Number of Pixels in Spectrum: 2048
>>>>>Begin Spectral Data<<<<<
223.165	-19.69
223.4	-19.69
223.635	-19.69
223.869	-20.69
224.104	-18.69
224.338	-10.69
224.573	-17.69
224.808	-15.69
225.042	-1.69
225.277	-12.69
225.511	-2.69
225.746	3.31
225.98	15.31
226.215	14.31
226.449	13.31
226.683	18.31
226.918	11.31
227.152	44.31
227.387	32.31
227.621	48.31
227.856	35.31
228.09	43.31
228.324	54.31
228.559	37.31
228.793	74.31
229.027	103.31
229.262	106.31
229.496	104.31
229.73	117.31
229.964	139.31
230.199	133.31
230.433	108.31
230.667	109.31
230.901	118.31
231.136	116.31
231.37	106.31
231.604	100.31
231.838	107.31
232.072	112.31
232.306	110.31
232.541	110.31
232.775	120.31
233.009	127.31
233.243	105.31
233.477	115.31
233.711	117.31
233.945	108.31
234.179	105.31
234.413	118.31
234.647	104.31
234.881	108.31
235.115	113.31
235.349	112.31
235.583	113.31
235.817	129.31
236.051	119.31
236.285	122.31
236.519	110.31
236.753	123.31
236.987	127.31
237.221	161.31
237.455	177.31
237.689	160.31
237.922	136.31
238.156	131.31
238.39	120.31
238.624	116.31
238.858	108.31
239.091	120.31
239.325	109.31
239.559	127.31
239.793	119.31
240.027	126.31
240.26	124.31
240.494	148.31
240.728	125.31
240.961	138.31
241.195	125.31
241.429	138.31
241.662	132.31
241.896	134.31
242.13	120.31
242.363	136.31
242.597	129.31
242.83	126.31
243.064	132.31
243.298	131.31
243.531	134.31
243.765	126.31
243.998	133.31
244.232	143.31
244.465	130.31
244.699	149.31
244.932	144.31
245.166	124.31
245.399	134.31
245.633	128.31
245.866	150.31
246.099	127.31
246.333	149.31
246.566	140.31
246.8	138.31
247.033	150.31
247.266	150.31
247.5	143.31
247.733	158.31
247.966	159.31
248.2	163.31
248.433	169.31
248.666	153.31
248.899	149.31
249.133	175.31
249.366	173.31
249.599	174.31
249.832	159.31
250.066	160.31
250.299	165.31
250.532	160.31
250.765	179.31
250.998	190.31
251.231	199.31
251.465	181.31
251.698	162.31
251.931	178.31
252.164	188.31
252.397	181.31
252.63	182.31
252.863	171.31
253.096	176.31
253.329	192.31
253.562	188.31
253.795	183.31
254.028	200.31
254.261	187.31
254.494	187.31
254.727	195.31
254.96	218.31
255.193	224.31
255.426	199.31
255.659	180.31
255.892	202.31
256.124	195.31
256.357	187.31
256.59	194.31
256.823	180.31
257.056	183.31
257.289	187.31
257.521	201.31
257.754	187.31
257.987	181.31
258.22	176.31
258.452	197.31
258.685	191.31
258.918	198.31
259.151	196.31
259.383	201.31
259.616	173.31
259.849	189.31
260.081	191.31
260.314	223.31
260.547	216.31
260.779	199.31
261.012	198.31
261.244	195.31
261.477	196.31
261.71	208.31
261.942	200.31
262.175	215.31
262.407	221.31
262.64	192.31
262.872	208.31
263.105	195.31
263.337	199.31
263.57	211.31
263.802	200.31
264.035	195.31
264.267	206.31
264.499	203.31
264.732	203.31
264.964	202.31
265.197	206.31
265.429	194.31
265.661	202.31
265.894	197.31
266.126	194.31
266.358	219.31
266.591	219.31
266.823	205.31
267.055	195.31
267.287	223.31
267.52	207.31
267.752	196.31
267.984	195.31
268.216	205.31
268.448	221.31
268.681	222.31
268.913	214.31
269.145	251.31
269.377	240.31
269.609	224.31
269.841	238.31
270.073	245.31
270.306	243.31
270.538	268.31
270.77	265.31
271.002	264.31
271.234	243.31
271.466	238.31
271.698	255.31
271.93	262.31
272.162	264.31
272.394	285.31
272.626	263.31
272.858	259.31
273.09	260.31
273.322	247.31
273.553	236.31
273.785	237.31
274.017	235.31
274.249	235.31
274.481	248.31
274.713	248.31
274.945	254.31
275.176	259.31
275.408	263.31
275.64	256.31
275.872	252.31
276.104	244.31
276.335	254.31
276.567	265.31
276.799	276.31
277.031	271.31
277.262	292.31
277.494	283.31
277.726	272.31
277.957	262.31
278.189	277.31
278.421	255.31
278.652	249.31
278.884	263.31
279.115	267.31
279.347	276.31
279.579	317.31
279.81	367.31
280.042	358.31
280.273	314.31
280.505	321.31
280.736	309.31
280.968	271.31
281.199	249.31
281.431	270.31
281.662	257.31
281.894	259.31
282.125	249.31
282.356	278.31
282.588	294.31
282.819	297.31
283.051	282.31
283.282	271.31
283.513	247.31
283.745	252.31
283.976	262.31
284.207	277.31
284.439	269.31
284.67	262.31
284.901	280.31
285.132	284.31
285.364	298.31
285.595	316.31
285.826	279.31
286.057	267.31
286.288	247.31
286.52	291.31
286.751	284.31
286.982	270.31
287.213	286.31
287.444	260.31
287.675	277.31
287.906	263.31
288.138	285.31
288.369	317.31
288.6	300.31
288.831	279.31
289.062	293.31
289.293	279.31
289.524	258.31
289.755	282.31
289.986	255.31
290.217	299.31
290.448	269.31
290.679	265.31
290.91	264.31
291.141	273.31
291.371	281.31
291.602	280.31
291.833	275.31
292.064	273.31
292.295	288.31
292.526	285.31
292.757	258.31
292.987	287.31
293.218	283.31
293.449	283.31
293.68	289.31
293.91	293.31
294.141	278.31
294.372	259.31
294.603	279.31
294.833	268.31
295.064	291.31
295.295	288.31
295.525	289.31
295.756	286.31
295.987	306.31
296.217	314.31
296.448	331.31
296.679	289.31
296.909	303.31
297.14	283.31
297.37	317.31
297.601	299.31
297.831	281.31
298.062	295.31
298.292	284.31
298.523	317.31
298.753	294.31
298.984	287.31
299.214	272.31
299.445	309.31
299.675	304.31
299.905	297.31
300.136	316.31
300.366	309.31
300.597	318.31
300.827	303.31
301.057	298.31
301.288	331.31
301.518	323.31
301.748	320.31
301.979	327.31
302.209	310.31
302.439	325.31
302.669	320.31
302.9	317.31
303.13	316.31
303.36	319.31
303.59	308.31
303.82	335.31
304.051	337.31
304.281	323.31
304.511	329.31
304.741	320.31
304.971	311.31
305.201	319.31
305.431	307.31
305.661	326.31
305.891	303.31
306.121	296.31
306.352	309.31
306.582	317.31
306.812	346.31
307.042	320.31
307.272	316.31
307.502	311.31
307.731	337.31
307.961	328.31
308.191	315.31
308.421	321.31
308.651	323.31
308.881	335.31
309.111	329.31
309.341	348.31
309.571	341.31
309.8	354.31
310.03	348.31
310.26	350.31
310.49	348.31
310.72	367.31
310.949	358.31
311.179	368.31
311.409	340.31
311.639	343.31
311.868	338.31
312.098	354.31
312.328	379.31
312.557	377.31
312.787	382.31
313.017	385.31
313.246	351.31
313.476	364.31
313.706	368.31
313.935	377.31
314.165	382.31
314.394	381.31
314.624	389.31
314.853	344.31
315.083	354.31
315.312	373.31
315.542	355.31
315.771	360.31
316.001	350.31
316.23	376.31
316.46	364.31
316.689	377.31
316.919	365.31
317.148	365.31
317.377	363.31
317.607	364.31
317.836	370.31
318.065	373.31
318.295	397.31
318.524	372.31
318.753	366.31
318.983	368.31
319.212	345.31
319.441	355.31
319.67	360.31
319.9	364.31
320.129	380.31
320.358	372.31
320.587	371.31
320.816	373.31
321.046	371.31
321.275	381.31
321.504	379.31
321.733	372.31
321.962	384.31
322.191	394.31
322.42	403.31
322.649	402.31
322.878	429.31
323.108	439.31
323.337	445.31
323.566	475.31
323.795	487.31
324.024	530.31
324.253	659.31
324.482	907.31
324.71	1495.31
324.939	2177.31
325.168	1903.31
325.397	972.31
325.626	619.31
325.855	516.31
326.084	483.31
326.313	485.31
326.542	474.31
326.77	535.31
326.999	601.31
327.228	841.31
327.457	1364.31
327.686	1707.31
327.914	1163.31
328.143	795.31
328.372	731.31
328.6	583.31
328.829	525.31
329.058	519.31
329.287	524.31
329.515	513.31
329.744	469.31
329.972	462.31
330.201	472.31
330.43	540.31
330.658	537.31
330.887	578.31
331.115	557.31
331.344	487.31
331.572	444.31
331.801	457.31
332.03	466.31
332.258	433.31
332.486	426.31
332.715	424.31
332.943	430.31
333.172	454.31
333.4	461.31
333.629	472.31
333.857	479.31
334.085	470.31
334.314	484.31
334.542	519.31
334.771	509.31
334.999	475.31
335.227	474.31
335.455	440.31
335.684	428.31
335.912	441.31
336.14	427.31
336.369	451.31
336.597	431.31
336.825	439.31
337.053	433.31
337.281	422.31
337.51	415.31
337.738	429.31
337.966	432.31
338.194	460.31
338.422	496.31
338.65	500.31
338.878	424.31
339.106	415.31
339.334	412.31
339.562	421.31
339.79	406.31
340.018	419.31
340.246	403.31
340.474	400.31
340.702	406.31
340.93	396.31
341.158	405.31
341.386	414.31
341.614	401.31
341.842	389.31
342.07	391.31
342.298	389.31
342.526	387.31
342.754	392.31
342.981	392.31
343.209	406.31
343.437	383.31
343.665	401.31
343.893	406.31
344.12	437.31
344.348	426.31
344.576	428.31
344.804	432.31
345.031	423.31
345.259	437.31
345.487	421.31
345.714	400.31
345.942	400.31
346.17	408.31
346.397	383.31
346.625	401.31
346.853	387.31
347.08	379.31
347.308	408.31
347.535	409.31
347.763	427.31
347.99	385.31
348.218	394.31
348.445	402.31
348.673	419.31
348.9	386.31
349.128	381.31
349.355	363.31
349.583	379.31
349.81	365.31
350.037	368.31
350.265	376.31
350.492	377.31
350.72	368.31
350.947	367.31
351.174	406.31
351.402	395.31
351.629	409.31
351.856	403.31
352.083	399.31
352.311	401.31
352.538	397.31
352.765	411.31
352.992	407.31
353.22	401.31
353.447	378.31
353.674	382.31
353.901	375.31
354.128	385.31
354.355	361.31
354.583	371.31
354.81	348.31
355.037	356.31
355.264	368.31
355.491	378.31
355.718	357.31
355.945	360.31
356.172	363.31
356.399	377.31
356.626	375.31
356.853	371.31
357.08	366.31
357.307	352.31
357.534	361.31
357.761	372.31
357.988	382.31
358.215	393.31
358.441	381.31
358.668	373.31
358.895	369.31
359.122	371.31
359.349	391.31
359.576	388.31
359.802	408.31
360.029	428.31
360.256	451.31
360.483	413.31
360.709	397.31
360.936	392.31
361.163	379.31
361.39	381.31
361.616	398.31
361.843	398.31
362.07	402.31
362.296	390.31
362.523	395.31
362.749	407.31
362.976	397.31
363.203	389.31
363.429	389.31
363.656	398.31
363.882	377.31
364.109	376.31
364.335	391.31
364.562	371.31
364.788	381.31
365.015	396.31
365.241	384.31
365.468	380.31
365.694	387.31
365.92	396.31
366.147	367.31
366.373	375.31
366.599	373.31
366.826	353.31
367.052	353.31
367.278	371.31
367.505	399.31
367.731	367.31
367.957	358.31
368.184	374.31
368.41	379.31
368.636	383.31
368.862	390.31
369.089	379.31
369.315	397.31
369.541	394.31
369.767	387.31
369.993	369.31
370.219	375.31
370.445	404.31
370.672	387.31
370.898	381.31
371.124	372.31
371.35	383.31
371.576	387.31
371.802	382.31
372.028	388.31
372.254	411.31
372.48	385.31
372.706	393.31
372.932	383.31
373.158	375.31
373.384	406.31
373.61	401.31
373.835	399.31
374.061	390.31
374.287	381.31
374.513	407.31
374.739	390.31
374.965	406.31
375.191	412.31
375.416	419.31
375.642	380.31
375.868	400.31
376.094	401.31
376.319	375.31
376.545	388.31
376.771	381.31
376.997	378.31
377.222	383.31
377.448	382.31
377.674	381.31
377.899	372.31
378.125	376.31
378.35	378.31
378.576	377.31
378.802	387.31
379.027	380.31
379.253	373.31
379.478	382.31
379.704	373.31
379.929	385.31
380.155	381.31
380.38	384.31
380.606	385.31
380.831	396.31
381.057	392.31
381.282	388.31
381.507	389.31
381.733	408.31
381.958	389.31
382.184	419.31
382.409	388.31
382.634	421.31
382.86	396.31
383.085	405.31
383.31	424.31
383.535	414.31
383.761	427.31
383.986	428.31
384.211	423.31
384.436	443.31
384.662	419.31
384.887	438.31
385.112	417.31
385.337	449.31
385.562	440.31
385.787	454.31
386.013	473.31
386.238	461.31
386.463	468.31
386.688	456.31
386.913	442.31
387.138	459.31
387.363	451.31
387.588	432.31
387.813	432.31
388.038	453.31
388.263	446.31
388.488	467.31
388.713	434.31
388.938	429.31
389.163	442.31
389.387	416.31
389.612	418.31
389.837	416.31
390.062	440.31
390.287	419.31
390.512	430.31
390.736	431.31
390.961	420.31
391.186	410.31
391.411	442.31
391.636	457.31
391.86	453.31
392.085	458.31
392.31	462.31
392.534	463.31
392.759	468.31
392.984	478.31
393.208	547.31
393.433	721.31
393.658	803.31
393.882	540.31
394.107	480.31
394.331	470.31
394.556	465.31
394.78	466.31
395.005	445.31
395.229	459.31
395.454	457.31
395.678	457.31
395.903	474.31
396.127	515.31
396.352	519.31
396.576	511.31
396.801	559.31
397.025	678.31
397.249	604.31
397.474	519.31
397.698	454.31
397.922	483.31
398.147	488.31
398.371	491.31
398.595	496.31
398.82	489.31
399.044	523.31
399.268	533.31
399.492	558.31
399.717	615.31
399.941	654.31
400.165	623.31
400.389	634.31
400.613	565.31
400.837	553.31
401.062	538.31
401.286	537.31
401.51	528.31
401.734	495.31
401.958	515.31
402.182	524.31
402.406	521.31
402.63	511.31
402.854	531.31
403.078	541.31
403.302	555.31
403.526	545.31
403.75	553.31
403.974	548.31
404.198	551.31
404.422	542.31
404.645	533.31
404.869	540.31
405.093	569.31
405.317	561.31
405.541	589.31
405.765	580.31
405.988	540.31
406.212	568.31
406.436	579.31
406.66	593.31
406.883	573.31
407.107	612.31
407.331	649.31
407.555	695.31
407.778	696.31
408.002	639.31
408.226	603.31
408.449	589.31
408.673	581.31
408.896	573.31
409.12	629.31
409.344	603.31
409.567	547.31
409.791	546.31
410.014	532.31
410.238	539.31
410.461	542.31
410.685	536.31
410.908	563.31
411.132	587.31
411.355	600.31
411.578	535.31
411.802	535.31
412.025	528.31
412.249	521.31
412.472	545.31
412.695	558.31
412.919	576.31
413.142	527.31
413.365	487.31
413.589	510.31
413.812	523.31
414.035	484.31
414.258	510.31
414.482	501.31
414.705	532.31
414.928	501.31
415.151	483.31
415.374	522.31
415.597	497.31
415.821	481.31
416.044	492.31
416.267	482.31
416.49	489.31
416.713	503.31
416.936	498.31
417.159	485.31
417.382	502.31
417.605	506.31
417.828	519.31
418.051	534.31
418.274	518.31
418.497	494.31
418.72	508.31
418.943	492.31
419.166	503.31
419.389	545.31
419.611	512.31
419.834	537.31
420.057	534.31
420.28	526.31
420.503	500.31
420.726	499.31
420.948	521.31
421.171	543.31
421.394	563.31
421.617	522.31
421.839	519.31
422.062	506.31
422.285	517.31
422.507	580.31
422.73	701.31
422.953	729.31
423.175	591.31
423.398	507.31
423.621	532.31
423.843	537.31
424.066	545.31
424.288	529.31
424.511	549.31
424.733	595.31
424.956	655.31
425.178	637.31
425.401	620.31
425.623	643.31
425.846	563.31
426.068	523.31
426.291	543.31
426.513	523.31
426.735	513.31
426.958	569.31
427.18	598.31
427.402	727.31
427.625	805.31
427.847	719.31
428.069	611.31
428.292	565.31
428.514	530.31
428.736	511.31
428.958	490.31
429.181	508.31
429.403	493.31
429.625	485.31
429.847	513.31
430.069	571.31
430.292	573.31
430.514	531.31
430.736	500.31
430.958	483.31
431.18	460.31
431.402	496.31
431.624	459.31
431.846	472.31
432.068	466.31
432.29	489.31
432.512	465.31
432.734	486.31
432.956	471.31
433.178	486.31
433.4	492.31
433.622	489.31
433.844	499.31
434.066	477.31
434.287	469.31
434.509	497.31
434.731	490.31
434.953	501.31
435.175	507.31
435.397	538.31
435.618	529.31
435.84	558.31
436.062	615.31
436.284	676.31
436.505	584.31
436.727	539.31
436.949	515.31
437.17	501.31
437.392	484.31
437.614	503.31
437.835	524.31
438.057	605.31
438.278	683.31
438.5	695.31
438.721	718.31
438.943	693.31
439.165	584.31
439.386	524.31
439.608	539.31
439.829	544.31
440.05	564.31
440.272	631.31
440.493	591.31
440.715	535.31
440.936	514.31
441.158	510.31
441.379	485.31
441.6	525.31
441.822	536.31
442.043	554.31
442.264	632.31
442.486	655.31
442.707	587.31
442.928	540.31
443.149	576.31
443.371	572.31
443.592	594.31
443.813	678.31
444.034	710.31
444.255	607.31
444.476	563.31
444.698	584.31
444.919	571.31
445.14	669.31
445.361	603.31
445.582	591.31
445.803	641.31
446.024	726.31
446.245	705.31
446.466	674.31
446.687	557.31
446.908	535.31
447.129	483.31
447.35	494.31
447.571	501.31
447.792	492.31
448.013	472.31
448.234	512.31
448.455	537.31
448.675	604.31
448.896	702.31
449.117	605.31
449.338	567.31
449.559	654.31
449.779	757.31
450	627.31
450.221	525.31
450.442	471.31
450.662	461.31
450.883	473.31
451.104	493.31
451.324	486.31
451.545	478.31
451.766	456.31
451.986	445.31
452.207	443.31
452.428	431.31
452.648	440.31
452.869	444.31
453.089	439.31
453.31	470.31
453.53	451.31
453.751	460.31
453.971	446.31
454.192	480.31
454.412	477.31
454.633	440.31
454.853	455.31
455.073	432.31
455.294	451.31
455.514	499.31
455.734	502.31
455.955	451.31
456.175	410.31
456.395	420.31
456.616	431.31
456.836	437.31
457.056	421.31
457.276	418.31
457.497	420.31
457.717	432.31
457.937	420.31
458.157	423.31
458.377	455.31
458.598	448.31
458.818	524.31
459.038	585.31
459.258	604.31
459.478	510.31
459.698	505.31
459.918	517.31
460.138	488.31
460.358	509.31
460.578	529.31
460.798	516.31
461.018	536.31
461.238	489.31
461.458	511.31
461.678	505.31
461.898	522.31
462.118	521.31
462.338	523.31
462.558	531.31
462.777	577.31
462.997	583.31
463.217	598.31
463.437	586.31
463.657	559.31
463.876	563.31
464.096	563.31
464.316	559.31
464.536	555.31
464.755	565.31
464.975	569.31
465.195	592.31
465.414	678.31
465.634	586.31
465.854	526.31
466.073	521.31
466.293	509.31
466.512	482.31
466.732	464.31
466.951	478.31
467.171	478.31
467.391	459.31
467.61	472.31
467.829	467.31
468.049	481.31
468.268	464.31
468.488	446.31
468.707	441.31
468.927	465.31
469.146	442.31
469.365	442.31
469.585	452.31
469.804	469.31
470.023	502.31
470.243	479.31
470.462	459.31
470.681	519.31
470.901	497.31
471.12	477.31
471.339	471.31
471.558	445.31
471.777	476.31
471.997	485.31
472.216	475.31
472.435	525.31
472.654	494.31
472.873	462.31
473.092	444.31
473.311	459.31
473.53	455.31
473.749	459.31
473.968	478.31
474.187	554.31
474.406	571.31
474.625	506.31
474.844	457.31
475.063	441.31
475.282	462.31
475.501	462.31
475.72	470.31
475.939	454.31
476.158	466.31
476.377	460.31
476.596	474.31
476.814	507.31
477.033	516.31
477.252	503.31
477.471	492.31
477.69	519.31
477.908	517.31
478.127	521.31
478.346	522.31
478.564	545.31
478.783	515.31
479.002	553.31
479.22	558.31
479.439	583.31
479.658	568.31
479.876	555.31
480.095	578.31
480.313	603.31
480.532	581.31
480.751	579.31
480.969	552.31
481.188	622.31
481.406	676.31
481.624	627.31
481.843	590.31
482.061	563.31
482.28	558.31
482.498	535.31
482.717	569.31
482.935	549.31
483.153	575.31
483.372	557.31
483.59	525.31
483.808	549.31
484.027	543.31
484.245	542.31
484.463	537.31
484.681	572.31
484.9	560.31
485.118	573.31
485.336	574.31
485.554	572.31
485.772	571.31
485.99	562.31
486.209	557.31
486.427	589.31
486.645	603.31
486.863	574.31
487.081	578.31
487.299	587.31
487.517	602.31
487.735	576.31
487.953	593.31
488.171	583.31
488.389	568.31
488.607	579.31
488.825	593.31
489.043	581.31
489.261	560.31
489.479	571.31
489.696	590.31
489.914	579.31
490.132	604.31
490.35	622.31
490.568	580.31
490.786	588.31
491.003	582.31
491.221	602.31
491.439	617.31
491.657	625.31
491.874	597.31
492.092	617.31
492.31	624.31
492.527	620.31
492.745	615.31
492.963	610.31
493.18	637.31
493.398	616.31
493.615	647.31
493.833	636.31
494.05	621.31
494.268	612.31
494.485	630.31
494.703	621.31
494.92	627.31
495.138	624.31
495.355	609.31
495.573	611.31
495.79	657.31
496.008	667.31
496.225	651.31
496.442	668.31
496.66	671.31
496.877	659.31
497.094	665.31
497.312	662.31
497.529	679.31
497.746	714.31
497.963	691.31
498.181	716.31
498.398	762.31
498.615	777.31
498.832	793.31
499.049	822.31
499.267	839.31
499.484	895.31
499.701	937.31
499.918	985.31
500.135	1048.31
500.352	1111.31
500.569	1153.31
500.786	1131.31
501.003	1109.31
501.22	1089.31
501.437	1010.31
501.654	953.31
501.871	939.31
