Data from 1962.PennyLincolnUp.Lamp.En5.5.200Scan.071719.P1._HRD10591_13-54-42-061.txt Node
Date: Thu Jul 18 13:54:42 EDT 2019
User: cochatt
Spectrometer: HR+D1059
Trigger mode: 1
Integration Time (sec): 1.000000E-1
Scans to average: 1
Electric dark correction enabled: true
Nonlinearity correction enabled: false
Boxcar width: 0
XAxis mode: Wavelengths
Number of Pixels in Spectrum: 2048
>>>>>Begin Spectral Data<<<<<
223.165	-11.38
223.4	-11.38
223.635	-11.38
223.869	-14.38
224.104	-18.38
224.338	-36.38
224.573	-1.38
224.808	-18.38
225.042	-4.38
225.277	0.62
225.511	-4.38
225.746	0.62
225.98	8.62
226.215	19.62
226.449	16.62
226.683	17.62
226.918	25.62
227.152	19.62
227.387	29.62
227.621	38.62
227.856	40.62
228.09	43.62
228.324	50.62
228.559	51.62
228.793	68.62
229.027	99.62
229.262	92.62
229.496	96.62
229.73	117.62
229.964	108.62
230.199	108.62
230.433	109.62
230.667	109.62
230.901	104.62
231.136	92.62
231.37	111.62
231.604	109.62
231.838	128.62
232.072	118.62
232.306	118.62
232.541	104.62
232.775	119.62
233.009	102.62
233.243	109.62
233.477	112.62
233.711	118.62
233.945	127.62
234.179	101.62
234.413	116.62
234.647	126.62
234.881	117.62
235.115	110.62
235.349	109.62
235.583	123.62
235.817	94.62
236.051	118.62
236.285	120.62
236.519	121.62
236.753	121.62
236.987	122.62
237.221	150.62
237.455	190.62
237.689	155.62
237.922	123.62
238.156	130.62
238.39	122.62
238.624	128.62
238.858	115.62
239.091	117.62
239.325	122.62
239.559	130.62
239.793	114.62
240.027	129.62
240.26	133.62
240.494	126.62
240.728	132.62
240.961	150.62
241.195	141.62
241.429	133.62
241.662	120.62
241.896	124.62
242.13	126.62
242.363	126.62
242.597	144.62
242.83	137.62
243.064	140.62
243.298	152.62
243.531	148.62
243.765	149.62
243.998	138.62
244.232	149.62
244.465	134.62
244.699	148.62
244.932	149.62
245.166	153.62
245.399	140.62
245.633	145.62
245.866	150.62
246.099	139.62
246.333	142.62
246.566	144.62
246.8	147.62
247.033	151.62
247.266	156.62
247.5	140.62
247.733	157.62
247.966	162.62
248.2	160.62
248.433	158.62
248.666	172.62
248.899	178.62
249.133	174.62
249.366	180.62
249.599	194.62
249.832	185.62
250.066	163.62
250.299	160.62
250.532	181.62
250.765	190.62
250.998	207.62
251.231	211.62
251.465	184.62
251.698	189.62
251.931	188.62
252.164	184.62
252.397	185.62
252.63	192.62
252.863	182.62
253.096	184.62
253.329	181.62
253.562	192.62
253.795	188.62
254.028	199.62
254.261	197.62
254.494	199.62
254.727	235.62
254.96	229.62
255.193	235.62
255.426	215.62
255.659	211.62
255.892	211.62
256.124	219.62
256.357	201.62
256.59	202.62
256.823	218.62
257.056	217.62
257.289	205.62
257.521	198.62
257.754	206.62
257.987	189.62
258.22	207.62
258.452	225.62
258.685	183.62
258.918	205.62
259.151	192.62
259.383	198.62
259.616	204.62
259.849	213.62
260.081	228.62
260.314	227.62
260.547	242.62
260.779	220.62
261.012	220.62
261.244	222.62
261.477	205.62
261.71	227.62
261.942	212.62
262.175	219.62
262.407	214.62
262.64	212.62
262.872	206.62
263.105	199.62
263.337	208.62
263.57	235.62
263.802	206.62
264.035	189.62
264.267	213.62
264.499	191.62
264.732	190.62
264.964	200.62
265.197	208.62
265.429	215.62
265.661	208.62
265.894	212.62
266.126	202.62
266.358	213.62
266.591	223.62
266.823	227.62
267.055	215.62
267.287	212.62
267.52	230.62
267.752	228.62
267.984	223.62
268.216	224.62
268.448	231.62
268.681	226.62
268.913	247.62
269.145	239.62
269.377	251.62
269.609	259.62
269.841	260.62
270.073	254.62
270.306	253.62
270.538	272.62
270.77	289.62
271.002	290.62
271.234	276.62
271.466	272.62
271.698	263.62
271.93	261.62
272.162	258.62
272.394	286.62
272.626	285.62
272.858	276.62
273.09	264.62
273.322	251.62
273.553	254.62
273.785	265.62
274.017	262.62
274.249	262.62
274.481	267.62
274.713	270.62
274.945	258.62
275.176	262.62
275.408	258.62
275.64	263.62
275.872	260.62
276.104	275.62
276.335	267.62
276.567	270.62
276.799	267.62
277.031	290.62
277.262	296.62
277.494	310.62
277.726	284.62
277.957	263.62
278.189	277.62
278.421	288.62
278.652	264.62
278.884	271.62
279.115	252.62
279.347	266.62
279.579	261.62
279.81	286.62
280.042	271.62
280.273	282.62
280.505	272.62
280.736	287.62
280.968	270.62
281.199	276.62
281.431	277.62
281.662	278.62
281.894	287.62
282.125	273.62
282.356	269.62
282.588	297.62
282.819	300.62
283.051	281.62
283.282	261.62
283.513	288.62
283.745	263.62
283.976	298.62
284.207	284.62
284.439	300.62
284.67	302.62
284.901	283.62
285.132	290.62
285.364	287.62
285.595	287.62
285.826	278.62
286.057	301.62
286.288	280.62
286.52	280.62
286.751	291.62
286.982	277.62
287.213	291.62
287.444	296.62
287.675	297.62
287.906	302.62
288.138	306.62
288.369	307.62
288.6	297.62
288.831	292.62
289.062	298.62
289.293	302.62
289.524	295.62
289.755	298.62
289.986	316.62
290.217	291.62
290.448	302.62
290.679	283.62
290.91	315.62
291.141	269.62
291.371	296.62
291.602	291.62
291.833	308.62
292.064	311.62
292.295	315.62
292.526	304.62
292.757	291.62
292.987	296.62
293.218	296.62
293.449	294.62
293.68	309.62
293.91	306.62
294.141	324.62
294.372	278.62
294.603	322.62
294.833	311.62
295.064	315.62
295.295	284.62
295.525	294.62
295.756	327.62
295.987	301.62
296.217	309.62
296.448	313.62
296.679	308.62
296.909	336.62
297.14	310.62
297.37	328.62
297.601	323.62
297.831	293.62
298.062	282.62
298.292	327.62
298.523	308.62
298.753	314.62
298.984	316.62
299.214	290.62
299.445	326.62
299.675	340.62
299.905	315.62
300.136	319.62
300.366	310.62
300.597	339.62
300.827	315.62
301.057	340.62
301.288	343.62
301.518	332.62
301.748	324.62
301.979	326.62
302.209	339.62
302.439	318.62
302.669	326.62
302.9	333.62
303.13	333.62
303.36	353.62
303.59	334.62
303.82	349.62
304.051	341.62
304.281	352.62
304.511	325.62
304.741	317.62
304.971	334.62
305.201	328.62
305.431	326.62
305.661	340.62
305.891	333.62
306.121	340.62
306.352	361.62
306.582	347.62
306.812	343.62
307.042	330.62
307.272	342.62
307.502	332.62
307.731	360.62
307.961	350.62
308.191	318.62
308.421	342.62
308.651	339.62
308.881	338.62
309.111	339.62
309.341	357.62
309.571	351.62
309.8	361.62
310.03	379.62
310.26	374.62
310.49	361.62
310.72	390.62
310.949	346.62
311.179	385.62
311.409	347.62
311.639	376.62
311.868	354.62
312.098	386.62
312.328	370.62
312.557	381.62
312.787	378.62
313.017	386.62
313.246	383.62
313.476	382.62
313.706	363.62
313.935	365.62
314.165	387.62
314.394	381.62
314.624	377.62
314.853	374.62
315.083	366.62
315.312	393.62
315.542	364.62
315.771	356.62
316.001	384.62
316.23	372.62
316.46	373.62
316.689	379.62
316.919	375.62
317.148	368.62
317.377	390.62
317.607	378.62
317.836	365.62
318.065	387.62
318.295	368.62
318.524	378.62
318.753	364.62
318.983	382.62
319.212	384.62
319.441	375.62
319.67	381.62
319.9	392.62
320.129	388.62
320.358	397.62
320.587	371.62
320.816	383.62
321.046	399.62
321.275	382.62
321.504	394.62
321.733	390.62
321.962	388.62
322.191	393.62
322.42	394.62
322.649	418.62
322.878	422.62
323.108	422.62
323.337	424.62
323.566	438.62
323.795	440.62
324.024	495.62
324.253	557.62
324.482	731.62
324.71	1066.62
324.939	1450.62
325.168	1266.62
325.397	701.62
325.626	536.62
325.855	498.62
326.084	457.62
326.313	438.62
326.542	462.62
326.77	476.62
326.999	529.62
327.228	683.62
327.457	958.62
327.686	1144.62
327.914	828.62
328.143	587.62
328.372	526.62
328.6	494.62
328.829	468.62
329.058	504.62
329.287	515.62
329.515	484.62
329.744	459.62
329.972	442.62
330.201	476.62
330.43	492.62
330.658	500.62
330.887	522.62
331.115	503.62
331.344	479.62
331.572	455.62
331.801	451.62
332.03	461.62
332.258	455.62
332.486	475.62
332.715	462.62
332.943	462.62
333.172	483.62
333.4	483.62
333.629	511.62
333.857	485.62
334.085	480.62
334.314	499.62
334.542	510.62
334.771	524.62
334.999	511.62
335.227	484.62
335.455	470.62
335.684	475.62
335.912	448.62
336.14	468.62
336.369	445.62
336.597	471.62
336.825	482.62
337.053	463.62
337.281	461.62
337.51	463.62
337.738	443.62
337.966	445.62
338.194	450.62
338.422	445.62
338.65	447.62
338.878	447.62
339.106	459.62
339.334	430.62
339.562	431.62
339.79	425.62
340.018	406.62
340.246	414.62
340.474	424.62
340.702	415.62
340.93	438.62
341.158	438.62
341.386	423.62
341.614	447.62
341.842	447.62
342.07	427.62
342.298	422.62
342.526	420.62
342.754	425.62
342.981	405.62
343.209	434.62
343.437	438.62
343.665	430.62
343.893	428.62
344.12	457.62
344.348	466.62
344.576	456.62
344.804	456.62
345.031	439.62
345.259	439.62
345.487	442.62
345.714	424.62
345.942	415.62
346.17	416.62
346.397	424.62
346.625	425.62
346.853	425.62
347.08	414.62
347.308	428.62
347.535	417.62
347.763	428.62
347.99	423.62
348.218	428.62
348.445	426.62
348.673	436.62
348.9	405.62
349.128	415.62
349.355	395.62
349.583	397.62
349.81	404.62
350.037	407.62
350.265	412.62
350.492	391.62
350.72	409.62
350.947	404.62
351.174	398.62
351.402	423.62
351.629	395.62
351.856	394.62
352.083	418.62
352.311	424.62
352.538	393.62
352.765	414.62
352.992	406.62
353.22	410.62
353.447	394.62
353.674	401.62
353.901	401.62
354.128	384.62
354.355	396.62
354.583	382.62
354.81	390.62
355.037	395.62
355.264	398.62
355.491	396.62
355.718	380.62
355.945	384.62
356.172	392.62
356.399	387.62
356.626	404.62
356.853	406.62
357.08	399.62
357.307	391.62
357.534	399.62
357.761	392.62
357.988	415.62
358.215	391.62
358.441	397.62
358.668	387.62
358.895	406.62
359.122	406.62
359.349	392.62
359.576	406.62
359.802	411.62
360.029	434.62
360.256	441.62
360.483	461.62
360.709	418.62
360.936	401.62
361.163	420.62
361.39	406.62
361.616	398.62
361.843	414.62
362.07	416.62
362.296	410.62
362.523	397.62
362.749	399.62
362.976	400.62
363.203	414.62
363.429	398.62
363.656	388.62
363.882	407.62
364.109	414.62
364.335	391.62
364.562	376.62
364.788	383.62
365.015	390.62
365.241	388.62
365.468	419.62
365.694	398.62
365.92	414.62
366.147	399.62
366.373	401.62
366.599	414.62
366.826	383.62
367.052	382.62
367.278	392.62
367.505	407.62
367.731	384.62
367.957	413.62
368.184	421.62
368.41	402.62
368.636	420.62
368.862	400.62
369.089	420.62
369.315	399.62
369.541	404.62
369.767	406.62
369.993	390.62
370.219	404.62
370.445	394.62
370.672	393.62
370.898	399.62
371.124	407.62
371.35	419.62
371.576	407.62
371.802	404.62
372.028	387.62
372.254	404.62
372.48	403.62
372.706	420.62
372.932	407.62
373.158	417.62
373.384	434.62
373.61	416.62
373.835	420.62
374.061	406.62
374.287	422.62
374.513	419.62
374.739	441.62
374.965	444.62
375.191	418.62
375.416	404.62
375.642	434.62
375.868	426.62
376.094	413.62
376.319	426.62
376.545	426.62
376.771	407.62
376.997	405.62
377.222	415.62
377.448	414.62
377.674	410.62
377.899	398.62
378.125	404.62
378.35	411.62
378.576	408.62
378.802	437.62
379.027	386.62
379.253	402.62
379.478	395.62
379.704	410.62
379.929	401.62
380.155	387.62
380.38	418.62
380.606	411.62
380.831	421.62
381.057	421.62
381.282	404.62
381.507	411.62
381.733	412.62
381.958	426.62
382.184	421.62
382.409	427.62
382.634	415.62
382.86	406.62
383.085	420.62
383.31	450.62
383.535	423.62
383.761	426.62
383.986	422.62
384.211	450.62
384.436	439.62
384.662	440.62
384.887	452.62
385.112	444.62
385.337	476.62
385.562	455.62
385.787	453.62
386.013	467.62
386.238	459.62
386.463	460.62
386.688	461.62
386.913	458.62
387.138	471.62
387.363	449.62
387.588	455.62
387.813	478.62
388.038	457.62
388.263	483.62
388.488	471.62
388.713	451.62
388.938	468.62
389.163	467.62
389.387	464.62
389.612	477.62
389.837	464.62
390.062	468.62
390.287	476.62
390.512	461.62
390.736	458.62
390.961	465.62
391.186	480.62
391.411	461.62
391.636	490.62
391.86	498.62
392.085	486.62
392.31	517.62
392.534	488.62
392.759	478.62
392.984	493.62
393.208	476.62
393.433	470.62
393.658	483.62
393.882	463.62
394.107	472.62
394.331	473.62
394.556	479.62
394.78	474.62
395.005	456.62
395.229	507.62
395.454	495.62
395.678	522.62
395.903	492.62
396.127	535.62
396.352	504.62
396.576	483.62
396.801	485.62
397.025	507.62
397.249	504.62
397.474	535.62
397.698	495.62
397.922	533.62
398.147	524.62
398.371	546.62
398.595	555.62
398.82	562.62
399.044	564.62
399.268	605.62
399.492	641.62
399.717	694.62
399.941	707.62
400.165	706.62
400.389	683.62
400.613	631.62
400.837	581.62
401.062	537.62
401.286	549.62
401.51	545.62
401.734	532.62
401.958	557.62
402.182	546.62
402.406	550.62
402.63	587.62
402.854	563.62
403.078	574.62
403.302	579.62
403.526	562.62
403.75	583.62
403.974	600.62
404.198	582.62
404.422	586.62
404.645	622.62
404.869	596.62
405.093	605.62
405.317	624.62
405.541	660.62
405.765	617.62
405.988	616.62
406.212	584.62
406.436	606.62
406.66	635.62
406.883	614.62
407.107	646.62
407.331	668.62
407.555	729.62
407.778	726.62
408.002	678.62
408.226	642.62
408.449	612.62
408.673	605.62
408.896	625.62
409.12	676.62
409.344	633.62
409.567	591.62
409.791	576.62
410.014	566.62
410.238	576.62
410.461	568.62
410.685	565.62
410.908	598.62
411.132	587.62
411.355	628.62
411.578	608.62
411.802	579.62
412.025	565.62
412.249	575.62
412.472	613.62
412.695	618.62
412.919	611.62
413.142	559.62
413.365	585.62
413.589	567.62
413.812	568.62
414.035	550.62
414.258	544.62
414.482	542.62
414.705	560.62
414.928	558.62
415.151	531.62
415.374	534.62
415.597	528.62
415.821	527.62
416.044	544.62
416.267	545.62
416.49	558.62
416.713	523.62
416.936	534.62
417.159	562.62
417.382	552.62
417.605	545.62
417.828	542.62
418.051	554.62
418.274	564.62
418.497	535.62
418.72	547.62
418.943	520.62
419.166	582.62
419.389	615.62
419.611	576.62
419.834	573.62
420.057	566.62
420.28	550.62
420.503	540.62
420.726	541.62
420.948	560.62
421.171	571.62
421.394	606.62
421.617	554.62
421.839	556.62
422.062	567.62
422.285	577.62
422.507	599.62
422.73	691.62
422.953	646.62
423.175	597.62
423.398	588.62
423.621	559.62
423.843	608.62
424.066	612.62
424.288	596.62
424.511	590.62
424.733	614.62
424.956	678.62
425.178	637.62
425.401	677.62
425.623	662.62
425.846	588.62
426.068	573.62
426.291	584.62
426.513	578.62
426.735	581.62
426.958	616.62
427.18	639.62
427.402	758.62
427.625	808.62
427.847	680.62
428.069	614.62
428.292	587.62
428.514	559.62
428.736	548.62
428.958	542.62
429.181	525.62
429.403	525.62
429.625	527.62
429.847	540.62
430.069	617.62
430.292	624.62
430.514	535.62
430.736	512.62
430.958	492.62
431.18	490.62
431.402	502.62
431.624	494.62
431.846	499.62
432.068	505.62
432.29	510.62
432.512	493.62
432.734	528.62
432.956	514.62
433.178	498.62
433.4	502.62
433.622	510.62
433.844	503.62
434.066	520.62
434.287	502.62
434.509	526.62
434.731	537.62
434.953	529.62
435.175	560.62
435.397	570.62
435.618	573.62
435.84	589.62
436.062	666.62
436.284	716.62
436.505	628.62
436.727	590.62
436.949	549.62
437.17	510.62
437.392	518.62
437.614	533.62
437.835	553.62
438.057	604.62
438.278	700.62
438.5	667.62
438.721	733.62
438.943	708.62
439.165	607.62
439.386	553.62
439.608	574.62
439.829	554.62
440.05	568.62
440.272	600.62
440.493	572.62
440.715	554.62
440.936	539.62
441.158	559.62
441.379	548.62
441.6	572.62
441.822	568.62
442.043	583.62
442.264	646.62
442.486	678.62
442.707	595.62
442.928	600.62
443.149	574.62
443.371	582.62
443.592	619.62
443.813	708.62
444.034	754.62
444.255	645.62
444.476	624.62
444.698	617.62
444.919	637.62
445.14	703.62
445.361	639.62
445.582	633.62
445.803	635.62
446.024	699.62
446.245	705.62
446.466	656.62
446.687	577.62
446.908	576.62
447.129	510.62
447.35	527.62
447.571	532.62
447.792	513.62
448.013	480.62
448.234	504.62
448.455	570.62
448.675	649.62
448.896	729.62
449.117	650.62
449.338	582.62
449.559	681.62
449.779	742.62
450	627.62
450.221	566.62
450.442	527.62
450.662	514.62
450.883	505.62
451.104	506.62
451.324	479.62
451.545	480.62
451.766	463.62
451.986	477.62
452.207	451.62
452.428	481.62
452.648	462.62
452.869	468.62
453.089	451.62
453.31	472.62
453.53	474.62
453.751	476.62
453.971	473.62
454.192	474.62
454.412	477.62
454.633	440.62
454.853	440.62
455.073	471.62
455.294	488.62
455.514	529.62
455.734	506.62
455.955	462.62
456.175	461.62
456.395	447.62
456.616	451.62
456.836	438.62
457.056	450.62
457.276	427.62
457.497	430.62
457.717	420.62
457.937	459.62
458.157	459.62
458.377	475.62
458.598	490.62
458.818	509.62
459.038	544.62
459.258	568.62
459.478	539.62
459.698	512.62
459.918	511.62
460.138	522.62
460.358	546.62
460.578	564.62
460.798	545.62
461.018	546.62
461.238	574.62
461.458	544.62
461.678	535.62
461.898	545.62
462.118	549.62
462.338	577.62
462.558	574.62
462.777	582.62
462.997	616.62
463.217	639.62
463.437	650.62
463.657	608.62
463.876	607.62
464.096	609.62
464.316	596.62
464.536	596.62
464.755	617.62
464.975	600.62
465.195	615.62
465.414	620.62
465.634	527.62
465.854	532.62
466.073	515.62
466.293	495.62
466.512	505.62
466.732	475.62
466.951	507.62
467.171	499.62
467.391	488.62
467.61	492.62
467.829	511.62
468.049	482.62
468.268	487.62
468.488	477.62
468.707	466.62
468.927	489.62
469.146	475.62
469.365	479.62
469.585	477.62
469.804	486.62
470.023	484.62
470.243	478.62
470.462	503.62
470.681	513.62
470.901	515.62
471.12	509.62
471.339	525.62
471.558	496.62
471.777	465.62
471.997	479.62
472.216	479.62
472.435	510.62
472.654	478.62
472.873	488.62
473.092	462.62
473.311	476.62
473.53	472.62
473.749	474.62
473.968	522.62
474.187	582.62
474.406	586.62
474.625	546.62
474.844	494.62
475.063	495.62
475.282	483.62
475.501	491.62
475.72	492.62
475.939	488.62
476.158	493.62
476.377	510.62
476.596	496.62
476.814	488.62
477.033	514.62
477.252	498.62
477.471	535.62
477.69	524.62
477.908	519.62
478.127	539.62
478.346	562.62
478.564	555.62
478.783	537.62
479.002	563.62
479.22	583.62
479.439	585.62
479.658	573.62
479.876	588.62
480.095	608.62
480.313	626.62
480.532	609.62
480.751	621.62
480.969	626.62
481.188	608.62
481.406	636.62
481.624	597.62
481.843	589.62
482.061	580.62
482.28	572.62
482.498	560.62
482.717	574.62
482.935	572.62
483.153	557.62
483.372	544.62
483.59	554.62
483.808	583.62
484.027	557.62
484.245	582.62
484.463	556.62
484.681	572.62
484.9	579.62
485.118	583.62
485.336	587.62
485.554	570.62
485.772	591.62
485.99	611.62
486.209	601.62
486.427	583.62
486.645	602.62
486.863	597.62
487.081	622.62
487.299	599.62
487.517	618.62
487.735	602.62
487.953	615.62
488.171	596.62
488.389	595.62
488.607	600.62
488.825	603.62
489.043	582.62
489.261	613.62
489.479	607.62
489.696	598.62
489.914	605.62
490.132	605.62
490.35	621.62
490.568	618.62
490.786	619.62
491.003	635.62
491.221	636.62
491.439	626.62
491.657	635.62
491.874	629.62
492.092	646.62
492.31	660.62
492.527	644.62
492.745	668.62
492.963	697.62
493.18	667.62
493.398	683.62
493.615	669.62
493.833	677.62
494.05	684.62
494.268	632.62
494.485	656.62
494.703	657.62
494.92	681.62
495.138	676.62
495.355	682.62
495.573	691.62
495.79	705.62
496.008	683.62
496.225	685.62
496.442	690.62
496.66	717.62
496.877	682.62
497.094	684.62
497.312	720.62
497.529	719.62
497.746	735.62
497.963	739.62
498.181	772.62
498.398	780.62
498.615	814.62
498.832	852.62
499.049	890.62
499.267	913.62
499.484	955.62
499.701	1019.62
499.918	1075.62
500.135	1140.62
500.352	1198.62
500.569	1251.62
500.786	1230.62
501.003	1199.62
501.22	1168.62
501.437	1079.62
501.654	1060.62
501.871	970.62
