Data from 1962.PennyLincolnUp.Lamp.En5.5.200Scan.071719.P1._HRD10591_13-53-05-061.txt Node
Date: Thu Jul 18 13:53:05 EDT 2019
User: cochatt
Spectrometer: HR+D1059
Trigger mode: 1
Integration Time (sec): 1.000000E-1
Scans to average: 1
Electric dark correction enabled: true
Nonlinearity correction enabled: false
Boxcar width: 0
XAxis mode: Wavelengths
Number of Pixels in Spectrum: 2048
>>>>>Begin Spectral Data<<<<<
223.165	-16.06
223.4	-16.06
223.635	-16.06
223.869	-6.06
224.104	-15.06
224.338	-27.06
224.573	-18.06
224.808	-25.06
225.042	0.94
225.277	5.94
225.511	-3.06
225.746	-4.06
225.98	5.94
226.215	3.94
226.449	16.94
226.683	17.94
226.918	26.94
227.152	35.94
227.387	31.94
227.621	31.94
227.856	43.94
228.09	57.94
228.324	58.94
228.559	55.94
228.793	72.94
229.027	82.94
229.262	91.94
229.496	98.94
229.73	109.94
229.964	120.94
230.199	107.94
230.433	100.94
230.667	110.94
230.901	108.94
231.136	86.94
231.37	98.94
231.604	110.94
231.838	117.94
232.072	112.94
232.306	108.94
232.541	119.94
232.775	110.94
233.009	103.94
233.243	111.94
233.477	96.94
233.711	121.94
233.945	115.94
234.179	121.94
234.413	111.94
234.647	115.94
234.881	115.94
235.115	111.94
235.349	119.94
235.583	113.94
235.817	112.94
236.051	111.94
236.285	113.94
236.519	114.94
236.753	134.94
236.987	123.94
237.221	140.94
237.455	150.94
237.689	133.94
237.922	128.94
238.156	113.94
238.39	123.94
238.624	121.94
238.858	120.94
239.091	108.94
239.325	105.94
239.559	117.94
239.793	107.94
240.027	127.94
240.26	129.94
240.494	132.94
240.728	117.94
240.961	122.94
241.195	141.94
241.429	138.94
241.662	123.94
241.896	124.94
242.13	121.94
242.363	113.94
242.597	124.94
242.83	131.94
243.064	100.94
243.298	130.94
243.531	122.94
243.765	128.94
243.998	139.94
244.232	134.94
244.465	136.94
244.699	146.94
244.932	137.94
245.166	129.94
245.399	133.94
245.633	136.94
245.866	123.94
246.099	122.94
246.333	126.94
246.566	133.94
246.8	143.94
247.033	137.94
247.266	131.94
247.5	152.94
247.733	153.94
247.966	147.94
248.2	160.94
248.433	132.94
248.666	145.94
248.899	155.94
249.133	166.94
249.366	173.94
249.599	171.94
249.832	151.94
250.066	147.94
250.299	149.94
250.532	176.94
250.765	191.94
250.998	186.94
251.231	170.94
251.465	172.94
251.698	172.94
251.931	165.94
252.164	168.94
252.397	170.94
252.63	152.94
252.863	159.94
253.096	175.94
253.329	192.94
253.562	187.94
253.795	184.94
254.028	179.94
254.261	180.94
254.494	185.94
254.727	201.94
254.96	207.94
255.193	206.94
255.426	198.94
255.659	182.94
255.892	193.94
256.124	193.94
256.357	209.94
256.59	202.94
256.823	201.94
257.056	185.94
257.289	183.94
257.521	181.94
257.754	178.94
257.987	195.94
258.22	205.94
258.452	169.94
258.685	175.94
258.918	188.94
259.151	171.94
259.383	182.94
259.616	180.94
259.849	198.94
260.081	208.94
260.314	217.94
260.547	209.94
260.779	208.94
261.012	196.94
261.244	211.94
261.477	201.94
261.71	203.94
261.942	199.94
262.175	223.94
262.407	204.94
262.64	192.94
262.872	184.94
263.105	188.94
263.337	184.94
263.57	180.94
263.802	202.94
264.035	201.94
264.267	212.94
264.499	188.94
264.732	190.94
264.964	212.94
265.197	194.94
265.429	197.94
265.661	204.94
265.894	208.94
266.126	198.94
266.358	211.94
266.591	199.94
266.823	203.94
267.055	195.94
267.287	208.94
267.52	200.94
267.752	197.94
267.984	199.94
268.216	194.94
268.448	194.94
268.681	218.94
268.913	221.94
269.145	234.94
269.377	223.94
269.609	238.94
269.841	227.94
270.073	216.94
270.306	234.94
270.538	233.94
270.77	264.94
271.002	247.94
271.234	258.94
271.466	247.94
271.698	261.94
271.93	255.94
272.162	273.94
272.394	242.94
272.626	253.94
272.858	251.94
273.09	260.94
273.322	240.94
273.553	261.94
273.785	230.94
274.017	239.94
274.249	240.94
274.481	236.94
274.713	228.94
274.945	234.94
275.176	247.94
275.408	264.94
275.64	218.94
275.872	233.94
276.104	234.94
276.335	258.94
276.567	241.94
276.799	237.94
277.031	255.94
277.262	245.94
277.494	270.94
277.726	265.94
277.957	270.94
278.189	255.94
278.421	256.94
278.652	250.94
278.884	249.94
279.115	251.94
279.347	249.94
279.579	260.94
279.81	248.94
280.042	248.94
280.273	268.94
280.505	272.94
280.736	268.94
280.968	243.94
281.199	236.94
281.431	258.94
281.662	253.94
281.894	247.94
282.125	268.94
282.356	260.94
282.588	269.94
282.819	270.94
283.051	269.94
283.282	271.94
283.513	258.94
283.745	260.94
283.976	255.94
284.207	275.94
284.439	269.94
284.67	286.94
284.901	265.94
285.132	268.94
285.364	269.94
285.595	266.94
285.826	240.94
286.057	277.94
286.288	278.94
286.52	265.94
286.751	268.94
286.982	268.94
287.213	269.94
287.444	277.94
287.675	273.94
287.906	270.94
288.138	278.94
288.369	278.94
288.6	278.94
288.831	288.94
289.062	267.94
289.293	262.94
289.524	287.94
289.755	296.94
289.986	280.94
290.217	284.94
290.448	264.94
290.679	277.94
290.91	289.94
291.141	276.94
291.371	285.94
291.602	287.94
291.833	268.94
292.064	283.94
292.295	297.94
292.526	305.94
292.757	284.94
292.987	278.94
293.218	287.94
293.449	297.94
293.68	268.94
293.91	284.94
294.141	275.94
294.372	294.94
294.603	281.94
294.833	288.94
295.064	297.94
295.295	305.94
295.525	287.94
295.756	276.94
295.987	287.94
296.217	288.94
296.448	282.94
296.679	297.94
296.909	296.94
297.14	298.94
297.37	278.94
297.601	303.94
297.831	304.94
298.062	297.94
298.292	280.94
298.523	312.94
298.753	294.94
298.984	302.94
299.214	280.94
299.445	298.94
299.675	289.94
299.905	316.94
300.136	304.94
300.366	306.94
300.597	311.94
300.827	324.94
301.057	320.94
301.288	317.94
301.518	315.94
301.748	309.94
301.979	329.94
302.209	309.94
302.439	314.94
302.669	327.94
302.9	319.94
303.13	316.94
303.36	325.94
303.59	323.94
303.82	329.94
304.051	316.94
304.281	319.94
304.511	320.94
304.741	316.94
304.971	305.94
305.201	288.94
305.431	316.94
305.661	305.94
305.891	312.94
306.121	310.94
306.352	308.94
306.582	294.94
306.812	311.94
307.042	297.94
307.272	312.94
307.502	332.94
307.731	322.94
307.961	315.94
308.191	327.94
308.421	315.94
308.651	321.94
308.881	320.94
309.111	313.94
309.341	315.94
309.571	328.94
309.8	352.94
310.03	316.94
310.26	333.94
310.49	320.94
310.72	318.94
310.949	346.94
311.179	347.94
311.409	326.94
311.639	352.94
311.868	353.94
312.098	348.94
312.328	360.94
312.557	363.94
312.787	353.94
313.017	347.94
313.246	360.94
313.476	353.94
313.706	331.94
313.935	350.94
314.165	356.94
314.394	339.94
314.624	337.94
314.853	355.94
315.083	339.94
315.312	340.94
315.542	354.94
315.771	341.94
316.001	341.94
316.23	354.94
316.46	340.94
316.689	382.94
316.919	339.94
317.148	360.94
317.377	357.94
317.607	330.94
317.836	353.94
318.065	355.94
318.295	345.94
318.524	348.94
318.753	347.94
318.983	341.94
319.212	344.94
319.441	357.94
319.67	344.94
319.9	321.94
320.129	348.94
320.358	344.94
320.587	337.94
320.816	364.94
321.046	342.94
321.275	367.94
321.504	354.94
321.733	370.94
321.962	373.94
322.191	361.94
322.42	375.94
322.649	369.94
322.878	370.94
323.108	387.94
323.337	381.94
323.566	409.94
323.795	413.94
324.024	450.94
324.253	437.94
324.482	577.94
324.71	810.94
324.939	1088.94
325.168	945.94
325.397	580.94
325.626	464.94
325.855	417.94
326.084	407.94
326.313	393.94
326.542	400.94
326.77	434.94
326.999	455.94
327.228	564.94
327.457	742.94
327.686	852.94
327.914	664.94
328.143	497.94
328.372	457.94
328.6	420.94
328.829	415.94
329.058	431.94
329.287	421.94
329.515	437.94
329.744	417.94
329.972	424.94
330.201	423.94
330.43	425.94
330.658	436.94
330.887	453.94
331.115	455.94
331.344	415.94
331.572	429.94
331.801	410.94
332.03	419.94
332.258	409.94
332.486	422.94
332.715	423.94
332.943	426.94
333.172	426.94
333.4	453.94
333.629	457.94
333.857	436.94
334.085	452.94
334.314	472.94
334.542	460.94
334.771	460.94
334.999	465.94
335.227	462.94
335.455	450.94
335.684	424.94
335.912	425.94
336.14	409.94
336.369	421.94
336.597	402.94
336.825	418.94
337.053	414.94
337.281	400.94
337.51	421.94
337.738	409.94
337.966	407.94
338.194	414.94
338.422	414.94
338.65	406.94
338.878	408.94
339.106	414.94
339.334	399.94
339.562	391.94
339.79	391.94
340.018	394.94
340.246	400.94
340.474	385.94
340.702	395.94
340.93	389.94
341.158	397.94
341.386	400.94
341.614	406.94
341.842	416.94
342.07	397.94
342.298	377.94
342.526	377.94
342.754	364.94
342.981	383.94
343.209	392.94
343.437	393.94
343.665	403.94
343.893	421.94
344.12	452.94
344.348	435.94
344.576	427.94
344.804	413.94
345.031	404.94
345.259	398.94
345.487	408.94
345.714	393.94
345.942	395.94
346.17	379.94
346.397	368.94
346.625	383.94
346.853	372.94
347.08	378.94
347.308	370.94
347.535	375.94
347.763	392.94
347.99	396.94
348.218	409.94
348.445	361.94
348.673	371.94
348.9	367.94
349.128	397.94
349.355	380.94
349.583	352.94
349.81	361.94
350.037	373.94
350.265	374.94
350.492	364.94
350.72	373.94
350.947	376.94
351.174	375.94
351.402	355.94
351.629	379.94
351.856	375.94
352.083	372.94
352.311	383.94
352.538	359.94
352.765	372.94
352.992	395.94
353.22	397.94
353.447	383.94
353.674	372.94
353.901	365.94
354.128	371.94
354.355	368.94
354.583	360.94
354.81	360.94
355.037	360.94
355.264	378.94
355.491	364.94
355.718	362.94
355.945	358.94
356.172	369.94
356.399	373.94
356.626	372.94
356.853	362.94
357.08	371.94
357.307	364.94
357.534	351.94
357.761	373.94
357.988	373.94
358.215	371.94
358.441	349.94
358.668	367.94
358.895	369.94
359.122	348.94
359.349	362.94
359.576	376.94
359.802	391.94
360.029	386.94
360.256	405.94
360.483	381.94
360.709	380.94
360.936	374.94
361.163	377.94
361.39	374.94
361.616	370.94
361.843	388.94
362.07	386.94
362.296	391.94
362.523	385.94
362.749	369.94
362.976	385.94
363.203	378.94
363.429	353.94
363.656	367.94
363.882	374.94
364.109	378.94
364.335	371.94
364.562	379.94
364.788	355.94
365.015	360.94
365.241	374.94
365.468	363.94
365.694	389.94
365.92	364.94
366.147	380.94
366.373	371.94
366.599	362.94
366.826	367.94
367.052	368.94
367.278	379.94
367.505	380.94
367.731	392.94
367.957	378.94
368.184	379.94
368.41	360.94
368.636	377.94
368.862	369.94
369.089	367.94
369.315	372.94
369.541	385.94
369.767	376.94
369.993	392.94
370.219	373.94
370.445	377.94
370.672	381.94
370.898	372.94
371.124	377.94
371.35	355.94
371.576	379.94
371.802	387.94
372.028	387.94
372.254	382.94
372.48	389.94
372.706	402.94
372.932	402.94
373.158	398.94
373.384	389.94
373.61	379.94
373.835	391.94
374.061	379.94
374.287	387.94
374.513	377.94
374.739	405.94
374.965	413.94
375.191	410.94
375.416	403.94
375.642	401.94
375.868	391.94
376.094	390.94
376.319	377.94
376.545	381.94
376.771	385.94
376.997	391.94
377.222	355.94
377.448	383.94
377.674	393.94
377.899	362.94
378.125	385.94
378.35	375.94
378.576	384.94
378.802	391.94
379.027	402.94
379.253	392.94
379.478	364.94
379.704	368.94
379.929	371.94
380.155	394.94
380.38	381.94
380.606	389.94
380.831	393.94
381.057	386.94
381.282	387.94
381.507	390.94
381.733	392.94
381.958	400.94
382.184	384.94
382.409	392.94
382.634	383.94
382.86	386.94
383.085	415.94
383.31	389.94
383.535	405.94
383.761	412.94
383.986	413.94
384.211	404.94
384.436	439.94
384.662	421.94
384.887	409.94
385.112	417.94
385.337	429.94
385.562	412.94
385.787	427.94
386.013	448.94
386.238	452.94
386.463	453.94
386.688	449.94
386.913	418.94
387.138	442.94
387.363	419.94
387.588	440.94
387.813	445.94
388.038	437.94
388.263	429.94
388.488	456.94
388.713	438.94
388.938	434.94
389.163	413.94
389.387	455.94
389.612	422.94
389.837	420.94
390.062	427.94
390.287	426.94
390.512	432.94
390.736	420.94
390.961	429.94
391.186	435.94
391.411	431.94
391.636	464.94
391.86	435.94
392.085	470.94
392.31	451.94
392.534	456.94
392.759	459.94
392.984	464.94
393.208	439.94
393.433	456.94
393.658	461.94
393.882	431.94
394.107	441.94
394.331	456.94
394.556	443.94
394.78	458.94
395.005	441.94
395.229	445.94
395.454	456.94
395.678	476.94
395.903	495.94
396.127	472.94
396.352	469.94
396.576	452.94
396.801	464.94
397.025	463.94
397.249	457.94
397.474	452.94
397.698	456.94
397.922	448.94
398.147	470.94
398.371	482.94
398.595	492.94
398.82	482.94
399.044	538.94
399.268	553.94
399.492	604.94
399.717	637.94
399.941	647.94
400.165	647.94
400.389	614.94
400.613	574.94
400.837	538.94
401.062	531.94
401.286	526.94
401.51	529.94
401.734	510.94
401.958	517.94
402.182	509.94
402.406	503.94
402.63	537.94
402.854	524.94
403.078	535.94
403.302	527.94
403.526	543.94
403.75	529.94
403.974	542.94
404.198	533.94
404.422	556.94
404.645	549.94
404.869	557.94
405.093	568.94
405.317	599.94
405.541	605.94
405.765	578.94
405.988	567.94
406.212	556.94
406.436	550.94
406.66	570.94
406.883	577.94
407.107	595.94
407.331	623.94
407.555	647.94
407.778	668.94
408.002	628.94
408.226	584.94
408.449	579.94
408.673	573.94
408.896	569.94
409.12	613.94
409.344	589.94
409.567	571.94
409.791	547.94
410.014	541.94
410.238	522.94
410.461	544.94
410.685	530.94
410.908	523.94
411.132	567.94
411.355	588.94
411.578	578.94
411.802	543.94
412.025	525.94
412.249	547.94
412.472	548.94
412.695	571.94
412.919	540.94
413.142	526.94
413.365	522.94
413.589	499.94
413.812	518.94
414.035	513.94
414.258	504.94
414.482	473.94
414.705	508.94
414.928	525.94
415.151	510.94
415.374	511.94
415.597	505.94
415.821	498.94
416.044	480.94
416.267	489.94
416.49	507.94
416.713	481.94
416.936	513.94
417.159	490.94
417.382	511.94
417.605	490.94
417.828	480.94
418.051	503.94
418.274	513.94
418.497	492.94
418.72	489.94
418.943	497.94
419.166	526.94
419.389	553.94
419.611	531.94
419.834	530.94
420.057	495.94
420.28	518.94
420.503	508.94
420.726	511.94
420.948	510.94
421.171	536.94
421.394	554.94
421.617	520.94
421.839	489.94
422.062	511.94
422.285	517.94
422.507	543.94
422.73	609.94
422.953	561.94
423.175	526.94
423.398	529.94
423.621	522.94
423.843	547.94
424.066	553.94
424.288	535.94
424.511	551.94
424.733	588.94
424.956	617.94
425.178	600.94
425.401	593.94
425.623	609.94
425.846	552.94
426.068	522.94
426.291	526.94
426.513	527.94
426.735	517.94
426.958	556.94
427.18	596.94
427.402	647.94
427.625	710.94
427.847	630.94
428.069	542.94
428.292	501.94
428.514	477.94
428.736	482.94
428.958	486.94
429.181	499.94
429.403	472.94
429.625	485.94
429.847	509.94
430.069	533.94
430.292	533.94
430.514	497.94
430.736	482.94
430.958	467.94
431.18	443.94
431.402	473.94
431.624	471.94
431.846	469.94
432.068	490.94
432.29	461.94
432.512	464.94
432.734	480.94
432.956	455.94
433.178	473.94
433.4	466.94
433.622	490.94
433.844	490.94
434.066	479.94
434.287	459.94
434.509	477.94
434.731	499.94
434.953	496.94
435.175	528.94
435.397	517.94
435.618	519.94
435.84	518.94
436.062	594.94
436.284	624.94
436.505	559.94
436.727	529.94
436.949	473.94
437.17	472.94
437.392	483.94
437.614	490.94
437.835	487.94
438.057	537.94
438.278	587.94
438.5	583.94
438.721	661.94
438.943	634.94
439.165	535.94
439.386	517.94
439.608	480.94
439.829	503.94
440.05	517.94
440.272	533.94
440.493	495.94
440.715	497.94
440.936	474.94
441.158	475.94
441.379	493.94
441.6	508.94
441.822	519.94
442.043	532.94
442.264	587.94
442.486	599.94
442.707	572.94
442.928	532.94
443.149	528.94
443.371	526.94
443.592	564.94
443.813	619.94
444.034	668.94
444.255	597.94
444.476	552.94
444.698	548.94
444.919	563.94
445.14	674.94
445.361	592.94
445.582	562.94
445.803	552.94
446.024	596.94
446.245	612.94
446.466	567.94
446.687	513.94
446.908	499.94
447.129	489.94
447.35	478.94
447.571	476.94
447.792	470.94
448.013	481.94
448.234	483.94
448.455	493.94
448.675	554.94
448.896	615.94
449.117	564.94
449.338	523.94
449.559	609.94
449.779	661.94
450	563.94
450.221	494.94
450.442	466.94
450.662	445.94
450.883	453.94
451.104	441.94
451.324	444.94
451.545	445.94
451.766	433.94
451.986	453.94
452.207	433.94
452.428	426.94
452.648	428.94
452.869	404.94
453.089	419.94
453.31	434.94
453.53	426.94
453.751	437.94
453.971	443.94
454.192	435.94
454.412	401.94
454.633	420.94
454.853	407.94
455.073	428.94
455.294	429.94
455.514	475.94
455.734	469.94
455.955	441.94
456.175	415.94
456.395	424.94
456.616	393.94
456.836	432.94
457.056	416.94
457.276	378.94
457.497	427.94
457.717	425.94
457.937	431.94
458.157	420.94
458.377	415.94
458.598	414.94
458.818	453.94
459.038	488.94
459.258	524.94
459.478	507.94
459.698	466.94
459.918	486.94
460.138	479.94
460.358	508.94
460.578	490.94
460.798	524.94
461.018	500.94
461.238	519.94
461.458	490.94
461.678	497.94
461.898	509.94
462.118	495.94
462.338	541.94
462.558	539.94
462.777	574.94
462.997	574.94
463.217	611.94
463.437	594.94
463.657	594.94
463.876	569.94
464.096	563.94
464.316	544.94
464.536	561.94
464.755	555.94
464.975	522.94
465.195	538.94
465.414	541.94
465.634	491.94
465.854	501.94
466.073	479.94
466.293	467.94
466.512	468.94
466.732	463.94
466.951	446.94
467.171	461.94
467.391	451.94
467.61	423.94
467.829	449.94
468.049	423.94
468.268	440.94
468.488	439.94
468.707	442.94
468.927	449.94
469.146	441.94
469.365	457.94
469.585	450.94
469.804	442.94
470.023	462.94
470.243	448.94
470.462	454.94
470.681	455.94
470.901	464.94
471.12	451.94
471.339	450.94
471.558	461.94
471.777	448.94
471.997	471.94
472.216	445.94
472.435	447.94
472.654	456.94
472.873	463.94
473.092	434.94
473.311	452.94
473.53	452.94
473.749	439.94
473.968	469.94
474.187	544.94
474.406	541.94
474.625	464.94
474.844	447.94
475.063	462.94
475.282	421.94
475.501	425.94
475.72	453.94
475.939	461.94
476.158	452.94
476.377	469.94
476.596	456.94
476.814	474.94
477.033	476.94
477.252	492.94
477.471	491.94
477.69	485.94
477.908	496.94
478.127	492.94
478.346	485.94
478.564	506.94
478.783	517.94
479.002	548.94
479.22	529.94
479.439	528.94
479.658	542.94
479.876	566.94
480.095	548.94
480.313	567.94
480.532	558.94
480.751	582.94
480.969	574.94
481.188	572.94
481.406	585.94
481.624	561.94
481.843	549.94
482.061	538.94
482.28	529.94
482.498	532.94
482.717	513.94
482.935	526.94
483.153	535.94
483.372	524.94
483.59	528.94
483.808	547.94
484.027	535.94
484.245	508.94
484.463	535.94
484.681	539.94
484.9	536.94
485.118	539.94
485.336	533.94
485.554	582.94
485.772	551.94
485.99	535.94
486.209	561.94
486.427	555.94
486.645	569.94
486.863	561.94
487.081	583.94
487.299	580.94
487.517	564.94
487.735	565.94
487.953	531.94
488.171	567.94
488.389	567.94
488.607	569.94
488.825	575.94
489.043	579.94
489.261	556.94
489.479	563.94
489.696	575.94
489.914	561.94
490.132	564.94
490.35	571.94
490.568	578.94
490.786	591.94
491.003	586.94
491.221	591.94
491.439	585.94
491.657	576.94
491.874	576.94
492.092	594.94
492.31	581.94
492.527	601.94
492.745	599.94
492.963	608.94
493.18	611.94
493.398	611.94
493.615	600.94
493.833	618.94
494.05	623.94
494.268	626.94
494.485	615.94
494.703	629.94
494.92	615.94
495.138	629.94
495.355	635.94
495.573	620.94
495.79	602.94
496.008	636.94
496.225	617.94
496.442	635.94
496.66	643.94
496.877	639.94
497.094	640.94
497.312	641.94
497.529	672.94
497.746	692.94
497.963	691.94
498.181	713.94
498.398	747.94
498.615	735.94
498.832	759.94
499.049	807.94
499.267	848.94
499.484	873.94
499.701	894.94
499.918	969.94
500.135	1084.94
500.352	1128.94
500.569	1138.94
500.786	1157.94
501.003	1129.94
501.22	1069.94
501.437	1027.94
501.654	924.94
501.871	866.94
502.088	858.94
