Data from 1962.PennyLincolnUp.Lamp.En5.5.200Scan.071719.P1._HRD10591_13-53-45-061.txt Node
Date: Thu Jul 18 13:53:45 EDT 2019
User: cochatt
Spectrometer: HR+D1059
Trigger mode: 1
Integration Time (sec): 1.000000E-1
Scans to average: 1
Electric dark correction enabled: true
Nonlinearity correction enabled: false
Boxcar width: 0
XAxis mode: Wavelengths
Number of Pixels in Spectrum: 2048
>>>>>Begin Spectral Data<<<<<
223.165	-16.56
223.4	-16.56
223.635	-16.56
223.869	-17.56
224.104	-18.56
224.338	-11.56
224.573	-11.56
224.808	-11.56
225.042	-11.56
225.277	-14.56
225.511	-7.56
225.746	9.44
225.98	15.44
226.215	21.44
226.449	18.44
226.683	17.44
226.918	14.44
227.152	24.44
227.387	40.44
227.621	47.44
227.856	45.44
228.09	57.44
228.324	57.44
228.559	57.44
228.793	54.44
229.027	95.44
229.262	86.44
229.496	106.44
229.73	112.44
229.964	126.44
230.199	130.44
230.433	108.44
230.667	110.44
230.901	111.44
231.136	107.44
231.37	104.44
231.604	100.44
231.838	116.44
232.072	117.44
232.306	118.44
232.541	107.44
232.775	110.44
233.009	107.44
233.243	94.44
233.477	109.44
233.711	97.44
233.945	108.44
234.179	115.44
234.413	110.44
234.647	117.44
234.881	127.44
235.115	125.44
235.349	118.44
235.583	124.44
235.817	122.44
236.051	125.44
236.285	131.44
236.519	123.44
236.753	127.44
236.987	123.44
237.221	139.44
237.455	183.44
237.689	159.44
237.922	136.44
238.156	128.44
238.39	117.44
238.624	111.44
238.858	124.44
239.091	115.44
239.325	132.44
239.559	110.44
239.793	121.44
240.027	141.44
240.26	123.44
240.494	141.44
240.728	123.44
240.961	133.44
241.195	137.44
241.429	140.44
241.662	125.44
241.896	143.44
242.13	135.44
242.363	138.44
242.597	130.44
242.83	137.44
243.064	130.44
243.298	143.44
243.531	135.44
243.765	132.44
243.998	144.44
244.232	132.44
244.465	143.44
244.699	151.44
244.932	140.44
245.166	138.44
245.399	158.44
245.633	144.44
245.866	135.44
246.099	143.44
246.333	146.44
246.566	141.44
246.8	158.44
247.033	137.44
247.266	148.44
247.5	151.44
247.733	147.44
247.966	152.44
248.2	164.44
248.433	149.44
248.666	139.44
248.899	168.44
249.133	161.44
249.366	177.44
249.599	175.44
249.832	179.44
250.066	176.44
250.299	173.44
250.532	163.44
250.765	180.44
250.998	187.44
251.231	189.44
251.465	177.44
251.698	184.44
251.931	187.44
252.164	191.44
252.397	183.44
252.63	187.44
252.863	173.44
253.096	188.44
253.329	197.44
253.562	189.44
253.795	205.44
254.028	188.44
254.261	202.44
254.494	189.44
254.727	225.44
254.96	232.44
255.193	218.44
255.426	212.44
255.659	222.44
255.892	187.44
256.124	199.44
256.357	212.44
256.59	214.44
256.823	189.44
257.056	198.44
257.289	191.44
257.521	194.44
257.754	179.44
257.987	193.44
258.22	201.44
258.452	196.44
258.685	211.44
258.918	197.44
259.151	203.44
259.383	208.44
259.616	202.44
259.849	192.44
260.081	210.44
260.314	219.44
260.547	217.44
260.779	229.44
261.012	224.44
261.244	229.44
261.477	230.44
261.71	206.44
261.942	215.44
262.175	194.44
262.407	217.44
262.64	204.44
262.872	200.44
263.105	208.44
263.337	219.44
263.57	205.44
263.802	196.44
264.035	218.44
264.267	222.44
264.499	213.44
264.732	195.44
264.964	205.44
265.197	216.44
265.429	200.44
265.661	206.44
265.894	214.44
266.126	207.44
266.358	222.44
266.591	199.44
266.823	220.44
267.055	223.44
267.287	224.44
267.52	203.44
267.752	209.44
267.984	204.44
268.216	219.44
268.448	237.44
268.681	232.44
268.913	239.44
269.145	237.44
269.377	259.44
269.609	235.44
269.841	247.44
270.073	267.44
270.306	262.44
270.538	265.44
270.77	267.44
271.002	263.44
271.234	275.44
271.466	250.44
271.698	278.44
271.93	271.44
272.162	284.44
272.394	271.44
272.626	251.44
272.858	257.44
273.09	256.44
273.322	243.44
273.553	229.44
273.785	260.44
274.017	256.44
274.249	254.44
274.481	262.44
274.713	250.44
274.945	270.44
275.176	259.44
275.408	263.44
275.64	276.44
275.872	261.44
276.104	254.44
276.335	259.44
276.567	256.44
276.799	278.44
277.031	272.44
277.262	295.44
277.494	295.44
277.726	277.44
277.957	280.44
278.189	271.44
278.421	249.44
278.652	264.44
278.884	267.44
279.115	250.44
279.347	250.44
279.579	256.44
279.81	271.44
280.042	268.44
280.273	278.44
280.505	270.44
280.736	270.44
280.968	267.44
281.199	267.44
281.431	278.44
281.662	282.44
281.894	273.44
282.125	291.44
282.356	282.44
282.588	282.44
282.819	292.44
283.051	271.44
283.282	278.44
283.513	284.44
283.745	293.44
283.976	278.44
284.207	281.44
284.439	297.44
284.67	288.44
284.901	292.44
285.132	284.44
285.364	271.44
285.595	283.44
285.826	276.44
286.057	286.44
286.288	283.44
286.52	277.44
286.751	287.44
286.982	281.44
287.213	299.44
287.444	281.44
287.675	285.44
287.906	277.44
288.138	302.44
288.369	299.44
288.6	300.44
288.831	301.44
289.062	309.44
289.293	286.44
289.524	302.44
289.755	291.44
289.986	295.44
290.217	285.44
290.448	289.44
290.679	280.44
290.91	300.44
291.141	283.44
291.371	290.44
291.602	285.44
291.833	301.44
292.064	311.44
292.295	280.44
292.526	302.44
292.757	289.44
292.987	288.44
293.218	303.44
293.449	288.44
293.68	319.44
293.91	297.44
294.141	293.44
294.372	287.44
294.603	304.44
294.833	301.44
295.064	302.44
295.295	312.44
295.525	299.44
295.756	327.44
295.987	307.44
296.217	305.44
296.448	316.44
296.679	297.44
296.909	304.44
297.14	295.44
297.37	302.44
297.601	309.44
297.831	337.44
298.062	342.44
298.292	315.44
298.523	300.44
298.753	310.44
298.984	307.44
299.214	311.44
299.445	325.44
299.675	317.44
299.905	319.44
300.136	316.44
300.366	313.44
300.597	300.44
300.827	307.44
301.057	327.44
301.288	337.44
301.518	327.44
301.748	337.44
301.979	317.44
302.209	331.44
302.439	336.44
302.669	316.44
302.9	344.44
303.13	341.44
303.36	329.44
303.59	335.44
303.82	349.44
304.051	331.44
304.281	332.44
304.511	333.44
304.741	322.44
304.971	327.44
305.201	346.44
305.431	324.44
305.661	352.44
305.891	325.44
306.121	331.44
306.352	346.44
306.582	341.44
306.812	335.44
307.042	343.44
307.272	355.44
307.502	343.44
307.731	318.44
307.961	325.44
308.191	358.44
308.421	307.44
308.651	341.44
308.881	332.44
309.111	341.44
309.341	324.44
309.571	342.44
309.8	351.44
310.03	373.44
310.26	350.44
310.49	357.44
310.72	352.44
310.949	371.44
311.179	377.44
311.409	367.44
311.639	352.44
311.868	363.44
312.098	368.44
312.328	367.44
312.557	376.44
312.787	373.44
313.017	382.44
313.246	384.44
313.476	372.44
313.706	373.44
313.935	369.44
314.165	373.44
314.394	372.44
314.624	376.44
314.853	377.44
315.083	381.44
315.312	348.44
315.542	351.44
315.771	377.44
316.001	387.44
316.23	359.44
316.46	353.44
316.689	381.44
316.919	381.44
317.148	379.44
317.377	387.44
317.607	372.44
317.836	365.44
318.065	371.44
318.295	376.44
318.524	369.44
318.753	356.44
318.983	374.44
319.212	377.44
319.441	362.44
319.67	352.44
319.9	379.44
320.129	383.44
320.358	372.44
320.587	379.44
320.816	377.44
321.046	399.44
321.275	395.44
321.504	386.44
321.733	375.44
321.962	394.44
322.191	393.44
322.42	388.44
322.649	420.44
322.878	407.44
323.108	397.44
323.337	435.44
323.566	419.44
323.795	448.44
324.024	475.44
324.253	484.44
324.482	643.44
324.71	950.44
324.939	1277.44
325.168	1159.44
325.397	661.44
325.626	510.44
325.855	457.44
326.084	458.44
326.313	440.44
326.542	432.44
326.77	456.44
326.999	515.44
327.228	627.44
327.457	870.44
327.686	1019.44
327.914	707.44
328.143	541.44
328.372	477.44
328.6	485.44
328.829	465.44
329.058	456.44
329.287	483.44
329.515	439.44
329.744	448.44
329.972	448.44
330.201	460.44
330.43	468.44
330.658	476.44
330.887	499.44
331.115	494.44
331.344	454.44
331.572	451.44
331.801	461.44
332.03	448.44
332.258	425.44
332.486	441.44
332.715	449.44
332.943	448.44
333.172	458.44
333.4	451.44
333.629	452.44
333.857	466.44
334.085	488.44
334.314	510.44
334.542	515.44
334.771	517.44
334.999	469.44
335.227	477.44
335.455	451.44
335.684	447.44
335.912	465.44
336.14	441.44
336.369	482.44
336.597	442.44
336.825	440.44
337.053	438.44
337.281	437.44
337.51	431.44
337.738	428.44
337.966	445.44
338.194	435.44
338.422	446.44
338.65	427.44
338.878	431.44
339.106	410.44
339.334	432.44
339.562	414.44
339.79	421.44
340.018	418.44
340.246	424.44
340.474	408.44
340.702	438.44
340.93	411.44
341.158	424.44
341.386	412.44
341.614	417.44
341.842	421.44
342.07	406.44
342.298	423.44
342.526	408.44
342.754	413.44
342.981	412.44
343.209	421.44
343.437	426.44
343.665	445.44
343.893	463.44
344.12	452.44
344.348	458.44
344.576	446.44
344.804	435.44
345.031	452.44
345.259	444.44
345.487	427.44
345.714	423.44
345.942	412.44
346.17	407.44
346.397	414.44
346.625	394.44
346.853	414.44
347.08	405.44
347.308	413.44
347.535	410.44
347.763	397.44
347.99	408.44
348.218	414.44
348.445	405.44
348.673	406.44
348.9	422.44
349.128	401.44
349.355	400.44
349.583	408.44
349.81	396.44
350.037	387.44
350.265	384.44
350.492	387.44
350.72	400.44
350.947	407.44
351.174	383.44
351.402	402.44
351.629	381.44
351.856	380.44
352.083	413.44
352.311	408.44
352.538	397.44
352.765	406.44
352.992	391.44
353.22	390.44
353.447	380.44
353.674	411.44
353.901	399.44
354.128	410.44
354.355	387.44
354.583	379.44
354.81	395.44
355.037	375.44
355.264	402.44
355.491	371.44
355.718	378.44
355.945	388.44
356.172	374.44
356.399	389.44
356.626	397.44
356.853	390.44
357.08	387.44
357.307	393.44
357.534	384.44
357.761	372.44
357.988	379.44
358.215	376.44
358.441	366.44
358.668	387.44
358.895	401.44
359.122	391.44
359.349	411.44
359.576	407.44
359.802	396.44
360.029	394.44
360.256	409.44
360.483	414.44
360.709	400.44
360.936	401.44
361.163	401.44
361.39	382.44
361.616	399.44
361.843	411.44
362.07	408.44
362.296	388.44
362.523	393.44
362.749	398.44
362.976	391.44
363.203	411.44
363.429	379.44
363.656	397.44
363.882	386.44
364.109	400.44
364.335	386.44
364.562	388.44
364.788	379.44
365.015	393.44
365.241	393.44
365.468	403.44
365.694	397.44
365.92	394.44
366.147	398.44
366.373	401.44
366.599	366.44
366.826	375.44
367.052	391.44
367.278	392.44
367.505	375.44
367.731	400.44
367.957	395.44
368.184	387.44
368.41	394.44
368.636	402.44
368.862	409.44
369.089	387.44
369.315	413.44
369.541	407.44
369.767	405.44
369.993	382.44
370.219	377.44
370.445	395.44
370.672	375.44
370.898	400.44
371.124	377.44
371.35	416.44
371.576	409.44
371.802	405.44
372.028	414.44
372.254	409.44
372.48	401.44
372.706	410.44
372.932	409.44
373.158	403.44
373.384	419.44
373.61	388.44
373.835	404.44
374.061	404.44
374.287	427.44
374.513	419.44
374.739	409.44
374.965	424.44
375.191	427.44
375.416	423.44
375.642	416.44
375.868	431.44
376.094	411.44
376.319	420.44
376.545	400.44
376.771	398.44
376.997	406.44
377.222	404.44
377.448	421.44
377.674	383.44
377.899	387.44
378.125	423.44
378.35	413.44
378.576	386.44
378.802	385.44
379.027	394.44
379.253	420.44
379.478	416.44
379.704	408.44
379.929	398.44
380.155	407.44
380.38	389.44
380.606	417.44
380.831	400.44
381.057	398.44
381.282	403.44
381.507	411.44
381.733	393.44
381.958	422.44
382.184	419.44
382.409	402.44
382.634	411.44
382.86	422.44
383.085	407.44
383.31	414.44
383.535	443.44
383.761	423.44
383.986	425.44
384.211	426.44
384.436	425.44
384.662	446.44
384.887	457.44
385.112	441.44
385.337	446.44
385.562	451.44
385.787	467.44
386.013	490.44
386.238	465.44
386.463	450.44
386.688	475.44
386.913	464.44
387.138	460.44
387.363	461.44
387.588	460.44
387.813	473.44
388.038	460.44
388.263	462.44
388.488	448.44
388.713	449.44
388.938	467.44
389.163	443.44
389.387	454.44
389.612	471.44
389.837	458.44
390.062	457.44
390.287	446.44
390.512	441.44
390.736	477.44
390.961	473.44
391.186	475.44
391.411	459.44
391.636	470.44
391.86	469.44
392.085	478.44
392.31	499.44
392.534	471.44
392.759	479.44
392.984	465.44
393.208	472.44
393.433	461.44
393.658	463.44
393.882	478.44
394.107	454.44
394.331	464.44
394.556	443.44
394.78	460.44
395.005	471.44
395.229	471.44
395.454	487.44
395.678	495.44
395.903	480.44
396.127	493.44
396.352	489.44
396.576	476.44
396.801	474.44
397.025	497.44
397.249	503.44
397.474	482.44
397.698	488.44
397.922	526.44
398.147	534.44
398.371	520.44
398.595	536.44
398.82	533.44
399.044	564.44
399.268	552.44
399.492	622.44
399.717	685.44
399.941	670.44
400.165	676.44
400.389	639.44
400.613	611.44
400.837	575.44
401.062	565.44
401.286	543.44
401.51	540.44
401.734	526.44
401.958	561.44
402.182	542.44
402.406	550.44
402.63	564.44
402.854	550.44
403.078	559.44
403.302	588.44
403.526	586.44
403.75	601.44
403.974	593.44
404.198	568.44
404.422	576.44
404.645	590.44
404.869	582.44
405.093	599.44
405.317	625.44
405.541	635.44
405.765	603.44
405.988	585.44
406.212	594.44
406.436	567.44
406.66	631.44
406.883	586.44
407.107	635.44
407.331	671.44
407.555	690.44
407.778	714.44
408.002	661.44
408.226	639.44
408.449	606.44
408.673	601.44
408.896	608.44
409.12	646.44
409.344	627.44
409.567	598.44
409.791	587.44
410.014	587.44
410.238	548.44
410.461	562.44
410.685	558.44
410.908	583.44
411.132	600.44
411.355	620.44
411.578	601.44
411.802	560.44
412.025	561.44
412.249	561.44
412.472	548.44
412.695	609.44
412.919	580.44
413.142	549.44
413.365	551.44
413.589	562.44
413.812	535.44
414.035	539.44
414.258	546.44
414.482	524.44
414.705	535.44
414.928	535.44
415.151	536.44
415.374	549.44
415.597	522.44
415.821	510.44
416.044	543.44
416.267	539.44
416.49	524.44
416.713	515.44
416.936	523.44
417.159	528.44
417.382	528.44
417.605	539.44
417.828	544.44
418.051	533.44
418.274	545.44
418.497	521.44
418.72	539.44
418.943	541.44
419.166	558.44
419.389	595.44
419.611	567.44
419.834	558.44
420.057	560.44
420.28	537.44
420.503	525.44
420.726	553.44
420.948	560.44
421.171	557.44
421.394	577.44
421.617	545.44
421.839	551.44
422.062	514.44
422.285	531.44
422.507	607.44
422.73	626.44
422.953	645.44
423.175	574.44
423.398	556.44
423.621	568.44
423.843	573.44
424.066	591.44
424.288	559.44
424.511	578.44
424.733	611.44
424.956	648.44
425.178	665.44
425.401	635.44
425.623	646.44
425.846	588.44
426.068	567.44
426.291	533.44
426.513	555.44
426.735	536.44
426.958	583.44
427.18	628.44
427.402	715.44
427.625	764.44
427.847	667.44
428.069	594.44
428.292	561.44
428.514	551.44
428.736	524.44
428.958	515.44
429.181	507.44
429.403	492.44
429.625	521.44
429.847	545.44
430.069	559.44
430.292	566.44
430.514	547.44
430.736	531.44
430.958	496.44
431.18	494.44
431.402	499.44
431.624	481.44
431.846	487.44
432.068	495.44
432.29	497.44
432.512	476.44
432.734	503.44
432.956	513.44
433.178	525.44
433.4	504.44
433.622	492.44
433.844	519.44
434.066	508.44
434.287	513.44
434.509	538.44
434.731	535.44
434.953	530.44
435.175	527.44
435.397	563.44
435.618	546.44
435.84	595.44
436.062	624.44
436.284	682.44
436.505	594.44
436.727	553.44
436.949	508.44
437.17	520.44
437.392	525.44
437.614	517.44
437.835	518.44
438.057	575.44
438.278	659.44
438.5	649.44
438.721	710.44
438.943	708.44
439.165	588.44
439.386	537.44
439.608	533.44
439.829	542.44
440.05	558.44
440.272	580.44
440.493	547.44
440.715	521.44
440.936	528.44
441.158	538.44
441.379	530.44
441.6	521.44
441.822	552.44
442.043	585.44
442.264	621.44
442.486	668.44
442.707	599.44
442.928	565.44
443.149	575.44
443.371	590.44
443.592	607.44
443.813	664.44
444.034	709.44
444.255	611.44
444.476	593.44
444.698	579.44
444.919	601.44
445.14	723.44
445.361	627.44
445.582	563.44
445.803	605.44
446.024	677.44
446.245	673.44
446.466	642.44
446.687	558.44
446.908	557.44
447.129	511.44
447.35	501.44
447.571	504.44
447.792	490.44
448.013	493.44
448.234	483.44
448.455	548.44
448.675	616.44
448.896	689.44
449.117	602.44
449.338	585.44
449.559	653.44
449.779	739.44
450	616.44
450.221	515.44
450.442	503.44
450.662	492.44
450.883	473.44
451.104	487.44
451.324	453.44
451.545	440.44
451.766	458.44
451.986	443.44
452.207	450.44
452.428	449.44
452.648	443.44
452.869	450.44
453.089	457.44
453.31	468.44
453.53	435.44
453.751	468.44
453.971	472.44
454.192	436.44
454.412	445.44
454.633	451.44
454.853	455.44
455.073	430.44
455.294	451.44
455.514	524.44
455.734	483.44
455.955	455.44
456.175	437.44
456.395	433.44
456.616	440.44
456.836	437.44
457.056	439.44
457.276	439.44
457.497	442.44
457.717	445.44
457.937	443.44
458.157	439.44
458.377	449.44
458.598	460.44
458.818	504.44
459.038	528.44
459.258	565.44
459.478	527.44
459.698	488.44
459.918	517.44
460.138	519.44
460.358	506.44
460.578	545.44
460.798	551.44
461.018	548.44
461.238	532.44
461.458	534.44
461.678	536.44
461.898	523.44
462.118	565.44
462.338	565.44
462.558	566.44
462.777	597.44
462.997	607.44
463.217	631.44
463.437	637.44
463.657	599.44
463.876	597.44
464.096	585.44
464.316	575.44
464.536	581.44
464.755	568.44
464.975	569.44
465.195	571.44
465.414	600.44
465.634	541.44
465.854	513.44
466.073	505.44
466.293	493.44
466.512	473.44
466.732	487.44
466.951	472.44
467.171	463.44
467.391	507.44
467.61	496.44
467.829	485.44
468.049	448.44
468.268	451.44
468.488	472.44
468.707	451.44
468.927	466.44
469.146	451.44
469.365	474.44
469.585	468.44
469.804	457.44
470.023	477.44
470.243	496.44
470.462	487.44
470.681	518.44
470.901	492.44
471.12	492.44
471.339	494.44
471.558	491.44
471.777	490.44
471.997	463.44
472.216	473.44
472.435	502.44
472.654	486.44
472.873	467.44
473.092	464.44
473.311	475.44
473.53	464.44
473.749	473.44
473.968	521.44
474.187	548.44
474.406	563.44
474.625	514.44
474.844	491.44
475.063	465.44
475.282	468.44
475.501	472.44
475.72	487.44
475.939	493.44
476.158	475.44
476.377	490.44
476.596	487.44
476.814	488.44
477.033	455.44
477.252	494.44
477.471	526.44
477.69	522.44
477.908	519.44
478.127	530.44
478.346	549.44
478.564	535.44
478.783	566.44
479.002	537.44
479.22	541.44
479.439	582.44
479.658	577.44
479.876	565.44
480.095	589.44
480.313	591.44
480.532	607.44
480.751	624.44
480.969	611.44
481.188	609.44
481.406	620.44
481.624	590.44
481.843	579.44
482.061	553.44
482.28	551.44
482.498	554.44
482.717	564.44
482.935	540.44
483.153	516.44
483.372	555.44
483.59	553.44
483.808	530.44
484.027	567.44
484.245	574.44
484.463	561.44
484.681	557.44
484.9	570.44
485.118	558.44
485.336	577.44
485.554	584.44
485.772	586.44
485.99	582.44
486.209	574.44
486.427	569.44
486.645	585.44
486.863	592.44
487.081	575.44
487.299	589.44
487.517	604.44
487.735	573.44
487.953	580.44
488.171	616.44
488.389	592.44
488.607	606.44
488.825	592.44
489.043	602.44
489.261	568.44
489.479	587.44
489.696	588.44
489.914	600.44
490.132	598.44
490.35	624.44
490.568	612.44
490.786	630.44
491.003	615.44
491.221	617.44
491.439	622.44
491.657	617.44
491.874	646.44
492.092	662.44
492.31	630.44
492.527	644.44
492.745	652.44
492.963	652.44
493.18	655.44
493.398	653.44
493.615	676.44
493.833	652.44
494.05	641.44
494.268	667.44
494.485	645.44
494.703	648.44
494.92	664.44
495.138	695.44
495.355	679.44
495.573	675.44
495.79	637.44
496.008	659.44
496.225	699.44
496.442	663.44
496.66	680.44
496.877	687.44
497.094	680.44
497.312	695.44
497.529	715.44
497.746	728.44
497.963	728.44
498.181	739.44
498.398	744.44
498.615	809.44
498.832	825.44
499.049	891.44
499.267	891.44
499.484	930.44
499.701	992.44
499.918	1031.44
500.135	1091.44
500.352	1209.44
500.569	1215.44
500.786	1226.44
501.003	1165.44
501.22	1124.44
501.437	1057.44
501.654	998.44
501.871	955.44
