Data from 1962.PennyLincolnUp.Lamp.En5.5.200Scan.071719.P1._HRD10591_13-54-10-062.txt Node
Date: Thu Jul 18 13:54:10 EDT 2019
User: cochatt
Spectrometer: HR+D1059
Trigger mode: 1
Integration Time (sec): 1.000000E-1
Scans to average: 1
Electric dark correction enabled: true
Nonlinearity correction enabled: false
Boxcar width: 0
XAxis mode: Wavelengths
Number of Pixels in Spectrum: 2048
>>>>>Begin Spectral Data<<<<<
223.165	-17
223.4	-17
223.635	-17
223.869	-17
224.104	-20
224.338	-25
224.573	-9
224.808	-15
225.042	-18
225.277	0
225.511	8
225.746	0
225.98	8
226.215	11
226.449	11
226.683	24
226.918	26
227.152	33
227.387	22
227.621	35
227.856	50
228.09	38
228.324	62
228.559	42
228.793	60
229.027	91
229.262	83
229.496	100
229.73	118
229.964	133
230.199	117
230.433	101
230.667	99
230.901	106
231.136	102
231.37	114
231.604	101
231.838	105
232.072	109
232.306	101
232.541	107
232.775	111
233.009	109
233.243	107
233.477	107
233.711	106
233.945	115
234.179	114
234.413	132
234.647	113
234.881	121
235.115	113
235.349	115
235.583	114
235.817	131
236.051	111
236.285	124
236.519	107
236.753	108
236.987	132
237.221	146
237.455	176
237.689	152
237.922	127
238.156	122
238.39	126
238.624	101
238.858	129
239.091	134
239.325	111
239.559	113
239.793	124
240.027	134
240.26	144
240.494	130
240.728	137
240.961	132
241.195	144
241.429	145
241.662	129
241.896	127
242.13	122
242.363	124
242.597	131
242.83	128
243.064	126
243.298	138
243.531	136
243.765	125
243.998	133
244.232	127
244.465	136
244.699	140
244.932	134
245.166	131
245.399	140
245.633	136
245.866	141
246.099	146
246.333	127
246.566	138
246.8	140
247.033	147
247.266	137
247.5	165
247.733	154
247.966	164
248.2	158
248.433	159
248.666	159
248.899	170
249.133	178
249.366	187
249.599	158
249.832	157
250.066	166
250.299	160
250.532	168
250.765	178
250.998	198
251.231	201
251.465	188
251.698	176
251.931	189
252.164	195
252.397	180
252.63	183
252.863	173
253.096	196
253.329	203
253.562	211
253.795	215
254.028	196
254.261	194
254.494	183
254.727	214
254.96	227
255.193	230
255.426	218
255.659	201
255.892	202
256.124	212
256.357	209
256.59	195
256.823	195
257.056	170
257.289	184
257.521	203
257.754	184
257.987	187
258.22	201
258.452	174
258.685	206
258.918	203
259.151	184
259.383	200
259.616	203
259.849	191
260.081	202
260.314	224
260.547	226
260.779	204
261.012	207
261.244	222
261.477	196
261.71	199
261.942	197
262.175	187
262.407	210
262.64	199
262.872	201
263.105	178
263.337	204
263.57	215
263.802	184
264.035	203
264.267	196
264.499	199
264.732	192
264.964	201
265.197	208
265.429	209
265.661	195
265.894	218
266.126	205
266.358	203
266.591	209
266.823	213
267.055	211
267.287	212
267.52	219
267.752	225
267.984	229
268.216	206
268.448	225
268.681	225
268.913	245
269.145	232
269.377	262
269.609	245
269.841	245
270.073	255
270.306	255
270.538	280
270.77	286
271.002	279
271.234	257
271.466	270
271.698	273
271.93	267
272.162	260
272.394	268
272.626	255
272.858	262
273.09	262
273.322	265
273.553	247
273.785	245
274.017	250
274.249	257
274.481	259
274.713	260
274.945	235
275.176	243
275.408	258
275.64	262
275.872	240
276.104	258
276.335	260
276.567	257
276.799	248
277.031	282
277.262	281
277.494	276
277.726	248
277.957	257
278.189	266
278.421	259
278.652	266
278.884	281
279.115	267
279.347	256
279.579	250
279.81	260
280.042	257
280.273	257
280.505	268
280.736	247
280.968	288
281.199	260
281.431	280
281.662	273
281.894	267
282.125	265
282.356	282
282.588	292
282.819	274
283.051	263
283.282	258
283.513	266
283.745	270
283.976	276
284.207	274
284.439	272
284.67	272
284.901	286
285.132	293
285.364	284
285.595	260
285.826	282
286.057	272
286.288	246
286.52	269
286.751	286
286.982	286
287.213	283
287.444	260
287.675	286
287.906	280
288.138	315
288.369	291
288.6	290
288.831	297
289.062	285
289.293	279
289.524	295
289.755	296
289.986	312
290.217	294
290.448	277
290.679	295
290.91	297
291.141	307
291.371	291
291.602	297
291.833	288
292.064	296
292.295	281
292.526	285
292.757	306
292.987	286
293.218	293
293.449	283
293.68	286
293.91	295
294.141	286
294.372	276
294.603	291
294.833	306
295.064	312
295.295	307
295.525	290
295.756	298
295.987	331
296.217	308
296.448	320
296.679	306
296.909	310
297.14	305
297.37	320
297.601	303
297.831	301
298.062	311
298.292	304
298.523	294
298.753	312
298.984	315
299.214	312
299.445	307
299.675	294
299.905	302
300.136	306
300.366	308
300.597	317
300.827	315
301.057	336
301.288	340
301.518	318
301.748	325
301.979	353
302.209	312
302.439	320
302.669	332
302.9	299
303.13	339
303.36	334
303.59	336
303.82	340
304.051	341
304.281	333
304.511	343
304.741	342
304.971	313
305.201	327
305.431	333
305.661	335
305.891	320
306.121	315
306.352	326
306.582	319
306.812	336
307.042	320
307.272	334
307.502	331
307.731	334
307.961	331
308.191	326
308.421	331
308.651	356
308.881	342
309.111	332
309.341	344
309.571	349
309.8	332
310.03	372
310.26	367
310.49	352
310.72	361
310.949	353
311.179	383
311.409	352
311.639	351
311.868	357
312.098	358
312.328	375
312.557	373
312.787	358
313.017	379
313.246	371
313.476	353
313.706	379
313.935	366
314.165	376
314.394	369
314.624	381
314.853	377
315.083	362
315.312	354
315.542	358
315.771	370
316.001	367
316.23	362
316.46	362
316.689	378
316.919	376
317.148	370
317.377	367
317.607	366
317.836	376
318.065	360
318.295	344
318.524	355
318.753	358
318.983	386
319.212	378
319.441	368
319.67	359
319.9	348
320.129	367
320.358	374
320.587	369
320.816	360
321.046	400
321.275	360
321.504	379
321.733	374
321.962	396
322.191	393
322.42	402
322.649	389
322.878	411
323.108	407
323.337	411
323.566	418
323.795	433
324.024	476
324.253	534
324.482	695
324.71	975
324.939	1386
325.168	1182
325.397	666
325.626	512
325.855	464
326.084	449
326.313	445
326.542	423
326.77	471
326.999	517
327.228	639
327.457	916
327.686	1080
327.914	767
328.143	562
328.372	521
328.6	473
328.829	457
329.058	465
329.287	476
329.515	459
329.744	449
329.972	454
330.201	467
330.43	485
330.658	491
330.887	486
331.115	495
331.344	468
331.572	427
331.801	453
332.03	468
332.258	443
332.486	436
332.715	451
332.943	453
333.172	455
333.4	463
333.629	472
333.857	471
334.085	458
334.314	482
334.542	511
334.771	510
334.999	482
335.227	472
335.455	474
335.684	474
335.912	450
336.14	439
336.369	455
336.597	434
336.825	439
337.053	440
337.281	424
337.51	454
337.738	442
337.966	434
338.194	451
338.422	427
338.65	424
338.878	425
339.106	454
339.334	432
339.562	419
339.79	409
340.018	410
340.246	417
340.474	446
340.702	431
340.93	402
341.158	412
341.386	420
341.614	435
341.842	427
342.07	421
342.298	398
342.526	419
342.754	401
342.981	419
343.209	398
343.437	418
343.665	422
343.893	441
344.12	460
344.348	459
344.576	454
344.804	419
345.031	427
345.259	417
345.487	438
345.714	427
345.942	435
346.17	418
346.397	405
346.625	400
346.853	410
347.08	394
347.308	396
347.535	416
347.763	402
347.99	393
348.218	404
348.445	409
348.673	400
348.9	404
349.128	409
349.355	390
349.583	382
349.81	406
350.037	390
350.265	393
350.492	396
350.72	393
350.947	387
351.174	397
351.402	407
351.629	394
351.856	396
352.083	390
352.311	423
352.538	394
352.765	400
352.992	373
353.22	382
353.447	380
353.674	404
353.901	382
354.128	401
354.355	382
354.583	393
354.81	373
355.037	383
355.264	374
355.491	379
355.718	397
355.945	376
356.172	370
356.399	375
356.626	392
356.853	396
357.08	379
357.307	378
357.534	374
357.761	385
357.988	397
358.215	387
358.441	387
358.668	378
358.895	387
359.122	386
359.349	364
359.576	404
359.802	402
360.029	409
360.256	421
360.483	403
360.709	412
360.936	401
361.163	403
361.39	392
361.616	401
361.843	395
362.07	408
362.296	409
362.523	392
362.749	378
362.976	366
363.203	402
363.429	385
363.656	378
363.882	405
364.109	378
364.335	400
364.562	380
364.788	393
365.015	382
365.241	395
365.468	410
365.694	392
365.92	400
366.147	393
366.373	380
366.599	380
366.826	400
367.052	377
367.278	374
367.505	379
367.731	381
367.957	382
368.184	388
368.41	387
368.636	392
368.862	397
369.089	394
369.315	406
369.541	408
369.767	396
369.993	405
370.219	394
370.445	388
370.672	414
370.898	380
371.124	407
371.35	401
371.576	383
371.802	410
372.028	415
372.254	391
372.48	418
372.706	402
372.932	411
373.158	386
373.384	414
373.61	414
373.835	404
374.061	381
374.287	397
374.513	425
374.739	431
374.965	414
375.191	409
375.416	432
375.642	430
375.868	404
376.094	394
376.319	416
376.545	404
376.771	395
376.997	390
377.222	412
377.448	409
377.674	375
377.899	389
378.125	379
378.35	386
378.576	406
378.802	392
379.027	398
379.253	423
379.478	362
379.704	386
379.929	411
380.155	394
380.38	397
380.606	413
380.831	404
381.057	418
381.282	376
381.507	396
381.733	405
381.958	411
382.184	411
382.409	408
382.634	420
382.86	432
383.085	432
383.31	417
383.535	414
383.761	423
383.986	425
384.211	438
384.436	432
384.662	424
384.887	432
385.112	417
385.337	463
385.562	451
385.787	432
386.013	464
386.238	463
386.463	452
386.688	446
386.913	436
387.138	454
387.363	457
387.588	459
387.813	451
388.038	433
388.263	457
388.488	457
388.713	442
388.938	461
389.163	456
389.387	457
389.612	433
389.837	443
390.062	431
390.287	437
390.512	432
390.736	450
390.961	460
391.186	457
391.411	454
391.636	481
391.86	483
392.085	490
392.31	475
392.534	479
392.759	470
392.984	473
393.208	452
393.433	470
393.658	458
393.882	462
394.107	478
394.331	465
394.556	458
394.78	464
395.005	485
395.229	463
395.454	484
395.678	482
395.903	496
396.127	514
396.352	500
396.576	507
396.801	495
397.025	458
397.249	491
397.474	487
397.698	498
397.922	498
398.147	521
398.371	532
398.595	521
398.82	528
399.044	542
399.268	582
399.492	608
399.717	671
399.941	696
400.165	679
400.389	640
400.613	617
400.837	552
401.062	561
401.286	535
401.51	529
401.734	539
401.958	536
402.182	552
402.406	523
402.63	539
402.854	539
403.078	540
403.302	543
403.526	566
403.75	542
403.974	578
404.198	549
404.422	566
404.645	585
404.869	571
405.093	582
405.317	602
405.541	649
405.765	592
405.988	586
406.212	582
406.436	594
406.66	600
406.883	602
407.107	609
407.331	658
407.555	677
407.778	702
408.002	658
408.226	648
408.449	630
408.673	605
408.896	636
409.12	644
409.344	619
409.567	590
409.791	556
410.014	552
410.238	569
410.461	572
410.685	571
410.908	563
411.132	599
411.355	603
411.578	595
411.802	558
412.025	554
412.249	564
412.472	557
412.695	588
412.919	581
413.142	557
413.365	529
413.589	551
413.812	544
414.035	536
414.258	519
414.482	518
414.705	522
414.928	512
415.151	531
415.374	526
415.597	521
415.821	489
416.044	507
416.267	520
416.49	528
416.713	518
416.936	510
417.159	520
417.382	515
417.605	500
417.828	532
418.051	534
418.274	518
418.497	508
418.72	528
418.943	542
419.166	555
419.389	577
419.611	569
419.834	562
420.057	548
420.28	567
420.503	543
420.726	543
420.948	533
421.171	577
421.394	582
421.617	542
421.839	519
422.062	547
422.285	505
422.507	598
422.73	648
422.953	620
423.175	562
423.398	569
423.621	545
423.843	568
424.066	590
424.288	587
424.511	576
424.733	630
424.956	686
425.178	640
425.401	671
425.623	656
425.846	582
426.068	558
426.291	553
426.513	524
426.735	542
426.958	581
427.18	619
427.402	736
427.625	766
427.847	671
428.069	601
428.292	553
428.514	522
428.736	525
428.958	531
429.181	517
429.403	514
429.625	505
429.847	517
430.069	570
430.292	576
430.514	510
430.736	487
430.958	497
431.18	490
431.402	499
431.624	488
431.846	514
432.068	489
432.29	492
432.512	483
432.734	481
432.956	503
433.178	513
433.4	507
433.622	498
433.844	511
434.066	515
434.287	496
434.509	511
434.731	546
434.953	521
435.175	528
435.397	549
435.618	556
435.84	578
436.062	631
436.284	683
436.505	580
436.727	553
436.949	516
437.17	521
437.392	502
437.614	525
437.835	513
438.057	593
438.278	660
438.5	659
438.721	694
438.943	695
439.165	585
439.386	530
439.608	517
439.829	524
440.05	535
440.272	588
440.493	556
440.715	531
440.936	534
441.158	523
441.379	525
441.6	530
441.822	550
442.043	565
442.264	637
442.486	652
442.707	592
442.928	549
443.149	562
443.371	576
443.592	590
443.813	657
444.034	741
444.255	636
444.476	573
444.698	601
444.919	595
445.14	695
445.361	631
445.582	586
445.803	613
446.024	673
446.245	679
446.466	623
446.687	574
446.908	542
447.129	519
447.35	530
447.571	502
447.792	476
448.013	501
448.234	496
448.455	539
448.675	620
448.896	710
449.117	594
449.338	558
449.559	650
449.779	751
450	618
450.221	531
450.442	497
450.662	466
450.883	488
451.104	501
451.324	478
451.545	462
451.766	466
451.986	466
452.207	450
452.428	458
452.648	443
452.869	445
453.089	453
453.31	463
453.53	440
453.751	448
453.971	426
454.192	475
454.412	435
454.633	453
454.853	448
455.073	424
455.294	456
455.514	511
455.734	487
455.955	443
456.175	432
456.395	416
456.616	435
456.836	455
457.056	437
457.276	429
457.497	426
457.717	424
457.937	415
458.157	439
458.377	443
458.598	486
458.818	481
459.038	548
459.258	580
459.478	521
459.698	536
459.918	519
460.138	522
460.358	536
460.578	529
460.798	516
461.018	531
461.238	546
461.458	541
461.678	520
461.898	539
462.118	547
462.338	566
462.558	555
462.777	565
462.997	592
463.217	637
463.437	632
463.657	621
463.876	579
464.096	555
464.316	580
464.536	595
464.755	583
464.975	560
465.195	546
465.414	599
465.634	532
465.854	531
466.073	491
466.293	481
466.512	495
466.732	470
466.951	446
467.171	477
467.391	475
467.61	482
467.829	452
468.049	477
468.268	487
468.488	469
468.707	452
468.927	474
469.146	448
469.365	448
469.585	463
469.804	441
470.023	472
470.243	488
470.462	486
470.681	474
470.901	494
471.12	491
471.339	475
471.558	464
471.777	486
471.997	465
472.216	484
472.435	507
472.654	490
472.873	458
473.092	456
473.311	458
473.53	469
473.749	476
473.968	484
474.187	547
474.406	582
474.625	508
474.844	476
475.063	479
475.282	472
475.501	471
475.72	503
475.939	499
476.158	490
476.377	490
476.596	488
476.814	491
477.033	505
477.252	504
477.471	492
477.69	524
477.908	520
478.127	531
478.346	551
478.564	544
478.783	513
479.002	565
479.22	575
479.439	564
479.658	559
479.876	569
480.095	598
480.313	601
480.532	575
480.751	585
480.969	586
481.188	625
481.406	636
481.624	585
481.843	554
482.061	547
482.28	560
482.498	535
482.717	567
482.935	548
483.153	561
483.372	540
483.59	543
483.808	562
484.027	555
484.245	542
484.463	549
484.681	538
484.9	546
485.118	564
485.336	545
485.554	565
485.772	570
485.99	552
486.209	551
486.427	587
486.645	599
486.863	583
487.081	596
487.299	583
487.517	613
487.735	590
487.953	584
488.171	576
488.389	587
488.607	558
488.825	579
489.043	582
489.261	608
489.479	600
489.696	587
489.914	598
490.132	601
490.35	617
490.568	599
490.786	633
491.003	612
491.221	617
491.439	636
491.657	627
491.874	644
492.092	645
492.31	658
492.527	632
492.745	646
492.963	619
493.18	642
493.398	639
493.615	640
493.833	650
494.05	663
494.268	653
494.485	656
494.703	676
494.92	677
495.138	651
495.355	663
495.573	664
495.79	655
496.008	658
496.225	657
496.442	681
496.66	686
496.877	679
497.094	704
497.312	710
497.529	717
497.746	733
497.963	719
498.181	753
498.398	764
498.615	793
498.832	816
499.049	851
499.267	884
499.484	938
499.701	991
499.918	1028
500.135	1077
500.352	1174
500.569	1211
500.786	1258
501.003	1182
501.22	1114
501.437	1052
501.654	1015
501.871	968
502.088	942
502.305	842
502.522	834
502.739	821
502.956	782
503.172	769
503.389	731
503.606	738
503.823	700
504.04	722
504.256	704
504.473	730
504.69	716
504.907	707
505.123	701
505.34	679
505.557	648
505.773	629
505.99	637
506.207	643
506.423	627
506.64	599
506.856	625
507.073	622
507.289	608
507.506	610
507.722	609
507.939	617
508.155	598
508.372	583
508.588	600
508.805	586
509.021	576
509.238	600
509.454	574
509.67	574
509.887	579
510.103	561
510.319	601
510.536	631
510.752	874
510.968	760
511.184	585
511.401	562
511.617	563
511.833	574
512.049	548
512.265	544
512.481	539
512.698	576
512.914	594
513.13	568
513.346	554
513.562	545
513.778	548
513.994	546
514.21	565
514.426	568
514.642	588
514.858	579
515.074	619
515.29	666
515.506	850
515.721	730
515.937	615
516.153	587
516.369	608
516.585	599
516.801	609
517.016	611
517.232	590
517.448	634
517.664	632
517.879	629
518.095	640
518.311	635
518.527	616
518.742	600
518.958	606
519.173	593
519.389	596
519.605	591
519.82	578
520.036	561
520.251	591
520.467	570
520.682	588
520.898	573
521.113	565
521.329	595
521.544	633
521.76	708
521.975	989
522.19	955
522.406	670
522.621	553
522.836	536
523.052	535
523.267	503
523.482	520
523.698	498
523.913	511
524.128	510
524.343	516
524.559	520
524.774	496
524.989	512
525.204	482
525.419	476
525.634	465
525.849	502
526.064	475
526.28	483
526.495	481
526.71	490
526.925	496
527.14	476
527.355	479
527.57	478
527.785	464
527.999	485
528.214	482
528.429	504
528.644	476
528.859	482
529.074	476
529.289	482
529.503	515
529.718	512
529.933	486
530.148	460
530.363	472
530.577	475
530.792	475
531.007	468
531.221	471
531.436	451
531.651	485
531.865	460
532.08	454
532.295	445
532.509	465
532.724	442
532.938	464
533.153	450
533.367	458
533.582	462
533.796	462
534.011	443
534.225	446
534.44	451
534.654	450
534.868	480
535.083	476
535.297	468
535.511	460
535.726	460
535.94	460
536.154	446
536.369	440
536.583	447
536.797	470
537.011	451
537.225	434
537.44	455
537.654	438
537.868	437
538.082	433
538.296	448
538.51	446
538.724	438
538.938	443
539.153	436
539.367	451
539.581	455
539.795	420
540.009	433
540.222	442
540.436	441
540.65	450
540.864	433
541.078	434
541.292	450
541.506	442
541.72	437
541.934	442
542.147	444
542.361	461
542.575	457
542.789	473
543.002	412
543.216	421
543.43	453
543.644	457
543.857	422
544.071	440
544.285	440
544.498	426
544.712	434
544.925	438
545.139	442
545.352	460
545.566	438
545.779	421
545.993	440
546.206	427
546.42	402
546.633	440
546.847	457
547.06	459
547.274	417
547.487	419
547.7	427
547.914	444
548.127	427
548.34	434
548.554	436
548.767	440
548.98	441
549.193	430
549.407	450
549.62	447
549.833	423
550.046	434
550.259	434
550.473	430
550.686	426
550.899	441
551.112	428
551.325	428
551.538	432
551.751	440
551.964	450
552.177	448
552.39	428
552.603	432
552.816	442
553.029	458
553.242	442
553.455	459
553.667	462
553.88	471
554.093	463
554.306	446
554.519	453
554.732	439
554.944	444
555.157	416
555.37	422
555.583	409
555.795	396
556.008	406
556.221	417
556.433	400
556.646	411
556.859	415
557.071	398
557.284	394
557.496	400
557.709	362
557.921	378
558.134	384
558.346	391
558.559	401
558.771	390
558.984	396
559.196	379
559.409	398
559.621	396
559.833	390
560.046	388
560.258	358
560.47	375
560.683	378
560.895	374
561.107	385
561.32	385
561.532	383
561.744	387
561.956	384
562.168	376
562.381	384
562.593	407
562.805	382
563.017	391
563.229	379
563.441	385
563.653	387
