Data from 1962.PennyLincolnUp.Lamp.En5.5.200Scan.071719.P1._HRD10591_13-54-09-062.txt Node
Date: Thu Jul 18 13:54:09 EDT 2019
User: cochatt
Spectrometer: HR+D1059
Trigger mode: 1
Integration Time (sec): 1.000000E-1
Scans to average: 1
Electric dark correction enabled: true
Nonlinearity correction enabled: false
Boxcar width: 0
XAxis mode: Wavelengths
Number of Pixels in Spectrum: 2048
>>>>>Begin Spectral Data<<<<<
223.165	-17.06
223.4	-17.06
223.635	-17.06
223.869	-18.06
224.104	-9.06
224.338	-10.06
224.573	-22.06
224.808	-18.06
225.042	-21.06
225.277	-3.06
225.511	-5.06
225.746	1.94
225.98	0.94
226.215	5.94
226.449	12.94
226.683	34.94
226.918	33.94
227.152	32.94
227.387	36.94
227.621	43.94
227.856	50.94
228.09	49.94
228.324	51.94
228.559	55.94
228.793	76.94
229.027	108.94
229.262	89.94
229.496	110.94
229.73	96.94
229.964	121.94
230.199	119.94
230.433	106.94
230.667	119.94
230.901	97.94
231.136	114.94
231.37	119.94
231.604	109.94
231.838	110.94
232.072	105.94
232.306	117.94
232.541	93.94
232.775	109.94
233.009	109.94
233.243	109.94
233.477	106.94
233.711	115.94
233.945	112.94
234.179	104.94
234.413	116.94
234.647	109.94
234.881	103.94
235.115	110.94
235.349	139.94
235.583	119.94
235.817	123.94
236.051	132.94
236.285	113.94
236.519	127.94
236.753	133.94
236.987	127.94
237.221	150.94
237.455	187.94
237.689	146.94
237.922	140.94
238.156	129.94
238.39	128.94
238.624	119.94
238.858	128.94
239.091	119.94
239.325	117.94
239.559	131.94
239.793	100.94
240.027	133.94
240.26	127.94
240.494	147.94
240.728	134.94
240.961	140.94
241.195	126.94
241.429	148.94
241.662	143.94
241.896	133.94
242.13	131.94
242.363	128.94
242.597	123.94
242.83	133.94
243.064	132.94
243.298	148.94
243.531	130.94
243.765	149.94
243.998	128.94
244.232	153.94
244.465	129.94
244.699	126.94
244.932	148.94
245.166	152.94
245.399	158.94
245.633	145.94
245.866	133.94
246.099	139.94
246.333	139.94
246.566	157.94
246.8	162.94
247.033	149.94
247.266	156.94
247.5	146.94
247.733	144.94
247.966	159.94
248.2	161.94
248.433	163.94
248.666	151.94
248.899	175.94
249.133	183.94
249.366	188.94
249.599	171.94
249.832	187.94
250.066	193.94
250.299	159.94
250.532	185.94
250.765	181.94
250.998	185.94
251.231	191.94
251.465	201.94
251.698	184.94
251.931	168.94
252.164	181.94
252.397	187.94
252.63	175.94
252.863	187.94
253.096	193.94
253.329	180.94
253.562	187.94
253.795	183.94
254.028	201.94
254.261	190.94
254.494	197.94
254.727	229.94
254.96	241.94
255.193	234.94
255.426	217.94
255.659	211.94
255.892	198.94
256.124	202.94
256.357	203.94
256.59	206.94
256.823	215.94
257.056	183.94
257.289	187.94
257.521	174.94
257.754	200.94
257.987	197.94
258.22	191.94
258.452	200.94
258.685	208.94
258.918	196.94
259.151	201.94
259.383	206.94
259.616	209.94
259.849	205.94
260.081	220.94
260.314	220.94
260.547	221.94
260.779	213.94
261.012	211.94
261.244	219.94
261.477	196.94
261.71	208.94
261.942	203.94
262.175	209.94
262.407	208.94
262.64	204.94
262.872	196.94
263.105	216.94
263.337	218.94
263.57	207.94
263.802	208.94
264.035	214.94
264.267	202.94
264.499	197.94
264.732	216.94
264.964	195.94
265.197	200.94
265.429	195.94
265.661	195.94
265.894	215.94
266.126	214.94
266.358	222.94
266.591	222.94
266.823	224.94
267.055	233.94
267.287	219.94
267.52	213.94
267.752	208.94
267.984	214.94
268.216	237.94
268.448	229.94
268.681	218.94
268.913	231.94
269.145	237.94
269.377	236.94
269.609	253.94
269.841	255.94
270.073	259.94
270.306	265.94
270.538	279.94
270.77	288.94
271.002	264.94
271.234	268.94
271.466	273.94
271.698	288.94
271.93	275.94
272.162	280.94
272.394	276.94
272.626	267.94
272.858	245.94
273.09	233.94
273.322	241.94
273.553	268.94
273.785	253.94
274.017	245.94
274.249	254.94
274.481	237.94
274.713	250.94
274.945	244.94
275.176	249.94
275.408	263.94
275.64	256.94
275.872	248.94
276.104	247.94
276.335	265.94
276.567	264.94
276.799	280.94
277.031	298.94
277.262	274.94
277.494	294.94
277.726	274.94
277.957	268.94
278.189	270.94
278.421	272.94
278.652	249.94
278.884	263.94
279.115	251.94
279.347	267.94
279.579	261.94
279.81	257.94
280.042	256.94
280.273	262.94
280.505	269.94
280.736	266.94
280.968	264.94
281.199	277.94
281.431	273.94
281.662	267.94
281.894	284.94
282.125	275.94
282.356	289.94
282.588	289.94
282.819	298.94
283.051	286.94
283.282	280.94
283.513	280.94
283.745	277.94
283.976	266.94
284.207	279.94
284.439	274.94
284.67	286.94
284.901	266.94
285.132	285.94
285.364	281.94
285.595	279.94
285.826	270.94
286.057	287.94
286.288	273.94
286.52	283.94
286.751	281.94
286.982	297.94
287.213	281.94
287.444	303.94
287.675	291.94
287.906	296.94
288.138	286.94
288.369	303.94
288.6	287.94
288.831	309.94
289.062	297.94
289.293	297.94
289.524	291.94
289.755	298.94
289.986	308.94
290.217	279.94
290.448	302.94
290.679	293.94
290.91	302.94
291.141	305.94
291.371	314.94
291.602	295.94
291.833	292.94
292.064	296.94
292.295	300.94
292.526	288.94
292.757	287.94
292.987	280.94
293.218	317.94
293.449	315.94
293.68	285.94
293.91	303.94
294.141	310.94
294.372	298.94
294.603	285.94
294.833	295.94
295.064	309.94
295.295	293.94
295.525	282.94
295.756	305.94
295.987	315.94
296.217	329.94
296.448	316.94
296.679	304.94
296.909	293.94
297.14	305.94
297.37	302.94
297.601	311.94
297.831	311.94
298.062	301.94
298.292	317.94
298.523	305.94
298.753	317.94
298.984	313.94
299.214	304.94
299.445	324.94
299.675	300.94
299.905	308.94
300.136	307.94
300.366	333.94
300.597	326.94
300.827	322.94
301.057	337.94
301.288	349.94
301.518	326.94
301.748	328.94
301.979	331.94
302.209	345.94
302.439	336.94
302.669	341.94
302.9	342.94
303.13	343.94
303.36	320.94
303.59	332.94
303.82	322.94
304.051	343.94
304.281	317.94
304.511	325.94
304.741	350.94
304.971	340.94
305.201	337.94
305.431	342.94
305.661	329.94
305.891	319.94
306.121	336.94
306.352	328.94
306.582	332.94
306.812	324.94
307.042	329.94
307.272	339.94
307.502	314.94
307.731	325.94
307.961	345.94
308.191	350.94
308.421	328.94
308.651	344.94
308.881	334.94
309.111	343.94
309.341	332.94
309.571	362.94
309.8	353.94
310.03	339.94
310.26	359.94
310.49	354.94
310.72	362.94
310.949	356.94
311.179	347.94
311.409	360.94
311.639	350.94
311.868	371.94
312.098	367.94
312.328	364.94
312.557	379.94
312.787	365.94
313.017	367.94
313.246	376.94
313.476	368.94
313.706	383.94
313.935	368.94
314.165	382.94
314.394	395.94
314.624	400.94
314.853	363.94
315.083	368.94
315.312	345.94
315.542	364.94
315.771	368.94
316.001	340.94
316.23	349.94
316.46	368.94
316.689	366.94
316.919	359.94
317.148	377.94
317.377	371.94
317.607	370.94
317.836	364.94
318.065	377.94
318.295	365.94
318.524	378.94
318.753	368.94
318.983	369.94
319.212	358.94
319.441	379.94
319.67	371.94
319.9	364.94
320.129	371.94
320.358	366.94
320.587	375.94
320.816	377.94
321.046	371.94
321.275	373.94
321.504	360.94
321.733	392.94
321.962	376.94
322.191	398.94
322.42	393.94
322.649	387.94
322.878	401.94
323.108	402.94
323.337	407.94
323.566	405.94
323.795	459.94
324.024	470.94
324.253	537.94
324.482	695.94
324.71	977.94
324.939	1374.94
325.168	1182.94
325.397	678.94
325.626	525.94
325.855	472.94
326.084	445.94
326.313	423.94
326.542	441.94
326.77	485.94
326.999	511.94
327.228	627.94
327.457	885.94
327.686	1095.94
327.914	761.94
328.143	529.94
328.372	499.94
328.6	471.94
328.829	467.94
329.058	483.94
329.287	492.94
329.515	456.94
329.744	431.94
329.972	433.94
330.201	446.94
330.43	482.94
330.658	485.94
330.887	514.94
331.115	496.94
331.344	484.94
331.572	446.94
331.801	452.94
332.03	461.94
332.258	447.94
332.486	484.94
332.715	454.94
332.943	457.94
333.172	468.94
333.4	466.94
333.629	475.94
333.857	468.94
334.085	475.94
334.314	512.94
334.542	518.94
334.771	512.94
334.999	486.94
335.227	462.94
335.455	469.94
335.684	445.94
335.912	441.94
336.14	439.94
336.369	453.94
336.597	448.94
336.825	441.94
337.053	453.94
337.281	445.94
337.51	429.94
337.738	437.94
337.966	427.94
338.194	446.94
338.422	443.94
338.65	420.94
338.878	416.94
339.106	439.94
339.334	428.94
339.562	409.94
339.79	433.94
340.018	420.94
340.246	408.94
340.474	405.94
340.702	411.94
340.93	448.94
341.158	424.94
341.386	420.94
341.614	423.94
341.842	427.94
342.07	411.94
342.298	404.94
342.526	435.94
342.754	415.94
342.981	428.94
343.209	403.94
343.437	432.94
343.665	427.94
343.893	457.94
344.12	473.94
344.348	443.94
344.576	441.94
344.804	442.94
345.031	451.94
345.259	429.94
345.487	431.94
345.714	414.94
345.942	401.94
346.17	407.94
346.397	410.94
346.625	416.94
346.853	406.94
347.08	394.94
347.308	390.94
347.535	400.94
347.763	392.94
347.99	394.94
348.218	405.94
348.445	403.94
348.673	407.94
348.9	417.94
349.128	395.94
349.355	379.94
349.583	396.94
349.81	407.94
350.037	405.94
350.265	407.94
350.492	388.94
350.72	390.94
350.947	382.94
351.174	399.94
351.402	405.94
351.629	404.94
351.856	385.94
352.083	393.94
352.311	400.94
352.538	408.94
352.765	406.94
352.992	402.94
353.22	401.94
353.447	391.94
353.674	386.94
353.901	398.94
354.128	376.94
354.355	376.94
354.583	379.94
354.81	372.94
355.037	384.94
355.264	399.94
355.491	393.94
355.718	376.94
355.945	380.94
356.172	389.94
356.399	382.94
356.626	386.94
356.853	374.94
357.08	377.94
357.307	382.94
357.534	383.94
357.761	382.94
357.988	382.94
358.215	375.94
358.441	397.94
358.668	394.94
358.895	393.94
359.122	395.94
359.349	382.94
359.576	384.94
359.802	413.94
360.029	424.94
360.256	414.94
360.483	403.94
360.709	401.94
360.936	402.94
361.163	401.94
361.39	402.94
361.616	386.94
361.843	397.94
362.07	399.94
362.296	387.94
362.523	408.94
362.749	397.94
362.976	395.94
363.203	401.94
363.429	401.94
363.656	398.94
363.882	396.94
364.109	390.94
364.335	391.94
364.562	380.94
364.788	381.94
365.015	380.94
365.241	382.94
365.468	375.94
365.694	403.94
365.92	393.94
366.147	364.94
366.373	387.94
366.599	405.94
366.826	390.94
367.052	377.94
367.278	385.94
367.505	389.94
367.731	389.94
367.957	388.94
368.184	379.94
368.41	379.94
368.636	412.94
368.862	409.94
369.089	388.94
369.315	392.94
369.541	387.94
369.767	393.94
369.993	386.94
370.219	407.94
370.445	392.94
370.672	400.94
370.898	388.94
371.124	420.94
371.35	390.94
371.576	389.94
371.802	407.94
372.028	397.94
372.254	400.94
372.48	397.94
372.706	413.94
372.932	415.94
373.158	405.94
373.384	421.94
373.61	406.94
373.835	389.94
374.061	403.94
374.287	401.94
374.513	401.94
374.739	423.94
374.965	419.94
375.191	419.94
375.416	430.94
375.642	406.94
375.868	408.94
376.094	401.94
376.319	401.94
376.545	395.94
376.771	413.94
376.997	397.94
377.222	386.94
377.448	399.94
377.674	416.94
377.899	399.94
378.125	409.94
378.35	398.94
378.576	374.94
378.802	393.94
379.027	396.94
379.253	428.94
379.478	407.94
379.704	398.94
379.929	394.94
380.155	390.94
380.38	399.94
380.606	408.94
380.831	410.94
381.057	413.94
381.282	414.94
381.507	383.94
381.733	417.94
381.958	410.94
382.184	428.94
382.409	421.94
382.634	411.94
382.86	418.94
383.085	410.94
383.31	415.94
383.535	420.94
383.761	423.94
383.986	413.94
384.211	421.94
384.436	457.94
384.662	441.94
384.887	438.94
385.112	453.94
385.337	455.94
385.562	451.94
385.787	442.94
386.013	463.94
386.238	451.94
386.463	456.94
386.688	457.94
386.913	468.94
387.138	443.94
387.363	432.94
387.588	472.94
387.813	444.94
388.038	459.94
388.263	468.94
388.488	461.94
388.713	449.94
388.938	455.94
389.163	469.94
389.387	456.94
389.612	468.94
389.837	445.94
390.062	432.94
390.287	453.94
390.512	455.94
390.736	467.94
390.961	473.94
391.186	455.94
391.411	443.94
391.636	467.94
391.86	450.94
392.085	468.94
392.31	496.94
392.534	476.94
392.759	487.94
392.984	461.94
393.208	462.94
393.433	481.94
393.658	465.94
393.882	495.94
394.107	474.94
394.331	461.94
394.556	461.94
394.78	501.94
395.005	467.94
395.229	451.94
395.454	472.94
395.678	497.94
395.903	489.94
396.127	503.94
396.352	496.94
396.576	471.94
396.801	497.94
397.025	493.94
397.249	497.94
397.474	517.94
397.698	485.94
397.922	501.94
398.147	519.94
398.371	537.94
398.595	514.94
398.82	533.94
399.044	553.94
399.268	590.94
399.492	642.94
399.717	676.94
399.941	681.94
400.165	667.94
400.389	656.94
400.613	590.94
400.837	586.94
401.062	577.94
401.286	519.94
401.51	547.94
401.734	520.94
401.958	552.94
402.182	545.94
402.406	587.94
402.63	577.94
402.854	536.94
403.078	546.94
403.302	565.94
403.526	569.94
403.75	562.94
403.974	581.94
404.198	566.94
404.422	579.94
404.645	565.94
404.869	582.94
405.093	585.94
405.317	606.94
405.541	655.94
405.765	605.94
405.988	583.94
406.212	596.94
406.436	603.94
406.66	603.94
406.883	595.94
407.107	626.94
407.331	648.94
407.555	699.94
407.778	697.94
408.002	645.94
408.226	656.94
408.449	594.94
408.673	604.94
408.896	619.94
409.12	634.94
409.344	637.94
409.567	580.94
409.791	573.94
410.014	562.94
410.238	553.94
410.461	564.94
410.685	567.94
410.908	584.94
411.132	565.94
411.355	577.94
411.578	603.94
411.802	542.94
412.025	554.94
412.249	550.94
412.472	581.94
412.695	577.94
412.919	598.94
413.142	549.94
413.365	537.94
413.589	557.94
413.812	532.94
414.035	508.94
414.258	521.94
414.482	536.94
414.705	556.94
414.928	553.94
415.151	500.94
415.374	530.94
415.597	551.94
415.821	507.94
416.044	504.94
416.267	549.94
416.49	513.94
416.713	521.94
416.936	548.94
417.159	515.94
417.382	541.94
417.605	517.94
417.828	522.94
418.051	545.94
418.274	540.94
418.497	512.94
418.72	503.94
418.943	522.94
419.166	552.94
419.389	591.94
419.611	575.94
419.834	555.94
420.057	564.94
420.28	545.94
420.503	549.94
420.726	557.94
420.948	570.94
421.171	575.94
421.394	608.94
421.617	577.94
421.839	550.94
422.062	559.94
422.285	536.94
422.507	565.94
422.73	630.94
422.953	610.94
423.175	579.94
423.398	551.94
423.621	534.94
423.843	556.94
424.066	569.94
424.288	559.94
424.511	564.94
424.733	599.94
424.956	675.94
425.178	638.94
425.401	631.94
425.623	651.94
425.846	589.94
426.068	548.94
426.291	545.94
426.513	553.94
426.735	556.94
426.958	585.94
427.18	649.94
427.402	739.94
427.625	797.94
427.847	684.94
428.069	639.94
428.292	555.94
428.514	549.94
428.736	549.94
428.958	499.94
429.181	520.94
429.403	488.94
429.625	513.94
429.847	505.94
430.069	585.94
430.292	587.94
430.514	492.94
430.736	522.94
430.958	505.94
431.18	493.94
431.402	487.94
431.624	470.94
431.846	478.94
432.068	499.94
432.29	503.94
432.512	488.94
432.734	524.94
432.956	517.94
433.178	526.94
433.4	511.94
433.622	519.94
433.844	494.94
434.066	519.94
434.287	507.94
434.509	516.94
434.731	537.94
434.953	519.94
435.175	537.94
435.397	588.94
435.618	535.94
435.84	562.94
436.062	667.94
436.284	673.94
436.505	587.94
436.727	553.94
436.949	537.94
437.17	517.94
437.392	509.94
437.614	527.94
437.835	524.94
438.057	591.94
438.278	647.94
438.5	666.94
438.721	719.94
438.943	739.94
439.165	593.94
439.386	557.94
439.608	533.94
439.829	542.94
440.05	532.94
440.272	584.94
440.493	551.94
440.715	530.94
440.936	552.94
441.158	530.94
441.379	519.94
441.6	532.94
441.822	547.94
442.043	559.94
442.264	634.94
442.486	657.94
442.707	583.94
442.928	584.94
443.149	550.94
443.371	569.94
443.592	558.94
443.813	678.94
444.034	751.94
444.255	632.94
444.476	599.94
444.698	592.94
444.919	593.94
445.14	721.94
445.361	626.94
445.582	573.94
445.803	635.94
446.024	696.94
446.245	703.94
446.466	625.94
446.687	553.94
446.908	551.94
447.129	536.94
447.35	533.94
447.571	490.94
447.792	492.94
448.013	504.94
448.234	496.94
448.455	542.94
448.675	622.94
448.896	697.94
449.117	599.94
449.338	567.94
449.559	653.94
449.779	720.94
450	618.94
450.221	522.94
450.442	523.94
450.662	494.94
450.883	495.94
451.104	501.94
451.324	492.94
451.545	450.94
451.766	460.94
451.986	453.94
452.207	460.94
452.428	469.94
452.648	455.94
452.869	451.94
453.089	455.94
453.31	483.94
453.53	447.94
453.751	428.94
453.971	430.94
454.192	447.94
454.412	441.94
454.633	444.94
454.853	438.94
455.073	463.94
455.294	451.94
455.514	516.94
455.734	484.94
455.955	460.94
456.175	435.94
456.395	452.94
456.616	440.94
456.836	438.94
457.056	439.94
457.276	425.94
457.497	422.94
457.717	447.94
457.937	448.94
458.157	450.94
458.377	458.94
458.598	463.94
458.818	523.94
459.038	539.94
459.258	561.94
459.478	518.94
459.698	500.94
459.918	519.94
460.138	508.94
460.358	550.94
460.578	523.94
460.798	556.94
461.018	569.94
461.238	537.94
461.458	538.94
461.678	514.94
461.898	547.94
462.118	548.94
462.338	559.94
462.558	578.94
462.777	572.94
462.997	601.94
463.217	614.94
463.437	643.94
463.657	596.94
463.876	591.94
464.096	590.94
464.316	587.94
464.536	608.94
464.755	567.94
464.975	565.94
465.195	588.94
465.414	587.94
465.634	550.94
465.854	501.94
466.073	521.94
466.293	502.94
466.512	508.94
466.732	480.94
466.951	491.94
467.171	455.94
467.391	477.94
467.61	471.94
467.829	494.94
468.049	495.94
468.268	479.94
468.488	480.94
468.707	471.94
468.927	475.94
469.146	440.94
469.365	462.94
469.585	471.94
469.804	478.94
470.023	478.94
470.243	472.94
470.462	465.94
470.681	482.94
470.901	498.94
471.12	499.94
471.339	479.94
471.558	490.94
471.777	482.94
471.997	463.94
472.216	456.94
472.435	488.94
472.654	497.94
472.873	472.94
473.092	485.94
473.311	452.94
473.53	462.94
473.749	492.94
473.968	498.94
474.187	581.94
474.406	569.94
474.625	517.94
474.844	479.94
475.063	478.94
475.282	458.94
475.501	483.94
475.72	485.94
475.939	473.94
476.158	485.94
476.377	497.94
476.596	483.94
476.814	494.94
477.033	497.94
477.252	492.94
477.471	509.94
477.69	507.94
477.908	529.94
478.127	541.94
478.346	527.94
478.564	553.94
478.783	556.94
479.002	554.94
479.22	561.94
479.439	571.94
479.658	573.94
479.876	572.94
480.095	571.94
480.313	610.94
480.532	604.94
480.751	601.94
480.969	606.94
481.188	655.94
481.406	615.94
481.624	591.94
481.843	558.94
482.061	571.94
482.28	567.94
482.498	543.94
482.717	555.94
482.935	548.94
483.153	544.94
483.372	565.94
483.59	545.94
483.808	545.94
484.027	556.94
484.245	562.94
484.463	568.94
484.681	572.94
484.9	553.94
485.118	576.94
485.336	564.94
485.554	552.94
485.772	584.94
485.99	563.94
486.209	592.94
486.427	564.94
486.645	564.94
486.863	570.94
487.081	601.94
487.299	581.94
487.517	592.94
487.735	578.94
487.953	574.94
488.171	581.94
488.389	594.94
488.607	575.94
488.825	576.94
489.043	588.94
489.261	584.94
489.479	608.94
489.696	593.94
489.914	582.94
490.132	588.94
490.35	594.94
490.568	597.94
490.786	605.94
491.003	627.94
491.221	620.94
491.439	635.94
491.657	620.94
491.874	616.94
492.092	615.94
492.31	635.94
492.527	625.94
492.745	652.94
492.963	643.94
493.18	619.94
493.398	663.94
493.615	669.94
493.833	646.94
494.05	671.94
494.268	667.94
494.485	675.94
494.703	663.94
494.92	689.94
495.138	651.94
495.355	680.94
495.573	673.94
495.79	670.94
496.008	662.94
496.225	665.94
496.442	692.94
496.66	663.94
496.877	681.94
497.094	695.94
497.312	702.94
497.529	704.94
497.746	741.94
497.963	732.94
498.181	759.94
498.398	771.94
498.615	784.94
498.832	840.94
499.049	849.94
499.267	864.94
499.484	922.94
499.701	983.94
499.918	1013.94
500.135	1081.94
500.352	1216.94
500.569	1215.94
500.786	1224.94
501.003	1199.94
501.22	1128.94
501.437	1030.94
501.654	992.94
501.871	950.94
