Data from 1962.PennyLincolnUp.Lamp.En5.5.200Scan.071719.P1._HRD10591_13-53-13-060.txt Node
Date: Thu Jul 18 13:53:13 EDT 2019
User: cochatt
Spectrometer: HR+D1059
Trigger mode: 1
Integration Time (sec): 1.000000E-1
Scans to average: 1
Electric dark correction enabled: true
Nonlinearity correction enabled: false
Boxcar width: 0
XAxis mode: Wavelengths
Number of Pixels in Spectrum: 2048
>>>>>Begin Spectral Data<<<<<
223.165	-20.06
223.4	-20.06
223.635	-20.06
223.869	-22.06
224.104	-11.06
224.338	-10.06
224.573	-9.06
224.808	-11.06
225.042	2.94
225.277	-23.06
225.511	3.94
225.746	5.94
225.98	15.94
226.215	6.94
226.449	11.94
226.683	5.94
226.918	20.94
227.152	31.94
227.387	26.94
227.621	27.94
227.856	41.94
228.09	32.94
228.324	48.94
228.559	56.94
228.793	58.94
229.027	75.94
229.262	89.94
229.496	98.94
229.73	97.94
229.964	108.94
230.199	98.94
230.433	97.94
230.667	89.94
230.901	104.94
231.136	106.94
231.37	108.94
231.604	105.94
231.838	102.94
232.072	108.94
232.306	102.94
232.541	107.94
232.775	119.94
233.009	102.94
233.243	112.94
233.477	106.94
233.711	112.94
233.945	94.94
234.179	117.94
234.413	105.94
234.647	110.94
234.881	102.94
235.115	104.94
235.349	100.94
235.583	99.94
235.817	104.94
236.051	117.94
236.285	111.94
236.519	110.94
236.753	106.94
236.987	114.94
237.221	158.94
237.455	160.94
237.689	142.94
237.922	119.94
238.156	130.94
238.39	124.94
238.624	115.94
238.858	120.94
239.091	122.94
239.325	118.94
239.559	109.94
239.793	120.94
240.027	120.94
240.26	137.94
240.494	122.94
240.728	106.94
240.961	123.94
241.195	135.94
241.429	130.94
241.662	130.94
241.896	126.94
242.13	118.94
242.363	130.94
242.597	120.94
242.83	130.94
243.064	120.94
243.298	139.94
243.531	125.94
243.765	130.94
243.998	131.94
244.232	123.94
244.465	150.94
244.699	129.94
244.932	126.94
245.166	128.94
245.399	132.94
245.633	133.94
245.866	138.94
246.099	121.94
246.333	132.94
246.566	134.94
246.8	127.94
247.033	146.94
247.266	146.94
247.5	150.94
247.733	133.94
247.966	163.94
248.2	162.94
248.433	150.94
248.666	154.94
248.899	146.94
249.133	158.94
249.366	152.94
249.599	162.94
249.832	142.94
250.066	168.94
250.299	162.94
250.532	159.94
250.765	154.94
250.998	170.94
251.231	162.94
251.465	182.94
251.698	168.94
251.931	186.94
252.164	174.94
252.397	184.94
252.63	164.94
252.863	181.94
253.096	171.94
253.329	163.94
253.562	161.94
253.795	209.94
254.028	184.94
254.261	177.94
254.494	194.94
254.727	187.94
254.96	207.94
255.193	195.94
255.426	209.94
255.659	184.94
255.892	177.94
256.124	192.94
256.357	180.94
256.59	189.94
256.823	182.94
257.056	177.94
257.289	179.94
257.521	186.94
257.754	185.94
257.987	197.94
258.22	178.94
258.452	179.94
258.685	168.94
258.918	179.94
259.151	176.94
259.383	190.94
259.616	190.94
259.849	201.94
260.081	203.94
260.314	220.94
260.547	218.94
260.779	208.94
261.012	197.94
261.244	190.94
261.477	187.94
261.71	207.94
261.942	184.94
262.175	205.94
262.407	203.94
262.64	195.94
262.872	199.94
263.105	184.94
263.337	194.94
263.57	189.94
263.802	191.94
264.035	200.94
264.267	190.94
264.499	179.94
264.732	204.94
264.964	190.94
265.197	197.94
265.429	200.94
265.661	208.94
265.894	189.94
266.126	217.94
266.358	226.94
266.591	214.94
266.823	200.94
267.055	204.94
267.287	220.94
267.52	214.94
267.752	191.94
267.984	210.94
268.216	210.94
268.448	219.94
268.681	214.94
268.913	219.94
269.145	222.94
269.377	233.94
269.609	242.94
269.841	249.94
270.073	224.94
270.306	230.94
270.538	258.94
270.77	258.94
271.002	256.94
271.234	257.94
271.466	256.94
271.698	269.94
271.93	268.94
272.162	252.94
272.394	269.94
272.626	266.94
272.858	250.94
273.09	258.94
273.322	230.94
273.553	256.94
273.785	252.94
274.017	264.94
274.249	234.94
274.481	240.94
274.713	253.94
274.945	232.94
275.176	242.94
275.408	249.94
275.64	241.94
275.872	230.94
276.104	249.94
276.335	254.94
276.567	248.94
276.799	267.94
277.031	261.94
277.262	268.94
277.494	264.94
277.726	242.94
277.957	259.94
278.189	268.94
278.421	263.94
278.652	258.94
278.884	264.94
279.115	245.94
279.347	251.94
279.579	256.94
279.81	247.94
280.042	246.94
280.273	254.94
280.505	243.94
280.736	247.94
280.968	259.94
281.199	259.94
281.431	268.94
281.662	257.94
281.894	258.94
282.125	261.94
282.356	270.94
282.588	270.94
282.819	268.94
283.051	254.94
283.282	279.94
283.513	273.94
283.745	260.94
283.976	271.94
284.207	282.94
284.439	266.94
284.67	259.94
284.901	258.94
285.132	260.94
285.364	274.94
285.595	267.94
285.826	255.94
286.057	294.94
286.288	278.94
286.52	271.94
286.751	284.94
286.982	283.94
287.213	288.94
287.444	273.94
287.675	274.94
287.906	271.94
288.138	282.94
288.369	276.94
288.6	268.94
288.831	283.94
289.062	297.94
289.293	293.94
289.524	275.94
289.755	274.94
289.986	278.94
290.217	287.94
290.448	288.94
290.679	276.94
290.91	282.94
291.141	296.94
291.371	293.94
291.602	297.94
291.833	287.94
292.064	299.94
292.295	286.94
292.526	281.94
292.757	277.94
292.987	282.94
293.218	279.94
293.449	300.94
293.68	281.94
293.91	291.94
294.141	291.94
294.372	276.94
294.603	284.94
294.833	291.94
295.064	306.94
295.295	299.94
295.525	294.94
295.756	290.94
295.987	283.94
296.217	315.94
296.448	307.94
296.679	296.94
296.909	303.94
297.14	286.94
297.37	292.94
297.601	307.94
297.831	301.94
298.062	314.94
298.292	286.94
298.523	299.94
298.753	318.94
298.984	313.94
299.214	312.94
299.445	295.94
299.675	308.94
299.905	305.94
300.136	292.94
300.366	320.94
300.597	306.94
300.827	313.94
301.057	329.94
301.288	315.94
301.518	323.94
301.748	310.94
301.979	316.94
302.209	323.94
302.439	304.94
302.669	328.94
302.9	339.94
303.13	315.94
303.36	327.94
303.59	323.94
303.82	328.94
304.051	336.94
304.281	340.94
304.511	339.94
304.741	316.94
304.971	313.94
305.201	306.94
305.431	323.94
305.661	326.94
305.891	329.94
306.121	314.94
306.352	323.94
306.582	308.94
306.812	321.94
307.042	297.94
307.272	331.94
307.502	318.94
307.731	311.94
307.961	327.94
308.191	324.94
308.421	334.94
308.651	324.94
308.881	326.94
309.111	328.94
309.341	303.94
309.571	327.94
309.8	331.94
310.03	357.94
310.26	347.94
310.49	330.94
310.72	340.94
310.949	340.94
311.179	344.94
311.409	329.94
311.639	337.94
311.868	342.94
312.098	331.94
312.328	336.94
312.557	359.94
312.787	373.94
313.017	366.94
313.246	347.94
313.476	350.94
313.706	330.94
313.935	347.94
314.165	363.94
314.394	347.94
314.624	374.94
314.853	354.94
315.083	338.94
315.312	336.94
315.542	357.94
315.771	343.94
316.001	363.94
316.23	344.94
316.46	351.94
316.689	348.94
316.919	340.94
317.148	350.94
317.377	359.94
317.607	372.94
317.836	327.94
318.065	350.94
318.295	338.94
318.524	354.94
318.753	348.94
318.983	338.94
319.212	358.94
319.441	350.94
319.67	353.94
319.9	366.94
320.129	359.94
320.358	353.94
320.587	360.94
320.816	345.94
321.046	350.94
321.275	368.94
321.504	362.94
321.733	374.94
321.962	367.94
322.191	374.94
322.42	371.94
322.649	382.94
322.878	379.94
323.108	370.94
323.337	395.94
323.566	410.94
323.795	420.94
324.024	438.94
324.253	464.94
324.482	608.94
324.71	840.94
324.939	1159.94
325.168	1030.94
325.397	599.94
325.626	472.94
325.855	420.94
326.084	416.94
326.313	394.94
326.542	411.94
326.77	416.94
326.999	486.94
327.228	547.94
327.457	764.94
327.686	908.94
327.914	679.94
328.143	514.94
328.372	472.94
328.6	448.94
328.829	420.94
329.058	421.94
329.287	436.94
329.515	435.94
329.744	399.94
329.972	439.94
330.201	421.94
330.43	442.94
330.658	444.94
330.887	476.94
331.115	443.94
331.344	422.94
331.572	405.94
331.801	415.94
332.03	438.94
332.258	418.94
332.486	419.94
332.715	436.94
332.943	404.94
333.172	447.94
333.4	451.94
333.629	447.94
333.857	441.94
334.085	460.94
334.314	477.94
334.542	473.94
334.771	482.94
334.999	459.94
335.227	451.94
335.455	435.94
335.684	455.94
335.912	447.94
336.14	430.94
336.369	425.94
336.597	434.94
336.825	421.94
337.053	420.94
337.281	420.94
337.51	409.94
337.738	433.94
337.966	404.94
338.194	399.94
338.422	409.94
338.65	422.94
338.878	420.94
339.106	406.94
339.334	434.94
339.562	406.94
339.79	392.94
340.018	400.94
340.246	407.94
340.474	415.94
340.702	401.94
340.93	412.94
341.158	390.94
341.386	389.94
341.614	403.94
341.842	390.94
342.07	404.94
342.298	414.94
342.526	392.94
342.754	378.94
342.981	400.94
343.209	406.94
343.437	417.94
343.665	424.94
343.893	434.94
344.12	456.94
344.348	450.94
344.576	401.94
344.804	424.94
345.031	403.94
345.259	419.94
345.487	409.94
345.714	410.94
345.942	410.94
346.17	402.94
346.397	384.94
346.625	406.94
346.853	380.94
347.08	368.94
347.308	379.94
347.535	393.94
347.763	394.94
347.99	368.94
348.218	402.94
348.445	387.94
348.673	387.94
348.9	388.94
349.128	389.94
349.355	374.94
349.583	392.94
349.81	392.94
350.037	391.94
350.265	383.94
350.492	372.94
350.72	376.94
350.947	367.94
351.174	376.94
351.402	362.94
351.629	390.94
351.856	394.94
352.083	407.94
352.311	391.94
352.538	391.94
352.765	387.94
352.992	374.94
353.22	380.94
353.447	392.94
353.674	377.94
353.901	376.94
354.128	362.94
354.355	378.94
354.583	377.94
354.81	363.94
355.037	365.94
355.264	384.94
355.491	370.94
355.718	363.94
355.945	373.94
356.172	372.94
356.399	371.94
356.626	367.94
356.853	360.94
357.08	369.94
357.307	355.94
357.534	368.94
357.761	362.94
357.988	384.94
358.215	376.94
358.441	374.94
358.668	373.94
358.895	385.94
359.122	382.94
359.349	390.94
359.576	390.94
359.802	405.94
360.029	421.94
360.256	412.94
360.483	388.94
360.709	381.94
360.936	390.94
361.163	398.94
361.39	386.94
361.616	390.94
361.843	387.94
362.07	376.94
362.296	373.94
362.523	396.94
362.749	364.94
362.976	355.94
363.203	365.94
363.429	357.94
363.656	372.94
363.882	367.94
364.109	373.94
364.335	354.94
364.562	377.94
364.788	370.94
365.015	379.94
365.241	393.94
365.468	390.94
365.694	378.94
365.92	379.94
366.147	360.94
366.373	370.94
366.599	370.94
366.826	361.94
367.052	372.94
367.278	374.94
367.505	384.94
367.731	405.94
367.957	378.94
368.184	372.94
368.41	390.94
368.636	390.94
368.862	393.94
369.089	389.94
369.315	375.94
369.541	388.94
369.767	382.94
369.993	385.94
370.219	384.94
370.445	390.94
370.672	378.94
370.898	380.94
371.124	378.94
371.35	393.94
371.576	395.94
371.802	398.94
372.028	390.94
372.254	401.94
372.48	378.94
372.706	400.94
372.932	424.94
373.158	402.94
373.384	376.94
373.61	396.94
373.835	377.94
374.061	390.94
374.287	388.94
374.513	392.94
374.739	415.94
374.965	431.94
375.191	409.94
375.416	409.94
375.642	413.94
375.868	401.94
376.094	395.94
376.319	372.94
376.545	386.94
376.771	387.94
376.997	390.94
377.222	389.94
377.448	382.94
377.674	412.94
377.899	380.94
378.125	392.94
378.35	395.94
378.576	373.94
378.802	363.94
379.027	384.94
379.253	394.94
379.478	397.94
379.704	382.94
379.929	376.94
380.155	392.94
380.38	383.94
380.606	389.94
380.831	392.94
381.057	391.94
381.282	391.94
381.507	397.94
381.733	394.94
381.958	394.94
382.184	416.94
382.409	400.94
382.634	408.94
382.86	402.94
383.085	388.94
383.31	417.94
383.535	401.94
383.761	409.94
383.986	431.94
384.211	400.94
384.436	428.94
384.662	424.94
384.887	439.94
385.112	437.94
385.337	452.94
385.562	436.94
385.787	427.94
386.013	446.94
386.238	428.94
386.463	451.94
386.688	450.94
386.913	435.94
387.138	444.94
387.363	441.94
387.588	425.94
387.813	449.94
388.038	443.94
388.263	429.94
388.488	457.94
388.713	458.94
388.938	436.94
389.163	449.94
389.387	438.94
389.612	410.94
389.837	434.94
390.062	437.94
390.287	465.94
390.512	435.94
390.736	432.94
390.961	447.94
391.186	449.94
391.411	458.94
391.636	457.94
391.86	457.94
392.085	451.94
392.31	461.94
392.534	460.94
392.759	465.94
392.984	472.94
393.208	475.94
393.433	465.94
393.658	464.94
393.882	446.94
394.107	456.94
394.331	442.94
394.556	453.94
394.78	464.94
395.005	450.94
395.229	463.94
395.454	459.94
395.678	476.94
395.903	473.94
396.127	493.94
396.352	500.94
396.576	467.94
396.801	489.94
397.025	476.94
397.249	471.94
397.474	478.94
397.698	497.94
397.922	474.94
398.147	488.94
398.371	517.94
398.595	515.94
398.82	503.94
399.044	523.94
399.268	548.94
399.492	597.94
399.717	645.94
399.941	669.94
400.165	693.94
400.389	649.94
400.613	583.94
400.837	550.94
401.062	522.94
401.286	519.94
401.51	534.94
401.734	524.94
401.958	548.94
402.182	532.94
402.406	521.94
402.63	548.94
402.854	537.94
403.078	544.94
403.302	542.94
403.526	539.94
403.75	528.94
403.974	532.94
404.198	543.94
404.422	561.94
404.645	578.94
404.869	541.94
405.093	562.94
405.317	598.94
405.541	632.94
405.765	600.94
405.988	564.94
406.212	555.94
406.436	583.94
406.66	609.94
406.883	556.94
407.107	611.94
407.331	636.94
407.555	674.94
407.778	662.94
408.002	624.94
408.226	606.94
408.449	576.94
408.673	596.94
408.896	600.94
409.12	614.94
409.344	598.94
409.567	551.94
409.791	563.94
410.014	567.94
410.238	548.94
410.461	557.94
410.685	539.94
410.908	558.94
411.132	569.94
411.355	570.94
411.578	579.94
411.802	546.94
412.025	552.94
412.249	538.94
412.472	576.94
412.695	588.94
412.919	557.94
413.142	543.94
413.365	534.94
413.589	531.94
413.812	500.94
414.035	520.94
414.258	527.94
414.482	531.94
414.705	512.94
414.928	523.94
415.151	531.94
415.374	514.94
415.597	519.94
415.821	502.94
416.044	486.94
416.267	506.94
416.49	516.94
416.713	496.94
416.936	516.94
417.159	523.94
417.382	499.94
417.605	502.94
417.828	504.94
418.051	515.94
418.274	512.94
418.497	496.94
418.72	526.94
418.943	501.94
419.166	546.94
419.389	555.94
419.611	546.94
419.834	518.94
420.057	527.94
420.28	520.94
420.503	532.94
420.726	515.94
420.948	510.94
421.171	556.94
421.394	566.94
421.617	554.94
421.839	522.94
422.062	505.94
422.285	526.94
422.507	550.94
422.73	603.94
422.953	592.94
423.175	545.94
423.398	540.94
423.621	549.94
423.843	528.94
424.066	543.94
424.288	561.94
424.511	551.94
424.733	610.94
424.956	629.94
425.178	619.94
425.401	582.94
425.623	618.94
425.846	594.94
426.068	535.94
426.291	527.94
426.513	518.94
426.735	538.94
426.958	551.94
427.18	582.94
427.402	678.94
427.625	735.94
427.847	630.94
428.069	585.94
428.292	570.94
428.514	514.94
428.736	510.94
428.958	501.94
429.181	505.94
429.403	497.94
429.625	523.94
429.847	520.94
430.069	547.94
430.292	552.94
430.514	495.94
430.736	494.94
430.958	508.94
431.18	488.94
431.402	471.94
431.624	468.94
431.846	466.94
432.068	486.94
432.29	471.94
432.512	469.94
432.734	497.94
432.956	479.94
433.178	481.94
433.4	495.94
433.622	507.94
433.844	480.94
434.066	475.94
434.287	473.94
434.509	494.94
434.731	495.94
434.953	524.94
435.175	524.94
435.397	518.94
435.618	506.94
435.84	553.94
436.062	608.94
436.284	651.94
436.505	562.94
436.727	523.94
436.949	517.94
437.17	495.94
437.392	496.94
437.614	515.94
437.835	513.94
438.057	572.94
438.278	607.94
438.5	611.94
438.721	665.94
438.943	656.94
439.165	554.94
439.386	510.94
439.608	515.94
439.829	523.94
440.05	516.94
440.272	531.94
440.493	530.94
440.715	518.94
440.936	506.94
441.158	508.94
441.379	525.94
441.6	514.94
441.822	540.94
442.043	553.94
442.264	612.94
442.486	641.94
442.707	560.94
442.928	537.94
443.149	530.94
443.371	549.94
443.592	564.94
443.813	630.94
444.034	684.94
444.255	603.94
444.476	579.94
444.698	579.94
444.919	594.94
445.14	716.94
445.361	624.94
445.582	556.94
445.803	573.94
446.024	658.94
446.245	639.94
446.466	592.94
446.687	540.94
446.908	528.94
447.129	499.94
447.35	492.94
447.571	471.94
447.792	450.94
448.013	474.94
448.234	499.94
448.455	504.94
448.675	596.94
448.896	656.94
449.117	560.94
449.338	552.94
449.559	613.94
449.779	700.94
450	569.94
450.221	494.94
450.442	496.94
450.662	469.94
450.883	482.94
451.104	487.94
451.324	478.94
451.545	447.94
451.766	453.94
451.986	440.94
452.207	450.94
452.428	441.94
452.648	436.94
452.869	444.94
453.089	459.94
453.31	444.94
453.53	437.94
453.751	427.94
453.971	434.94
454.192	445.94
454.412	433.94
454.633	422.94
454.853	421.94
455.073	421.94
455.294	454.94
455.514	480.94
455.734	464.94
455.955	436.94
456.175	435.94
456.395	422.94
456.616	426.94
456.836	416.94
457.056	441.94
457.276	395.94
457.497	435.94
457.717	436.94
457.937	428.94
458.157	422.94
458.377	439.94
458.598	440.94
458.818	482.94
459.038	508.94
459.258	550.94
459.478	494.94
459.698	507.94
459.918	487.94
460.138	499.94
460.358	488.94
460.578	508.94
460.798	515.94
461.018	531.94
461.238	494.94
461.458	530.94
461.678	524.94
461.898	521.94
462.118	534.94
462.338	530.94
462.558	532.94
462.777	567.94
462.997	569.94
463.217	595.94
463.437	591.94
463.657	593.94
463.876	571.94
464.096	549.94
464.316	555.94
464.536	570.94
464.755	548.94
464.975	547.94
465.195	559.94
465.414	554.94
465.634	528.94
465.854	499.94
466.073	478.94
466.293	460.94
466.512	480.94
466.732	463.94
466.951	468.94
467.171	450.94
467.391	458.94
467.61	455.94
467.829	466.94
468.049	458.94
468.268	455.94
468.488	462.94
468.707	446.94
468.927	464.94
469.146	435.94
469.365	453.94
469.585	434.94
469.804	468.94
470.023	459.94
470.243	468.94
470.462	458.94
470.681	465.94
470.901	477.94
471.12	470.94
471.339	471.94
471.558	451.94
471.777	465.94
471.997	454.94
472.216	454.94
472.435	479.94
472.654	463.94
472.873	475.94
473.092	442.94
473.311	449.94
473.53	478.94
473.749	470.94
473.968	468.94
474.187	507.94
474.406	553.94
474.625	502.94
474.844	462.94
475.063	459.94
475.282	459.94
475.501	458.94
475.72	465.94
475.939	458.94
476.158	447.94
476.377	468.94
476.596	479.94
476.814	481.94
477.033	481.94
477.252	503.94
477.471	490.94
477.69	494.94
477.908	512.94
478.127	518.94
478.346	535.94
478.564	562.94
478.783	534.94
479.002	556.94
479.22	553.94
479.439	544.94
479.658	548.94
479.876	548.94
480.095	557.94
480.313	588.94
480.532	571.94
480.751	570.94
480.969	578.94
481.188	589.94
481.406	569.94
481.624	558.94
481.843	548.94
482.061	539.94
482.28	544.94
482.498	532.94
482.717	539.94
482.935	551.94
483.153	536.94
483.372	532.94
483.59	524.94
483.808	533.94
484.027	540.94
484.245	552.94
484.463	546.94
484.681	550.94
484.9	530.94
485.118	563.94
485.336	547.94
485.554	573.94
485.772	566.94
485.99	555.94
486.209	565.94
486.427	556.94
486.645	572.94
486.863	579.94
487.081	562.94
487.299	569.94
487.517	569.94
487.735	565.94
487.953	568.94
488.171	571.94
488.389	561.94
488.607	554.94
488.825	554.94
489.043	577.94
489.261	583.94
489.479	577.94
489.696	585.94
489.914	570.94
490.132	584.94
490.35	595.94
490.568	558.94
490.786	597.94
491.003	581.94
491.221	578.94
491.439	607.94
491.657	615.94
491.874	591.94
492.092	591.94
492.31	609.94
492.527	591.94
492.745	627.94
492.963	650.94
493.18	593.94
493.398	613.94
493.615	633.94
493.833	618.94
494.05	617.94
494.268	624.94
494.485	637.94
494.703	598.94
494.92	634.94
495.138	621.94
495.355	631.94
495.573	643.94
495.79	642.94
496.008	655.94
496.225	630.94
496.442	660.94
496.66	666.94
496.877	680.94
497.094	648.94
497.312	672.94
497.529	681.94
497.746	686.94
497.963	697.94
498.181	753.94
498.398	759.94
498.615	794.94
498.832	788.94
499.049	798.94
499.267	853.94
499.484	914.94
499.701	965.94
499.918	1004.94
500.135	1062.94
500.352	1145.94
500.569	1220.94
500.786	1154.94
501.003	1131.94
501.22	1093.94
501.437	1016.94
501.654	978.94
501.871	942.94
502.088	881.94
