Data from 1962.PennyLincolnUp.Lamp.En5.5.200Scan.071719.P1._HRD10591_13-54-08-062.txt Node
Date: Thu Jul 18 13:54:08 EDT 2019
User: cochatt
Spectrometer: HR+D1059
Trigger mode: 1
Integration Time (sec): 1.000000E-1
Scans to average: 1
Electric dark correction enabled: true
Nonlinearity correction enabled: false
Boxcar width: 0
XAxis mode: Wavelengths
Number of Pixels in Spectrum: 2048
>>>>>Begin Spectral Data<<<<<
223.165	-4.81
223.4	-4.81
223.635	-4.81
223.869	-9.81
224.104	-21.81
224.338	-18.81
224.573	-1.81
224.808	-6.81
225.042	-9.81
225.277	-4.81
225.511	5.19
225.746	9.19
225.98	-12.81
226.215	8.19
226.449	19.19
226.683	13.19
226.918	20.19
227.152	16.19
227.387	41.19
227.621	41.19
227.856	45.19
228.09	52.19
228.324	47.19
228.559	57.19
228.793	61.19
229.027	85.19
229.262	82.19
229.496	106.19
229.73	114.19
229.964	125.19
230.199	111.19
230.433	101.19
230.667	105.19
230.901	98.19
231.136	85.19
231.37	111.19
231.604	113.19
231.838	93.19
232.072	105.19
232.306	109.19
232.541	115.19
232.775	119.19
233.009	105.19
233.243	118.19
233.477	115.19
233.711	119.19
233.945	94.19
234.179	103.19
234.413	106.19
234.647	119.19
234.881	103.19
235.115	124.19
235.349	104.19
235.583	109.19
235.817	121.19
236.051	126.19
236.285	118.19
236.519	92.19
236.753	109.19
236.987	120.19
237.221	146.19
237.455	168.19
237.689	141.19
237.922	123.19
238.156	121.19
238.39	112.19
238.624	112.19
238.858	121.19
239.091	121.19
239.325	108.19
239.559	122.19
239.793	130.19
240.027	124.19
240.26	120.19
240.494	137.19
240.728	119.19
240.961	118.19
241.195	127.19
241.429	125.19
241.662	132.19
241.896	125.19
242.13	125.19
242.363	147.19
242.597	123.19
242.83	129.19
243.064	123.19
243.298	128.19
243.531	122.19
243.765	136.19
243.998	133.19
244.232	131.19
244.465	129.19
244.699	123.19
244.932	129.19
245.166	139.19
245.399	142.19
245.633	148.19
245.866	138.19
246.099	139.19
246.333	157.19
246.566	148.19
246.8	135.19
247.033	143.19
247.266	144.19
247.5	150.19
247.733	147.19
247.966	151.19
248.2	157.19
248.433	155.19
248.666	159.19
248.899	154.19
249.133	169.19
249.366	172.19
249.599	168.19
249.832	145.19
250.066	176.19
250.299	161.19
250.532	168.19
250.765	177.19
250.998	185.19
251.231	195.19
251.465	170.19
251.698	189.19
251.931	165.19
252.164	174.19
252.397	157.19
252.63	188.19
252.863	181.19
253.096	189.19
253.329	202.19
253.562	177.19
253.795	194.19
254.028	207.19
254.261	194.19
254.494	191.19
254.727	218.19
254.96	218.19
255.193	221.19
255.426	230.19
255.659	201.19
255.892	201.19
256.124	215.19
256.357	209.19
256.59	199.19
256.823	179.19
257.056	188.19
257.289	193.19
257.521	195.19
257.754	192.19
257.987	185.19
258.22	181.19
258.452	200.19
258.685	187.19
258.918	185.19
259.151	193.19
259.383	194.19
259.616	186.19
259.849	205.19
260.081	208.19
260.314	202.19
260.547	227.19
260.779	202.19
261.012	225.19
261.244	190.19
261.477	199.19
261.71	221.19
261.942	216.19
262.175	229.19
262.407	197.19
262.64	210.19
262.872	205.19
263.105	199.19
263.337	214.19
263.57	214.19
263.802	191.19
264.035	200.19
264.267	187.19
264.499	196.19
264.732	201.19
264.964	196.19
265.197	194.19
265.429	195.19
265.661	204.19
265.894	212.19
266.126	221.19
266.358	221.19
266.591	211.19
266.823	214.19
267.055	229.19
267.287	200.19
267.52	226.19
267.752	223.19
267.984	197.19
268.216	220.19
268.448	220.19
268.681	222.19
268.913	219.19
269.145	233.19
269.377	250.19
269.609	228.19
269.841	245.19
270.073	258.19
270.306	261.19
270.538	278.19
270.77	293.19
271.002	257.19
271.234	277.19
271.466	273.19
271.698	261.19
271.93	273.19
272.162	285.19
272.394	280.19
272.626	259.19
272.858	249.19
273.09	240.19
273.322	233.19
273.553	240.19
273.785	249.19
274.017	235.19
274.249	251.19
274.481	240.19
274.713	256.19
274.945	251.19
275.176	262.19
275.408	234.19
275.64	248.19
275.872	261.19
276.104	244.19
276.335	276.19
276.567	258.19
276.799	262.19
277.031	287.19
277.262	275.19
277.494	261.19
277.726	272.19
277.957	258.19
278.189	285.19
278.421	273.19
278.652	268.19
278.884	252.19
279.115	260.19
279.347	263.19
279.579	258.19
279.81	260.19
280.042	275.19
280.273	259.19
280.505	254.19
280.736	271.19
280.968	260.19
281.199	265.19
281.431	253.19
281.662	257.19
281.894	261.19
282.125	274.19
282.356	277.19
282.588	286.19
282.819	289.19
283.051	279.19
283.282	273.19
283.513	269.19
283.745	287.19
283.976	272.19
284.207	272.19
284.439	298.19
284.67	291.19
284.901	285.19
285.132	275.19
285.364	272.19
285.595	285.19
285.826	272.19
286.057	281.19
286.288	280.19
286.52	280.19
286.751	282.19
286.982	275.19
287.213	264.19
287.444	271.19
287.675	306.19
287.906	283.19
288.138	275.19
288.369	295.19
288.6	298.19
288.831	277.19
289.062	304.19
289.293	299.19
289.524	315.19
289.755	285.19
289.986	301.19
290.217	291.19
290.448	284.19
290.679	291.19
290.91	313.19
291.141	289.19
291.371	296.19
291.602	303.19
291.833	285.19
292.064	298.19
292.295	289.19
292.526	292.19
292.757	306.19
292.987	297.19
293.218	301.19
293.449	301.19
293.68	298.19
293.91	293.19
294.141	296.19
294.372	306.19
294.603	317.19
294.833	295.19
295.064	307.19
295.295	291.19
295.525	289.19
295.756	312.19
295.987	299.19
296.217	336.19
296.448	325.19
296.679	290.19
296.909	301.19
297.14	309.19
297.37	292.19
297.601	304.19
297.831	313.19
298.062	289.19
298.292	324.19
298.523	325.19
298.753	321.19
298.984	310.19
299.214	313.19
299.445	309.19
299.675	312.19
299.905	314.19
300.136	322.19
300.366	318.19
300.597	326.19
300.827	326.19
301.057	311.19
301.288	334.19
301.518	321.19
301.748	343.19
301.979	324.19
302.209	318.19
302.439	328.19
302.669	317.19
302.9	336.19
303.13	336.19
303.36	335.19
303.59	336.19
303.82	333.19
304.051	326.19
304.281	328.19
304.511	346.19
304.741	331.19
304.971	332.19
305.201	349.19
305.431	321.19
305.661	332.19
305.891	313.19
306.121	314.19
306.352	335.19
306.582	316.19
306.812	349.19
307.042	346.19
307.272	330.19
307.502	316.19
307.731	336.19
307.961	327.19
308.191	321.19
308.421	340.19
308.651	346.19
308.881	334.19
309.111	328.19
309.341	324.19
309.571	337.19
309.8	359.19
310.03	343.19
310.26	358.19
310.49	355.19
310.72	346.19
310.949	359.19
311.179	347.19
311.409	353.19
311.639	355.19
311.868	362.19
312.098	367.19
312.328	345.19
312.557	369.19
312.787	380.19
313.017	363.19
313.246	367.19
313.476	369.19
313.706	373.19
313.935	355.19
314.165	387.19
314.394	375.19
314.624	381.19
314.853	381.19
315.083	391.19
315.312	371.19
315.542	366.19
315.771	375.19
316.001	376.19
316.23	365.19
316.46	368.19
316.689	367.19
316.919	353.19
317.148	364.19
317.377	370.19
317.607	363.19
317.836	373.19
318.065	355.19
318.295	355.19
318.524	358.19
318.753	377.19
318.983	359.19
319.212	367.19
319.441	361.19
319.67	373.19
319.9	367.19
320.129	377.19
320.358	370.19
320.587	371.19
320.816	370.19
321.046	391.19
321.275	358.19
321.504	387.19
321.733	374.19
321.962	379.19
322.191	392.19
322.42	389.19
322.649	397.19
322.878	398.19
323.108	408.19
323.337	424.19
323.566	440.19
323.795	430.19
324.024	475.19
324.253	529.19
324.482	685.19
324.71	972.19
324.939	1362.19
325.168	1219.19
325.397	665.19
325.626	527.19
325.855	469.19
326.084	445.19
326.313	419.19
326.542	435.19
326.77	479.19
326.999	498.19
327.228	663.19
327.457	923.19
327.686	1057.19
327.914	767.19
328.143	572.19
328.372	489.19
328.6	489.19
328.829	458.19
329.058	466.19
329.287	464.19
329.515	456.19
329.744	437.19
329.972	430.19
330.201	444.19
330.43	484.19
330.658	483.19
330.887	523.19
331.115	481.19
331.344	469.19
331.572	453.19
331.801	460.19
332.03	470.19
332.258	443.19
332.486	432.19
332.715	432.19
332.943	460.19
333.172	463.19
333.4	467.19
333.629	487.19
333.857	469.19
334.085	511.19
334.314	525.19
334.542	508.19
334.771	475.19
334.999	493.19
335.227	482.19
335.455	470.19
335.684	459.19
335.912	450.19
336.14	449.19
336.369	435.19
336.597	462.19
336.825	470.19
337.053	448.19
337.281	427.19
337.51	446.19
337.738	441.19
337.966	432.19
338.194	419.19
338.422	430.19
338.65	429.19
338.878	409.19
339.106	431.19
339.334	445.19
339.562	424.19
339.79	416.19
340.018	410.19
340.246	429.19
340.474	427.19
340.702	409.19
340.93	437.19
341.158	415.19
341.386	423.19
341.614	411.19
341.842	426.19
342.07	410.19
342.298	417.19
342.526	421.19
342.754	424.19
342.981	421.19
343.209	425.19
343.437	419.19
343.665	437.19
343.893	458.19
344.12	458.19
344.348	455.19
344.576	434.19
344.804	440.19
345.031	439.19
345.259	422.19
345.487	409.19
345.714	424.19
345.942	392.19
346.17	424.19
346.397	409.19
346.625	412.19
346.853	421.19
347.08	399.19
347.308	398.19
347.535	410.19
347.763	398.19
347.99	420.19
348.218	416.19
348.445	426.19
348.673	410.19
348.9	411.19
349.128	389.19
349.355	397.19
349.583	389.19
349.81	385.19
350.037	374.19
350.265	383.19
350.492	411.19
350.72	395.19
350.947	391.19
351.174	398.19
351.402	397.19
351.629	391.19
351.856	400.19
352.083	409.19
352.311	396.19
352.538	403.19
352.765	418.19
352.992	393.19
353.22	400.19
353.447	375.19
353.674	392.19
353.901	399.19
354.128	367.19
354.355	385.19
354.583	381.19
354.81	392.19
355.037	389.19
355.264	390.19
355.491	378.19
355.718	385.19
355.945	375.19
356.172	386.19
356.399	395.19
356.626	376.19
356.853	374.19
357.08	393.19
357.307	370.19
357.534	381.19
357.761	386.19
357.988	394.19
358.215	370.19
358.441	380.19
358.668	396.19
358.895	389.19
359.122	409.19
359.349	375.19
359.576	375.19
359.802	390.19
360.029	417.19
360.256	433.19
360.483	410.19
360.709	393.19
360.936	386.19
361.163	393.19
361.39	390.19
361.616	402.19
361.843	401.19
362.07	393.19
362.296	392.19
362.523	380.19
362.749	381.19
362.976	396.19
363.203	379.19
363.429	377.19
363.656	394.19
363.882	385.19
364.109	368.19
364.335	371.19
364.562	384.19
364.788	381.19
365.015	416.19
365.241	375.19
365.468	369.19
365.694	384.19
365.92	392.19
366.147	401.19
366.373	378.19
366.599	399.19
366.826	397.19
367.052	422.19
367.278	402.19
367.505	376.19
367.731	386.19
367.957	405.19
368.184	390.19
368.41	388.19
368.636	403.19
368.862	389.19
369.089	383.19
369.315	389.19
369.541	385.19
369.767	383.19
369.993	387.19
370.219	384.19
370.445	380.19
370.672	394.19
370.898	396.19
371.124	402.19
371.35	387.19
371.576	403.19
371.802	401.19
372.028	406.19
372.254	420.19
372.48	414.19
372.706	389.19
372.932	406.19
373.158	420.19
373.384	416.19
373.61	401.19
373.835	408.19
374.061	405.19
374.287	390.19
374.513	406.19
374.739	435.19
374.965	427.19
375.191	407.19
375.416	419.19
375.642	401.19
375.868	410.19
376.094	403.19
376.319	403.19
376.545	417.19
376.771	382.19
376.997	399.19
377.222	387.19
377.448	396.19
377.674	377.19
377.899	402.19
378.125	389.19
378.35	402.19
378.576	407.19
378.802	404.19
379.027	393.19
379.253	407.19
379.478	392.19
379.704	402.19
379.929	415.19
380.155	406.19
380.38	391.19
380.606	385.19
380.831	392.19
381.057	409.19
381.282	393.19
381.507	401.19
381.733	406.19
381.958	399.19
382.184	401.19
382.409	405.19
382.634	410.19
382.86	410.19
383.085	407.19
383.31	419.19
383.535	443.19
383.761	417.19
383.986	423.19
384.211	431.19
384.436	438.19
384.662	458.19
384.887	453.19
385.112	442.19
385.337	458.19
385.562	460.19
385.787	451.19
386.013	476.19
386.238	469.19
386.463	481.19
386.688	463.19
386.913	439.19
387.138	452.19
387.363	446.19
387.588	447.19
387.813	451.19
388.038	437.19
388.263	469.19
388.488	459.19
388.713	443.19
388.938	464.19
389.163	458.19
389.387	469.19
389.612	445.19
389.837	459.19
390.062	438.19
390.287	452.19
390.512	446.19
390.736	460.19
390.961	451.19
391.186	471.19
391.411	463.19
391.636	460.19
391.86	487.19
392.085	485.19
392.31	486.19
392.534	492.19
392.759	477.19
392.984	457.19
393.208	459.19
393.433	487.19
393.658	466.19
393.882	477.19
394.107	443.19
394.331	474.19
394.556	472.19
394.78	466.19
395.005	471.19
395.229	457.19
395.454	493.19
395.678	493.19
395.903	504.19
396.127	517.19
396.352	480.19
396.576	482.19
396.801	475.19
397.025	458.19
397.249	499.19
397.474	497.19
397.698	475.19
397.922	517.19
398.147	514.19
398.371	523.19
398.595	506.19
398.82	537.19
399.044	551.19
399.268	600.19
399.492	607.19
399.717	661.19
399.941	705.19
400.165	685.19
400.389	657.19
400.613	623.19
400.837	583.19
401.062	548.19
401.286	541.19
401.51	551.19
401.734	531.19
401.958	559.19
402.182	543.19
402.406	560.19
402.63	547.19
402.854	555.19
403.078	561.19
403.302	550.19
403.526	573.19
403.75	607.19
403.974	576.19
404.198	583.19
404.422	573.19
404.645	598.19
404.869	591.19
405.093	605.19
405.317	625.19
405.541	633.19
405.765	606.19
405.988	583.19
406.212	577.19
406.436	600.19
406.66	612.19
406.883	635.19
407.107	639.19
407.331	650.19
407.555	710.19
407.778	676.19
408.002	648.19
408.226	646.19
408.449	632.19
408.673	581.19
408.896	610.19
409.12	638.19
409.344	619.19
409.567	602.19
409.791	580.19
410.014	575.19
410.238	554.19
410.461	547.19
410.685	574.19
410.908	559.19
411.132	595.19
411.355	621.19
411.578	594.19
411.802	569.19
412.025	560.19
412.249	574.19
412.472	589.19
412.695	600.19
412.919	578.19
413.142	570.19
413.365	552.19
413.589	552.19
413.812	539.19
414.035	536.19
414.258	522.19
414.482	536.19
414.705	523.19
414.928	535.19
415.151	533.19
415.374	531.19
415.597	507.19
415.821	519.19
416.044	525.19
416.267	527.19
416.49	550.19
416.713	501.19
416.936	498.19
417.159	524.19
417.382	527.19
417.605	517.19
417.828	537.19
418.051	556.19
418.274	558.19
418.497	518.19
418.72	542.19
418.943	524.19
419.166	549.19
419.389	575.19
419.611	555.19
419.834	563.19
420.057	541.19
420.28	539.19
420.503	535.19
420.726	515.19
420.948	561.19
421.171	578.19
421.394	600.19
421.617	551.19
421.839	528.19
422.062	554.19
422.285	556.19
422.507	597.19
422.73	648.19
422.953	637.19
423.175	583.19
423.398	557.19
423.621	561.19
423.843	574.19
424.066	589.19
424.288	582.19
424.511	589.19
424.733	624.19
424.956	680.19
425.178	640.19
425.401	625.19
425.623	666.19
425.846	593.19
426.068	549.19
426.291	562.19
426.513	553.19
426.735	549.19
426.958	572.19
427.18	646.19
427.402	744.19
427.625	790.19
427.847	683.19
428.069	604.19
428.292	552.19
428.514	564.19
428.736	516.19
428.958	519.19
429.181	507.19
429.403	489.19
429.625	513.19
429.847	519.19
430.069	577.19
430.292	592.19
430.514	488.19
430.736	483.19
430.958	496.19
431.18	494.19
431.402	533.19
431.624	498.19
431.846	475.19
432.068	485.19
432.29	489.19
432.512	505.19
432.734	510.19
432.956	505.19
433.178	515.19
433.4	506.19
433.622	511.19
433.844	471.19
434.066	500.19
434.287	501.19
434.509	528.19
434.731	531.19
434.953	548.19
435.175	553.19
435.397	557.19
435.618	565.19
435.84	571.19
436.062	627.19
436.284	673.19
436.505	577.19
436.727	559.19
436.949	527.19
437.17	506.19
437.392	517.19
437.614	520.19
437.835	536.19
438.057	610.19
438.278	664.19
438.5	667.19
438.721	687.19
438.943	693.19
439.165	577.19
439.386	544.19
439.608	539.19
439.829	538.19
440.05	558.19
440.272	587.19
440.493	553.19
440.715	528.19
440.936	517.19
441.158	514.19
441.379	542.19
441.6	559.19
441.822	566.19
442.043	577.19
442.264	618.19
442.486	671.19
442.707	601.19
442.928	565.19
443.149	579.19
443.371	566.19
443.592	598.19
443.813	676.19
444.034	721.19
444.255	611.19
444.476	598.19
444.698	592.19
444.919	586.19
445.14	716.19
445.361	633.19
445.582	577.19
445.803	638.19
446.024	678.19
446.245	663.19
446.466	637.19
446.687	550.19
446.908	540.19
447.129	517.19
447.35	516.19
447.571	495.19
447.792	514.19
448.013	516.19
448.234	508.19
448.455	551.19
448.675	648.19
448.896	683.19
449.117	605.19
449.338	599.19
449.559	664.19
449.779	731.19
450	626.19
450.221	531.19
450.442	483.19
450.662	485.19
450.883	510.19
451.104	494.19
451.324	486.19
451.545	464.19
451.766	445.19
451.986	464.19
452.207	459.19
452.428	442.19
452.648	435.19
452.869	446.19
453.089	463.19
453.31	465.19
453.53	472.19
453.751	456.19
453.971	454.19
454.192	475.19
454.412	463.19
454.633	463.19
454.853	455.19
455.073	474.19
455.294	460.19
455.514	489.19
455.734	493.19
455.955	440.19
456.175	436.19
456.395	452.19
456.616	401.19
456.836	437.19
457.056	427.19
457.276	439.19
457.497	435.19
457.717	436.19
457.937	435.19
458.157	439.19
458.377	454.19
458.598	481.19
458.818	508.19
459.038	536.19
459.258	535.19
459.478	522.19
459.698	515.19
459.918	515.19
460.138	529.19
460.358	516.19
460.578	517.19
460.798	534.19
461.018	548.19
461.238	540.19
461.458	544.19
461.678	525.19
461.898	567.19
462.118	532.19
462.338	562.19
462.558	555.19
462.777	561.19
462.997	572.19
463.217	633.19
463.437	618.19
463.657	597.19
463.876	571.19
464.096	599.19
464.316	585.19
464.536	581.19
464.755	601.19
464.975	569.19
465.195	574.19
465.414	585.19
465.634	561.19
465.854	534.19
466.073	508.19
466.293	493.19
466.512	475.19
466.732	482.19
466.951	465.19
467.171	486.19
467.391	498.19
467.61	496.19
467.829	489.19
468.049	475.19
468.268	460.19
468.488	462.19
468.707	461.19
468.927	453.19
469.146	478.19
469.365	484.19
469.585	470.19
469.804	475.19
470.023	464.19
470.243	472.19
470.462	482.19
470.681	496.19
470.901	478.19
471.12	469.19
471.339	467.19
471.558	493.19
471.777	464.19
471.997	466.19
472.216	476.19
472.435	503.19
472.654	480.19
472.873	461.19
473.092	481.19
473.311	475.19
473.53	452.19
473.749	485.19
473.968	506.19
474.187	559.19
474.406	588.19
474.625	513.19
474.844	497.19
475.063	484.19
475.282	472.19
475.501	475.19
475.72	486.19
475.939	490.19
476.158	473.19
476.377	476.19
476.596	482.19
476.814	502.19
477.033	480.19
477.252	497.19
477.471	488.19
477.69	501.19
477.908	522.19
478.127	531.19
478.346	553.19
478.564	553.19
478.783	529.19
479.002	551.19
479.22	570.19
479.439	564.19
479.658	561.19
479.876	569.19
480.095	580.19
480.313	624.19
480.532	592.19
480.751	585.19
480.969	610.19
481.188	623.19
481.406	635.19
481.624	583.19
481.843	578.19
482.061	568.19
482.28	565.19
482.498	561.19
482.717	550.19
482.935	559.19
483.153	561.19
483.372	546.19
483.59	554.19
483.808	557.19
484.027	531.19
484.245	544.19
484.463	559.19
484.681	569.19
484.9	578.19
485.118	568.19
485.336	583.19
485.554	575.19
485.772	568.19
485.99	586.19
486.209	561.19
486.427	557.19
486.645	580.19
486.863	599.19
487.081	591.19
487.299	589.19
487.517	580.19
487.735	586.19
487.953	561.19
488.171	582.19
488.389	586.19
488.607	600.19
488.825	577.19
489.043	592.19
489.261	590.19
489.479	593.19
489.696	596.19
489.914	607.19
490.132	595.19
490.35	621.19
490.568	617.19
490.786	616.19
491.003	620.19
491.221	633.19
491.439	631.19
491.657	613.19
491.874	629.19
492.092	625.19
492.31	634.19
492.527	650.19
492.745	651.19
492.963	635.19
493.18	637.19
493.398	672.19
493.615	672.19
493.833	672.19
494.05	639.19
494.268	659.19
494.485	645.19
494.703	661.19
494.92	671.19
495.138	647.19
495.355	669.19
495.573	657.19
495.79	679.19
496.008	685.19
496.225	674.19
496.442	662.19
496.66	698.19
496.877	673.19
497.094	690.19
497.312	711.19
497.529	725.19
497.746	739.19
497.963	761.19
498.181	767.19
498.398	791.19
498.615	815.19
498.832	827.19
499.049	836.19
499.267	890.19
499.484	921.19
499.701	986.19
499.918	1046.19
500.135	1104.19
500.352	1197.19
500.569	1221.19
500.786	1211.19
501.003	1180.19
501.22	1147.19
501.437	1024.19
501.654	993.19
501.871	968.19
502.088	950.19
