Data from 1962.PennyLincolnUp.Lamp.En5.5.200Scan.071719.P1._HRD10591_13-53-34-060.txt Node
Date: Thu Jul 18 13:53:34 EDT 2019
User: cochatt
Spectrometer: HR+D1059
Trigger mode: 1
Integration Time (sec): 1.000000E-1
Scans to average: 1
Electric dark correction enabled: true
Nonlinearity correction enabled: false
Boxcar width: 0
XAxis mode: Wavelengths
Number of Pixels in Spectrum: 2048
>>>>>Begin Spectral Data<<<<<
223.165	-14.81
223.4	-14.81
223.635	-14.81
223.869	-16.81
224.104	-26.81
224.338	-24.81
224.573	-17.81
224.808	-22.81
225.042	-11.81
225.277	-1.81
225.511	4.19
225.746	-5.81
225.98	10.19
226.215	11.19
226.449	21.19
226.683	28.19
226.918	23.19
227.152	45.19
227.387	24.19
227.621	37.19
227.856	48.19
228.09	41.19
228.324	54.19
228.559	55.19
228.793	65.19
229.027	81.19
229.262	70.19
229.496	91.19
229.73	107.19
229.964	116.19
230.199	101.19
230.433	95.19
230.667	102.19
230.901	80.19
231.136	98.19
231.37	95.19
231.604	85.19
231.838	119.19
232.072	102.19
232.306	97.19
232.541	107.19
232.775	111.19
233.009	117.19
233.243	108.19
233.477	107.19
233.711	105.19
233.945	102.19
234.179	102.19
234.413	102.19
234.647	102.19
234.881	114.19
235.115	107.19
235.349	107.19
235.583	122.19
235.817	105.19
236.051	123.19
236.285	102.19
236.519	117.19
236.753	118.19
236.987	119.19
237.221	153.19
237.455	168.19
237.689	149.19
237.922	121.19
238.156	109.19
238.39	104.19
238.624	121.19
238.858	111.19
239.091	112.19
239.325	119.19
239.559	126.19
239.793	109.19
240.027	121.19
240.26	112.19
240.494	122.19
240.728	140.19
240.961	129.19
241.195	127.19
241.429	136.19
241.662	107.19
241.896	114.19
242.13	126.19
242.363	129.19
242.597	132.19
242.83	119.19
243.064	124.19
243.298	127.19
243.531	131.19
243.765	126.19
243.998	127.19
244.232	139.19
244.465	135.19
244.699	140.19
244.932	123.19
245.166	133.19
245.399	127.19
245.633	126.19
245.866	123.19
246.099	144.19
246.333	135.19
246.566	134.19
246.8	148.19
247.033	140.19
247.266	146.19
247.5	155.19
247.733	149.19
247.966	135.19
248.2	151.19
248.433	142.19
248.666	146.19
248.899	160.19
249.133	166.19
249.366	173.19
249.599	170.19
249.832	165.19
250.066	153.19
250.299	154.19
250.532	173.19
250.765	164.19
250.998	169.19
251.231	177.19
251.465	176.19
251.698	166.19
251.931	168.19
252.164	166.19
252.397	167.19
252.63	177.19
252.863	189.19
253.096	186.19
253.329	197.19
253.562	182.19
253.795	182.19
254.028	200.19
254.261	182.19
254.494	199.19
254.727	214.19
254.96	224.19
255.193	221.19
255.426	195.19
255.659	186.19
255.892	187.19
256.124	191.19
256.357	206.19
256.59	184.19
256.823	180.19
257.056	178.19
257.289	188.19
257.521	202.19
257.754	180.19
257.987	196.19
258.22	174.19
258.452	185.19
258.685	181.19
258.918	175.19
259.151	187.19
259.383	197.19
259.616	197.19
259.849	194.19
260.081	214.19
260.314	197.19
260.547	223.19
260.779	207.19
261.012	197.19
261.244	200.19
261.477	202.19
261.71	197.19
261.942	196.19
262.175	195.19
262.407	191.19
262.64	197.19
262.872	179.19
263.105	187.19
263.337	200.19
263.57	197.19
263.802	182.19
264.035	191.19
264.267	186.19
264.499	192.19
264.732	190.19
264.964	198.19
265.197	214.19
265.429	203.19
265.661	206.19
265.894	212.19
266.126	210.19
266.358	196.19
266.591	204.19
266.823	209.19
267.055	199.19
267.287	190.19
267.52	215.19
267.752	222.19
267.984	216.19
268.216	215.19
268.448	202.19
268.681	214.19
268.913	212.19
269.145	212.19
269.377	237.19
269.609	243.19
269.841	232.19
270.073	239.19
270.306	259.19
270.538	269.19
270.77	261.19
271.002	255.19
271.234	246.19
271.466	255.19
271.698	251.19
271.93	270.19
272.162	270.19
272.394	263.19
272.626	241.19
272.858	248.19
273.09	239.19
273.322	246.19
273.553	243.19
273.785	259.19
274.017	217.19
274.249	252.19
274.481	261.19
274.713	241.19
274.945	245.19
275.176	234.19
275.408	260.19
275.64	245.19
275.872	245.19
276.104	262.19
276.335	242.19
276.567	245.19
276.799	257.19
277.031	262.19
277.262	260.19
277.494	267.19
277.726	260.19
277.957	269.19
278.189	230.19
278.421	257.19
278.652	257.19
278.884	225.19
279.115	246.19
279.347	247.19
279.579	236.19
279.81	263.19
280.042	253.19
280.273	238.19
280.505	253.19
280.736	249.19
280.968	244.19
281.199	258.19
281.431	264.19
281.662	254.19
281.894	244.19
282.125	273.19
282.356	277.19
282.588	268.19
282.819	277.19
283.051	280.19
283.282	261.19
283.513	267.19
283.745	266.19
283.976	261.19
284.207	264.19
284.439	264.19
284.67	260.19
284.901	255.19
285.132	274.19
285.364	277.19
285.595	291.19
285.826	260.19
286.057	262.19
286.288	286.19
286.52	261.19
286.751	257.19
286.982	264.19
287.213	277.19
287.444	276.19
287.675	296.19
287.906	290.19
288.138	287.19
288.369	289.19
288.6	293.19
288.831	290.19
289.062	273.19
289.293	271.19
289.524	292.19
289.755	278.19
289.986	282.19
290.217	289.19
290.448	267.19
290.679	286.19
290.91	283.19
291.141	274.19
291.371	293.19
291.602	277.19
291.833	305.19
292.064	295.19
292.295	277.19
292.526	283.19
292.757	276.19
292.987	298.19
293.218	286.19
293.449	298.19
293.68	291.19
293.91	285.19
294.141	279.19
294.372	290.19
294.603	285.19
294.833	294.19
295.064	283.19
295.295	277.19
295.525	302.19
295.756	298.19
295.987	304.19
296.217	291.19
296.448	307.19
296.679	318.19
296.909	295.19
297.14	297.19
297.37	292.19
297.601	280.19
297.831	290.19
298.062	296.19
298.292	294.19
298.523	305.19
298.753	319.19
298.984	288.19
299.214	293.19
299.445	307.19
299.675	299.19
299.905	303.19
300.136	311.19
300.366	303.19
300.597	302.19
300.827	305.19
301.057	314.19
301.288	321.19
301.518	325.19
301.748	336.19
301.979	306.19
302.209	312.19
302.439	306.19
302.669	334.19
302.9	341.19
303.13	324.19
303.36	313.19
303.59	314.19
303.82	325.19
304.051	321.19
304.281	341.19
304.511	335.19
304.741	328.19
304.971	317.19
305.201	318.19
305.431	300.19
305.661	317.19
305.891	327.19
306.121	324.19
306.352	326.19
306.582	326.19
306.812	335.19
307.042	312.19
307.272	321.19
307.502	342.19
307.731	341.19
307.961	332.19
308.191	316.19
308.421	337.19
308.651	317.19
308.881	329.19
309.111	324.19
309.341	323.19
309.571	314.19
309.8	321.19
310.03	361.19
310.26	334.19
310.49	349.19
310.72	336.19
310.949	355.19
311.179	361.19
311.409	342.19
311.639	347.19
311.868	326.19
312.098	349.19
312.328	371.19
312.557	372.19
312.787	350.19
313.017	358.19
313.246	346.19
313.476	343.19
313.706	345.19
313.935	362.19
314.165	376.19
314.394	371.19
314.624	369.19
314.853	364.19
315.083	335.19
315.312	333.19
315.542	344.19
315.771	341.19
316.001	355.19
316.23	340.19
316.46	342.19
316.689	357.19
316.919	363.19
317.148	371.19
317.377	354.19
317.607	354.19
317.836	359.19
318.065	361.19
318.295	349.19
318.524	361.19
318.753	357.19
318.983	345.19
319.212	341.19
319.441	340.19
319.67	370.19
319.9	339.19
320.129	360.19
320.358	377.19
320.587	376.19
320.816	345.19
321.046	372.19
321.275	365.19
321.504	358.19
321.733	369.19
321.962	369.19
322.191	374.19
322.42	375.19
322.649	383.19
322.878	391.19
323.108	390.19
323.337	394.19
323.566	408.19
323.795	445.19
324.024	445.19
324.253	502.19
324.482	643.19
324.71	902.19
324.939	1241.19
325.168	1099.19
325.397	610.19
325.626	491.19
325.855	443.19
326.084	406.19
326.313	421.19
326.542	427.19
326.77	433.19
326.999	480.19
327.228	615.19
327.457	835.19
327.686	959.19
327.914	714.19
328.143	536.19
328.372	447.19
328.6	441.19
328.829	435.19
329.058	446.19
329.287	445.19
329.515	433.19
329.744	440.19
329.972	411.19
330.201	442.19
330.43	456.19
330.658	439.19
330.887	465.19
331.115	454.19
331.344	453.19
331.572	432.19
331.801	433.19
332.03	458.19
332.258	422.19
332.486	437.19
332.715	419.19
332.943	443.19
333.172	443.19
333.4	451.19
333.629	455.19
333.857	465.19
334.085	469.19
334.314	455.19
334.542	454.19
334.771	496.19
334.999	457.19
335.227	455.19
335.455	456.19
335.684	441.19
335.912	464.19
336.14	434.19
336.369	429.19
336.597	436.19
336.825	446.19
337.053	433.19
337.281	440.19
337.51	423.19
337.738	422.19
337.966	401.19
338.194	426.19
338.422	446.19
338.65	421.19
338.878	403.19
339.106	398.19
339.334	433.19
339.562	437.19
339.79	389.19
340.018	420.19
340.246	400.19
340.474	395.19
340.702	389.19
340.93	402.19
341.158	423.19
341.386	418.19
341.614	429.19
341.842	409.19
342.07	415.19
342.298	406.19
342.526	388.19
342.754	414.19
342.981	426.19
343.209	422.19
343.437	423.19
343.665	418.19
343.893	434.19
344.12	439.19
344.348	441.19
344.576	443.19
344.804	408.19
345.031	426.19
345.259	418.19
345.487	411.19
345.714	387.19
345.942	400.19
346.17	400.19
346.397	411.19
346.625	389.19
346.853	384.19
347.08	401.19
347.308	397.19
347.535	388.19
347.763	386.19
347.99	402.19
348.218	389.19
348.445	371.19
348.673	404.19
348.9	407.19
349.128	398.19
349.355	395.19
349.583	371.19
349.81	373.19
350.037	378.19
350.265	366.19
350.492	392.19
350.72	376.19
350.947	365.19
351.174	384.19
351.402	409.19
351.629	385.19
351.856	391.19
352.083	389.19
352.311	387.19
352.538	376.19
352.765	387.19
352.992	383.19
353.22	369.19
353.447	367.19
353.674	373.19
353.901	370.19
354.128	365.19
354.355	369.19
354.583	371.19
354.81	355.19
355.037	370.19
355.264	375.19
355.491	365.19
355.718	386.19
355.945	393.19
356.172	373.19
356.399	377.19
356.626	379.19
356.853	373.19
357.08	359.19
357.307	379.19
357.534	396.19
357.761	380.19
357.988	383.19
358.215	382.19
358.441	382.19
358.668	370.19
358.895	366.19
359.122	375.19
359.349	381.19
359.576	392.19
359.802	405.19
360.029	393.19
360.256	413.19
360.483	394.19
360.709	404.19
360.936	391.19
361.163	393.19
361.39	363.19
361.616	383.19
361.843	379.19
362.07	381.19
362.296	382.19
362.523	391.19
362.749	374.19
362.976	389.19
363.203	402.19
363.429	370.19
363.656	375.19
363.882	392.19
364.109	380.19
364.335	389.19
364.562	377.19
364.788	394.19
365.015	373.19
365.241	371.19
365.468	361.19
365.694	378.19
365.92	391.19
366.147	355.19
366.373	379.19
366.599	367.19
366.826	386.19
367.052	386.19
367.278	385.19
367.505	371.19
367.731	388.19
367.957	379.19
368.184	381.19
368.41	389.19
368.636	382.19
368.862	386.19
369.089	383.19
369.315	383.19
369.541	392.19
369.767	384.19
369.993	384.19
370.219	386.19
370.445	387.19
370.672	387.19
370.898	385.19
371.124	376.19
371.35	372.19
371.576	374.19
371.802	371.19
372.028	380.19
372.254	382.19
372.48	395.19
372.706	398.19
372.932	406.19
373.158	407.19
373.384	398.19
373.61	395.19
373.835	363.19
374.061	385.19
374.287	397.19
374.513	385.19
374.739	393.19
374.965	394.19
375.191	418.19
375.416	412.19
375.642	379.19
375.868	394.19
376.094	393.19
376.319	379.19
376.545	393.19
376.771	387.19
376.997	375.19
377.222	390.19
377.448	359.19
377.674	405.19
377.899	377.19
378.125	384.19
378.35	383.19
378.576	382.19
378.802	396.19
379.027	383.19
379.253	397.19
379.478	379.19
379.704	368.19
379.929	387.19
380.155	389.19
380.38	379.19
380.606	391.19
380.831	373.19
381.057	388.19
381.282	406.19
381.507	392.19
381.733	399.19
381.958	406.19
382.184	389.19
382.409	381.19
382.634	400.19
382.86	403.19
383.085	394.19
383.31	419.19
383.535	386.19
383.761	413.19
383.986	414.19
384.211	415.19
384.436	419.19
384.662	416.19
384.887	424.19
385.112	454.19
385.337	459.19
385.562	455.19
385.787	454.19
386.013	443.19
386.238	453.19
386.463	442.19
386.688	451.19
386.913	423.19
387.138	436.19
387.363	446.19
387.588	424.19
387.813	434.19
388.038	431.19
388.263	439.19
388.488	466.19
388.713	447.19
388.938	445.19
389.163	414.19
389.387	435.19
389.612	433.19
389.837	439.19
390.062	417.19
390.287	459.19
390.512	447.19
390.736	426.19
390.961	462.19
391.186	466.19
391.411	454.19
391.636	451.19
391.86	459.19
392.085	484.19
392.31	460.19
392.534	472.19
392.759	469.19
392.984	467.19
393.208	457.19
393.433	452.19
393.658	440.19
393.882	454.19
394.107	441.19
394.331	447.19
394.556	450.19
394.78	469.19
395.005	471.19
395.229	453.19
395.454	474.19
395.678	487.19
395.903	472.19
396.127	484.19
396.352	488.19
396.576	482.19
396.801	480.19
397.025	489.19
397.249	467.19
397.474	488.19
397.698	485.19
397.922	493.19
398.147	503.19
398.371	512.19
398.595	504.19
398.82	538.19
399.044	506.19
399.268	566.19
399.492	623.19
399.717	655.19
399.941	685.19
400.165	648.19
400.389	641.19
400.613	596.19
400.837	550.19
401.062	533.19
401.286	538.19
401.51	505.19
401.734	521.19
401.958	510.19
402.182	504.19
402.406	518.19
402.63	541.19
402.854	534.19
403.078	538.19
403.302	553.19
403.526	537.19
403.75	530.19
403.974	548.19
404.198	557.19
404.422	563.19
404.645	575.19
404.869	552.19
405.093	600.19
405.317	608.19
405.541	631.19
405.765	590.19
405.988	570.19
406.212	565.19
406.436	564.19
406.66	583.19
406.883	566.19
407.107	595.19
407.331	633.19
407.555	697.19
407.778	677.19
408.002	633.19
408.226	617.19
408.449	606.19
408.673	605.19
408.896	603.19
409.12	623.19
409.344	596.19
409.567	556.19
409.791	551.19
410.014	557.19
410.238	538.19
410.461	570.19
410.685	573.19
410.908	544.19
411.132	567.19
411.355	593.19
411.578	593.19
411.802	547.19
412.025	534.19
412.249	551.19
412.472	569.19
412.695	586.19
412.919	588.19
413.142	552.19
413.365	507.19
413.589	523.19
413.812	518.19
414.035	513.19
414.258	528.19
414.482	516.19
414.705	515.19
414.928	517.19
415.151	522.19
415.374	529.19
415.597	516.19
415.821	511.19
416.044	538.19
416.267	519.19
416.49	503.19
416.713	513.19
416.936	515.19
417.159	507.19
417.382	506.19
417.605	511.19
417.828	490.19
418.051	522.19
418.274	532.19
418.497	521.19
418.72	527.19
418.943	494.19
419.166	562.19
419.389	566.19
419.611	564.19
419.834	561.19
420.057	573.19
420.28	541.19
420.503	514.19
420.726	524.19
420.948	521.19
421.171	557.19
421.394	577.19
421.617	536.19
421.839	522.19
422.062	526.19
422.285	531.19
422.507	559.19
422.73	614.19
422.953	591.19
423.175	544.19
423.398	554.19
423.621	545.19
423.843	563.19
424.066	536.19
424.288	571.19
424.511	578.19
424.733	585.19
424.956	655.19
425.178	624.19
425.401	611.19
425.623	626.19
425.846	563.19
426.068	538.19
426.291	548.19
426.513	546.19
426.735	518.19
426.958	554.19
427.18	625.19
427.402	697.19
427.625	751.19
427.847	638.19
428.069	597.19
428.292	541.19
428.514	524.19
428.736	518.19
428.958	507.19
429.181	487.19
429.403	499.19
429.625	507.19
429.847	509.19
430.069	561.19
430.292	558.19
430.514	511.19
430.736	482.19
430.958	495.19
431.18	465.19
431.402	471.19
431.624	463.19
431.846	481.19
432.068	481.19
432.29	476.19
432.512	463.19
432.734	486.19
432.956	477.19
433.178	489.19
433.4	507.19
433.622	482.19
433.844	467.19
434.066	496.19
434.287	470.19
434.509	505.19
434.731	513.19
434.953	522.19
435.175	533.19
435.397	521.19
435.618	540.19
435.84	553.19
436.062	600.19
436.284	653.19
436.505	549.19
436.727	532.19
436.949	508.19
437.17	497.19
437.392	493.19
437.614	511.19
437.835	498.19
438.057	540.19
438.278	622.19
438.5	617.19
438.721	683.19
438.943	664.19
439.165	540.19
439.386	529.19
439.608	509.19
439.829	544.19
440.05	547.19
440.272	545.19
440.493	542.19
440.715	528.19
440.936	508.19
441.158	510.19
441.379	517.19
441.6	541.19
441.822	545.19
442.043	558.19
442.264	617.19
442.486	617.19
442.707	581.19
442.928	559.19
443.149	547.19
443.371	543.19
443.592	592.19
443.813	659.19
444.034	695.19
444.255	614.19
444.476	585.19
444.698	554.19
444.919	591.19
445.14	687.19
445.361	633.19
445.582	563.19
445.803	591.19
446.024	639.19
446.245	638.19
446.466	615.19
446.687	551.19
446.908	541.19
447.129	513.19
447.35	478.19
447.571	490.19
447.792	479.19
448.013	473.19
448.234	481.19
448.455	532.19
448.675	591.19
448.896	671.19
449.117	587.19
449.338	571.19
449.559	622.19
449.779	710.19
450	585.19
450.221	527.19
450.442	481.19
450.662	456.19
450.883	476.19
451.104	473.19
451.324	473.19
451.545	454.19
451.766	448.19
451.986	447.19
452.207	426.19
452.428	430.19
452.648	449.19
452.869	432.19
453.089	443.19
453.31	438.19
453.53	432.19
453.751	445.19
453.971	425.19
454.192	430.19
454.412	413.19
454.633	455.19
454.853	448.19
455.073	428.19
455.294	441.19
455.514	489.19
455.734	472.19
455.955	449.19
456.175	409.19
456.395	419.19
456.616	416.19
456.836	432.19
457.056	429.19
457.276	425.19
457.497	443.19
457.717	415.19
457.937	425.19
458.157	439.19
458.377	440.19
458.598	445.19
458.818	465.19
459.038	536.19
459.258	538.19
459.478	490.19
459.698	472.19
459.918	489.19
460.138	484.19
460.358	499.19
460.578	496.19
460.798	515.19
461.018	521.19
461.238	526.19
461.458	515.19
461.678	505.19
461.898	513.19
462.118	510.19
462.338	513.19
462.558	551.19
462.777	549.19
462.997	604.19
463.217	637.19
463.437	621.19
463.657	580.19
463.876	574.19
464.096	566.19
464.316	577.19
464.536	557.19
464.755	545.19
464.975	555.19
465.195	540.19
465.414	562.19
465.634	525.19
465.854	523.19
466.073	465.19
466.293	473.19
466.512	480.19
466.732	465.19
466.951	466.19
467.171	458.19
467.391	477.19
467.61	433.19
467.829	471.19
468.049	463.19
468.268	462.19
468.488	457.19
468.707	451.19
468.927	454.19
469.146	439.19
469.365	451.19
469.585	434.19
469.804	459.19
470.023	456.19
470.243	472.19
470.462	469.19
470.681	451.19
470.901	485.19
471.12	482.19
471.339	472.19
471.558	475.19
471.777	456.19
471.997	462.19
472.216	457.19
472.435	481.19
472.654	454.19
472.873	466.19
473.092	457.19
473.311	458.19
473.53	458.19
473.749	448.19
473.968	471.19
474.187	533.19
474.406	550.19
474.625	484.19
474.844	478.19
475.063	457.19
475.282	468.19
475.501	450.19
475.72	453.19
475.939	464.19
476.158	475.19
476.377	473.19
476.596	474.19
476.814	488.19
477.033	505.19
477.252	483.19
477.471	480.19
477.69	498.19
477.908	496.19
478.127	508.19
478.346	504.19
478.564	531.19
478.783	533.19
479.002	548.19
479.22	539.19
479.439	537.19
479.658	536.19
479.876	547.19
480.095	555.19
480.313	584.19
480.532	566.19
480.751	581.19
480.969	578.19
481.188	596.19
481.406	604.19
481.624	568.19
481.843	543.19
482.061	537.19
482.28	542.19
482.498	545.19
482.717	553.19
482.935	532.19
483.153	554.19
483.372	525.19
483.59	553.19
483.808	520.19
484.027	533.19
484.245	527.19
484.463	562.19
484.681	549.19
484.9	570.19
485.118	544.19
485.336	539.19
485.554	560.19
485.772	533.19
485.99	571.19
486.209	559.19
486.427	542.19
486.645	541.19
486.863	570.19
487.081	570.19
487.299	559.19
487.517	575.19
487.735	572.19
487.953	577.19
488.171	570.19
488.389	569.19
488.607	569.19
488.825	562.19
489.043	575.19
489.261	563.19
489.479	549.19
489.696	559.19
489.914	571.19
490.132	574.19
490.35	585.19
490.568	581.19
490.786	593.19
491.003	598.19
491.221	612.19
491.439	613.19
491.657	611.19
491.874	598.19
492.092	621.19
492.31	621.19
492.527	640.19
492.745	610.19
492.963	619.19
493.18	624.19
493.398	627.19
493.615	644.19
493.833	629.19
494.05	637.19
494.268	640.19
494.485	641.19
494.703	637.19
494.92	632.19
495.138	633.19
495.355	638.19
495.573	651.19
495.79	647.19
496.008	641.19
496.225	638.19
496.442	652.19
496.66	662.19
496.877	660.19
497.094	669.19
497.312	663.19
497.529	691.19
497.746	685.19
497.963	729.19
498.181	750.19
498.398	747.19
498.615	789.19
498.832	811.19
499.049	828.19
499.267	862.19
499.484	923.19
499.701	957.19
499.918	1030.19
500.135	1085.19
500.352	1177.19
500.569	1181.19
500.786	1182.19
501.003	1159.19
501.22	1107.19
501.437	1063.19
501.654	966.19
501.871	930.19
