Data from 1962.PennyLincolnUp.Lamp.En5.5.200Scan.071719.P1._HRD10591_13-52-52-059.txt Node
Date: Thu Jul 18 13:52:52 EDT 2019
User: cochatt
Spectrometer: HR+D1059
Trigger mode: 1
Integration Time (sec): 1.000000E-1
Scans to average: 1
Electric dark correction enabled: true
Nonlinearity correction enabled: false
Boxcar width: 0
XAxis mode: Wavelengths
Number of Pixels in Spectrum: 2048
>>>>>Begin Spectral Data<<<<<
223.165	-0.06
223.4	-0.06
223.635	-0.06
223.869	-7.06
224.104	-26.06
224.338	-12.06
224.573	-8.06
224.808	-4.06
225.042	-14.06
225.277	-7.06
225.511	-15.06
225.746	2.94
225.98	-9.06
226.215	9.94
226.449	13.94
226.683	27.94
226.918	29.94
227.152	17.94
227.387	29.94
227.621	42.94
227.856	45.94
228.09	41.94
228.324	54.94
228.559	63.94
228.793	60.94
229.027	88.94
229.262	100.94
229.496	84.94
229.73	101.94
229.964	111.94
230.199	105.94
230.433	112.94
230.667	95.94
230.901	95.94
231.136	101.94
231.37	101.94
231.604	116.94
231.838	95.94
232.072	111.94
232.306	105.94
232.541	114.94
232.775	98.94
233.009	118.94
233.243	113.94
233.477	112.94
233.711	117.94
233.945	106.94
234.179	99.94
234.413	107.94
234.647	112.94
234.881	111.94
235.115	111.94
235.349	97.94
235.583	119.94
235.817	109.94
236.051	112.94
236.285	114.94
236.519	123.94
236.753	116.94
236.987	115.94
237.221	159.94
237.455	154.94
237.689	155.94
237.922	117.94
238.156	132.94
238.39	120.94
238.624	107.94
238.858	115.94
239.091	109.94
239.325	119.94
239.559	111.94
239.793	105.94
240.027	119.94
240.26	123.94
240.494	153.94
240.728	126.94
240.961	121.94
241.195	133.94
241.429	131.94
241.662	132.94
241.896	127.94
242.13	133.94
242.363	137.94
242.597	129.94
242.83	129.94
243.064	124.94
243.298	142.94
243.531	135.94
243.765	129.94
243.998	128.94
244.232	156.94
244.465	129.94
244.699	131.94
244.932	125.94
245.166	128.94
245.399	144.94
245.633	135.94
245.866	133.94
246.099	151.94
246.333	149.94
246.566	142.94
246.8	150.94
247.033	133.94
247.266	145.94
247.5	134.94
247.733	137.94
247.966	146.94
248.2	159.94
248.433	153.94
248.666	159.94
248.899	155.94
249.133	167.94
249.366	168.94
249.599	172.94
249.832	159.94
250.066	145.94
250.299	146.94
250.532	165.94
250.765	161.94
250.998	175.94
251.231	179.94
251.465	161.94
251.698	171.94
251.931	158.94
252.164	168.94
252.397	163.94
252.63	157.94
252.863	176.94
253.096	187.94
253.329	173.94
253.562	167.94
253.795	186.94
254.028	179.94
254.261	173.94
254.494	196.94
254.727	187.94
254.96	192.94
255.193	204.94
255.426	183.94
255.659	201.94
255.892	192.94
256.124	205.94
256.357	178.94
256.59	181.94
256.823	165.94
257.056	194.94
257.289	190.94
257.521	184.94
257.754	179.94
257.987	179.94
258.22	179.94
258.452	189.94
258.685	200.94
258.918	186.94
259.151	170.94
259.383	192.94
259.616	195.94
259.849	187.94
260.081	186.94
260.314	192.94
260.547	199.94
260.779	211.94
261.012	196.94
261.244	202.94
261.477	201.94
261.71	183.94
261.942	185.94
262.175	207.94
262.407	179.94
262.64	188.94
262.872	194.94
263.105	187.94
263.337	192.94
263.57	174.94
263.802	216.94
264.035	213.94
264.267	202.94
264.499	213.94
264.732	196.94
264.964	187.94
265.197	191.94
265.429	187.94
265.661	194.94
265.894	191.94
266.126	199.94
266.358	206.94
266.591	197.94
266.823	209.94
267.055	206.94
267.287	197.94
267.52	210.94
267.752	204.94
267.984	198.94
268.216	212.94
268.448	207.94
268.681	227.94
268.913	224.94
269.145	212.94
269.377	216.94
269.609	224.94
269.841	228.94
270.073	242.94
270.306	241.94
270.538	249.94
270.77	248.94
271.002	240.94
271.234	242.94
271.466	241.94
271.698	252.94
271.93	258.94
272.162	227.94
272.394	241.94
272.626	256.94
272.858	252.94
273.09	248.94
273.322	236.94
273.553	231.94
273.785	223.94
274.017	240.94
274.249	237.94
274.481	238.94
274.713	239.94
274.945	247.94
275.176	228.94
275.408	230.94
275.64	249.94
275.872	240.94
276.104	247.94
276.335	227.94
276.567	246.94
276.799	250.94
277.031	256.94
277.262	255.94
277.494	268.94
277.726	252.94
277.957	238.94
278.189	267.94
278.421	237.94
278.652	239.94
278.884	253.94
279.115	246.94
279.347	241.94
279.579	247.94
279.81	267.94
280.042	259.94
280.273	252.94
280.505	259.94
280.736	258.94
280.968	266.94
281.199	240.94
281.431	263.94
281.662	255.94
281.894	263.94
282.125	244.94
282.356	269.94
282.588	271.94
282.819	293.94
283.051	249.94
283.282	261.94
283.513	258.94
283.745	259.94
283.976	280.94
284.207	247.94
284.439	252.94
284.67	264.94
284.901	274.94
285.132	260.94
285.364	271.94
285.595	250.94
285.826	269.94
286.057	283.94
286.288	274.94
286.52	274.94
286.751	260.94
286.982	259.94
287.213	274.94
287.444	283.94
287.675	277.94
287.906	284.94
288.138	301.94
288.369	292.94
288.6	287.94
288.831	285.94
289.062	285.94
289.293	299.94
289.524	277.94
289.755	281.94
289.986	272.94
290.217	274.94
290.448	290.94
290.679	281.94
290.91	281.94
291.141	287.94
291.371	266.94
291.602	289.94
291.833	282.94
292.064	285.94
292.295	275.94
292.526	274.94
292.757	284.94
292.987	301.94
293.218	292.94
293.449	275.94
293.68	283.94
293.91	285.94
294.141	279.94
294.372	271.94
294.603	288.94
294.833	284.94
295.064	299.94
295.295	289.94
295.525	269.94
295.756	295.94
295.987	279.94
296.217	296.94
296.448	309.94
296.679	298.94
296.909	284.94
297.14	300.94
297.37	309.94
297.601	292.94
297.831	317.94
298.062	297.94
298.292	284.94
298.523	303.94
298.753	299.94
298.984	291.94
299.214	294.94
299.445	320.94
299.675	319.94
299.905	316.94
300.136	307.94
300.366	303.94
300.597	306.94
300.827	295.94
301.057	313.94
301.288	330.94
301.518	308.94
301.748	310.94
301.979	333.94
302.209	319.94
302.439	307.94
302.669	313.94
302.9	288.94
303.13	328.94
303.36	322.94
303.59	305.94
303.82	332.94
304.051	327.94
304.281	325.94
304.511	313.94
304.741	315.94
304.971	304.94
305.201	287.94
305.431	319.94
305.661	310.94
305.891	319.94
306.121	309.94
306.352	315.94
306.582	310.94
306.812	313.94
307.042	319.94
307.272	315.94
307.502	326.94
307.731	333.94
307.961	324.94
308.191	315.94
308.421	326.94
308.651	312.94
308.881	332.94
309.111	333.94
309.341	327.94
309.571	316.94
309.8	320.94
310.03	328.94
310.26	326.94
310.49	332.94
310.72	328.94
310.949	358.94
311.179	348.94
311.409	333.94
311.639	330.94
311.868	331.94
312.098	339.94
312.328	349.94
312.557	345.94
312.787	353.94
313.017	349.94
313.246	353.94
313.476	339.94
313.706	343.94
313.935	371.94
314.165	367.94
314.394	353.94
314.624	337.94
314.853	350.94
315.083	348.94
315.312	347.94
315.542	332.94
315.771	332.94
316.001	358.94
316.23	354.94
316.46	347.94
316.689	350.94
316.919	349.94
317.148	356.94
317.377	352.94
317.607	344.94
317.836	352.94
318.065	339.94
318.295	346.94
318.524	341.94
318.753	329.94
318.983	359.94
319.212	345.94
319.441	368.94
319.67	333.94
319.9	354.94
320.129	357.94
320.358	347.94
320.587	339.94
320.816	348.94
321.046	379.94
321.275	359.94
321.504	360.94
321.733	354.94
321.962	359.94
322.191	373.94
322.42	368.94
322.649	380.94
322.878	377.94
323.108	360.94
323.337	356.94
323.566	374.94
323.795	393.94
324.024	421.94
324.253	456.94
324.482	543.94
324.71	802.94
324.939	1077.94
325.168	959.94
325.397	581.94
325.626	437.94
325.855	417.94
326.084	404.94
326.313	392.94
326.542	401.94
326.77	437.94
326.999	459.94
327.228	554.94
327.457	729.94
327.686	874.94
327.914	661.94
328.143	501.94
328.372	449.94
328.6	429.94
328.829	426.94
329.058	428.94
329.287	437.94
329.515	423.94
329.744	420.94
329.972	427.94
330.201	402.94
330.43	447.94
330.658	444.94
330.887	442.94
331.115	454.94
331.344	415.94
331.572	407.94
331.801	410.94
332.03	404.94
332.258	408.94
332.486	404.94
332.715	417.94
332.943	421.94
333.172	435.94
333.4	431.94
333.629	423.94
333.857	468.94
334.085	477.94
334.314	452.94
334.542	446.94
334.771	472.94
334.999	460.94
335.227	447.94
335.455	422.94
335.684	421.94
335.912	427.94
336.14	432.94
336.369	417.94
336.597	437.94
336.825	437.94
337.053	419.94
337.281	429.94
337.51	406.94
337.738	409.94
337.966	405.94
338.194	408.94
338.422	420.94
338.65	420.94
338.878	413.94
339.106	414.94
339.334	412.94
339.562	407.94
339.79	403.94
340.018	385.94
340.246	395.94
340.474	400.94
340.702	383.94
340.93	396.94
341.158	412.94
341.386	390.94
341.614	417.94
341.842	389.94
342.07	400.94
342.298	394.94
342.526	409.94
342.754	377.94
342.981	363.94
343.209	398.94
343.437	389.94
343.665	409.94
343.893	425.94
344.12	429.94
344.348	428.94
344.576	431.94
344.804	421.94
345.031	426.94
345.259	426.94
345.487	405.94
345.714	395.94
345.942	384.94
346.17	376.94
346.397	390.94
346.625	391.94
346.853	379.94
347.08	387.94
347.308	374.94
347.535	385.94
347.763	389.94
347.99	392.94
348.218	381.94
348.445	372.94
348.673	377.94
348.9	382.94
349.128	378.94
349.355	373.94
349.583	357.94
349.81	377.94
350.037	369.94
350.265	375.94
350.492	381.94
350.72	378.94
350.947	380.94
351.174	365.94
351.402	370.94
351.629	391.94
351.856	376.94
352.083	393.94
352.311	393.94
352.538	378.94
352.765	366.94
352.992	381.94
353.22	375.94
353.447	379.94
353.674	355.94
353.901	371.94
354.128	361.94
354.355	362.94
354.583	367.94
354.81	362.94
355.037	385.94
355.264	360.94
355.491	363.94
355.718	352.94
355.945	359.94
356.172	371.94
356.399	351.94
356.626	357.94
356.853	370.94
357.08	379.94
357.307	374.94
357.534	360.94
357.761	359.94
357.988	373.94
358.215	353.94
358.441	356.94
358.668	379.94
358.895	372.94
359.122	397.94
359.349	373.94
359.576	385.94
359.802	389.94
360.029	383.94
360.256	391.94
360.483	380.94
360.709	374.94
360.936	388.94
361.163	369.94
361.39	384.94
361.616	378.94
361.843	370.94
362.07	389.94
362.296	377.94
362.523	364.94
362.749	360.94
362.976	368.94
363.203	393.94
363.429	379.94
363.656	365.94
363.882	367.94
364.109	364.94
364.335	389.94
364.562	352.94
364.788	369.94
365.015	390.94
365.241	375.94
365.468	385.94
365.694	379.94
365.92	366.94
366.147	361.94
366.373	359.94
366.599	363.94
366.826	360.94
367.052	381.94
367.278	364.94
367.505	387.94
367.731	363.94
367.957	369.94
368.184	395.94
368.41	375.94
368.636	381.94
368.862	396.94
369.089	398.94
369.315	383.94
369.541	376.94
369.767	380.94
369.993	369.94
370.219	362.94
370.445	371.94
370.672	352.94
370.898	365.94
371.124	368.94
371.35	369.94
371.576	375.94
371.802	379.94
372.028	394.94
372.254	374.94
372.48	392.94
372.706	393.94
372.932	403.94
373.158	385.94
373.384	397.94
373.61	390.94
373.835	377.94
374.061	396.94
374.287	397.94
374.513	381.94
374.739	400.94
374.965	403.94
375.191	390.94
375.416	402.94
375.642	385.94
375.868	391.94
376.094	381.94
376.319	398.94
376.545	401.94
376.771	394.94
376.997	378.94
377.222	384.94
377.448	387.94
377.674	397.94
377.899	384.94
378.125	371.94
378.35	403.94
378.576	397.94
378.802	387.94
379.027	390.94
379.253	384.94
379.478	386.94
379.704	377.94
379.929	381.94
380.155	374.94
380.38	409.94
380.606	371.94
380.831	373.94
381.057	387.94
381.282	392.94
381.507	376.94
381.733	406.94
381.958	390.94
382.184	402.94
382.409	387.94
382.634	409.94
382.86	403.94
383.085	408.94
383.31	391.94
383.535	391.94
383.761	419.94
383.986	406.94
384.211	401.94
384.436	428.94
384.662	427.94
384.887	437.94
385.112	436.94
385.337	423.94
385.562	444.94
385.787	447.94
386.013	425.94
386.238	447.94
386.463	434.94
386.688	431.94
386.913	420.94
387.138	435.94
387.363	451.94
387.588	428.94
387.813	449.94
388.038	437.94
388.263	439.94
388.488	435.94
388.713	436.94
388.938	432.94
389.163	422.94
389.387	444.94
389.612	448.94
389.837	443.94
390.062	439.94
390.287	423.94
390.512	424.94
390.736	439.94
390.961	427.94
391.186	447.94
391.411	464.94
391.636	454.94
391.86	452.94
392.085	483.94
392.31	485.94
392.534	439.94
392.759	439.94
392.984	444.94
393.208	461.94
393.433	465.94
393.658	460.94
393.882	441.94
394.107	467.94
394.331	444.94
394.556	433.94
394.78	435.94
395.005	463.94
395.229	479.94
395.454	468.94
395.678	492.94
395.903	470.94
396.127	491.94
396.352	485.94
396.576	458.94
396.801	459.94
397.025	455.94
397.249	448.94
397.474	497.94
397.698	461.94
397.922	472.94
398.147	473.94
398.371	506.94
398.595	509.94
398.82	501.94
399.044	545.94
399.268	565.94
399.492	603.94
399.717	630.94
399.941	661.94
400.165	636.94
400.389	616.94
400.613	569.94
400.837	538.94
401.062	512.94
401.286	539.94
401.51	527.94
401.734	507.94
401.958	516.94
402.182	508.94
402.406	532.94
402.63	524.94
402.854	540.94
403.078	517.94
403.302	531.94
403.526	522.94
403.75	560.94
403.974	543.94
404.198	545.94
404.422	551.94
404.645	571.94
404.869	546.94
405.093	545.94
405.317	582.94
405.541	623.94
405.765	563.94
405.988	567.94
406.212	560.94
406.436	538.94
406.66	577.94
406.883	561.94
407.107	612.94
407.331	612.94
407.555	658.94
407.778	670.94
408.002	651.94
408.226	610.94
408.449	586.94
408.673	560.94
408.896	585.94
409.12	585.94
409.344	593.94
409.567	548.94
409.791	566.94
410.014	523.94
410.238	554.94
410.461	547.94
410.685	521.94
410.908	552.94
411.132	563.94
411.355	575.94
411.578	541.94
411.802	521.94
412.025	519.94
412.249	526.94
412.472	542.94
412.695	539.94
412.919	569.94
413.142	525.94
413.365	526.94
413.589	525.94
413.812	514.94
414.035	501.94
414.258	522.94
414.482	505.94
414.705	497.94
414.928	514.94
415.151	507.94
415.374	501.94
415.597	518.94
415.821	488.94
416.044	506.94
416.267	507.94
416.49	494.94
416.713	495.94
416.936	508.94
417.159	503.94
417.382	511.94
417.605	501.94
417.828	513.94
418.051	514.94
418.274	505.94
418.497	496.94
418.72	502.94
418.943	516.94
419.166	536.94
419.389	548.94
419.611	575.94
419.834	519.94
420.057	535.94
420.28	521.94
420.503	522.94
420.726	516.94
420.948	517.94
421.171	530.94
421.394	570.94
421.617	531.94
421.839	503.94
422.062	519.94
422.285	530.94
422.507	555.94
422.73	607.94
422.953	580.94
423.175	542.94
423.398	542.94
423.621	533.94
423.843	525.94
424.066	540.94
424.288	531.94
424.511	532.94
424.733	560.94
424.956	634.94
425.178	591.94
425.401	579.94
425.623	614.94
425.846	554.94
426.068	520.94
426.291	516.94
426.513	508.94
426.735	522.94
426.958	540.94
427.18	603.94
427.402	668.94
427.625	726.94
427.847	618.94
428.069	559.94
428.292	522.94
428.514	506.94
428.736	495.94
428.958	491.94
429.181	467.94
429.403	485.94
429.625	477.94
429.847	503.94
430.069	538.94
430.292	523.94
430.514	469.94
430.736	490.94
430.958	488.94
431.18	461.94
431.402	470.94
431.624	462.94
431.846	444.94
432.068	474.94
432.29	485.94
432.512	469.94
432.734	472.94
432.956	449.94
433.178	468.94
433.4	492.94
433.622	474.94
433.844	495.94
434.066	460.94
434.287	453.94
434.509	497.94
434.731	477.94
434.953	512.94
435.175	500.94
435.397	503.94
435.618	531.94
435.84	533.94
436.062	575.94
436.284	621.94
436.505	550.94
436.727	492.94
436.949	499.94
437.17	493.94
437.392	495.94
437.614	499.94
437.835	475.94
438.057	548.94
438.278	588.94
438.5	604.94
438.721	642.94
438.943	657.94
439.165	535.94
439.386	516.94
439.608	497.94
439.829	497.94
440.05	498.94
440.272	532.94
440.493	515.94
440.715	492.94
440.936	521.94
441.158	495.94
441.379	465.94
441.6	499.94
441.822	490.94
442.043	541.94
442.264	575.94
442.486	605.94
442.707	555.94
442.928	519.94
443.149	508.94
443.371	508.94
443.592	576.94
443.813	620.94
444.034	659.94
444.255	582.94
444.476	547.94
444.698	537.94
444.919	586.94
445.14	679.94
445.361	604.94
445.582	543.94
445.803	554.94
446.024	628.94
446.245	611.94
446.466	589.94
446.687	512.94
446.908	507.94
447.129	517.94
447.35	462.94
447.571	483.94
447.792	469.94
448.013	453.94
448.234	448.94
448.455	472.94
448.675	592.94
448.896	641.94
449.117	570.94
449.338	531.94
449.559	586.94
449.779	674.94
450	578.94
450.221	471.94
450.442	474.94
450.662	482.94
450.883	440.94
451.104	445.94
451.324	443.94
451.545	460.94
451.766	440.94
451.986	439.94
452.207	395.94
452.428	432.94
452.648	433.94
452.869	439.94
453.089	427.94
453.31	417.94
453.53	427.94
453.751	433.94
453.971	443.94
454.192	433.94
454.412	425.94
454.633	396.94
454.853	404.94
455.073	411.94
455.294	435.94
455.514	469.94
455.734	467.94
455.955	411.94
456.175	428.94
456.395	410.94
456.616	411.94
456.836	411.94
457.056	416.94
457.276	419.94
457.497	420.94
457.717	422.94
457.937	420.94
458.157	423.94
458.377	416.94
458.598	453.94
458.818	451.94
459.038	488.94
459.258	531.94
459.478	494.94
459.698	495.94
459.918	465.94
460.138	472.94
460.358	479.94
460.578	512.94
460.798	490.94
461.018	513.94
461.238	509.94
461.458	514.94
461.678	504.94
461.898	502.94
462.118	519.94
462.338	541.94
462.558	537.94
462.777	563.94
462.997	577.94
463.217	604.94
463.437	613.94
463.657	579.94
463.876	544.94
464.096	562.94
464.316	590.94
464.536	566.94
464.755	555.94
464.975	551.94
465.195	534.94
465.414	531.94
465.634	507.94
465.854	470.94
466.073	462.94
466.293	490.94
466.512	468.94
466.732	457.94
466.951	471.94
467.171	440.94
467.391	445.94
467.61	438.94
467.829	450.94
468.049	453.94
468.268	458.94
468.488	439.94
468.707	444.94
468.927	444.94
469.146	438.94
469.365	460.94
469.585	451.94
469.804	435.94
470.023	450.94
470.243	465.94
470.462	492.94
470.681	465.94
470.901	461.94
471.12	448.94
471.339	456.94
471.558	472.94
471.777	468.94
471.997	448.94
472.216	453.94
472.435	454.94
472.654	457.94
472.873	447.94
473.092	452.94
473.311	431.94
473.53	437.94
473.749	451.94
473.968	487.94
474.187	518.94
474.406	534.94
474.625	477.94
474.844	424.94
475.063	441.94
475.282	465.94
475.501	457.94
475.72	474.94
475.939	443.94
476.158	452.94
476.377	455.94
476.596	453.94
476.814	467.94
477.033	485.94
477.252	485.94
477.471	489.94
477.69	480.94
477.908	479.94
478.127	508.94
478.346	521.94
478.564	517.94
478.783	508.94
479.002	532.94
479.22	531.94
479.439	526.94
479.658	553.94
479.876	566.94
480.095	571.94
480.313	591.94
480.532	580.94
480.751	561.94
480.969	556.94
481.188	581.94
481.406	569.94
481.624	575.94
481.843	529.94
482.061	528.94
482.28	524.94
482.498	543.94
482.717	508.94
482.935	513.94
483.153	534.94
483.372	519.94
483.59	544.94
483.808	524.94
484.027	539.94
484.245	538.94
484.463	519.94
484.681	530.94
484.9	538.94
485.118	542.94
485.336	531.94
485.554	546.94
485.772	547.94
485.99	557.94
486.209	567.94
486.427	566.94
486.645	573.94
486.863	568.94
487.081	546.94
487.299	583.94
487.517	566.94
487.735	568.94
487.953	579.94
488.171	575.94
488.389	550.94
488.607	557.94
488.825	551.94
489.043	538.94
489.261	541.94
489.479	578.94
489.696	571.94
489.914	574.94
490.132	556.94
490.35	578.94
490.568	586.94
490.786	588.94
491.003	580.94
491.221	588.94
491.439	599.94
491.657	595.94
491.874	591.94
492.092	613.94
492.31	597.94
492.527	613.94
492.745	611.94
492.963	627.94
493.18	609.94
493.398	602.94
493.615	630.94
493.833	612.94
494.05	614.94
494.268	602.94
494.485	625.94
494.703	628.94
494.92	604.94
495.138	627.94
495.355	624.94
495.573	611.94
495.79	605.94
496.008	651.94
496.225	600.94
496.442	634.94
496.66	646.94
496.877	673.94
497.094	651.94
497.312	668.94
497.529	660.94
497.746	693.94
497.963	708.94
498.181	699.94
498.398	753.94
498.615	771.94
498.832	790.94
499.049	821.94
499.267	819.94
499.484	865.94
499.701	950.94
499.918	1008.94
500.135	1052.94
500.352	1149.94
500.569	1159.94
500.786	1161.94
501.003	1082.94
501.22	1084.94
501.437	1014.94
501.654	909.94
501.871	925.94
502.088	851.94
