Data from 1962.PennyLincolnUp.Lamp.En5.5.200Scan.071719.P1._HRD10591_13-54-30-061.txt Node
Date: Thu Jul 18 13:54:30 EDT 2019
User: cochatt
Spectrometer: HR+D1059
Trigger mode: 1
Integration Time (sec): 1.000000E-1
Scans to average: 1
Electric dark correction enabled: true
Nonlinearity correction enabled: false
Boxcar width: 0
XAxis mode: Wavelengths
Number of Pixels in Spectrum: 2048
>>>>>Begin Spectral Data<<<<<
223.165	-13.19
223.4	-13.19
223.635	-13.19
223.869	-23.19
224.104	-20.19
224.338	-29.19
224.573	-19.19
224.808	-12.19
225.042	-10.19
225.277	-1.19
225.511	-0.19
225.746	-1.19
225.98	10.81
226.215	20.81
226.449	13.81
226.683	29.81
226.918	30.81
227.152	23.81
227.387	25.81
227.621	29.81
227.856	49.81
228.09	24.81
228.324	51.81
228.559	45.81
228.793	45.81
229.027	81.81
229.262	87.81
229.496	96.81
229.73	123.81
229.964	118.81
230.199	103.81
230.433	96.81
230.667	108.81
230.901	97.81
231.136	95.81
231.37	99.81
231.604	108.81
231.838	114.81
232.072	110.81
232.306	113.81
232.541	115.81
232.775	111.81
233.009	115.81
233.243	108.81
233.477	110.81
233.711	116.81
233.945	107.81
234.179	119.81
234.413	133.81
234.647	114.81
234.881	104.81
235.115	102.81
235.349	103.81
235.583	109.81
235.817	119.81
236.051	117.81
236.285	128.81
236.519	117.81
236.753	115.81
236.987	132.81
237.221	155.81
237.455	188.81
237.689	141.81
237.922	128.81
238.156	137.81
238.39	117.81
238.624	107.81
238.858	123.81
239.091	123.81
239.325	120.81
239.559	122.81
239.793	131.81
240.027	127.81
240.26	124.81
240.494	150.81
240.728	147.81
240.961	138.81
241.195	128.81
241.429	127.81
241.662	135.81
241.896	123.81
242.13	118.81
242.363	123.81
242.597	150.81
242.83	129.81
243.064	127.81
243.298	122.81
243.531	132.81
243.765	132.81
243.998	132.81
244.232	138.81
244.465	134.81
244.699	132.81
244.932	128.81
245.166	128.81
245.399	129.81
245.633	147.81
245.866	121.81
246.099	136.81
246.333	133.81
246.566	147.81
246.8	137.81
247.033	130.81
247.266	143.81
247.5	143.81
247.733	167.81
247.966	164.81
248.2	154.81
248.433	168.81
248.666	161.81
248.899	160.81
249.133	169.81
249.366	179.81
249.599	195.81
249.832	176.81
250.066	166.81
250.299	156.81
250.532	161.81
250.765	181.81
250.998	203.81
251.231	188.81
251.465	179.81
251.698	176.81
251.931	159.81
252.164	191.81
252.397	164.81
252.63	184.81
252.863	184.81
253.096	201.81
253.329	221.81
253.562	207.81
253.795	184.81
254.028	171.81
254.261	211.81
254.494	200.81
254.727	201.81
254.96	217.81
255.193	230.81
255.426	220.81
255.659	212.81
255.892	196.81
256.124	209.81
256.357	203.81
256.59	202.81
256.823	189.81
257.056	186.81
257.289	194.81
257.521	173.81
257.754	209.81
257.987	192.81
258.22	203.81
258.452	198.81
258.685	198.81
258.918	198.81
259.151	190.81
259.383	196.81
259.616	194.81
259.849	210.81
260.081	215.81
260.314	231.81
260.547	235.81
260.779	232.81
261.012	212.81
261.244	207.81
261.477	212.81
261.71	221.81
261.942	222.81
262.175	217.81
262.407	207.81
262.64	198.81
262.872	197.81
263.105	211.81
263.337	192.81
263.57	201.81
263.802	194.81
264.035	199.81
264.267	201.81
264.499	212.81
264.732	209.81
264.964	202.81
265.197	214.81
265.429	201.81
265.661	213.81
265.894	223.81
266.126	201.81
266.358	228.81
266.591	220.81
266.823	212.81
267.055	230.81
267.287	242.81
267.52	207.81
267.752	223.81
267.984	224.81
268.216	227.81
268.448	228.81
268.681	235.81
268.913	231.81
269.145	239.81
269.377	257.81
269.609	271.81
269.841	236.81
270.073	226.81
270.306	267.81
270.538	259.81
270.77	297.81
271.002	269.81
271.234	260.81
271.466	251.81
271.698	261.81
271.93	287.81
272.162	270.81
272.394	275.81
272.626	262.81
272.858	271.81
273.09	252.81
273.322	258.81
273.553	273.81
273.785	269.81
274.017	249.81
274.249	237.81
274.481	240.81
274.713	264.81
274.945	262.81
275.176	266.81
275.408	247.81
275.64	258.81
275.872	268.81
276.104	262.81
276.335	274.81
276.567	260.81
276.799	266.81
277.031	279.81
277.262	278.81
277.494	281.81
277.726	286.81
277.957	286.81
278.189	262.81
278.421	243.81
278.652	232.81
278.884	272.81
279.115	277.81
279.347	270.81
279.579	263.81
279.81	259.81
280.042	259.81
280.273	284.81
280.505	277.81
280.736	255.81
280.968	258.81
281.199	257.81
281.431	259.81
281.662	269.81
281.894	266.81
282.125	276.81
282.356	277.81
282.588	284.81
282.819	284.81
283.051	273.81
283.282	256.81
283.513	271.81
283.745	285.81
283.976	261.81
284.207	280.81
284.439	277.81
284.67	276.81
284.901	279.81
285.132	284.81
285.364	307.81
285.595	292.81
285.826	279.81
286.057	282.81
286.288	302.81
286.52	294.81
286.751	273.81
286.982	280.81
287.213	281.81
287.444	289.81
287.675	273.81
287.906	288.81
288.138	303.81
288.369	289.81
288.6	300.81
288.831	292.81
289.062	300.81
289.293	306.81
289.524	288.81
289.755	313.81
289.986	285.81
290.217	303.81
290.448	277.81
290.679	299.81
290.91	290.81
291.141	303.81
291.371	278.81
291.602	277.81
291.833	291.81
292.064	294.81
292.295	283.81
292.526	281.81
292.757	297.81
292.987	293.81
293.218	319.81
293.449	313.81
293.68	300.81
293.91	284.81
294.141	275.81
294.372	293.81
294.603	306.81
294.833	288.81
295.064	295.81
295.295	285.81
295.525	295.81
295.756	281.81
295.987	307.81
296.217	328.81
296.448	328.81
296.679	312.81
296.909	312.81
297.14	302.81
297.37	326.81
297.601	303.81
297.831	294.81
298.062	295.81
298.292	310.81
298.523	332.81
298.753	315.81
298.984	322.81
299.214	316.81
299.445	313.81
299.675	301.81
299.905	338.81
300.136	332.81
300.366	322.81
300.597	315.81
300.827	317.81
301.057	321.81
301.288	321.81
301.518	324.81
301.748	345.81
301.979	328.81
302.209	336.81
302.439	334.81
302.669	341.81
302.9	350.81
303.13	340.81
303.36	333.81
303.59	346.81
303.82	336.81
304.051	348.81
304.281	347.81
304.511	323.81
304.741	317.81
304.971	330.81
305.201	335.81
305.431	331.81
305.661	321.81
305.891	328.81
306.121	338.81
306.352	349.81
306.582	334.81
306.812	340.81
307.042	333.81
307.272	337.81
307.502	332.81
307.731	346.81
307.961	346.81
308.191	331.81
308.421	342.81
308.651	342.81
308.881	330.81
309.111	335.81
309.341	328.81
309.571	342.81
309.8	342.81
310.03	325.81
310.26	348.81
310.49	339.81
310.72	343.81
310.949	375.81
311.179	378.81
311.409	372.81
311.639	356.81
311.868	351.81
312.098	374.81
312.328	358.81
312.557	395.81
312.787	389.81
313.017	382.81
313.246	369.81
313.476	368.81
313.706	388.81
313.935	358.81
314.165	389.81
314.394	387.81
314.624	369.81
314.853	379.81
315.083	370.81
315.312	375.81
315.542	363.81
315.771	357.81
316.001	368.81
316.23	358.81
316.46	360.81
316.689	374.81
316.919	387.81
317.148	395.81
317.377	383.81
317.607	361.81
317.836	379.81
318.065	371.81
318.295	376.81
318.524	388.81
318.753	374.81
318.983	381.81
319.212	389.81
319.441	387.81
319.67	372.81
319.9	359.81
320.129	375.81
320.358	373.81
320.587	370.81
320.816	372.81
321.046	383.81
321.275	379.81
321.504	384.81
321.733	370.81
321.962	375.81
322.191	390.81
322.42	387.81
322.649	399.81
322.878	393.81
323.108	419.81
323.337	425.81
323.566	422.81
323.795	424.81
324.024	469.81
324.253	563.81
324.482	710.81
324.71	1028.81
324.939	1457.81
325.168	1283.81
325.397	729.81
325.626	533.81
325.855	503.81
326.084	468.81
326.313	441.81
326.542	437.81
326.77	446.81
326.999	517.81
327.228	653.81
327.457	930.81
327.686	1118.81
327.914	808.81
328.143	597.81
328.372	533.81
328.6	501.81
328.829	484.81
329.058	470.81
329.287	496.81
329.515	468.81
329.744	458.81
329.972	469.81
330.201	475.81
330.43	496.81
330.658	506.81
330.887	519.81
331.115	508.81
331.344	481.81
331.572	452.81
331.801	457.81
332.03	463.81
332.258	471.81
332.486	457.81
332.715	457.81
332.943	455.81
333.172	490.81
333.4	480.81
333.629	485.81
333.857	470.81
334.085	472.81
334.314	511.81
334.542	519.81
334.771	500.81
334.999	491.81
335.227	480.81
335.455	461.81
335.684	473.81
335.912	435.81
336.14	446.81
336.369	443.81
336.597	446.81
336.825	466.81
337.053	459.81
337.281	445.81
337.51	433.81
337.738	443.81
337.966	453.81
338.194	443.81
338.422	427.81
338.65	460.81
338.878	409.81
339.106	418.81
339.334	415.81
339.562	442.81
339.79	410.81
340.018	417.81
340.246	419.81
340.474	426.81
340.702	429.81
340.93	404.81
341.158	415.81
341.386	409.81
341.614	408.81
341.842	412.81
342.07	420.81
342.298	414.81
342.526	441.81
342.754	389.81
342.981	415.81
343.209	432.81
343.437	433.81
343.665	438.81
343.893	448.81
344.12	476.81
344.348	477.81
344.576	439.81
344.804	451.81
345.031	446.81
345.259	441.81
345.487	429.81
345.714	420.81
345.942	417.81
346.17	408.81
346.397	426.81
346.625	401.81
346.853	401.81
347.08	411.81
347.308	401.81
347.535	400.81
347.763	427.81
347.99	404.81
348.218	415.81
348.445	427.81
348.673	421.81
348.9	405.81
349.128	407.81
349.355	389.81
349.583	401.81
349.81	388.81
350.037	391.81
350.265	404.81
350.492	382.81
350.72	397.81
350.947	404.81
351.174	427.81
351.402	400.81
351.629	407.81
351.856	390.81
352.083	411.81
352.311	387.81
352.538	421.81
352.765	413.81
352.992	402.81
353.22	386.81
353.447	401.81
353.674	406.81
353.901	383.81
354.128	411.81
354.355	391.81
354.583	385.81
354.81	380.81
355.037	407.81
355.264	385.81
355.491	388.81
355.718	382.81
355.945	365.81
356.172	383.81
356.399	370.81
356.626	392.81
356.853	375.81
357.08	385.81
357.307	389.81
357.534	379.81
357.761	388.81
357.988	367.81
358.215	384.81
358.441	385.81
358.668	376.81
358.895	380.81
359.122	389.81
359.349	405.81
359.576	421.81
359.802	423.81
360.029	436.81
360.256	424.81
360.483	417.81
360.709	417.81
360.936	378.81
361.163	389.81
361.39	389.81
361.616	404.81
361.843	400.81
362.07	399.81
362.296	397.81
362.523	390.81
362.749	395.81
362.976	402.81
363.203	394.81
363.429	400.81
363.656	391.81
363.882	397.81
364.109	389.81
364.335	391.81
364.562	400.81
364.788	373.81
365.015	410.81
365.241	387.81
365.468	385.81
365.694	403.81
365.92	394.81
366.147	394.81
366.373	394.81
366.599	388.81
366.826	376.81
367.052	375.81
367.278	392.81
367.505	389.81
367.731	382.81
367.957	393.81
368.184	391.81
368.41	403.81
368.636	403.81
368.862	398.81
369.089	407.81
369.315	395.81
369.541	392.81
369.767	387.81
369.993	392.81
370.219	381.81
370.445	393.81
370.672	391.81
370.898	412.81
371.124	387.81
371.35	419.81
371.576	402.81
371.802	404.81
372.028	405.81
372.254	409.81
372.48	391.81
372.706	414.81
372.932	388.81
373.158	404.81
373.384	405.81
373.61	415.81
373.835	424.81
374.061	406.81
374.287	396.81
374.513	413.81
374.739	408.81
374.965	419.81
375.191	453.81
375.416	421.81
375.642	420.81
375.868	409.81
376.094	397.81
376.319	407.81
376.545	401.81
376.771	392.81
376.997	403.81
377.222	391.81
377.448	400.81
377.674	403.81
377.899	413.81
378.125	404.81
378.35	405.81
378.576	404.81
378.802	391.81
379.027	420.81
379.253	416.81
379.478	414.81
379.704	405.81
379.929	397.81
380.155	418.81
380.38	421.81
380.606	389.81
380.831	409.81
381.057	391.81
381.282	396.81
381.507	411.81
381.733	401.81
381.958	421.81
382.184	418.81
382.409	428.81
382.634	419.81
382.86	399.81
383.085	415.81
383.31	425.81
383.535	415.81
383.761	405.81
383.986	431.81
384.211	418.81
384.436	427.81
384.662	433.81
384.887	437.81
385.112	445.81
385.337	444.81
385.562	448.81
385.787	454.81
386.013	469.81
386.238	453.81
386.463	442.81
386.688	466.81
386.913	453.81
387.138	457.81
387.363	453.81
387.588	450.81
387.813	459.81
388.038	452.81
388.263	440.81
388.488	452.81
388.713	459.81
388.938	467.81
389.163	441.81
389.387	457.81
389.612	448.81
389.837	441.81
390.062	456.81
390.287	454.81
390.512	461.81
390.736	461.81
390.961	469.81
391.186	480.81
391.411	456.81
391.636	509.81
391.86	485.81
392.085	495.81
392.31	486.81
392.534	479.81
392.759	476.81
392.984	481.81
393.208	468.81
393.433	464.81
393.658	456.81
393.882	470.81
394.107	476.81
394.331	478.81
394.556	471.81
394.78	469.81
395.005	499.81
395.229	465.81
395.454	485.81
395.678	497.81
395.903	494.81
396.127	490.81
396.352	491.81
396.576	490.81
396.801	503.81
397.025	477.81
397.249	487.81
397.474	489.81
397.698	500.81
397.922	511.81
398.147	499.81
398.371	540.81
398.595	538.81
398.82	545.81
399.044	576.81
399.268	599.81
399.492	631.81
399.717	699.81
399.941	686.81
400.165	691.81
400.389	670.81
400.613	614.81
400.837	572.81
401.062	545.81
401.286	546.81
401.51	550.81
401.734	555.81
401.958	537.81
402.182	548.81
402.406	541.81
402.63	544.81
402.854	548.81
403.078	548.81
403.302	568.81
403.526	571.81
403.75	561.81
403.974	567.81
404.198	570.81
404.422	575.81
404.645	600.81
404.869	583.81
405.093	610.81
405.317	628.81
405.541	653.81
405.765	626.81
405.988	607.81
406.212	587.81
406.436	596.81
406.66	622.81
406.883	611.81
407.107	637.81
407.331	675.81
407.555	703.81
407.778	725.81
408.002	653.81
408.226	639.81
408.449	623.81
408.673	608.81
408.896	626.81
409.12	665.81
409.344	616.81
409.567	596.81
409.791	603.81
410.014	591.81
410.238	566.81
410.461	602.81
410.685	577.81
410.908	577.81
411.132	588.81
411.355	625.81
411.578	611.81
411.802	568.81
412.025	555.81
412.249	569.81
412.472	593.81
412.695	585.81
412.919	585.81
413.142	561.81
413.365	573.81
413.589	566.81
413.812	540.81
414.035	520.81
414.258	535.81
414.482	541.81
414.705	531.81
414.928	535.81
415.151	533.81
415.374	514.81
415.597	550.81
415.821	514.81
416.044	534.81
416.267	516.81
416.49	534.81
416.713	506.81
416.936	528.81
417.159	544.81
417.382	525.81
417.605	532.81
417.828	576.81
418.051	555.81
418.274	551.81
418.497	518.81
418.72	533.81
418.943	551.81
419.166	548.81
419.389	567.81
419.611	575.81
419.834	585.81
420.057	565.81
420.28	537.81
420.503	568.81
420.726	561.81
420.948	578.81
421.171	571.81
421.394	594.81
421.617	540.81
421.839	545.81
422.062	547.81
422.285	571.81
422.507	595.81
422.73	647.81
422.953	623.81
423.175	589.81
423.398	543.81
423.621	571.81
423.843	594.81
424.066	592.81
424.288	571.81
424.511	596.81
424.733	641.81
424.956	672.81
425.178	645.81
425.401	644.81
425.623	659.81
425.846	582.81
426.068	552.81
426.291	561.81
426.513	549.81
426.735	571.81
426.958	603.81
427.18	657.81
427.402	747.81
427.625	809.81
427.847	696.81
428.069	626.81
428.292	584.81
428.514	552.81
428.736	537.81
428.958	529.81
429.181	509.81
429.403	515.81
429.625	501.81
429.847	531.81
430.069	590.81
430.292	592.81
430.514	509.81
430.736	511.81
430.958	511.81
431.18	515.81
431.402	500.81
431.624	511.81
431.846	502.81
432.068	508.81
432.29	508.81
432.512	512.81
432.734	509.81
432.956	519.81
433.178	501.81
433.4	509.81
433.622	516.81
433.844	525.81
434.066	499.81
434.287	521.81
434.509	534.81
434.731	530.81
434.953	559.81
435.175	533.81
435.397	567.81
435.618	583.81
435.84	582.81
436.062	657.81
436.284	667.81
436.505	585.81
436.727	559.81
436.949	511.81
437.17	489.81
437.392	526.81
437.614	527.81
437.835	553.81
438.057	601.81
438.278	672.81
438.5	657.81
438.721	744.81
438.943	699.81
439.165	572.81
439.386	568.81
439.608	559.81
439.829	538.81
440.05	549.81
440.272	604.81
440.493	576.81
440.715	542.81
440.936	540.81
441.158	525.81
441.379	555.81
441.6	534.81
441.822	575.81
442.043	603.81
442.264	623.81
442.486	669.81
442.707	590.81
442.928	565.81
443.149	582.81
443.371	588.81
443.592	616.81
443.813	693.81
444.034	729.81
444.255	627.81
444.476	613.81
444.698	579.81
444.919	614.81
445.14	715.81
445.361	651.81
445.582	593.81
445.803	641.81
446.024	689.81
446.245	712.81
446.466	631.81
446.687	580.81
446.908	548.81
447.129	536.81
447.35	531.81
447.571	521.81
447.792	512.81
448.013	492.81
448.234	515.81
448.455	553.81
448.675	634.81
448.896	717.81
449.117	607.81
449.338	598.81
449.559	666.81
449.779	743.81
450	599.81
450.221	530.81
450.442	519.81
450.662	483.81
450.883	467.81
451.104	486.81
451.324	478.81
451.545	454.81
451.766	476.81
451.986	457.81
452.207	465.81
452.428	457.81
452.648	449.81
452.869	471.81
453.089	457.81
453.31	454.81
453.53	478.81
453.751	442.81
453.971	448.81
454.192	459.81
454.412	435.81
454.633	461.81
454.853	456.81
455.073	440.81
455.294	464.81
455.514	536.81
455.734	499.81
455.955	447.81
456.175	441.81
456.395	444.81
456.616	419.81
456.836	441.81
457.056	443.81
457.276	420.81
457.497	435.81
457.717	412.81
457.937	435.81
458.157	458.81
458.377	463.81
458.598	457.81
458.818	485.81
459.038	549.81
459.258	564.81
459.478	532.81
459.698	509.81
459.918	513.81
460.138	534.81
460.358	547.81
460.578	546.81
460.798	551.81
461.018	532.81
461.238	557.81
461.458	538.81
461.678	523.81
461.898	527.81
462.118	546.81
462.338	547.81
462.558	568.81
462.777	608.81
462.997	607.81
463.217	621.81
463.437	621.81
463.657	607.81
463.876	610.81
464.096	602.81
464.316	591.81
464.536	585.81
464.755	610.81
464.975	576.81
465.195	591.81
465.414	588.81
465.634	529.81
465.854	533.81
466.073	497.81
466.293	513.81
466.512	501.81
466.732	464.81
466.951	500.81
467.171	486.81
467.391	481.81
467.61	458.81
467.829	493.81
468.049	483.81
468.268	470.81
468.488	490.81
468.707	478.81
468.927	437.81
469.146	459.81
469.365	472.81
469.585	479.81
469.804	478.81
470.023	464.81
470.243	495.81
470.462	495.81
470.681	521.81
470.901	508.81
471.12	467.81
471.339	487.81
471.558	469.81
471.777	478.81
471.997	482.81
472.216	476.81
472.435	504.81
472.654	493.81
472.873	463.81
473.092	481.81
473.311	465.81
473.53	477.81
473.749	478.81
473.968	493.81
474.187	583.81
474.406	600.81
474.625	519.81
474.844	485.81
475.063	473.81
475.282	468.81
475.501	478.81
475.72	484.81
475.939	479.81
476.158	507.81
476.377	488.81
476.596	515.81
476.814	518.81
477.033	496.81
477.252	511.81
477.471	520.81
477.69	516.81
477.908	548.81
478.127	540.81
478.346	559.81
478.564	535.81
478.783	549.81
479.002	544.81
479.22	557.81
479.439	559.81
479.658	590.81
479.876	592.81
480.095	595.81
480.313	629.81
480.532	636.81
480.751	610.81
480.969	610.81
481.188	612.81
481.406	641.81
481.624	581.81
481.843	603.81
482.061	574.81
482.28	561.81
482.498	558.81
482.717	579.81
482.935	552.81
483.153	541.81
483.372	565.81
483.59	568.81
483.808	551.81
484.027	556.81
484.245	563.81
484.463	548.81
484.681	576.81
484.9	565.81
485.118	568.81
485.336	561.81
485.554	591.81
485.772	599.81
485.99	579.81
486.209	585.81
486.427	588.81
486.645	584.81
486.863	588.81
487.081	594.81
487.299	606.81
487.517	595.81
487.735	606.81
487.953	610.81
488.171	619.81
488.389	598.81
488.607	586.81
488.825	598.81
489.043	581.81
489.261	595.81
489.479	620.81
489.696	607.81
489.914	627.81
490.132	597.81
490.35	605.81
490.568	610.81
490.786	652.81
491.003	631.81
491.221	613.81
491.439	624.81
491.657	641.81
491.874	647.81
492.092	662.81
492.31	639.81
492.527	658.81
492.745	650.81
492.963	662.81
493.18	671.81
493.398	659.81
493.615	687.81
493.833	685.81
494.05	668.81
494.268	667.81
494.485	661.81
494.703	680.81
494.92	684.81
495.138	693.81
495.355	670.81
495.573	695.81
495.79	707.81
496.008	695.81
496.225	685.81
496.442	692.81
496.66	703.81
496.877	668.81
497.094	691.81
497.312	713.81
497.529	735.81
497.746	760.81
497.963	757.81
498.181	789.81
498.398	808.81
498.615	811.81
498.832	843.81
499.049	903.81
499.267	898.81
499.484	950.81
499.701	973.81
499.918	1061.81
500.135	1124.81
500.352	1222.81
500.569	1211.81
500.786	1235.81
501.003	1192.81
501.22	1157.81
501.437	1078.81
501.654	994.81
501.871	972.81
