Data from 1962.PennyLincolnUp.Lamp.En5.5.200Scan.071719.P1._HRD10591_13-55-07-061.txt Node
Date: Thu Jul 18 13:55:07 EDT 2019
User: cochatt
Spectrometer: HR+D1059
Trigger mode: 1
Integration Time (sec): 1.000000E-1
Scans to average: 1
Electric dark correction enabled: true
Nonlinearity correction enabled: false
Boxcar width: 0
XAxis mode: Wavelengths
Number of Pixels in Spectrum: 2048
>>>>>Begin Spectral Data<<<<<
223.165	-11.06
223.4	-11.06
223.635	-11.06
223.869	-23.06
224.104	-8.06
224.338	-19.06
224.573	-3.06
224.808	-9.06
225.042	-11.06
225.277	-7.06
225.511	-11.06
225.746	5.94
225.98	2.94
226.215	9.94
226.449	9.94
226.683	23.94
226.918	23.94
227.152	25.94
227.387	36.94
227.621	23.94
227.856	41.94
228.09	53.94
228.324	46.94
228.559	43.94
228.793	50.94
229.027	104.94
229.262	94.94
229.496	98.94
229.73	114.94
229.964	125.94
230.199	122.94
230.433	106.94
230.667	115.94
230.901	100.94
231.136	110.94
231.37	110.94
231.604	113.94
231.838	103.94
232.072	107.94
232.306	104.94
232.541	114.94
232.775	103.94
233.009	101.94
233.243	111.94
233.477	130.94
233.711	116.94
233.945	104.94
234.179	105.94
234.413	94.94
234.647	120.94
234.881	106.94
235.115	110.94
235.349	108.94
235.583	99.94
235.817	118.94
236.051	110.94
236.285	119.94
236.519	117.94
236.753	132.94
236.987	121.94
237.221	138.94
237.455	182.94
237.689	153.94
237.922	126.94
238.156	122.94
238.39	128.94
238.624	130.94
238.858	111.94
239.091	119.94
239.325	130.94
239.559	116.94
239.793	118.94
240.027	117.94
240.26	136.94
240.494	145.94
240.728	158.94
240.961	131.94
241.195	143.94
241.429	126.94
241.662	126.94
241.896	128.94
242.13	131.94
242.363	123.94
242.597	121.94
242.83	139.94
243.064	138.94
243.298	129.94
243.531	128.94
243.765	133.94
243.998	128.94
244.232	130.94
244.465	123.94
244.699	129.94
244.932	139.94
245.166	160.94
245.399	146.94
245.633	139.94
245.866	130.94
246.099	138.94
246.333	143.94
246.566	144.94
246.8	137.94
247.033	150.94
247.266	138.94
247.5	157.94
247.733	164.94
247.966	163.94
248.2	161.94
248.433	161.94
248.666	155.94
248.899	163.94
249.133	170.94
249.366	157.94
249.599	161.94
249.832	178.94
250.066	168.94
250.299	163.94
250.532	175.94
250.765	181.94
250.998	208.94
251.231	181.94
251.465	198.94
251.698	183.94
251.931	186.94
252.164	171.94
252.397	179.94
252.63	186.94
252.863	195.94
253.096	180.94
253.329	210.94
253.562	198.94
253.795	194.94
254.028	207.94
254.261	202.94
254.494	193.94
254.727	196.94
254.96	233.94
255.193	238.94
255.426	215.94
255.659	183.94
255.892	210.94
256.124	212.94
256.357	219.94
256.59	214.94
256.823	182.94
257.056	195.94
257.289	201.94
257.521	202.94
257.754	207.94
257.987	184.94
258.22	199.94
258.452	188.94
258.685	195.94
258.918	195.94
259.151	186.94
259.383	208.94
259.616	208.94
259.849	205.94
260.081	217.94
260.314	224.94
260.547	237.94
260.779	232.94
261.012	218.94
261.244	214.94
261.477	228.94
261.71	209.94
261.942	197.94
262.175	208.94
262.407	219.94
262.64	206.94
262.872	214.94
263.105	215.94
263.337	198.94
263.57	212.94
263.802	211.94
264.035	198.94
264.267	203.94
264.499	211.94
264.732	207.94
264.964	225.94
265.197	206.94
265.429	195.94
265.661	209.94
265.894	219.94
266.126	214.94
266.358	191.94
266.591	216.94
266.823	217.94
267.055	214.94
267.287	227.94
267.52	206.94
267.752	238.94
267.984	207.94
268.216	228.94
268.448	232.94
268.681	226.94
268.913	238.94
269.145	225.94
269.377	260.94
269.609	250.94
269.841	236.94
270.073	263.94
270.306	274.94
270.538	286.94
270.77	264.94
271.002	282.94
271.234	263.94
271.466	288.94
271.698	286.94
271.93	297.94
272.162	278.94
272.394	288.94
272.626	297.94
272.858	292.94
273.09	263.94
273.322	256.94
273.553	238.94
273.785	258.94
274.017	246.94
274.249	249.94
274.481	250.94
274.713	260.94
274.945	252.94
275.176	242.94
275.408	256.94
275.64	262.94
275.872	247.94
276.104	247.94
276.335	250.94
276.567	262.94
276.799	266.94
277.031	285.94
277.262	302.94
277.494	303.94
277.726	290.94
277.957	266.94
278.189	263.94
278.421	272.94
278.652	267.94
278.884	274.94
279.115	265.94
279.347	289.94
279.579	272.94
279.81	268.94
280.042	281.94
280.273	275.94
280.505	280.94
280.736	276.94
280.968	273.94
281.199	264.94
281.431	274.94
281.662	281.94
281.894	259.94
282.125	282.94
282.356	263.94
282.588	299.94
282.819	296.94
283.051	290.94
283.282	281.94
283.513	266.94
283.745	280.94
283.976	308.94
284.207	299.94
284.439	282.94
284.67	296.94
284.901	298.94
285.132	292.94
285.364	272.94
285.595	289.94
285.826	268.94
286.057	286.94
286.288	285.94
286.52	295.94
286.751	295.94
286.982	297.94
287.213	293.94
287.444	300.94
287.675	289.94
287.906	291.94
288.138	303.94
288.369	309.94
288.6	307.94
288.831	312.94
289.062	308.94
289.293	306.94
289.524	291.94
289.755	292.94
289.986	291.94
290.217	292.94
290.448	310.94
290.679	296.94
290.91	293.94
291.141	292.94
291.371	297.94
291.602	294.94
291.833	297.94
292.064	306.94
292.295	302.94
292.526	300.94
292.757	283.94
292.987	305.94
293.218	288.94
293.449	314.94
293.68	309.94
293.91	311.94
294.141	317.94
294.372	310.94
294.603	291.94
294.833	296.94
295.064	289.94
295.295	293.94
295.525	302.94
295.756	304.94
295.987	306.94
296.217	323.94
296.448	328.94
296.679	322.94
296.909	296.94
297.14	305.94
297.37	322.94
297.601	313.94
297.831	313.94
298.062	317.94
298.292	318.94
298.523	318.94
298.753	308.94
298.984	314.94
299.214	323.94
299.445	308.94
299.675	311.94
299.905	341.94
300.136	315.94
300.366	317.94
300.597	317.94
300.827	327.94
301.057	336.94
301.288	317.94
301.518	340.94
301.748	327.94
301.979	312.94
302.209	330.94
302.439	326.94
302.669	353.94
302.9	352.94
303.13	332.94
303.36	322.94
303.59	346.94
303.82	354.94
304.051	347.94
304.281	330.94
304.511	338.94
304.741	338.94
304.971	331.94
305.201	325.94
305.431	316.94
305.661	346.94
305.891	343.94
306.121	351.94
306.352	327.94
306.582	353.94
306.812	327.94
307.042	331.94
307.272	352.94
307.502	348.94
307.731	326.94
307.961	332.94
308.191	337.94
308.421	336.94
308.651	329.94
308.881	349.94
309.111	333.94
309.341	329.94
309.571	344.94
309.8	357.94
310.03	354.94
310.26	363.94
310.49	342.94
310.72	361.94
310.949	381.94
311.179	378.94
311.409	376.94
311.639	361.94
311.868	365.94
312.098	380.94
312.328	377.94
312.557	375.94
312.787	383.94
313.017	397.94
313.246	378.94
313.476	372.94
313.706	376.94
313.935	379.94
314.165	383.94
314.394	406.94
314.624	391.94
314.853	384.94
315.083	386.94
315.312	377.94
315.542	367.94
315.771	374.94
316.001	356.94
316.23	373.94
316.46	350.94
316.689	370.94
316.919	356.94
317.148	371.94
317.377	384.94
317.607	360.94
317.836	357.94
318.065	363.94
318.295	377.94
318.524	382.94
318.753	367.94
318.983	368.94
319.212	389.94
319.441	381.94
319.67	378.94
319.9	377.94
320.129	391.94
320.358	389.94
320.587	358.94
320.816	388.94
321.046	386.94
321.275	388.94
321.504	391.94
321.733	390.94
321.962	373.94
322.191	394.94
322.42	410.94
322.649	410.94
322.878	432.94
323.108	430.94
323.337	426.94
323.566	438.94
323.795	443.94
324.024	483.94
324.253	547.94
324.482	722.94
324.71	1064.94
324.939	1522.94
325.168	1332.94
325.397	744.94
325.626	544.94
325.855	491.94
326.084	460.94
326.313	477.94
326.542	442.94
326.77	460.94
326.999	548.94
327.228	660.94
327.457	979.94
327.686	1169.94
327.914	854.94
328.143	611.94
328.372	538.94
328.6	494.94
328.829	513.94
329.058	498.94
329.287	494.94
329.515	486.94
329.744	484.94
329.972	465.94
330.201	483.94
330.43	509.94
330.658	508.94
330.887	533.94
331.115	500.94
331.344	490.94
331.572	458.94
331.801	463.94
332.03	449.94
332.258	453.94
332.486	443.94
332.715	438.94
332.943	469.94
333.172	468.94
333.4	459.94
333.629	460.94
333.857	492.94
334.085	473.94
334.314	508.94
334.542	518.94
334.771	522.94
334.999	492.94
335.227	486.94
335.455	479.94
335.684	447.94
335.912	466.94
336.14	458.94
336.369	453.94
336.597	445.94
336.825	446.94
337.053	438.94
337.281	452.94
337.51	433.94
337.738	447.94
337.966	436.94
338.194	454.94
338.422	430.94
338.65	448.94
338.878	461.94
339.106	436.94
339.334	423.94
339.562	429.94
339.79	428.94
340.018	423.94
340.246	421.94
340.474	420.94
340.702	440.94
340.93	430.94
341.158	423.94
341.386	417.94
341.614	433.94
341.842	427.94
342.07	426.94
342.298	429.94
342.526	420.94
342.754	434.94
342.981	407.94
343.209	408.94
343.437	423.94
343.665	471.94
343.893	470.94
344.12	445.94
344.348	453.94
344.576	444.94
344.804	447.94
345.031	435.94
345.259	449.94
345.487	432.94
345.714	432.94
345.942	417.94
346.17	422.94
346.397	421.94
346.625	408.94
346.853	410.94
347.08	401.94
347.308	419.94
347.535	422.94
347.763	410.94
347.99	402.94
348.218	403.94
348.445	414.94
348.673	410.94
348.9	420.94
349.128	430.94
349.355	399.94
349.583	396.94
349.81	389.94
350.037	388.94
350.265	401.94
350.492	402.94
350.72	407.94
350.947	390.94
351.174	421.94
351.402	430.94
351.629	411.94
351.856	403.94
352.083	419.94
352.311	402.94
352.538	430.94
352.765	430.94
352.992	410.94
353.22	401.94
353.447	400.94
353.674	425.94
353.901	397.94
354.128	400.94
354.355	382.94
354.583	396.94
354.81	390.94
355.037	401.94
355.264	401.94
355.491	408.94
355.718	376.94
355.945	388.94
356.172	392.94
356.399	380.94
356.626	379.94
356.853	374.94
357.08	387.94
357.307	393.94
357.534	379.94
357.761	389.94
357.988	377.94
358.215	396.94
358.441	403.94
358.668	372.94
358.895	390.94
359.122	391.94
359.349	424.94
359.576	422.94
359.802	409.94
360.029	446.94
360.256	438.94
360.483	423.94
360.709	396.94
360.936	426.94
361.163	418.94
361.39	417.94
361.616	419.94
361.843	408.94
362.07	428.94
362.296	426.94
362.523	404.94
362.749	411.94
362.976	395.94
363.203	391.94
363.429	403.94
363.656	417.94
363.882	410.94
364.109	387.94
364.335	384.94
364.562	374.94
364.788	392.94
365.015	396.94
365.241	385.94
365.468	407.94
365.694	403.94
365.92	388.94
366.147	405.94
366.373	379.94
366.599	394.94
366.826	408.94
367.052	388.94
367.278	394.94
367.505	392.94
367.731	391.94
367.957	385.94
368.184	382.94
368.41	392.94
368.636	394.94
368.862	410.94
369.089	390.94
369.315	396.94
369.541	400.94
369.767	384.94
369.993	418.94
370.219	390.94
370.445	400.94
370.672	402.94
370.898	419.94
371.124	399.94
371.35	404.94
371.576	404.94
371.802	407.94
372.028	402.94
372.254	400.94
372.48	409.94
372.706	402.94
372.932	415.94
373.158	424.94
373.384	419.94
373.61	425.94
373.835	406.94
374.061	401.94
374.287	422.94
374.513	413.94
374.739	417.94
374.965	442.94
375.191	419.94
375.416	430.94
375.642	425.94
375.868	421.94
376.094	414.94
376.319	395.94
376.545	378.94
376.771	404.94
376.997	427.94
377.222	409.94
377.448	430.94
377.674	415.94
377.899	387.94
378.125	398.94
378.35	402.94
378.576	395.94
378.802	400.94
379.027	418.94
379.253	356.94
379.478	396.94
379.704	402.94
379.929	425.94
380.155	425.94
380.38	414.94
380.606	409.94
380.831	394.94
381.057	416.94
381.282	403.94
381.507	427.94
381.733	437.94
381.958	413.94
382.184	424.94
382.409	426.94
382.634	404.94
382.86	439.94
383.085	427.94
383.31	423.94
383.535	423.94
383.761	431.94
383.986	452.94
384.211	445.94
384.436	448.94
384.662	454.94
384.887	442.94
385.112	461.94
385.337	460.94
385.562	462.94
385.787	463.94
386.013	468.94
386.238	440.94
386.463	473.94
386.688	458.94
386.913	445.94
387.138	457.94
387.363	459.94
387.588	464.94
387.813	461.94
388.038	452.94
388.263	456.94
388.488	464.94
388.713	472.94
388.938	478.94
389.163	484.94
389.387	461.94
389.612	457.94
389.837	435.94
390.062	471.94
390.287	460.94
390.512	474.94
390.736	474.94
390.961	445.94
391.186	454.94
391.411	463.94
391.636	482.94
391.86	471.94
392.085	474.94
392.31	492.94
392.534	492.94
392.759	495.94
392.984	478.94
393.208	479.94
393.433	471.94
393.658	485.94
393.882	483.94
394.107	475.94
394.331	480.94
394.556	466.94
394.78	468.94
395.005	459.94
395.229	481.94
395.454	487.94
395.678	499.94
395.903	475.94
396.127	499.94
396.352	509.94
396.576	497.94
396.801	482.94
397.025	492.94
397.249	498.94
397.474	504.94
397.698	499.94
397.922	531.94
398.147	514.94
398.371	528.94
398.595	528.94
398.82	537.94
399.044	573.94
399.268	588.94
399.492	640.94
399.717	681.94
399.941	715.94
400.165	692.94
400.389	679.94
400.613	628.94
400.837	591.94
401.062	563.94
401.286	551.94
401.51	553.94
401.734	536.94
401.958	542.94
402.182	556.94
402.406	560.94
402.63	560.94
402.854	558.94
403.078	550.94
403.302	567.94
403.526	555.94
403.75	579.94
403.974	561.94
404.198	568.94
404.422	578.94
404.645	599.94
404.869	598.94
405.093	613.94
405.317	639.94
405.541	654.94
405.765	620.94
405.988	597.94
406.212	588.94
406.436	610.94
406.66	614.94
406.883	616.94
407.107	641.94
407.331	644.94
407.555	734.94
407.778	730.94
408.002	681.94
408.226	647.94
408.449	642.94
408.673	612.94
408.896	659.94
409.12	667.94
409.344	645.94
409.567	595.94
409.791	591.94
410.014	573.94
410.238	591.94
410.461	562.94
410.685	555.94
410.908	564.94
411.132	635.94
411.355	634.94
411.578	598.94
411.802	579.94
412.025	551.94
412.249	566.94
412.472	586.94
412.695	603.94
412.919	589.94
413.142	556.94
413.365	563.94
413.589	563.94
413.812	531.94
414.035	541.94
414.258	547.94
414.482	543.94
414.705	525.94
414.928	540.94
415.151	541.94
415.374	542.94
415.597	523.94
415.821	546.94
416.044	519.94
416.267	530.94
416.49	544.94
416.713	540.94
416.936	539.94
417.159	525.94
417.382	539.94
417.605	532.94
417.828	551.94
418.051	536.94
418.274	549.94
418.497	533.94
418.72	546.94
418.943	530.94
419.166	554.94
419.389	592.94
419.611	604.94
419.834	573.94
420.057	587.94
420.28	558.94
420.503	551.94
420.726	538.94
420.948	541.94
421.171	581.94
421.394	581.94
421.617	572.94
421.839	554.94
422.062	547.94
422.285	543.94
422.507	586.94
422.73	657.94
422.953	639.94
423.175	589.94
423.398	565.94
423.621	560.94
423.843	589.94
424.066	584.94
424.288	578.94
424.511	602.94
424.733	635.94
424.956	706.94
425.178	674.94
425.401	658.94
425.623	671.94
425.846	597.94
426.068	562.94
426.291	556.94
426.513	571.94
426.735	569.94
426.958	574.94
427.18	635.94
427.402	748.94
427.625	814.94
427.847	692.94
428.069	617.94
428.292	576.94
428.514	556.94
428.736	536.94
428.958	555.94
429.181	534.94
429.403	502.94
429.625	534.94
429.847	554.94
430.069	599.94
430.292	598.94
430.514	519.94
430.736	509.94
430.958	518.94
431.18	497.94
431.402	518.94
431.624	486.94
431.846	511.94
432.068	477.94
432.29	495.94
432.512	494.94
432.734	521.94
432.956	520.94
433.178	524.94
433.4	518.94
433.622	486.94
433.844	504.94
434.066	507.94
434.287	523.94
434.509	500.94
434.731	558.94
434.953	551.94
435.175	571.94
435.397	560.94
435.618	543.94
435.84	592.94
436.062	660.94
436.284	715.94
436.505	620.94
436.727	574.94
436.949	530.94
437.17	527.94
437.392	528.94
437.614	532.94
437.835	538.94
438.057	588.94
438.278	671.94
438.5	690.94
438.721	758.94
438.943	704.94
439.165	610.94
439.386	567.94
439.608	577.94
439.829	551.94
440.05	581.94
440.272	592.94
440.493	594.94
440.715	558.94
440.936	538.94
441.158	532.94
441.379	530.94
441.6	549.94
441.822	565.94
442.043	582.94
442.264	660.94
442.486	674.94
442.707	599.94
442.928	576.94
443.149	585.94
443.371	610.94
443.592	634.94
443.813	721.94
444.034	766.94
444.255	660.94
444.476	610.94
444.698	594.94
444.919	618.94
445.14	722.94
445.361	657.94
445.582	606.94
445.803	615.94
446.024	697.94
446.245	715.94
446.466	672.94
446.687	571.94
446.908	556.94
447.129	547.94
447.35	529.94
447.571	526.94
447.792	506.94
448.013	522.94
448.234	495.94
448.455	561.94
448.675	627.94
448.896	721.94
449.117	633.94
449.338	592.94
449.559	678.94
449.779	766.94
450	614.94
450.221	558.94
450.442	505.94
450.662	501.94
450.883	487.94
451.104	507.94
451.324	489.94
451.545	467.94
451.766	466.94
451.986	467.94
452.207	469.94
452.428	453.94
452.648	449.94
452.869	447.94
453.089	464.94
453.31	474.94
453.53	471.94
453.751	472.94
453.971	453.94
454.192	459.94
454.412	468.94
454.633	459.94
454.853	459.94
455.073	454.94
455.294	463.94
455.514	537.94
455.734	479.94
455.955	457.94
456.175	447.94
456.395	451.94
456.616	431.94
456.836	449.94
457.056	434.94
457.276	415.94
457.497	436.94
457.717	451.94
457.937	448.94
458.157	450.94
458.377	467.94
458.598	502.94
458.818	503.94
459.038	580.94
459.258	578.94
459.478	527.94
459.698	513.94
459.918	515.94
460.138	531.94
460.358	546.94
460.578	547.94
460.798	542.94
461.018	532.94
461.238	516.94
461.458	521.94
461.678	542.94
461.898	553.94
462.118	568.94
462.338	566.94
462.558	558.94
462.777	582.94
462.997	615.94
463.217	626.94
463.437	624.94
463.657	618.94
463.876	590.94
464.096	615.94
464.316	588.94
464.536	592.94
464.755	598.94
464.975	581.94
465.195	587.94
465.414	590.94
465.634	553.94
465.854	530.94
466.073	504.94
466.293	508.94
466.512	502.94
466.732	479.94
466.951	490.94
467.171	488.94
467.391	482.94
467.61	500.94
467.829	478.94
468.049	484.94
468.268	476.94
468.488	484.94
468.707	481.94
468.927	479.94
469.146	481.94
469.365	483.94
469.585	460.94
469.804	491.94
470.023	488.94
470.243	476.94
470.462	510.94
470.681	504.94
470.901	531.94
471.12	502.94
471.339	497.94
471.558	485.94
471.777	495.94
471.997	469.94
472.216	507.94
472.435	506.94
472.654	468.94
472.873	478.94
473.092	477.94
473.311	474.94
473.53	484.94
473.749	484.94
473.968	505.94
474.187	576.94
474.406	594.94
474.625	518.94
474.844	501.94
475.063	484.94
475.282	494.94
475.501	479.94
475.72	461.94
475.939	476.94
476.158	513.94
476.377	494.94
476.596	489.94
476.814	500.94
477.033	507.94
477.252	514.94
477.471	528.94
477.69	545.94
477.908	555.94
478.127	542.94
478.346	548.94
478.564	567.94
478.783	561.94
479.002	556.94
479.22	564.94
479.439	587.94
479.658	586.94
479.876	564.94
480.095	586.94
480.313	617.94
480.532	632.94
480.751	617.94
480.969	601.94
481.188	623.94
481.406	636.94
481.624	591.94
481.843	588.94
482.061	599.94
482.28	571.94
482.498	547.94
482.717	558.94
482.935	556.94
483.153	560.94
483.372	557.94
483.59	566.94
483.808	566.94
484.027	548.94
484.245	545.94
484.463	567.94
484.681	578.94
484.9	575.94
485.118	592.94
485.336	555.94
485.554	590.94
485.772	581.94
485.99	599.94
486.209	596.94
486.427	595.94
486.645	576.94
486.863	608.94
487.081	575.94
487.299	599.94
487.517	607.94
487.735	618.94
487.953	602.94
488.171	601.94
488.389	613.94
488.607	580.94
488.825	585.94
489.043	579.94
489.261	583.94
489.479	592.94
489.696	591.94
489.914	603.94
490.132	632.94
490.35	584.94
490.568	628.94
490.786	644.94
491.003	628.94
491.221	646.94
491.439	651.94
491.657	661.94
491.874	651.94
492.092	658.94
492.31	650.94
492.527	651.94
492.745	642.94
492.963	678.94
493.18	679.94
493.398	675.94
493.615	674.94
493.833	687.94
494.05	667.94
494.268	676.94
494.485	670.94
494.703	678.94
494.92	683.94
495.138	688.94
495.355	683.94
495.573	658.94
495.79	713.94
496.008	720.94
496.225	711.94
496.442	681.94
496.66	704.94
496.877	687.94
497.094	705.94
497.312	725.94
497.529	736.94
497.746	745.94
497.963	754.94
498.181	786.94
498.398	800.94
498.615	802.94
498.832	868.94
499.049	880.94
499.267	907.94
499.484	964.94
499.701	1012.94
499.918	1035.94
500.135	1146.94
500.352	1228.94
500.569	1250.94
500.786	1232.94
501.003	1189.94
501.22	1156.94
501.437	1042.94
501.654	993.94
501.871	974.94
