Data from 1962.PennyLincolnUp.Lamp.En5.5.200Scan.071719.P1._HRD10591_13-54-02-061.txt Node
Date: Thu Jul 18 13:54:02 EDT 2019
User: cochatt
Spectrometer: HR+D1059
Trigger mode: 1
Integration Time (sec): 1.000000E-1
Scans to average: 1
Electric dark correction enabled: true
Nonlinearity correction enabled: false
Boxcar width: 0
XAxis mode: Wavelengths
Number of Pixels in Spectrum: 2048
>>>>>Begin Spectral Data<<<<<
223.165	-15.19
223.4	-15.19
223.635	-15.19
223.869	-28.19
224.104	-9.19
224.338	-14.19
224.573	-20.19
224.808	-10.19
225.042	-3.19
225.277	1.81
225.511	-1.19
225.746	-1.19
225.98	5.81
226.215	14.81
226.449	26.81
226.683	13.81
226.918	15.81
227.152	23.81
227.387	25.81
227.621	42.81
227.856	46.81
228.09	47.81
228.324	47.81
228.559	48.81
228.793	77.81
229.027	89.81
229.262	74.81
229.496	102.81
229.73	96.81
229.964	125.81
230.199	99.81
230.433	100.81
230.667	92.81
230.901	111.81
231.136	114.81
231.37	109.81
231.604	112.81
231.838	105.81
232.072	108.81
232.306	125.81
232.541	129.81
232.775	105.81
233.009	112.81
233.243	104.81
233.477	115.81
233.711	99.81
233.945	113.81
234.179	114.81
234.413	116.81
234.647	103.81
234.881	102.81
235.115	114.81
235.349	120.81
235.583	107.81
235.817	116.81
236.051	119.81
236.285	109.81
236.519	126.81
236.753	127.81
236.987	120.81
237.221	140.81
237.455	175.81
237.689	146.81
237.922	147.81
238.156	120.81
238.39	120.81
238.624	105.81
238.858	120.81
239.091	123.81
239.325	100.81
239.559	124.81
239.793	118.81
240.027	115.81
240.26	118.81
240.494	130.81
240.728	132.81
240.961	120.81
241.195	124.81
241.429	138.81
241.662	129.81
241.896	131.81
242.13	130.81
242.363	128.81
242.597	107.81
242.83	131.81
243.064	129.81
243.298	126.81
243.531	127.81
243.765	143.81
243.998	129.81
244.232	135.81
244.465	122.81
244.699	132.81
244.932	118.81
245.166	130.81
245.399	118.81
245.633	131.81
245.866	127.81
246.099	148.81
246.333	138.81
246.566	142.81
246.8	137.81
247.033	144.81
247.266	144.81
247.5	151.81
247.733	160.81
247.966	167.81
248.2	151.81
248.433	152.81
248.666	152.81
248.899	161.81
249.133	181.81
249.366	176.81
249.599	179.81
249.832	160.81
250.066	158.81
250.299	159.81
250.532	180.81
250.765	179.81
250.998	191.81
251.231	190.81
251.465	172.81
251.698	181.81
251.931	174.81
252.164	163.81
252.397	174.81
252.63	190.81
252.863	175.81
253.096	178.81
253.329	196.81
253.562	185.81
253.795	189.81
254.028	184.81
254.261	194.81
254.494	210.81
254.727	226.81
254.96	217.81
255.193	224.81
255.426	228.81
255.659	210.81
255.892	192.81
256.124	197.81
256.357	195.81
256.59	188.81
256.823	197.81
257.056	187.81
257.289	180.81
257.521	186.81
257.754	199.81
257.987	206.81
258.22	208.81
258.452	187.81
258.685	213.81
258.918	197.81
259.151	202.81
259.383	197.81
259.616	202.81
259.849	190.81
260.081	215.81
260.314	230.81
260.547	226.81
260.779	207.81
261.012	210.81
261.244	193.81
261.477	194.81
261.71	192.81
261.942	198.81
262.175	209.81
262.407	218.81
262.64	215.81
262.872	183.81
263.105	207.81
263.337	209.81
263.57	194.81
263.802	194.81
264.035	201.81
264.267	199.81
264.499	202.81
264.732	208.81
264.964	221.81
265.197	220.81
265.429	213.81
265.661	214.81
265.894	221.81
266.126	206.81
266.358	207.81
266.591	206.81
266.823	222.81
267.055	199.81
267.287	209.81
267.52	201.81
267.752	216.81
267.984	214.81
268.216	204.81
268.448	231.81
268.681	213.81
268.913	211.81
269.145	228.81
269.377	247.81
269.609	256.81
269.841	242.81
270.073	251.81
270.306	274.81
270.538	275.81
270.77	275.81
271.002	243.81
271.234	258.81
271.466	256.81
271.698	290.81
271.93	260.81
272.162	287.81
272.394	288.81
272.626	259.81
272.858	252.81
273.09	262.81
273.322	259.81
273.553	248.81
273.785	252.81
274.017	238.81
274.249	270.81
274.481	245.81
274.713	255.81
274.945	254.81
275.176	240.81
275.408	251.81
275.64	229.81
275.872	251.81
276.104	254.81
276.335	246.81
276.567	240.81
276.799	259.81
277.031	281.81
277.262	281.81
277.494	273.81
277.726	275.81
277.957	268.81
278.189	258.81
278.421	264.81
278.652	240.81
278.884	270.81
279.115	260.81
279.347	259.81
279.579	276.81
279.81	259.81
280.042	260.81
280.273	262.81
280.505	262.81
280.736	269.81
280.968	254.81
281.199	247.81
281.431	265.81
281.662	266.81
281.894	271.81
282.125	262.81
282.356	263.81
282.588	291.81
282.819	283.81
283.051	286.81
283.282	262.81
283.513	262.81
283.745	276.81
283.976	261.81
284.207	274.81
284.439	298.81
284.67	288.81
284.901	265.81
285.132	293.81
285.364	295.81
285.595	278.81
285.826	292.81
286.057	289.81
286.288	280.81
286.52	277.81
286.751	277.81
286.982	280.81
287.213	272.81
287.444	274.81
287.675	294.81
287.906	281.81
288.138	298.81
288.369	294.81
288.6	297.81
288.831	267.81
289.062	294.81
289.293	296.81
289.524	273.81
289.755	307.81
289.986	284.81
290.217	287.81
290.448	289.81
290.679	281.81
290.91	269.81
291.141	310.81
291.371	308.81
291.602	288.81
291.833	308.81
292.064	288.81
292.295	292.81
292.526	288.81
292.757	301.81
292.987	296.81
293.218	312.81
293.449	289.81
293.68	296.81
293.91	307.81
294.141	293.81
294.372	292.81
294.603	306.81
294.833	294.81
295.064	290.81
295.295	287.81
295.525	284.81
295.756	292.81
295.987	292.81
296.217	305.81
296.448	291.81
296.679	292.81
296.909	306.81
297.14	304.81
297.37	328.81
297.601	324.81
297.831	311.81
298.062	311.81
298.292	305.81
298.523	317.81
298.753	306.81
298.984	290.81
299.214	314.81
299.445	321.81
299.675	330.81
299.905	294.81
300.136	321.81
300.366	322.81
300.597	304.81
300.827	319.81
301.057	314.81
301.288	325.81
301.518	328.81
301.748	350.81
301.979	328.81
302.209	311.81
302.439	344.81
302.669	338.81
302.9	336.81
303.13	317.81
303.36	345.81
303.59	327.81
303.82	330.81
304.051	320.81
304.281	348.81
304.511	325.81
304.741	327.81
304.971	328.81
305.201	345.81
305.431	329.81
305.661	334.81
305.891	329.81
306.121	330.81
306.352	333.81
306.582	329.81
306.812	323.81
307.042	344.81
307.272	316.81
307.502	336.81
307.731	336.81
307.961	336.81
308.191	314.81
308.421	350.81
308.651	328.81
308.881	310.81
309.111	332.81
309.341	326.81
309.571	332.81
309.8	326.81
310.03	345.81
310.26	358.81
310.49	368.81
310.72	335.81
310.949	350.81
311.179	359.81
311.409	346.81
311.639	348.81
311.868	376.81
312.098	350.81
312.328	358.81
312.557	371.81
312.787	384.81
313.017	379.81
313.246	350.81
313.476	356.81
313.706	369.81
313.935	364.81
314.165	387.81
314.394	371.81
314.624	395.81
314.853	357.81
315.083	389.81
315.312	366.81
315.542	344.81
315.771	348.81
316.001	348.81
316.23	358.81
316.46	345.81
316.689	361.81
316.919	367.81
317.148	368.81
317.377	360.81
317.607	378.81
317.836	372.81
318.065	348.81
318.295	394.81
318.524	361.81
318.753	363.81
318.983	339.81
319.212	353.81
319.441	359.81
319.67	369.81
319.9	368.81
320.129	361.81
320.358	376.81
320.587	360.81
320.816	371.81
321.046	376.81
321.275	384.81
321.504	383.81
321.733	392.81
321.962	376.81
322.191	400.81
322.42	400.81
322.649	399.81
322.878	412.81
323.108	387.81
323.337	407.81
323.566	422.81
323.795	424.81
324.024	482.81
324.253	531.81
324.482	672.81
324.71	998.81
324.939	1388.81
325.168	1205.81
325.397	686.81
325.626	522.81
325.855	462.81
326.084	449.81
326.313	435.81
326.542	432.81
326.77	476.81
326.999	512.81
327.228	625.81
327.457	910.81
327.686	1058.81
327.914	769.81
328.143	545.81
328.372	519.81
328.6	473.81
328.829	474.81
329.058	475.81
329.287	486.81
329.515	465.81
329.744	447.81
329.972	453.81
330.201	472.81
330.43	494.81
330.658	497.81
330.887	499.81
331.115	481.81
331.344	473.81
331.572	457.81
331.801	465.81
332.03	456.81
332.258	442.81
332.486	441.81
332.715	456.81
332.943	457.81
333.172	469.81
333.4	476.81
333.629	486.81
333.857	490.81
334.085	485.81
334.314	476.81
334.542	495.81
334.771	508.81
334.999	479.81
335.227	480.81
335.455	470.81
335.684	459.81
335.912	449.81
336.14	443.81
336.369	428.81
336.597	458.81
336.825	450.81
337.053	446.81
337.281	431.81
337.51	425.81
337.738	446.81
337.966	440.81
338.194	448.81
338.422	434.81
338.65	433.81
338.878	433.81
339.106	410.81
339.334	417.81
339.562	421.81
339.79	427.81
340.018	409.81
340.246	412.81
340.474	434.81
340.702	406.81
340.93	407.81
341.158	428.81
341.386	405.81
341.614	416.81
341.842	414.81
342.07	416.81
342.298	397.81
342.526	421.81
342.754	407.81
342.981	422.81
343.209	420.81
343.437	407.81
343.665	426.81
343.893	454.81
344.12	448.81
344.348	456.81
344.576	441.81
344.804	428.81
345.031	424.81
345.259	433.81
345.487	444.81
345.714	419.81
345.942	400.81
346.17	419.81
346.397	404.81
346.625	405.81
346.853	406.81
347.08	388.81
347.308	401.81
347.535	406.81
347.763	419.81
347.99	410.81
348.218	398.81
348.445	411.81
348.673	409.81
348.9	412.81
349.128	402.81
349.355	391.81
349.583	406.81
349.81	382.81
350.037	404.81
350.265	391.81
350.492	413.81
350.72	393.81
350.947	390.81
351.174	382.81
351.402	397.81
351.629	382.81
351.856	386.81
352.083	392.81
352.311	398.81
352.538	416.81
352.765	402.81
352.992	394.81
353.22	378.81
353.447	410.81
353.674	391.81
353.901	372.81
354.128	370.81
354.355	400.81
354.583	383.81
354.81	393.81
355.037	373.81
355.264	385.81
355.491	384.81
355.718	378.81
355.945	397.81
356.172	371.81
356.399	354.81
356.626	384.81
356.853	383.81
357.08	377.81
357.307	374.81
357.534	364.81
357.761	380.81
357.988	387.81
358.215	385.81
358.441	374.81
358.668	382.81
358.895	399.81
359.122	389.81
359.349	381.81
359.576	410.81
359.802	403.81
360.029	419.81
360.256	402.81
360.483	400.81
360.709	386.81
360.936	410.81
361.163	380.81
361.39	388.81
361.616	410.81
361.843	392.81
362.07	409.81
362.296	409.81
362.523	406.81
362.749	382.81
362.976	389.81
363.203	373.81
363.429	395.81
363.656	384.81
363.882	389.81
364.109	397.81
364.335	388.81
364.562	378.81
364.788	409.81
365.015	399.81
365.241	379.81
365.468	378.81
365.694	390.81
365.92	401.81
366.147	391.81
366.373	391.81
366.599	389.81
366.826	379.81
367.052	367.81
367.278	387.81
367.505	387.81
367.731	385.81
367.957	393.81
368.184	375.81
368.41	389.81
368.636	397.81
368.862	396.81
369.089	375.81
369.315	376.81
369.541	396.81
369.767	404.81
369.993	393.81
370.219	391.81
370.445	396.81
370.672	383.81
370.898	375.81
371.124	397.81
371.35	404.81
371.576	384.81
371.802	398.81
372.028	399.81
372.254	401.81
372.48	378.81
372.706	392.81
372.932	417.81
373.158	387.81
373.384	404.81
373.61	394.81
373.835	410.81
374.061	417.81
374.287	416.81
374.513	416.81
374.739	427.81
374.965	403.81
375.191	420.81
375.416	420.81
375.642	399.81
375.868	404.81
376.094	418.81
376.319	413.81
376.545	411.81
376.771	397.81
376.997	403.81
377.222	392.81
377.448	394.81
377.674	404.81
377.899	386.81
378.125	386.81
378.35	411.81
378.576	404.81
378.802	381.81
379.027	404.81
379.253	398.81
379.478	392.81
379.704	391.81
379.929	397.81
380.155	415.81
380.38	395.81
380.606	377.81
380.831	406.81
381.057	412.81
381.282	382.81
381.507	402.81
381.733	401.81
381.958	417.81
382.184	409.81
382.409	412.81
382.634	420.81
382.86	400.81
383.085	408.81
383.31	415.81
383.535	438.81
383.761	437.81
383.986	418.81
384.211	422.81
384.436	429.81
384.662	444.81
384.887	452.81
385.112	436.81
385.337	449.81
385.562	438.81
385.787	436.81
386.013	444.81
386.238	449.81
386.463	468.81
386.688	464.81
386.913	452.81
387.138	437.81
387.363	453.81
387.588	462.81
387.813	450.81
388.038	433.81
388.263	434.81
388.488	441.81
388.713	469.81
388.938	452.81
389.163	453.81
389.387	475.81
389.612	441.81
389.837	443.81
390.062	462.81
390.287	459.81
390.512	425.81
390.736	465.81
390.961	463.81
391.186	472.81
391.411	459.81
391.636	471.81
391.86	466.81
392.085	477.81
392.31	488.81
392.534	492.81
392.759	476.81
392.984	476.81
393.208	468.81
393.433	460.81
393.658	482.81
393.882	463.81
394.107	470.81
394.331	465.81
394.556	462.81
394.78	475.81
395.005	456.81
395.229	470.81
395.454	486.81
395.678	477.81
395.903	474.81
396.127	505.81
396.352	515.81
396.576	484.81
396.801	457.81
397.025	487.81
397.249	480.81
397.474	503.81
397.698	494.81
397.922	520.81
398.147	524.81
398.371	509.81
398.595	492.81
398.82	514.81
399.044	553.81
399.268	584.81
399.492	617.81
399.717	688.81
399.941	713.81
400.165	689.81
400.389	642.81
400.613	618.81
400.837	588.81
401.062	571.81
401.286	544.81
401.51	529.81
401.734	546.81
401.958	549.81
402.182	532.81
402.406	567.81
402.63	538.81
402.854	554.81
403.078	527.81
403.302	543.81
403.526	559.81
403.75	577.81
403.974	558.81
404.198	585.81
404.422	558.81
404.645	559.81
404.869	586.81
405.093	587.81
405.317	606.81
405.541	623.81
405.765	575.81
405.988	577.81
406.212	563.81
406.436	602.81
406.66	622.81
406.883	601.81
407.107	606.81
407.331	658.81
407.555	712.81
407.778	713.81
408.002	666.81
408.226	652.81
408.449	601.81
408.673	609.81
408.896	625.81
409.12	625.81
409.344	609.81
409.567	577.81
409.791	585.81
410.014	559.81
410.238	559.81
410.461	599.81
410.685	592.81
410.908	578.81
411.132	601.81
411.355	611.81
411.578	576.81
411.802	541.81
412.025	579.81
412.249	540.81
412.472	576.81
412.695	598.81
412.919	583.81
413.142	569.81
413.365	537.81
413.589	547.81
413.812	540.81
414.035	522.81
414.258	536.81
414.482	534.81
414.705	525.81
414.928	524.81
415.151	516.81
415.374	543.81
415.597	532.81
415.821	530.81
416.044	523.81
416.267	521.81
416.49	551.81
416.713	542.81
416.936	524.81
417.159	505.81
417.382	501.81
417.605	519.81
417.828	534.81
418.051	533.81
418.274	541.81
418.497	525.81
418.72	527.81
418.943	515.81
419.166	556.81
419.389	563.81
419.611	567.81
419.834	549.81
420.057	570.81
420.28	557.81
420.503	545.81
420.726	533.81
420.948	537.81
421.171	572.81
421.394	576.81
421.617	556.81
421.839	534.81
422.062	525.81
422.285	536.81
422.507	594.81
422.73	652.81
422.953	631.81
423.175	600.81
423.398	559.81
423.621	538.81
423.843	560.81
424.066	564.81
424.288	576.81
424.511	567.81
424.733	634.81
424.956	663.81
425.178	649.81
425.401	641.81
425.623	687.81
425.846	604.81
426.068	577.81
426.291	543.81
426.513	551.81
426.735	573.81
426.958	585.81
427.18	638.81
427.402	738.81
427.625	788.81
427.847	714.81
428.069	627.81
428.292	578.81
428.514	548.81
428.736	513.81
428.958	523.81
429.181	510.81
429.403	513.81
429.625	511.81
429.847	528.81
430.069	579.81
430.292	563.81
430.514	541.81
430.736	520.81
430.958	502.81
431.18	489.81
431.402	492.81
431.624	488.81
431.846	487.81
432.068	484.81
432.29	513.81
432.512	494.81
432.734	527.81
432.956	496.81
433.178	490.81
433.4	483.81
433.622	495.81
433.844	516.81
434.066	512.81
434.287	488.81
434.509	507.81
434.731	514.81
434.953	519.81
435.175	533.81
435.397	582.81
435.618	539.81
435.84	565.81
436.062	640.81
436.284	667.81
436.505	574.81
436.727	590.81
436.949	514.81
437.17	520.81
437.392	522.81
437.614	517.81
437.835	530.81
438.057	572.81
438.278	636.81
438.5	666.81
438.721	724.81
438.943	720.81
439.165	573.81
439.386	552.81
439.608	540.81
439.829	543.81
440.05	535.81
440.272	582.81
440.493	539.81
440.715	523.81
440.936	527.81
441.158	530.81
441.379	508.81
441.6	538.81
441.822	542.81
442.043	593.81
442.264	647.81
442.486	660.81
442.707	592.81
442.928	577.81
443.149	565.81
443.371	588.81
443.592	599.81
443.813	684.81
444.034	732.81
444.255	638.81
444.476	585.81
444.698	579.81
444.919	590.81
445.14	692.81
445.361	637.81
445.582	592.81
445.803	604.81
446.024	662.81
446.245	677.81
446.466	631.81
446.687	577.81
446.908	517.81
447.129	499.81
447.35	488.81
447.571	515.81
447.792	496.81
448.013	496.81
448.234	500.81
448.455	542.81
448.675	609.81
448.896	683.81
449.117	617.81
449.338	574.81
449.559	669.81
449.779	744.81
450	632.81
450.221	537.81
450.442	491.81
450.662	481.81
450.883	496.81
451.104	484.81
451.324	473.81
451.545	460.81
451.766	437.81
451.986	457.81
452.207	435.81
452.428	456.81
452.648	462.81
452.869	460.81
453.089	457.81
453.31	467.81
453.53	466.81
453.751	454.81
453.971	470.81
454.192	468.81
454.412	450.81
454.633	464.81
454.853	445.81
455.073	464.81
455.294	474.81
455.514	502.81
455.734	496.81
455.955	455.81
456.175	444.81
456.395	418.81
456.616	418.81
456.836	449.81
457.056	428.81
457.276	418.81
457.497	414.81
457.717	417.81
457.937	425.81
458.157	428.81
458.377	440.81
458.598	468.81
458.818	508.81
459.038	545.81
459.258	567.81
459.478	540.81
459.698	522.81
459.918	514.81
460.138	496.81
460.358	524.81
460.578	533.81
460.798	535.81
461.018	548.81
461.238	537.81
461.458	532.81
461.678	527.81
461.898	529.81
462.118	548.81
462.338	558.81
462.558	561.81
462.777	575.81
462.997	610.81
463.217	587.81
463.437	645.81
463.657	610.81
463.876	595.81
464.096	615.81
464.316	581.81
464.536	573.81
464.755	600.81
464.975	550.81
465.195	568.81
465.414	589.81
465.634	526.81
465.854	524.81
466.073	517.81
466.293	481.81
466.512	473.81
466.732	477.81
466.951	460.81
467.171	467.81
467.391	491.81
467.61	455.81
467.829	466.81
468.049	479.81
468.268	482.81
468.488	453.81
468.707	436.81
468.927	471.81
469.146	458.81
469.365	458.81
469.585	463.81
469.804	487.81
470.023	489.81
470.243	495.81
470.462	469.81
470.681	473.81
470.901	493.81
471.12	488.81
471.339	481.81
471.558	477.81
471.777	481.81
471.997	486.81
472.216	465.81
472.435	497.81
472.654	487.81
472.873	471.81
473.092	472.81
473.311	465.81
473.53	480.81
473.749	486.81
473.968	499.81
474.187	566.81
474.406	592.81
474.625	506.81
474.844	465.81
475.063	462.81
475.282	468.81
475.501	464.81
475.72	475.81
475.939	484.81
476.158	482.81
476.377	490.81
476.596	486.81
476.814	521.81
477.033	473.81
477.252	500.81
477.471	496.81
477.69	521.81
477.908	524.81
478.127	534.81
478.346	531.81
478.564	532.81
478.783	530.81
479.002	566.81
479.22	570.81
479.439	569.81
479.658	573.81
479.876	549.81
480.095	586.81
480.313	639.81
480.532	633.81
480.751	604.81
480.969	590.81
481.188	590.81
481.406	609.81
481.624	588.81
481.843	558.81
482.061	577.81
482.28	563.81
482.498	552.81
482.717	552.81
482.935	569.81
483.153	560.81
483.372	554.81
483.59	552.81
483.808	547.81
484.027	538.81
484.245	543.81
484.463	534.81
484.681	549.81
484.9	560.81
485.118	550.81
485.336	569.81
485.554	566.81
485.772	579.81
485.99	570.81
486.209	579.81
486.427	568.81
486.645	590.81
486.863	584.81
487.081	594.81
487.299	597.81
487.517	585.81
487.735	596.81
487.953	582.81
488.171	590.81
488.389	560.81
488.607	560.81
488.825	584.81
489.043	580.81
489.261	575.81
489.479	596.81
489.696	593.81
489.914	591.81
490.132	596.81
490.35	585.81
490.568	607.81
490.786	599.81
491.003	618.81
491.221	614.81
491.439	632.81
491.657	631.81
491.874	601.81
492.092	628.81
492.31	647.81
492.527	640.81
492.745	648.81
492.963	654.81
493.18	650.81
493.398	671.81
493.615	653.81
493.833	657.81
494.05	672.81
494.268	652.81
494.485	666.81
494.703	659.81
494.92	653.81
495.138	655.81
495.355	668.81
495.573	660.81
495.79	657.81
496.008	662.81
496.225	652.81
496.442	688.81
496.66	656.81
496.877	695.81
497.094	697.81
497.312	698.81
497.529	692.81
497.746	713.81
497.963	741.81
498.181	774.81
498.398	768.81
498.615	793.81
498.832	826.81
499.049	839.81
499.267	883.81
499.484	924.81
499.701	992.81
499.918	1041.81
500.135	1132.81
500.352	1188.81
500.569	1253.81
500.786	1201.81
501.003	1198.81
501.22	1148.81
501.437	1068.81
501.654	999.81
501.871	960.81
