Data from 1962.PennyLincolnUp.Lamp.En5.5.200Scan.071719.P1._HRD10591_13-54-44-061.txt Node
Date: Thu Jul 18 13:54:44 EDT 2019
User: cochatt
Spectrometer: HR+D1059
Trigger mode: 1
Integration Time (sec): 1.000000E-1
Scans to average: 1
Electric dark correction enabled: true
Nonlinearity correction enabled: false
Boxcar width: 0
XAxis mode: Wavelengths
Number of Pixels in Spectrum: 2048
>>>>>Begin Spectral Data<<<<<
223.165	-20.81
223.4	-20.81
223.635	-20.81
223.869	-16.81
224.104	-21.81
224.338	-15.81
224.573	-0.81
224.808	-6.81
225.042	-11.81
225.277	-15.81
225.511	8.19
225.746	9.19
225.98	0.19
226.215	3.19
226.449	8.19
226.683	19.19
226.918	25.19
227.152	37.19
227.387	35.19
227.621	23.19
227.856	38.19
228.09	46.19
228.324	57.19
228.559	64.19
228.793	68.19
229.027	79.19
229.262	93.19
229.496	102.19
229.73	107.19
229.964	124.19
230.199	121.19
230.433	98.19
230.667	92.19
230.901	102.19
231.136	110.19
231.37	99.19
231.604	102.19
231.838	115.19
232.072	111.19
232.306	116.19
232.541	109.19
232.775	123.19
233.009	112.19
233.243	98.19
233.477	96.19
233.711	118.19
233.945	98.19
234.179	111.19
234.413	99.19
234.647	116.19
234.881	90.19
235.115	106.19
235.349	122.19
235.583	113.19
235.817	130.19
236.051	118.19
236.285	122.19
236.519	119.19
236.753	111.19
236.987	141.19
237.221	155.19
237.455	187.19
237.689	152.19
237.922	124.19
238.156	117.19
238.39	117.19
238.624	114.19
238.858	129.19
239.091	116.19
239.325	124.19
239.559	125.19
239.793	126.19
240.027	104.19
240.26	127.19
240.494	125.19
240.728	139.19
240.961	129.19
241.195	125.19
241.429	122.19
241.662	119.19
241.896	114.19
242.13	131.19
242.363	125.19
242.597	123.19
242.83	132.19
243.064	130.19
243.298	132.19
243.531	135.19
243.765	128.19
243.998	135.19
244.232	127.19
244.465	128.19
244.699	138.19
244.932	140.19
245.166	144.19
245.399	154.19
245.633	127.19
245.866	142.19
246.099	139.19
246.333	148.19
246.566	139.19
246.8	149.19
247.033	151.19
247.266	163.19
247.5	138.19
247.733	151.19
247.966	145.19
248.2	153.19
248.433	163.19
248.666	157.19
248.899	184.19
249.133	168.19
249.366	171.19
249.599	164.19
249.832	159.19
250.066	163.19
250.299	162.19
250.532	174.19
250.765	185.19
250.998	197.19
251.231	210.19
251.465	191.19
251.698	189.19
251.931	181.19
252.164	165.19
252.397	176.19
252.63	179.19
252.863	183.19
253.096	185.19
253.329	195.19
253.562	205.19
253.795	197.19
254.028	177.19
254.261	191.19
254.494	183.19
254.727	206.19
254.96	212.19
255.193	226.19
255.426	201.19
255.659	211.19
255.892	207.19
256.124	211.19
256.357	203.19
256.59	214.19
256.823	204.19
257.056	191.19
257.289	189.19
257.521	200.19
257.754	192.19
257.987	195.19
258.22	196.19
258.452	200.19
258.685	191.19
258.918	195.19
259.151	203.19
259.383	204.19
259.616	202.19
259.849	204.19
260.081	198.19
260.314	228.19
260.547	219.19
260.779	223.19
261.012	218.19
261.244	193.19
261.477	202.19
261.71	206.19
261.942	215.19
262.175	209.19
262.407	215.19
262.64	203.19
262.872	208.19
263.105	212.19
263.337	214.19
263.57	199.19
263.802	211.19
264.035	198.19
264.267	209.19
264.499	198.19
264.732	224.19
264.964	203.19
265.197	217.19
265.429	208.19
265.661	205.19
265.894	210.19
266.126	212.19
266.358	225.19
266.591	198.19
266.823	225.19
267.055	213.19
267.287	214.19
267.52	217.19
267.752	218.19
267.984	211.19
268.216	220.19
268.448	222.19
268.681	223.19
268.913	240.19
269.145	247.19
269.377	248.19
269.609	261.19
269.841	239.19
270.073	241.19
270.306	255.19
270.538	271.19
270.77	283.19
271.002	261.19
271.234	281.19
271.466	280.19
271.698	275.19
271.93	283.19
272.162	263.19
272.394	267.19
272.626	277.19
272.858	275.19
273.09	256.19
273.322	235.19
273.553	235.19
273.785	236.19
274.017	243.19
274.249	246.19
274.481	253.19
274.713	253.19
274.945	258.19
275.176	267.19
275.408	265.19
275.64	278.19
275.872	246.19
276.104	251.19
276.335	244.19
276.567	236.19
276.799	258.19
277.031	281.19
277.262	275.19
277.494	300.19
277.726	304.19
277.957	298.19
278.189	274.19
278.421	251.19
278.652	250.19
278.884	269.19
279.115	279.19
279.347	247.19
279.579	267.19
279.81	266.19
280.042	269.19
280.273	274.19
280.505	267.19
280.736	263.19
280.968	275.19
281.199	272.19
281.431	265.19
281.662	268.19
281.894	272.19
282.125	287.19
282.356	276.19
282.588	288.19
282.819	291.19
283.051	280.19
283.282	248.19
283.513	288.19
283.745	292.19
283.976	276.19
284.207	269.19
284.439	280.19
284.67	284.19
284.901	270.19
285.132	284.19
285.364	270.19
285.595	295.19
285.826	279.19
286.057	288.19
286.288	293.19
286.52	280.19
286.751	283.19
286.982	293.19
287.213	283.19
287.444	306.19
287.675	287.19
287.906	294.19
288.138	298.19
288.369	294.19
288.6	282.19
288.831	299.19
289.062	294.19
289.293	302.19
289.524	309.19
289.755	299.19
289.986	297.19
290.217	292.19
290.448	271.19
290.679	290.19
290.91	288.19
291.141	297.19
291.371	300.19
291.602	299.19
291.833	286.19
292.064	294.19
292.295	310.19
292.526	304.19
292.757	285.19
292.987	290.19
293.218	281.19
293.449	293.19
293.68	292.19
293.91	294.19
294.141	303.19
294.372	298.19
294.603	301.19
294.833	304.19
295.064	287.19
295.295	296.19
295.525	305.19
295.756	328.19
295.987	311.19
296.217	313.19
296.448	308.19
296.679	315.19
296.909	306.19
297.14	309.19
297.37	313.19
297.601	304.19
297.831	291.19
298.062	295.19
298.292	316.19
298.523	328.19
298.753	309.19
298.984	314.19
299.214	316.19
299.445	315.19
299.675	323.19
299.905	317.19
300.136	311.19
300.366	313.19
300.597	337.19
300.827	324.19
301.057	341.19
301.288	326.19
301.518	319.19
301.748	332.19
301.979	359.19
302.209	346.19
302.439	333.19
302.669	343.19
302.9	336.19
303.13	344.19
303.36	333.19
303.59	327.19
303.82	337.19
304.051	335.19
304.281	358.19
304.511	321.19
304.741	331.19
304.971	319.19
305.201	323.19
305.431	333.19
305.661	342.19
305.891	327.19
306.121	320.19
306.352	336.19
306.582	344.19
306.812	324.19
307.042	345.19
307.272	346.19
307.502	331.19
307.731	325.19
307.961	326.19
308.191	349.19
308.421	331.19
308.651	328.19
308.881	328.19
309.111	329.19
309.341	323.19
309.571	366.19
309.8	354.19
310.03	353.19
310.26	351.19
310.49	360.19
310.72	356.19
310.949	369.19
311.179	332.19
311.409	358.19
311.639	360.19
311.868	387.19
312.098	361.19
312.328	365.19
312.557	380.19
312.787	389.19
313.017	363.19
313.246	381.19
313.476	374.19
313.706	359.19
313.935	380.19
314.165	375.19
314.394	351.19
314.624	380.19
314.853	375.19
315.083	372.19
315.312	372.19
315.542	373.19
315.771	361.19
316.001	348.19
316.23	361.19
316.46	379.19
316.689	352.19
316.919	385.19
317.148	379.19
317.377	391.19
317.607	382.19
317.836	356.19
318.065	383.19
318.295	369.19
318.524	367.19
318.753	355.19
318.983	371.19
319.212	369.19
319.441	361.19
319.67	357.19
319.9	387.19
320.129	375.19
320.358	357.19
320.587	378.19
320.816	369.19
321.046	377.19
321.275	389.19
321.504	397.19
321.733	398.19
321.962	393.19
322.191	360.19
322.42	401.19
322.649	413.19
322.878	404.19
323.108	420.19
323.337	420.19
323.566	428.19
323.795	460.19
324.024	476.19
324.253	532.19
324.482	703.19
324.71	1019.19
324.939	1386.19
325.168	1281.19
325.397	721.19
325.626	515.19
325.855	449.19
326.084	439.19
326.313	453.19
326.542	453.19
326.77	470.19
326.999	531.19
327.228	637.19
327.457	935.19
327.686	1081.19
327.914	770.19
328.143	555.19
328.372	503.19
328.6	496.19
328.829	464.19
329.058	461.19
329.287	479.19
329.515	459.19
329.744	453.19
329.972	453.19
330.201	478.19
330.43	472.19
330.658	505.19
330.887	496.19
331.115	507.19
331.344	465.19
331.572	456.19
331.801	465.19
332.03	446.19
332.258	462.19
332.486	433.19
332.715	454.19
332.943	446.19
333.172	442.19
333.4	458.19
333.629	489.19
333.857	484.19
334.085	473.19
334.314	500.19
334.542	489.19
334.771	519.19
334.999	496.19
335.227	465.19
335.455	451.19
335.684	466.19
335.912	463.19
336.14	462.19
336.369	442.19
336.597	473.19
336.825	462.19
337.053	444.19
337.281	446.19
337.51	462.19
337.738	424.19
337.966	416.19
338.194	437.19
338.422	441.19
338.65	437.19
338.878	441.19
339.106	439.19
339.334	423.19
339.562	451.19
339.79	440.19
340.018	424.19
340.246	441.19
340.474	427.19
340.702	423.19
340.93	421.19
341.158	443.19
341.386	415.19
341.614	436.19
341.842	435.19
342.07	417.19
342.298	428.19
342.526	396.19
342.754	405.19
342.981	415.19
343.209	434.19
343.437	429.19
343.665	434.19
343.893	450.19
344.12	471.19
344.348	464.19
344.576	459.19
344.804	442.19
345.031	449.19
345.259	433.19
345.487	446.19
345.714	422.19
345.942	405.19
346.17	419.19
346.397	416.19
346.625	399.19
346.853	421.19
347.08	424.19
347.308	405.19
347.535	432.19
347.763	424.19
347.99	416.19
348.218	392.19
348.445	403.19
348.673	398.19
348.9	411.19
349.128	395.19
349.355	404.19
349.583	371.19
349.81	391.19
350.037	395.19
350.265	378.19
350.492	391.19
350.72	385.19
350.947	414.19
351.174	373.19
351.402	414.19
351.629	401.19
351.856	396.19
352.083	407.19
352.311	397.19
352.538	384.19
352.765	402.19
352.992	395.19
353.22	408.19
353.447	409.19
353.674	388.19
353.901	384.19
354.128	396.19
354.355	380.19
354.583	400.19
354.81	382.19
355.037	389.19
355.264	401.19
355.491	385.19
355.718	367.19
355.945	377.19
356.172	380.19
356.399	389.19
356.626	384.19
356.853	367.19
357.08	394.19
357.307	391.19
357.534	388.19
357.761	401.19
357.988	401.19
358.215	384.19
358.441	396.19
358.668	385.19
358.895	392.19
359.122	404.19
359.349	379.19
359.576	387.19
359.802	409.19
360.029	425.19
360.256	424.19
360.483	441.19
360.709	391.19
360.936	414.19
361.163	396.19
361.39	410.19
361.616	387.19
361.843	415.19
362.07	421.19
362.296	388.19
362.523	374.19
362.749	404.19
362.976	410.19
363.203	382.19
363.429	386.19
363.656	396.19
363.882	409.19
364.109	389.19
364.335	379.19
364.562	403.19
364.788	376.19
365.015	393.19
365.241	389.19
365.468	398.19
365.694	396.19
365.92	387.19
366.147	399.19
366.373	391.19
366.599	394.19
366.826	384.19
367.052	379.19
367.278	376.19
367.505	400.19
367.731	395.19
367.957	386.19
368.184	396.19
368.41	377.19
368.636	405.19
368.862	397.19
369.089	403.19
369.315	395.19
369.541	401.19
369.767	409.19
369.993	404.19
370.219	409.19
370.445	375.19
370.672	410.19
370.898	392.19
371.124	395.19
371.35	397.19
371.576	386.19
371.802	392.19
372.028	385.19
372.254	392.19
372.48	388.19
372.706	404.19
372.932	409.19
373.158	416.19
373.384	400.19
373.61	388.19
373.835	404.19
374.061	413.19
374.287	404.19
374.513	427.19
374.739	412.19
374.965	419.19
375.191	403.19
375.416	436.19
375.642	418.19
375.868	417.19
376.094	408.19
376.319	396.19
376.545	403.19
376.771	412.19
376.997	392.19
377.222	398.19
377.448	402.19
377.674	397.19
377.899	400.19
378.125	406.19
378.35	409.19
378.576	393.19
378.802	383.19
379.027	394.19
379.253	405.19
379.478	397.19
379.704	397.19
379.929	397.19
380.155	414.19
380.38	394.19
380.606	396.19
380.831	406.19
381.057	404.19
381.282	408.19
381.507	406.19
381.733	409.19
381.958	407.19
382.184	402.19
382.409	411.19
382.634	415.19
382.86	405.19
383.085	417.19
383.31	419.19
383.535	433.19
383.761	442.19
383.986	407.19
384.211	433.19
384.436	424.19
384.662	437.19
384.887	421.19
385.112	438.19
385.337	469.19
385.562	455.19
385.787	467.19
386.013	493.19
386.238	470.19
386.463	459.19
386.688	453.19
386.913	460.19
387.138	458.19
387.363	465.19
387.588	443.19
387.813	445.19
388.038	449.19
388.263	465.19
388.488	452.19
388.713	457.19
388.938	435.19
389.163	479.19
389.387	461.19
389.612	450.19
389.837	472.19
390.062	453.19
390.287	452.19
390.512	470.19
390.736	467.19
390.961	469.19
391.186	481.19
391.411	498.19
391.636	479.19
391.86	480.19
392.085	491.19
392.31	490.19
392.534	479.19
392.759	485.19
392.984	461.19
393.208	489.19
393.433	472.19
393.658	487.19
393.882	489.19
394.107	479.19
394.331	461.19
394.556	475.19
394.78	475.19
395.005	477.19
395.229	473.19
395.454	479.19
395.678	508.19
395.903	522.19
396.127	502.19
396.352	495.19
396.576	491.19
396.801	482.19
397.025	483.19
397.249	483.19
397.474	505.19
397.698	499.19
397.922	514.19
398.147	523.19
398.371	532.19
398.595	522.19
398.82	519.19
399.044	564.19
399.268	588.19
399.492	633.19
399.717	683.19
399.941	687.19
400.165	695.19
400.389	660.19
400.613	610.19
400.837	578.19
401.062	559.19
401.286	551.19
401.51	538.19
401.734	559.19
401.958	554.19
402.182	557.19
402.406	568.19
402.63	569.19
402.854	568.19
403.078	566.19
403.302	564.19
403.526	564.19
403.75	586.19
403.974	587.19
404.198	584.19
404.422	588.19
404.645	583.19
404.869	587.19
405.093	610.19
405.317	619.19
405.541	654.19
405.765	601.19
405.988	599.19
406.212	590.19
406.436	600.19
406.66	607.19
406.883	620.19
407.107	608.19
407.331	663.19
407.555	708.19
407.778	703.19
408.002	669.19
408.226	639.19
408.449	635.19
408.673	619.19
408.896	660.19
409.12	675.19
409.344	611.19
409.567	589.19
409.791	585.19
410.014	576.19
410.238	551.19
410.461	567.19
410.685	544.19
410.908	571.19
411.132	583.19
411.355	621.19
411.578	585.19
411.802	553.19
412.025	564.19
412.249	572.19
412.472	583.19
412.695	599.19
412.919	612.19
413.142	555.19
413.365	539.19
413.589	565.19
413.812	538.19
414.035	549.19
414.258	525.19
414.482	541.19
414.705	522.19
414.928	548.19
415.151	529.19
415.374	535.19
415.597	512.19
415.821	514.19
416.044	519.19
416.267	539.19
416.49	535.19
416.713	524.19
416.936	523.19
417.159	538.19
417.382	523.19
417.605	515.19
417.828	539.19
418.051	556.19
418.274	534.19
418.497	533.19
418.72	553.19
418.943	532.19
419.166	565.19
419.389	571.19
419.611	564.19
419.834	546.19
420.057	586.19
420.28	547.19
420.503	558.19
420.726	541.19
420.948	544.19
421.171	571.19
421.394	601.19
421.617	551.19
421.839	531.19
422.062	548.19
422.285	547.19
422.507	599.19
422.73	652.19
422.953	607.19
423.175	551.19
423.398	575.19
423.621	553.19
423.843	589.19
424.066	599.19
424.288	572.19
424.511	580.19
424.733	634.19
424.956	706.19
425.178	649.19
425.401	666.19
425.623	655.19
425.846	601.19
426.068	561.19
426.291	553.19
426.513	559.19
426.735	559.19
426.958	587.19
427.18	636.19
427.402	743.19
427.625	789.19
427.847	684.19
428.069	623.19
428.292	579.19
428.514	545.19
428.736	534.19
428.958	536.19
429.181	516.19
429.403	506.19
429.625	514.19
429.847	537.19
430.069	601.19
430.292	608.19
430.514	515.19
430.736	519.19
430.958	514.19
431.18	503.19
431.402	485.19
431.624	491.19
431.846	498.19
432.068	497.19
432.29	528.19
432.512	500.19
432.734	508.19
432.956	513.19
433.178	503.19
433.4	516.19
433.622	525.19
433.844	499.19
434.066	526.19
434.287	503.19
434.509	512.19
434.731	528.19
434.953	526.19
435.175	534.19
435.397	556.19
435.618	566.19
435.84	568.19
436.062	646.19
436.284	688.19
436.505	604.19
436.727	556.19
436.949	520.19
437.17	515.19
437.392	501.19
437.614	512.19
437.835	537.19
438.057	583.19
438.278	664.19
438.5	707.19
438.721	746.19
438.943	715.19
439.165	570.19
439.386	549.19
439.608	545.19
439.829	548.19
440.05	554.19
440.272	578.19
440.493	563.19
440.715	547.19
440.936	524.19
441.158	527.19
441.379	516.19
441.6	523.19
441.822	549.19
442.043	584.19
442.264	645.19
442.486	689.19
442.707	615.19
442.928	563.19
443.149	566.19
443.371	563.19
443.592	627.19
443.813	664.19
444.034	736.19
444.255	664.19
444.476	584.19
444.698	605.19
444.919	600.19
445.14	707.19
445.361	650.19
445.582	593.19
445.803	631.19
446.024	684.19
446.245	697.19
446.466	634.19
446.687	571.19
446.908	521.19
447.129	516.19
447.35	487.19
447.571	489.19
447.792	507.19
448.013	498.19
448.234	529.19
448.455	542.19
448.675	624.19
448.896	714.19
449.117	607.19
449.338	583.19
449.559	666.19
449.779	742.19
450	620.19
450.221	526.19
450.442	521.19
450.662	476.19
450.883	474.19
451.104	464.19
451.324	482.19
451.545	465.19
451.766	475.19
451.986	457.19
452.207	454.19
452.428	448.19
452.648	437.19
452.869	469.19
453.089	457.19
453.31	477.19
453.53	460.19
453.751	469.19
453.971	449.19
454.192	451.19
454.412	446.19
454.633	455.19
454.853	444.19
455.073	449.19
455.294	435.19
455.514	530.19
455.734	515.19
455.955	444.19
456.175	426.19
456.395	436.19
456.616	425.19
456.836	437.19
457.056	427.19
457.276	440.19
457.497	441.19
457.717	425.19
457.937	457.19
458.157	440.19
458.377	438.19
458.598	454.19
458.818	492.19
459.038	524.19
459.258	570.19
459.478	517.19
459.698	516.19
459.918	499.19
460.138	498.19
460.358	515.19
460.578	525.19
460.798	549.19
461.018	564.19
461.238	525.19
461.458	537.19
461.678	528.19
461.898	538.19
462.118	540.19
462.338	544.19
462.558	573.19
462.777	580.19
462.997	617.19
463.217	633.19
463.437	643.19
463.657	611.19
463.876	578.19
464.096	576.19
464.316	590.19
464.536	588.19
464.755	557.19
464.975	580.19
465.195	570.19
465.414	584.19
465.634	542.19
465.854	539.19
466.073	531.19
466.293	506.19
466.512	487.19
466.732	479.19
466.951	477.19
467.171	494.19
467.391	490.19
467.61	473.19
467.829	484.19
468.049	482.19
468.268	495.19
468.488	468.19
468.707	456.19
468.927	485.19
469.146	456.19
469.365	471.19
469.585	469.19
469.804	466.19
470.023	495.19
470.243	483.19
470.462	488.19
470.681	480.19
470.901	486.19
471.12	488.19
471.339	501.19
471.558	482.19
471.777	491.19
471.997	465.19
472.216	481.19
472.435	475.19
472.654	515.19
472.873	484.19
473.092	481.19
473.311	461.19
473.53	474.19
473.749	471.19
473.968	497.19
474.187	567.19
474.406	589.19
474.625	523.19
474.844	500.19
475.063	497.19
475.282	484.19
475.501	483.19
475.72	487.19
475.939	476.19
476.158	504.19
476.377	503.19
476.596	489.19
476.814	489.19
477.033	496.19
477.252	515.19
477.471	503.19
477.69	521.19
477.908	518.19
478.127	543.19
478.346	553.19
478.564	552.19
478.783	568.19
479.002	593.19
479.22	573.19
479.439	588.19
479.658	555.19
479.876	595.19
480.095	573.19
480.313	604.19
480.532	594.19
480.751	598.19
480.969	620.19
481.188	628.19
481.406	642.19
481.624	596.19
481.843	568.19
482.061	573.19
482.28	560.19
482.498	549.19
482.717	538.19
482.935	566.19
483.153	551.19
483.372	568.19
483.59	554.19
483.808	537.19
484.027	552.19
484.245	577.19
484.463	560.19
484.681	564.19
484.9	576.19
485.118	561.19
485.336	545.19
485.554	593.19
485.772	572.19
485.99	556.19
486.209	579.19
486.427	572.19
486.645	583.19
486.863	591.19
487.081	593.19
487.299	614.19
487.517	575.19
487.735	593.19
487.953	589.19
488.171	579.19
488.389	607.19
488.607	594.19
488.825	577.19
489.043	609.19
489.261	578.19
489.479	612.19
489.696	600.19
489.914	613.19
490.132	609.19
490.35	635.19
490.568	595.19
490.786	596.19
491.003	636.19
491.221	631.19
491.439	640.19
491.657	647.19
491.874	647.19
492.092	644.19
492.31	655.19
492.527	624.19
492.745	656.19
492.963	683.19
493.18	654.19
493.398	658.19
493.615	676.19
493.833	675.19
494.05	677.19
494.268	658.19
494.485	655.19
494.703	663.19
494.92	671.19
495.138	670.19
495.355	665.19
495.573	676.19
495.79	684.19
496.008	687.19
496.225	677.19
496.442	682.19
496.66	689.19
496.877	666.19
497.094	685.19
497.312	706.19
497.529	721.19
497.746	740.19
497.963	726.19
498.181	756.19
498.398	803.19
498.615	817.19
498.832	823.19
499.049	831.19
499.267	917.19
499.484	943.19
499.701	977.19
499.918	1040.19
500.135	1093.19
500.352	1176.19
500.569	1215.19
500.786	1222.19
501.003	1173.19
501.22	1140.19
501.437	1071.19
501.654	1009.19
501.871	983.19
502.088	914.19
