Data from 1962.PennyLincolnUp.Lamp.En5.5.200Scan.071719.P1._HRD10591_13-55-20-061.txt Node
Date: Thu Jul 18 13:55:20 EDT 2019
User: cochatt
Spectrometer: HR+D1059
Trigger mode: 1
Integration Time (sec): 1.000000E-1
Scans to average: 1
Electric dark correction enabled: true
Nonlinearity correction enabled: false
Boxcar width: 0
XAxis mode: Wavelengths
Number of Pixels in Spectrum: 2048
>>>>>Begin Spectral Data<<<<<
223.165	1.38
223.4	1.38
223.635	1.38
223.869	-16.62
224.104	-10.62
224.338	-12.62
224.573	-18.62
224.808	-20.62
225.042	-9.62
225.277	2.38
225.511	-5.62
225.746	-8.62
225.98	13.38
226.215	3.38
226.449	24.38
226.683	9.38
226.918	17.38
227.152	31.38
227.387	34.38
227.621	52.38
227.856	49.38
228.09	50.38
228.324	51.38
228.559	42.38
228.793	47.38
229.027	89.38
229.262	90.38
229.496	104.38
229.73	107.38
229.964	125.38
230.199	111.38
230.433	115.38
230.667	92.38
230.901	115.38
231.136	117.38
231.37	113.38
231.604	98.38
231.838	115.38
232.072	100.38
232.306	104.38
232.541	108.38
232.775	117.38
233.009	115.38
233.243	113.38
233.477	96.38
233.711	127.38
233.945	119.38
234.179	122.38
234.413	127.38
234.647	103.38
234.881	117.38
235.115	104.38
235.349	105.38
235.583	114.38
235.817	109.38
236.051	104.38
236.285	125.38
236.519	109.38
236.753	121.38
236.987	152.38
237.221	156.38
237.455	214.38
237.689	155.38
237.922	122.38
238.156	122.38
238.39	128.38
238.624	119.38
238.858	135.38
239.091	118.38
239.325	116.38
239.559	108.38
239.793	128.38
240.027	123.38
240.26	139.38
240.494	150.38
240.728	132.38
240.961	141.38
241.195	137.38
241.429	138.38
241.662	134.38
241.896	131.38
242.13	117.38
242.363	128.38
242.597	129.38
242.83	132.38
243.064	151.38
243.298	123.38
243.531	147.38
243.765	132.38
243.998	143.38
244.232	137.38
244.465	149.38
244.699	143.38
244.932	144.38
245.166	153.38
245.399	134.38
245.633	138.38
245.866	158.38
246.099	119.38
246.333	141.38
246.566	153.38
246.8	124.38
247.033	134.38
247.266	141.38
247.5	142.38
247.733	162.38
247.966	155.38
248.2	157.38
248.433	161.38
248.666	149.38
248.899	151.38
249.133	181.38
249.366	186.38
249.599	176.38
249.832	175.38
250.066	164.38
250.299	163.38
250.532	167.38
250.765	192.38
250.998	211.38
251.231	210.38
251.465	188.38
251.698	193.38
251.931	187.38
252.164	166.38
252.397	178.38
252.63	192.38
252.863	179.38
253.096	208.38
253.329	209.38
253.562	194.38
253.795	201.38
254.028	206.38
254.261	194.38
254.494	196.38
254.727	228.38
254.96	237.38
255.193	233.38
255.426	204.38
255.659	205.38
255.892	196.38
256.124	209.38
256.357	191.38
256.59	209.38
256.823	211.38
257.056	197.38
257.289	201.38
257.521	192.38
257.754	183.38
257.987	203.38
258.22	195.38
258.452	200.38
258.685	194.38
258.918	180.38
259.151	211.38
259.383	180.38
259.616	202.38
259.849	210.38
260.081	207.38
260.314	227.38
260.547	229.38
260.779	234.38
261.012	207.38
261.244	225.38
261.477	214.38
261.71	197.38
261.942	202.38
262.175	210.38
262.407	236.38
262.64	193.38
262.872	195.38
263.105	206.38
263.337	205.38
263.57	204.38
263.802	189.38
264.035	206.38
264.267	202.38
264.499	204.38
264.732	211.38
264.964	203.38
265.197	229.38
265.429	206.38
265.661	210.38
265.894	210.38
266.126	227.38
266.358	217.38
266.591	209.38
266.823	220.38
267.055	233.38
267.287	221.38
267.52	216.38
267.752	223.38
267.984	212.38
268.216	217.38
268.448	244.38
268.681	243.38
268.913	241.38
269.145	246.38
269.377	253.38
269.609	283.38
269.841	276.38
270.073	266.38
270.306	281.38
270.538	284.38
270.77	309.38
271.002	295.38
271.234	279.38
271.466	270.38
271.698	266.38
271.93	281.38
272.162	292.38
272.394	297.38
272.626	293.38
272.858	281.38
273.09	266.38
273.322	253.38
273.553	268.38
273.785	234.38
274.017	263.38
274.249	252.38
274.481	259.38
274.713	251.38
274.945	280.38
275.176	266.38
275.408	269.38
275.64	253.38
275.872	272.38
276.104	264.38
276.335	260.38
276.567	258.38
276.799	280.38
277.031	292.38
277.262	281.38
277.494	286.38
277.726	289.38
277.957	283.38
278.189	292.38
278.421	263.38
278.652	263.38
278.884	272.38
279.115	273.38
279.347	260.38
279.579	268.38
279.81	267.38
280.042	255.38
280.273	289.38
280.505	273.38
280.736	275.38
280.968	263.38
281.199	281.38
281.431	285.38
281.662	274.38
281.894	267.38
282.125	274.38
282.356	265.38
282.588	284.38
282.819	301.38
283.051	283.38
283.282	295.38
283.513	274.38
283.745	281.38
283.976	287.38
284.207	283.38
284.439	277.38
284.67	300.38
284.901	285.38
285.132	283.38
285.364	292.38
285.595	290.38
285.826	282.38
286.057	283.38
286.288	286.38
286.52	288.38
286.751	277.38
286.982	287.38
287.213	295.38
287.444	295.38
287.675	279.38
287.906	301.38
288.138	296.38
288.369	313.38
288.6	305.38
288.831	285.38
289.062	303.38
289.293	306.38
289.524	285.38
289.755	313.38
289.986	294.38
290.217	316.38
290.448	294.38
290.679	304.38
290.91	308.38
291.141	303.38
291.371	294.38
291.602	299.38
291.833	322.38
292.064	325.38
292.295	322.38
292.526	323.38
292.757	303.38
292.987	311.38
293.218	300.38
293.449	300.38
293.68	312.38
293.91	299.38
294.141	287.38
294.372	301.38
294.603	315.38
294.833	310.38
295.064	307.38
295.295	304.38
295.525	283.38
295.756	301.38
295.987	298.38
296.217	331.38
296.448	320.38
296.679	339.38
296.909	317.38
297.14	303.38
297.37	328.38
297.601	322.38
297.831	300.38
298.062	311.38
298.292	309.38
298.523	328.38
298.753	324.38
298.984	312.38
299.214	324.38
299.445	325.38
299.675	320.38
299.905	305.38
300.136	335.38
300.366	324.38
300.597	324.38
300.827	328.38
301.057	342.38
301.288	333.38
301.518	332.38
301.748	332.38
301.979	342.38
302.209	327.38
302.439	337.38
302.669	329.38
302.9	332.38
303.13	342.38
303.36	341.38
303.59	353.38
303.82	338.38
304.051	338.38
304.281	343.38
304.511	330.38
304.741	313.38
304.971	341.38
305.201	319.38
305.431	315.38
305.661	341.38
305.891	342.38
306.121	340.38
306.352	320.38
306.582	318.38
306.812	332.38
307.042	355.38
307.272	329.38
307.502	323.38
307.731	335.38
307.961	329.38
308.191	340.38
308.421	349.38
308.651	329.38
308.881	340.38
309.111	338.38
309.341	355.38
309.571	340.38
309.8	357.38
310.03	351.38
310.26	375.38
310.49	351.38
310.72	369.38
310.949	353.38
311.179	364.38
311.409	372.38
311.639	371.38
311.868	376.38
312.098	371.38
312.328	389.38
312.557	380.38
312.787	381.38
313.017	392.38
313.246	369.38
313.476	356.38
313.706	381.38
313.935	383.38
314.165	381.38
314.394	395.38
314.624	405.38
314.853	372.38
315.083	377.38
315.312	376.38
315.542	383.38
315.771	367.38
316.001	379.38
316.23	394.38
316.46	374.38
316.689	372.38
316.919	383.38
317.148	383.38
317.377	396.38
317.607	404.38
317.836	378.38
318.065	359.38
318.295	363.38
318.524	383.38
318.753	366.38
318.983	373.38
319.212	377.38
319.441	376.38
319.67	355.38
319.9	375.38
320.129	379.38
320.358	380.38
320.587	376.38
320.816	378.38
321.046	396.38
321.275	405.38
321.504	397.38
321.733	385.38
321.962	389.38
322.191	414.38
322.42	422.38
322.649	415.38
322.878	433.38
323.108	433.38
323.337	439.38
323.566	439.38
323.795	459.38
324.024	517.38
324.253	576.38
324.482	725.38
324.71	1076.38
324.939	1534.38
325.168	1344.38
325.397	757.38
325.626	571.38
325.855	489.38
326.084	460.38
326.313	481.38
326.542	463.38
326.77	499.38
326.999	566.38
327.228	691.38
327.457	1013.38
327.686	1185.38
327.914	871.38
328.143	613.38
328.372	532.38
328.6	492.38
328.829	480.38
329.058	492.38
329.287	505.38
329.515	493.38
329.744	462.38
329.972	476.38
330.201	460.38
330.43	502.38
330.658	533.38
330.887	511.38
331.115	498.38
331.344	482.38
331.572	467.38
331.801	474.38
332.03	465.38
332.258	459.38
332.486	474.38
332.715	456.38
332.943	490.38
333.172	463.38
333.4	474.38
333.629	488.38
333.857	491.38
334.085	491.38
334.314	516.38
334.542	526.38
334.771	523.38
334.999	501.38
335.227	484.38
335.455	446.38
335.684	463.38
335.912	471.38
336.14	449.38
336.369	447.38
336.597	465.38
336.825	457.38
337.053	457.38
337.281	460.38
337.51	443.38
337.738	427.38
337.966	419.38
338.194	457.38
338.422	423.38
338.65	453.38
338.878	445.38
339.106	436.38
339.334	434.38
339.562	428.38
339.79	421.38
340.018	424.38
340.246	423.38
340.474	422.38
340.702	429.38
340.93	415.38
341.158	431.38
341.386	424.38
341.614	432.38
341.842	442.38
342.07	424.38
342.298	456.38
342.526	424.38
342.754	428.38
342.981	426.38
343.209	433.38
343.437	429.38
343.665	441.38
343.893	456.38
344.12	447.38
344.348	451.38
344.576	480.38
344.804	455.38
345.031	451.38
345.259	445.38
345.487	424.38
345.714	414.38
345.942	424.38
346.17	423.38
346.397	400.38
346.625	423.38
346.853	411.38
347.08	402.38
347.308	416.38
347.535	423.38
347.763	423.38
347.99	422.38
348.218	421.38
348.445	429.38
348.673	395.38
348.9	423.38
349.128	407.38
349.355	407.38
349.583	413.38
349.81	416.38
350.037	409.38
350.265	408.38
350.492	411.38
350.72	401.38
350.947	386.38
351.174	421.38
351.402	421.38
351.629	401.38
351.856	385.38
352.083	408.38
352.311	408.38
352.538	425.38
352.765	405.38
352.992	408.38
353.22	405.38
353.447	433.38
353.674	413.38
353.901	396.38
354.128	408.38
354.355	409.38
354.583	394.38
354.81	388.38
355.037	374.38
355.264	387.38
355.491	391.38
355.718	413.38
355.945	403.38
356.172	416.38
356.399	411.38
356.626	397.38
356.853	385.38
357.08	397.38
357.307	388.38
357.534	404.38
357.761	397.38
357.988	403.38
358.215	396.38
358.441	392.38
358.668	397.38
358.895	405.38
359.122	367.38
359.349	403.38
359.576	432.38
359.802	440.38
360.029	439.38
360.256	443.38
360.483	415.38
360.709	428.38
360.936	431.38
361.163	395.38
361.39	392.38
361.616	407.38
361.843	415.38
362.07	407.38
362.296	413.38
362.523	415.38
362.749	390.38
362.976	398.38
363.203	409.38
363.429	409.38
363.656	393.38
363.882	379.38
364.109	413.38
364.335	409.38
364.562	388.38
364.788	392.38
365.015	403.38
365.241	381.38
365.468	402.38
365.694	416.38
365.92	398.38
366.147	378.38
366.373	383.38
366.599	387.38
366.826	388.38
367.052	402.38
367.278	411.38
367.505	413.38
367.731	390.38
367.957	393.38
368.184	407.38
368.41	411.38
368.636	406.38
368.862	413.38
369.089	403.38
369.315	408.38
369.541	389.38
369.767	423.38
369.993	404.38
370.219	405.38
370.445	389.38
370.672	417.38
370.898	399.38
371.124	412.38
371.35	398.38
371.576	405.38
371.802	417.38
372.028	427.38
372.254	401.38
372.48	403.38
372.706	408.38
372.932	421.38
373.158	431.38
373.384	435.38
373.61	403.38
373.835	421.38
374.061	414.38
374.287	398.38
374.513	413.38
374.739	407.38
374.965	419.38
375.191	440.38
375.416	428.38
375.642	408.38
375.868	422.38
376.094	415.38
376.319	424.38
376.545	433.38
376.771	403.38
376.997	397.38
377.222	409.38
377.448	411.38
377.674	400.38
377.899	392.38
378.125	408.38
378.35	414.38
378.576	420.38
378.802	418.38
379.027	415.38
379.253	410.38
379.478	408.38
379.704	389.38
379.929	405.38
380.155	409.38
380.38	411.38
380.606	409.38
380.831	412.38
381.057	392.38
381.282	404.38
381.507	427.38
381.733	437.38
381.958	399.38
382.184	421.38
382.409	422.38
382.634	410.38
382.86	424.38
383.085	424.38
383.31	417.38
383.535	427.38
383.761	404.38
383.986	437.38
384.211	443.38
384.436	433.38
384.662	434.38
384.887	469.38
385.112	462.38
385.337	451.38
385.562	462.38
385.787	469.38
386.013	481.38
386.238	472.38
386.463	466.38
386.688	475.38
386.913	474.38
387.138	471.38
387.363	444.38
387.588	460.38
387.813	472.38
388.038	477.38
388.263	468.38
388.488	468.38
388.713	469.38
388.938	469.38
389.163	467.38
389.387	443.38
389.612	466.38
389.837	444.38
390.062	470.38
390.287	456.38
390.512	456.38
390.736	450.38
390.961	473.38
391.186	472.38
391.411	510.38
391.636	485.38
391.86	495.38
392.085	523.38
392.31	488.38
392.534	486.38
392.759	491.38
392.984	473.38
393.208	484.38
393.433	481.38
393.658	471.38
393.882	448.38
394.107	450.38
394.331	491.38
394.556	477.38
394.78	472.38
395.005	487.38
395.229	474.38
395.454	472.38
395.678	499.38
395.903	509.38
396.127	509.38
396.352	510.38
396.576	499.38
396.801	484.38
397.025	492.38
397.249	501.38
397.474	497.38
397.698	497.38
397.922	536.38
398.147	537.38
398.371	551.38
398.595	547.38
398.82	527.38
399.044	551.38
399.268	581.38
399.492	623.38
399.717	699.38
399.941	719.38
400.165	684.38
400.389	670.38
400.613	630.38
400.837	572.38
401.062	560.38
401.286	550.38
401.51	565.38
401.734	557.38
401.958	561.38
402.182	569.38
402.406	542.38
402.63	555.38
402.854	579.38
403.078	574.38
403.302	570.38
403.526	592.38
403.75	593.38
403.974	576.38
404.198	578.38
404.422	575.38
404.645	585.38
404.869	604.38
405.093	614.38
405.317	640.38
405.541	679.38
405.765	633.38
405.988	558.38
406.212	578.38
406.436	630.38
406.66	632.38
406.883	621.38
407.107	643.38
407.331	691.38
407.555	745.38
407.778	705.38
408.002	661.38
408.226	635.38
408.449	625.38
408.673	620.38
408.896	623.38
409.12	659.38
409.344	636.38
409.567	593.38
409.791	567.38
410.014	573.38
410.238	559.38
410.461	556.38
410.685	608.38
410.908	583.38
411.132	612.38
411.355	623.38
411.578	612.38
411.802	572.38
412.025	570.38
412.249	584.38
412.472	598.38
412.695	614.38
412.919	603.38
413.142	574.38
413.365	586.38
413.589	566.38
413.812	537.38
414.035	545.38
414.258	525.38
414.482	566.38
414.705	545.38
414.928	555.38
415.151	559.38
415.374	526.38
415.597	529.38
415.821	546.38
416.044	535.38
416.267	526.38
416.49	541.38
416.713	541.38
416.936	530.38
417.159	517.38
417.382	521.38
417.605	529.38
417.828	565.38
418.051	547.38
418.274	548.38
418.497	563.38
418.72	532.38
418.943	546.38
419.166	555.38
419.389	604.38
419.611	582.38
419.834	569.38
420.057	567.38
420.28	550.38
420.503	543.38
420.726	544.38
420.948	573.38
421.171	600.38
421.394	609.38
421.617	575.38
421.839	543.38
422.062	565.38
422.285	584.38
422.507	609.38
422.73	636.38
422.953	634.38
423.175	589.38
423.398	570.38
423.621	596.38
423.843	592.38
424.066	568.38
424.288	587.38
424.511	600.38
424.733	639.38
424.956	707.38
425.178	668.38
425.401	680.38
425.623	682.38
425.846	630.38
426.068	588.38
426.291	540.38
426.513	575.38
426.735	564.38
426.958	619.38
427.18	653.38
427.402	772.38
427.625	832.38
427.847	712.38
428.069	652.38
428.292	598.38
428.514	545.38
428.736	558.38
428.958	550.38
429.181	520.38
429.403	499.38
429.625	497.38
429.847	545.38
430.069	593.38
430.292	580.38
430.514	540.38
430.736	539.38
430.958	526.38
431.18	534.38
431.402	510.38
431.624	489.38
431.846	482.38
432.068	475.38
432.29	495.38
432.512	515.38
432.734	526.38
432.956	517.38
433.178	508.38
433.4	529.38
433.622	524.38
433.844	513.38
434.066	501.38
434.287	533.38
434.509	541.38
434.731	541.38
434.953	521.38
435.175	546.38
435.397	577.38
435.618	563.38
435.84	596.38
436.062	665.38
436.284	734.38
436.505	618.38
436.727	597.38
436.949	540.38
437.17	534.38
437.392	515.38
437.614	536.38
437.835	544.38
438.057	610.38
438.278	689.38
438.5	695.38
438.721	756.38
438.943	721.38
439.165	609.38
439.386	536.38
439.608	565.38
439.829	547.38
440.05	561.38
440.272	612.38
440.493	592.38
440.715	524.38
440.936	548.38
441.158	554.38
441.379	555.38
441.6	553.38
441.822	588.38
442.043	621.38
442.264	673.38
442.486	673.38
442.707	631.38
442.928	600.38
443.149	583.38
443.371	613.38
443.592	616.38
443.813	689.38
444.034	763.38
444.255	665.38
444.476	598.38
444.698	594.38
444.919	618.38
445.14	709.38
445.361	641.38
445.582	610.38
445.803	638.38
446.024	727.38
446.245	714.38
446.466	644.38
446.687	585.38
446.908	545.38
447.129	545.38
447.35	524.38
447.571	533.38
447.792	520.38
448.013	519.38
448.234	526.38
448.455	560.38
448.675	652.38
448.896	747.38
449.117	634.38
449.338	591.38
449.559	693.38
449.779	776.38
450	631.38
450.221	545.38
450.442	519.38
450.662	503.38
450.883	500.38
451.104	499.38
451.324	485.38
451.545	500.38
451.766	478.38
451.986	473.38
452.207	488.38
452.428	457.38
452.648	470.38
452.869	468.38
453.089	450.38
453.31	475.38
453.53	474.38
453.751	444.38
453.971	437.38
454.192	478.38
454.412	459.38
454.633	461.38
454.853	465.38
455.073	461.38
455.294	493.38
455.514	534.38
455.734	517.38
455.955	473.38
456.175	432.38
456.395	445.38
456.616	457.38
456.836	454.38
457.056	429.38
457.276	447.38
457.497	461.38
457.717	456.38
457.937	433.38
458.157	458.38
458.377	458.38
458.598	498.38
458.818	523.38
459.038	543.38
459.258	594.38
459.478	557.38
459.698	484.38
459.918	524.38
460.138	504.38
460.358	549.38
460.578	529.38
460.798	549.38
461.018	552.38
461.238	551.38
461.458	567.38
461.678	544.38
461.898	554.38
462.118	551.38
462.338	565.38
462.558	565.38
462.777	585.38
462.997	624.38
463.217	651.38
463.437	654.38
463.657	621.38
463.876	597.38
464.096	579.38
464.316	607.38
464.536	601.38
464.755	604.38
464.975	571.38
465.195	601.38
465.414	631.38
465.634	587.38
465.854	536.38
466.073	535.38
466.293	500.38
466.512	492.38
466.732	505.38
466.951	496.38
467.171	484.38
467.391	490.38
467.61	488.38
467.829	483.38
468.049	481.38
468.268	488.38
468.488	498.38
468.707	476.38
468.927	469.38
469.146	464.38
469.365	474.38
469.585	469.38
469.804	483.38
470.023	482.38
470.243	526.38
470.462	497.38
470.681	489.38
470.901	515.38
471.12	511.38
471.339	513.38
471.558	504.38
471.777	489.38
471.997	502.38
472.216	493.38
472.435	495.38
472.654	503.38
472.873	490.38
473.092	486.38
473.311	486.38
473.53	496.38
473.749	483.38
473.968	500.38
474.187	591.38
474.406	602.38
474.625	525.38
474.844	521.38
475.063	495.38
475.282	468.38
475.501	483.38
475.72	502.38
475.939	465.38
476.158	497.38
476.377	491.38
476.596	491.38
476.814	490.38
477.033	508.38
477.252	509.38
477.471	511.38
477.69	483.38
477.908	536.38
478.127	519.38
478.346	548.38
478.564	571.38
478.783	563.38
479.002	560.38
479.22	549.38
479.439	584.38
479.658	593.38
479.876	588.38
480.095	588.38
480.313	617.38
480.532	634.38
480.751	605.38
480.969	628.38
481.188	651.38
481.406	635.38
481.624	603.38
481.843	564.38
482.061	573.38
482.28	569.38
482.498	550.38
482.717	565.38
482.935	571.38
483.153	559.38
483.372	563.38
483.59	578.38
483.808	547.38
484.027	555.38
484.245	563.38
484.463	559.38
484.681	557.38
484.9	588.38
485.118	573.38
485.336	575.38
485.554	601.38
485.772	602.38
485.99	584.38
486.209	588.38
486.427	598.38
486.645	595.38
486.863	614.38
487.081	591.38
487.299	614.38
487.517	607.38
487.735	586.38
487.953	588.38
488.171	572.38
488.389	592.38
488.607	599.38
488.825	578.38
489.043	615.38
489.261	604.38
489.479	601.38
489.696	602.38
489.914	610.38
490.132	610.38
490.35	610.38
490.568	623.38
490.786	641.38
491.003	635.38
491.221	646.38
491.439	624.38
491.657	660.38
491.874	677.38
492.092	672.38
492.31	671.38
492.527	657.38
492.745	639.38
492.963	681.38
493.18	688.38
493.398	678.38
493.615	685.38
493.833	676.38
494.05	673.38
494.268	672.38
494.485	683.38
494.703	692.38
494.92	689.38
495.138	681.38
495.355	683.38
495.573	693.38
495.79	667.38
496.008	675.38
496.225	681.38
496.442	678.38
496.66	673.38
496.877	699.38
497.094	742.38
497.312	695.38
497.529	728.38
497.746	749.38
497.963	777.38
498.181	793.38
498.398	795.38
498.615	824.38
498.832	842.38
499.049	857.38
499.267	919.38
499.484	953.38
499.701	995.38
499.918	1051.38
500.135	1132.38
500.352	1193.38
500.569	1241.38
500.786	1231.38
501.003	1239.38
501.22	1151.38
501.437	1089.38
501.654	1002.38
501.871	989.38
