Data from 1962.PennyLincolnUp.Lamp.En5.5.200Scan.071719.P1._HRD10591_13-54-07-060.txt Node
Date: Thu Jul 18 13:54:07 EDT 2019
User: cochatt
Spectrometer: HR+D1059
Trigger mode: 1
Integration Time (sec): 1.000000E-1
Scans to average: 1
Electric dark correction enabled: true
Nonlinearity correction enabled: false
Boxcar width: 0
XAxis mode: Wavelengths
Number of Pixels in Spectrum: 2048
>>>>>Begin Spectral Data<<<<<
223.165	-15.44
223.4	-15.44
223.635	-15.44
223.869	-13.44
224.104	-13.44
224.338	-11.44
224.573	-7.44
224.808	1.56
225.042	-8.44
225.277	-12.44
225.511	-3.44
225.746	-8.44
225.98	14.56
226.215	8.56
226.449	13.56
226.683	15.56
226.918	21.56
227.152	18.56
227.387	25.56
227.621	41.56
227.856	54.56
228.09	64.56
228.324	53.56
228.559	54.56
228.793	68.56
229.027	95.56
229.262	96.56
229.496	105.56
229.73	107.56
229.964	122.56
230.199	120.56
230.433	107.56
230.667	101.56
230.901	99.56
231.136	112.56
231.37	122.56
231.604	114.56
231.838	108.56
232.072	125.56
232.306	114.56
232.541	105.56
232.775	111.56
233.009	108.56
233.243	119.56
233.477	121.56
233.711	118.56
233.945	115.56
234.179	114.56
234.413	110.56
234.647	104.56
234.881	117.56
235.115	111.56
235.349	123.56
235.583	128.56
235.817	118.56
236.051	122.56
236.285	120.56
236.519	107.56
236.753	130.56
236.987	114.56
237.221	137.56
237.455	165.56
237.689	148.56
237.922	148.56
238.156	129.56
238.39	124.56
238.624	118.56
238.858	129.56
239.091	122.56
239.325	120.56
239.559	96.56
239.793	120.56
240.027	125.56
240.26	127.56
240.494	120.56
240.728	149.56
240.961	132.56
241.195	134.56
241.429	131.56
241.662	112.56
241.896	146.56
242.13	122.56
242.363	137.56
242.597	128.56
242.83	138.56
243.064	128.56
243.298	139.56
243.531	145.56
243.765	141.56
243.998	139.56
244.232	133.56
244.465	142.56
244.699	129.56
244.932	140.56
245.166	144.56
245.399	137.56
245.633	142.56
245.866	137.56
246.099	155.56
246.333	142.56
246.566	137.56
246.8	153.56
247.033	149.56
247.266	145.56
247.5	142.56
247.733	154.56
247.966	153.56
248.2	158.56
248.433	157.56
248.666	154.56
248.899	171.56
249.133	176.56
249.366	178.56
249.599	177.56
249.832	173.56
250.066	169.56
250.299	169.56
250.532	170.56
250.765	189.56
250.998	184.56
251.231	194.56
251.465	182.56
251.698	186.56
251.931	192.56
252.164	193.56
252.397	182.56
252.63	178.56
252.863	189.56
253.096	187.56
253.329	197.56
253.562	209.56
253.795	189.56
254.028	200.56
254.261	176.56
254.494	192.56
254.727	220.56
254.96	215.56
255.193	224.56
255.426	217.56
255.659	214.56
255.892	179.56
256.124	201.56
256.357	191.56
256.59	209.56
256.823	195.56
257.056	196.56
257.289	188.56
257.521	207.56
257.754	194.56
257.987	192.56
258.22	195.56
258.452	209.56
258.685	189.56
258.918	177.56
259.151	195.56
259.383	190.56
259.616	208.56
259.849	206.56
260.081	206.56
260.314	227.56
260.547	217.56
260.779	216.56
261.012	225.56
261.244	222.56
261.477	201.56
261.71	201.56
261.942	196.56
262.175	212.56
262.407	199.56
262.64	198.56
262.872	216.56
263.105	208.56
263.337	193.56
263.57	209.56
263.802	197.56
264.035	187.56
264.267	191.56
264.499	209.56
264.732	216.56
264.964	193.56
265.197	208.56
265.429	208.56
265.661	195.56
265.894	194.56
266.126	188.56
266.358	230.56
266.591	214.56
266.823	202.56
267.055	228.56
267.287	203.56
267.52	218.56
267.752	213.56
267.984	205.56
268.216	214.56
268.448	225.56
268.681	221.56
268.913	252.56
269.145	228.56
269.377	236.56
269.609	235.56
269.841	236.56
270.073	244.56
270.306	256.56
270.538	264.56
270.77	272.56
271.002	254.56
271.234	265.56
271.466	259.56
271.698	274.56
271.93	265.56
272.162	266.56
272.394	282.56
272.626	257.56
272.858	268.56
273.09	252.56
273.322	250.56
273.553	252.56
273.785	265.56
274.017	243.56
274.249	258.56
274.481	260.56
274.713	256.56
274.945	245.56
275.176	260.56
275.408	244.56
275.64	252.56
275.872	252.56
276.104	257.56
276.335	265.56
276.567	242.56
276.799	246.56
277.031	280.56
277.262	277.56
277.494	277.56
277.726	259.56
277.957	276.56
278.189	266.56
278.421	268.56
278.652	258.56
278.884	265.56
279.115	259.56
279.347	275.56
279.579	254.56
279.81	247.56
280.042	244.56
280.273	250.56
280.505	273.56
280.736	257.56
280.968	268.56
281.199	276.56
281.431	261.56
281.662	276.56
281.894	253.56
282.125	253.56
282.356	271.56
282.588	287.56
282.819	270.56
283.051	294.56
283.282	275.56
283.513	275.56
283.745	275.56
283.976	274.56
284.207	266.56
284.439	286.56
284.67	289.56
284.901	274.56
285.132	275.56
285.364	274.56
285.595	270.56
285.826	281.56
286.057	280.56
286.288	284.56
286.52	290.56
286.751	260.56
286.982	309.56
287.213	280.56
287.444	283.56
287.675	281.56
287.906	281.56
288.138	308.56
288.369	296.56
288.6	291.56
288.831	285.56
289.062	279.56
289.293	293.56
289.524	295.56
289.755	283.56
289.986	296.56
290.217	280.56
290.448	288.56
290.679	289.56
290.91	293.56
291.141	282.56
291.371	302.56
291.602	315.56
291.833	306.56
292.064	287.56
292.295	280.56
292.526	278.56
292.757	284.56
292.987	295.56
293.218	304.56
293.449	292.56
293.68	292.56
293.91	284.56
294.141	277.56
294.372	308.56
294.603	296.56
294.833	286.56
295.064	292.56
295.295	300.56
295.525	298.56
295.756	298.56
295.987	299.56
296.217	315.56
296.448	314.56
296.679	324.56
296.909	302.56
297.14	296.56
297.37	306.56
297.601	284.56
297.831	280.56
298.062	300.56
298.292	311.56
298.523	314.56
298.753	324.56
298.984	304.56
299.214	315.56
299.445	309.56
299.675	318.56
299.905	307.56
300.136	309.56
300.366	305.56
300.597	319.56
300.827	340.56
301.057	322.56
301.288	316.56
301.518	330.56
301.748	337.56
301.979	357.56
302.209	337.56
302.439	330.56
302.669	338.56
302.9	340.56
303.13	334.56
303.36	323.56
303.59	327.56
303.82	339.56
304.051	313.56
304.281	339.56
304.511	334.56
304.741	346.56
304.971	322.56
305.201	316.56
305.431	318.56
305.661	344.56
305.891	338.56
306.121	339.56
306.352	327.56
306.582	340.56
306.812	341.56
307.042	340.56
307.272	313.56
307.502	329.56
307.731	344.56
307.961	328.56
308.191	322.56
308.421	333.56
308.651	337.56
308.881	328.56
309.111	323.56
309.341	325.56
309.571	323.56
309.8	333.56
310.03	336.56
310.26	355.56
310.49	346.56
310.72	355.56
310.949	350.56
311.179	357.56
311.409	351.56
311.639	354.56
311.868	369.56
312.098	368.56
312.328	369.56
312.557	379.56
312.787	368.56
313.017	381.56
313.246	361.56
313.476	370.56
313.706	360.56
313.935	370.56
314.165	378.56
314.394	373.56
314.624	368.56
314.853	364.56
315.083	382.56
315.312	365.56
315.542	369.56
315.771	382.56
316.001	366.56
316.23	355.56
316.46	357.56
316.689	372.56
316.919	368.56
317.148	377.56
317.377	355.56
317.607	368.56
317.836	360.56
318.065	370.56
318.295	348.56
318.524	356.56
318.753	352.56
318.983	366.56
319.212	364.56
319.441	350.56
319.67	376.56
319.9	365.56
320.129	351.56
320.358	370.56
320.587	370.56
320.816	370.56
321.046	376.56
321.275	377.56
321.504	376.56
321.733	380.56
321.962	376.56
322.191	378.56
322.42	395.56
322.649	387.56
322.878	390.56
323.108	409.56
323.337	405.56
323.566	433.56
323.795	457.56
324.024	477.56
324.253	514.56
324.482	662.56
324.71	952.56
324.939	1279.56
325.168	1184.56
325.397	658.56
325.626	522.56
325.855	466.56
326.084	422.56
326.313	430.56
326.542	438.56
326.77	453.56
326.999	512.56
327.228	637.56
327.457	854.56
327.686	1048.56
327.914	722.56
328.143	535.56
328.372	488.56
328.6	488.56
328.829	474.56
329.058	460.56
329.287	477.56
329.515	469.56
329.744	452.56
329.972	446.56
330.201	438.56
330.43	466.56
330.658	465.56
330.887	488.56
331.115	488.56
331.344	460.56
331.572	433.56
331.801	446.56
332.03	464.56
332.258	448.56
332.486	440.56
332.715	428.56
332.943	451.56
333.172	471.56
333.4	466.56
333.629	469.56
333.857	461.56
334.085	473.56
334.314	501.56
334.542	517.56
334.771	505.56
334.999	472.56
335.227	463.56
335.455	470.56
335.684	465.56
335.912	476.56
336.14	444.56
336.369	445.56
336.597	448.56
336.825	441.56
337.053	434.56
337.281	417.56
337.51	420.56
337.738	439.56
337.966	424.56
338.194	414.56
338.422	442.56
338.65	439.56
338.878	427.56
339.106	401.56
339.334	406.56
339.562	412.56
339.79	404.56
340.018	396.56
340.246	418.56
340.474	408.56
340.702	413.56
340.93	421.56
341.158	397.56
341.386	406.56
341.614	427.56
341.842	409.56
342.07	412.56
342.298	405.56
342.526	405.56
342.754	397.56
342.981	404.56
343.209	413.56
343.437	434.56
343.665	447.56
343.893	441.56
344.12	437.56
344.348	433.56
344.576	425.56
344.804	433.56
345.031	426.56
345.259	419.56
345.487	424.56
345.714	403.56
345.942	406.56
346.17	406.56
346.397	412.56
346.625	405.56
346.853	398.56
347.08	390.56
347.308	384.56
347.535	394.56
347.763	413.56
347.99	393.56
348.218	402.56
348.445	406.56
348.673	390.56
348.9	410.56
349.128	417.56
349.355	404.56
349.583	392.56
349.81	376.56
350.037	392.56
350.265	389.56
350.492	391.56
350.72	408.56
350.947	386.56
351.174	386.56
351.402	401.56
351.629	394.56
351.856	411.56
352.083	403.56
352.311	404.56
352.538	397.56
352.765	393.56
352.992	384.56
353.22	380.56
353.447	388.56
353.674	389.56
353.901	385.56
354.128	392.56
354.355	386.56
354.583	378.56
354.81	373.56
355.037	404.56
355.264	374.56
355.491	392.56
355.718	388.56
355.945	390.56
356.172	373.56
356.399	362.56
356.626	376.56
356.853	378.56
357.08	374.56
357.307	375.56
357.534	390.56
357.761	378.56
357.988	379.56
358.215	360.56
358.441	384.56
358.668	374.56
358.895	365.56
359.122	372.56
359.349	380.56
359.576	394.56
359.802	418.56
360.029	400.56
360.256	408.56
360.483	394.56
360.709	410.56
360.936	385.56
361.163	390.56
361.39	377.56
361.616	403.56
361.843	386.56
362.07	412.56
362.296	385.56
362.523	395.56
362.749	396.56
362.976	394.56
363.203	404.56
363.429	400.56
363.656	396.56
363.882	381.56
364.109	366.56
364.335	382.56
364.562	390.56
364.788	368.56
365.015	394.56
365.241	410.56
365.468	384.56
365.694	380.56
365.92	380.56
366.147	393.56
366.373	379.56
366.599	381.56
366.826	386.56
367.052	390.56
367.278	384.56
367.505	390.56
367.731	380.56
367.957	383.56
368.184	361.56
368.41	406.56
368.636	394.56
368.862	421.56
369.089	386.56
369.315	382.56
369.541	393.56
369.767	398.56
369.993	403.56
370.219	401.56
370.445	401.56
370.672	388.56
370.898	406.56
371.124	405.56
371.35	392.56
371.576	384.56
371.802	398.56
372.028	383.56
372.254	404.56
372.48	398.56
372.706	407.56
372.932	409.56
373.158	389.56
373.384	405.56
373.61	390.56
373.835	407.56
374.061	406.56
374.287	388.56
374.513	416.56
374.739	409.56
374.965	394.56
375.191	425.56
375.416	409.56
375.642	392.56
375.868	405.56
376.094	387.56
376.319	401.56
376.545	411.56
376.771	405.56
376.997	401.56
377.222	394.56
377.448	391.56
377.674	407.56
377.899	405.56
378.125	393.56
378.35	401.56
378.576	378.56
378.802	372.56
379.027	387.56
379.253	399.56
379.478	413.56
379.704	396.56
379.929	387.56
380.155	396.56
380.38	412.56
380.606	403.56
380.831	383.56
381.057	402.56
381.282	388.56
381.507	404.56
381.733	397.56
381.958	387.56
382.184	418.56
382.409	422.56
382.634	395.56
382.86	399.56
383.085	407.56
383.31	420.56
383.535	424.56
383.761	415.56
383.986	427.56
384.211	428.56
384.436	430.56
384.662	454.56
384.887	456.56
385.112	430.56
385.337	444.56
385.562	438.56
385.787	440.56
386.013	468.56
386.238	438.56
386.463	463.56
386.688	455.56
386.913	451.56
387.138	446.56
387.363	451.56
387.588	464.56
387.813	445.56
388.038	420.56
388.263	436.56
388.488	442.56
388.713	445.56
388.938	421.56
389.163	452.56
389.387	469.56
389.612	449.56
389.837	438.56
390.062	450.56
390.287	445.56
390.512	437.56
390.736	457.56
390.961	472.56
391.186	453.56
391.411	450.56
391.636	469.56
391.86	464.56
392.085	462.56
392.31	471.56
392.534	498.56
392.759	482.56
392.984	487.56
393.208	458.56
393.433	467.56
393.658	473.56
393.882	459.56
394.107	456.56
394.331	467.56
394.556	449.56
394.78	455.56
395.005	467.56
395.229	467.56
395.454	479.56
395.678	476.56
395.903	473.56
396.127	498.56
396.352	528.56
396.576	463.56
396.801	464.56
397.025	477.56
397.249	476.56
397.474	491.56
397.698	490.56
397.922	491.56
398.147	510.56
398.371	508.56
398.595	531.56
398.82	506.56
399.044	560.56
399.268	569.56
399.492	603.56
399.717	660.56
399.941	688.56
400.165	680.56
400.389	628.56
400.613	581.56
400.837	573.56
401.062	548.56
401.286	560.56
401.51	526.56
401.734	530.56
401.958	528.56
402.182	546.56
402.406	547.56
402.63	530.56
402.854	532.56
403.078	546.56
403.302	545.56
403.526	578.56
403.75	566.56
403.974	551.56
404.198	548.56
404.422	539.56
404.645	577.56
404.869	572.56
405.093	580.56
405.317	588.56
405.541	616.56
405.765	589.56
405.988	588.56
406.212	581.56
406.436	581.56
406.66	595.56
406.883	587.56
407.107	619.56
407.331	641.56
407.555	690.56
407.778	698.56
408.002	664.56
408.226	625.56
408.449	610.56
408.673	598.56
408.896	612.56
409.12	639.56
409.344	596.56
409.567	571.56
409.791	576.56
410.014	569.56
410.238	566.56
410.461	546.56
410.685	546.56
410.908	540.56
411.132	579.56
411.355	624.56
411.578	610.56
411.802	569.56
412.025	558.56
412.249	553.56
412.472	561.56
412.695	589.56
412.919	574.56
413.142	550.56
413.365	540.56
413.589	545.56
413.812	533.56
414.035	541.56
414.258	529.56
414.482	517.56
414.705	523.56
414.928	524.56
415.151	513.56
415.374	535.56
415.597	534.56
415.821	489.56
416.044	514.56
416.267	518.56
416.49	511.56
416.713	503.56
416.936	521.56
417.159	508.56
417.382	532.56
417.605	509.56
417.828	513.56
418.051	520.56
418.274	534.56
418.497	524.56
418.72	506.56
418.943	505.56
419.166	515.56
419.389	585.56
419.611	563.56
419.834	544.56
420.057	530.56
420.28	537.56
420.503	539.56
420.726	506.56
420.948	550.56
421.171	544.56
421.394	597.56
421.617	541.56
421.839	540.56
422.062	537.56
422.285	548.56
422.507	588.56
422.73	650.56
422.953	629.56
423.175	554.56
423.398	544.56
423.621	540.56
423.843	582.56
424.066	563.56
424.288	592.56
424.511	583.56
424.733	622.56
424.956	649.56
425.178	630.56
425.401	634.56
425.623	654.56
425.846	579.56
426.068	546.56
426.291	545.56
426.513	533.56
426.735	545.56
426.958	584.56
427.18	610.56
427.402	695.56
427.625	780.56
427.847	680.56
428.069	604.56
428.292	555.56
428.514	537.56
428.736	516.56
428.958	524.56
429.181	507.56
429.403	492.56
429.625	496.56
429.847	520.56
430.069	555.56
430.292	579.56
430.514	527.56
430.736	517.56
430.958	488.56
431.18	488.56
431.402	494.56
431.624	479.56
431.846	486.56
432.068	477.56
432.29	514.56
432.512	490.56
432.734	482.56
432.956	498.56
433.178	505.56
433.4	490.56
433.622	489.56
433.844	497.56
434.066	485.56
434.287	473.56
434.509	490.56
434.731	523.56
434.953	525.56
435.175	537.56
435.397	539.56
435.618	544.56
435.84	573.56
436.062	609.56
436.284	663.56
436.505	570.56
436.727	525.56
436.949	503.56
437.17	514.56
437.392	500.56
437.614	506.56
437.835	513.56
438.057	559.56
438.278	627.56
438.5	653.56
438.721	721.56
438.943	713.56
439.165	579.56
439.386	526.56
439.608	545.56
439.829	541.56
440.05	548.56
440.272	566.56
440.493	571.56
440.715	539.56
440.936	532.56
441.158	516.56
441.379	513.56
441.6	518.56
441.822	564.56
442.043	558.56
442.264	627.56
442.486	644.56
442.707	571.56
442.928	546.56
443.149	538.56
443.371	563.56
443.592	582.56
443.813	652.56
444.034	726.56
444.255	615.56
444.476	591.56
444.698	569.56
444.919	592.56
445.14	707.56
445.361	597.56
445.582	575.56
445.803	596.56
446.024	657.56
446.245	680.56
446.466	606.56
446.687	531.56
446.908	527.56
447.129	493.56
447.35	485.56
447.571	513.56
447.792	480.56
448.013	485.56
448.234	507.56
448.455	541.56
448.675	625.56
448.896	679.56
449.117	614.56
449.338	566.56
449.559	643.56
449.779	726.56
450	585.56
450.221	510.56
450.442	476.56
450.662	478.56
450.883	474.56
451.104	470.56
451.324	462.56
451.545	469.56
451.766	449.56
451.986	434.56
452.207	455.56
452.428	459.56
452.648	448.56
452.869	440.56
453.089	452.56
453.31	445.56
453.53	462.56
453.751	444.56
453.971	448.56
454.192	452.56
454.412	453.56
454.633	418.56
454.853	436.56
455.073	429.56
455.294	457.56
455.514	480.56
455.734	477.56
455.955	435.56
456.175	432.56
456.395	413.56
456.616	414.56
456.836	442.56
457.056	454.56
457.276	417.56
457.497	442.56
457.717	436.56
457.937	437.56
458.157	426.56
458.377	455.56
458.598	461.56
458.818	491.56
459.038	540.56
459.258	572.56
459.478	524.56
459.698	471.56
459.918	518.56
460.138	509.56
460.358	514.56
460.578	526.56
460.798	531.56
461.018	527.56
461.238	525.56
461.458	538.56
461.678	517.56
461.898	538.56
462.118	534.56
462.338	549.56
462.558	552.56
462.777	583.56
462.997	592.56
463.217	609.56
463.437	629.56
463.657	580.56
463.876	581.56
464.096	581.56
464.316	588.56
464.536	585.56
464.755	570.56
464.975	558.56
465.195	576.56
465.414	584.56
465.634	532.56
465.854	516.56
466.073	509.56
466.293	478.56
466.512	474.56
466.732	473.56
466.951	482.56
467.171	455.56
467.391	475.56
467.61	477.56
467.829	479.56
468.049	481.56
468.268	462.56
468.488	458.56
468.707	449.56
468.927	445.56
469.146	462.56
469.365	453.56
469.585	467.56
469.804	452.56
470.023	461.56
470.243	491.56
470.462	487.56
470.681	469.56
470.901	522.56
471.12	477.56
471.339	476.56
471.558	459.56
471.777	476.56
471.997	454.56
472.216	461.56
472.435	481.56
472.654	478.56
472.873	444.56
473.092	467.56
473.311	475.56
473.53	458.56
473.749	444.56
473.968	506.56
474.187	525.56
474.406	568.56
474.625	497.56
474.844	479.56
475.063	454.56
475.282	470.56
475.501	468.56
475.72	475.56
475.939	468.56
476.158	483.56
476.377	462.56
476.596	472.56
476.814	478.56
477.033	489.56
477.252	505.56
477.471	502.56
477.69	514.56
477.908	516.56
478.127	528.56
478.346	504.56
478.564	525.56
478.783	542.56
479.002	545.56
479.22	542.56
479.439	562.56
479.658	583.56
479.876	573.56
480.095	590.56
480.313	588.56
480.532	605.56
480.751	611.56
480.969	560.56
481.188	600.56
481.406	625.56
481.624	566.56
481.843	563.56
482.061	536.56
482.28	537.56
482.498	545.56
482.717	534.56
482.935	545.56
483.153	545.56
483.372	527.56
483.59	546.56
483.808	554.56
484.027	531.56
484.245	540.56
484.463	586.56
484.681	566.56
484.9	549.56
485.118	580.56
485.336	566.56
485.554	579.56
485.772	566.56
485.99	593.56
486.209	588.56
486.427	574.56
486.645	570.56
486.863	558.56
487.081	571.56
487.299	569.56
487.517	570.56
487.735	582.56
487.953	569.56
488.171	553.56
488.389	566.56
488.607	566.56
488.825	565.56
489.043	584.56
489.261	574.56
489.479	583.56
489.696	581.56
489.914	580.56
490.132	597.56
490.35	593.56
490.568	586.56
490.786	600.56
491.003	605.56
491.221	613.56
491.439	618.56
491.657	618.56
491.874	632.56
492.092	631.56
492.31	645.56
492.527	637.56
492.745	641.56
492.963	640.56
493.18	645.56
493.398	632.56
493.615	632.56
493.833	650.56
494.05	624.56
494.268	631.56
494.485	665.56
494.703	653.56
494.92	657.56
495.138	656.56
495.355	682.56
495.573	671.56
495.79	644.56
496.008	653.56
496.225	657.56
496.442	671.56
496.66	653.56
496.877	678.56
497.094	682.56
497.312	699.56
497.529	678.56
497.746	702.56
497.963	733.56
498.181	727.56
498.398	772.56
498.615	760.56
498.832	802.56
499.049	843.56
499.267	852.56
499.484	889.56
499.701	954.56
499.918	1020.56
500.135	1101.56
500.352	1175.56
500.569	1208.56
500.786	1187.56
501.003	1160.56
501.22	1089.56
501.437	1039.56
501.654	963.56
501.871	948.56
