Data from 1962.PennyLincolnUp.Lamp.En5.5.200Scan.071719.P1._HRD10591_13-54-45-060.txt Node
Date: Thu Jul 18 13:54:45 EDT 2019
User: cochatt
Spectrometer: HR+D1059
Trigger mode: 1
Integration Time (sec): 1.000000E-1
Scans to average: 1
Electric dark correction enabled: true
Nonlinearity correction enabled: false
Boxcar width: 0
XAxis mode: Wavelengths
Number of Pixels in Spectrum: 2048
>>>>>Begin Spectral Data<<<<<
223.165	-13.88
223.4	-13.88
223.635	-13.88
223.869	-20.88
224.104	-26.88
224.338	-20.88
224.573	-12.88
224.808	7.12
225.042	-7.88
225.277	-14.88
225.511	0.12
225.746	2.12
225.98	7.12
226.215	20.12
226.449	19.12
226.683	20.12
226.918	19.12
227.152	23.12
227.387	16.12
227.621	55.12
227.856	52.12
228.09	41.12
228.324	49.12
228.559	52.12
228.793	48.12
229.027	95.12
229.262	94.12
229.496	103.12
229.73	122.12
229.964	122.12
230.199	127.12
230.433	101.12
230.667	112.12
230.901	101.12
231.136	117.12
231.37	106.12
231.604	109.12
231.838	107.12
232.072	118.12
232.306	117.12
232.541	104.12
232.775	115.12
233.009	119.12
233.243	111.12
233.477	108.12
233.711	111.12
233.945	111.12
234.179	114.12
234.413	134.12
234.647	119.12
234.881	121.12
235.115	113.12
235.349	118.12
235.583	125.12
235.817	131.12
236.051	121.12
236.285	110.12
236.519	123.12
236.753	128.12
236.987	133.12
237.221	160.12
237.455	193.12
237.689	159.12
237.922	132.12
238.156	130.12
238.39	119.12
238.624	134.12
238.858	134.12
239.091	129.12
239.325	125.12
239.559	123.12
239.793	130.12
240.027	144.12
240.26	151.12
240.494	154.12
240.728	151.12
240.961	133.12
241.195	152.12
241.429	139.12
241.662	149.12
241.896	137.12
242.13	133.12
242.363	136.12
242.597	119.12
242.83	148.12
243.064	150.12
243.298	131.12
243.531	142.12
243.765	127.12
243.998	156.12
244.232	150.12
244.465	140.12
244.699	139.12
244.932	144.12
245.166	139.12
245.399	145.12
245.633	134.12
245.866	140.12
246.099	132.12
246.333	150.12
246.566	140.12
246.8	159.12
247.033	156.12
247.266	132.12
247.5	155.12
247.733	158.12
247.966	166.12
248.2	166.12
248.433	170.12
248.666	180.12
248.899	165.12
249.133	184.12
249.366	176.12
249.599	181.12
249.832	172.12
250.066	190.12
250.299	183.12
250.532	182.12
250.765	201.12
250.998	210.12
251.231	214.12
251.465	191.12
251.698	185.12
251.931	169.12
252.164	190.12
252.397	191.12
252.63	191.12
252.863	178.12
253.096	198.12
253.329	214.12
253.562	208.12
253.795	206.12
254.028	195.12
254.261	195.12
254.494	203.12
254.727	210.12
254.96	246.12
255.193	241.12
255.426	213.12
255.659	220.12
255.892	235.12
256.124	205.12
256.357	224.12
256.59	212.12
256.823	205.12
257.056	196.12
257.289	204.12
257.521	199.12
257.754	195.12
257.987	193.12
258.22	207.12
258.452	195.12
258.685	195.12
258.918	197.12
259.151	213.12
259.383	202.12
259.616	205.12
259.849	207.12
260.081	213.12
260.314	226.12
260.547	248.12
260.779	246.12
261.012	211.12
261.244	214.12
261.477	223.12
261.71	188.12
261.942	220.12
262.175	212.12
262.407	210.12
262.64	202.12
262.872	213.12
263.105	217.12
263.337	218.12
263.57	208.12
263.802	201.12
264.035	218.12
264.267	215.12
264.499	228.12
264.732	212.12
264.964	217.12
265.197	223.12
265.429	222.12
265.661	211.12
265.894	214.12
266.126	222.12
266.358	219.12
266.591	229.12
266.823	226.12
267.055	227.12
267.287	232.12
267.52	222.12
267.752	233.12
267.984	220.12
268.216	226.12
268.448	227.12
268.681	238.12
268.913	240.12
269.145	258.12
269.377	268.12
269.609	251.12
269.841	247.12
270.073	252.12
270.306	263.12
270.538	278.12
270.77	307.12
271.002	287.12
271.234	281.12
271.466	272.12
271.698	284.12
271.93	285.12
272.162	290.12
272.394	306.12
272.626	282.12
272.858	259.12
273.09	268.12
273.322	256.12
273.553	273.12
273.785	260.12
274.017	259.12
274.249	261.12
274.481	260.12
274.713	262.12
274.945	256.12
275.176	273.12
275.408	251.12
275.64	282.12
275.872	259.12
276.104	248.12
276.335	275.12
276.567	261.12
276.799	263.12
277.031	286.12
277.262	282.12
277.494	296.12
277.726	295.12
277.957	286.12
278.189	273.12
278.421	272.12
278.652	277.12
278.884	272.12
279.115	290.12
279.347	268.12
279.579	282.12
279.81	276.12
280.042	267.12
280.273	264.12
280.505	273.12
280.736	280.12
280.968	285.12
281.199	285.12
281.431	278.12
281.662	290.12
281.894	271.12
282.125	269.12
282.356	290.12
282.588	311.12
282.819	291.12
283.051	286.12
283.282	283.12
283.513	265.12
283.745	300.12
283.976	290.12
284.207	310.12
284.439	298.12
284.67	278.12
284.901	297.12
285.132	298.12
285.364	286.12
285.595	279.12
285.826	287.12
286.057	280.12
286.288	292.12
286.52	293.12
286.751	293.12
286.982	298.12
287.213	302.12
287.444	299.12
287.675	302.12
287.906	308.12
288.138	302.12
288.369	300.12
288.6	308.12
288.831	307.12
289.062	316.12
289.293	310.12
289.524	315.12
289.755	301.12
289.986	303.12
290.217	286.12
290.448	306.12
290.679	306.12
290.91	310.12
291.141	299.12
291.371	303.12
291.602	293.12
291.833	297.12
292.064	299.12
292.295	312.12
292.526	295.12
292.757	292.12
292.987	314.12
293.218	310.12
293.449	314.12
293.68	310.12
293.91	323.12
294.141	294.12
294.372	326.12
294.603	324.12
294.833	312.12
295.064	311.12
295.295	294.12
295.525	310.12
295.756	309.12
295.987	319.12
296.217	313.12
296.448	324.12
296.679	319.12
296.909	334.12
297.14	329.12
297.37	309.12
297.601	330.12
297.831	326.12
298.062	327.12
298.292	321.12
298.523	332.12
298.753	334.12
298.984	319.12
299.214	309.12
299.445	316.12
299.675	324.12
299.905	329.12
300.136	347.12
300.366	332.12
300.597	344.12
300.827	319.12
301.057	349.12
301.288	349.12
301.518	327.12
301.748	340.12
301.979	343.12
302.209	357.12
302.439	342.12
302.669	349.12
302.9	324.12
303.13	335.12
303.36	362.12
303.59	362.12
303.82	351.12
304.051	348.12
304.281	381.12
304.511	334.12
304.741	324.12
304.971	349.12
305.201	331.12
305.431	332.12
305.661	356.12
305.891	342.12
306.121	342.12
306.352	359.12
306.582	370.12
306.812	350.12
307.042	359.12
307.272	353.12
307.502	340.12
307.731	347.12
307.961	357.12
308.191	331.12
308.421	362.12
308.651	351.12
308.881	346.12
309.111	349.12
309.341	354.12
309.571	364.12
309.8	371.12
310.03	366.12
310.26	384.12
310.49	392.12
310.72	393.12
310.949	386.12
311.179	404.12
311.409	374.12
311.639	374.12
311.868	374.12
312.098	384.12
312.328	380.12
312.557	402.12
312.787	387.12
313.017	382.12
313.246	394.12
313.476	383.12
313.706	370.12
313.935	394.12
314.165	394.12
314.394	406.12
314.624	406.12
314.853	392.12
315.083	393.12
315.312	388.12
315.542	379.12
315.771	379.12
316.001	361.12
316.23	369.12
316.46	365.12
316.689	382.12
316.919	382.12
317.148	390.12
317.377	377.12
317.607	390.12
317.836	384.12
318.065	398.12
318.295	388.12
318.524	387.12
318.753	387.12
318.983	377.12
319.212	376.12
319.441	390.12
319.67	380.12
319.9	377.12
320.129	382.12
320.358	401.12
320.587	395.12
320.816	404.12
321.046	416.12
321.275	391.12
321.504	387.12
321.733	383.12
321.962	407.12
322.191	398.12
322.42	410.12
322.649	425.12
322.878	442.12
323.108	430.12
323.337	426.12
323.566	446.12
323.795	481.12
324.024	522.12
324.253	589.12
324.482	739.12
324.71	1062.12
324.939	1526.12
325.168	1326.12
325.397	766.12
325.626	556.12
325.855	470.12
326.084	486.12
326.313	457.12
326.542	474.12
326.77	487.12
326.999	564.12
327.228	685.12
327.457	993.12
327.686	1171.12
327.914	840.12
328.143	602.12
328.372	527.12
328.6	514.12
328.829	502.12
329.058	485.12
329.287	530.12
329.515	484.12
329.744	487.12
329.972	481.12
330.201	495.12
330.43	510.12
330.658	526.12
330.887	532.12
331.115	518.12
331.344	481.12
331.572	480.12
331.801	471.12
332.03	482.12
332.258	462.12
332.486	454.12
332.715	483.12
332.943	454.12
333.172	470.12
333.4	475.12
333.629	497.12
333.857	498.12
334.085	502.12
334.314	522.12
334.542	547.12
334.771	545.12
334.999	501.12
335.227	475.12
335.455	475.12
335.684	466.12
335.912	489.12
336.14	491.12
336.369	467.12
336.597	474.12
336.825	459.12
337.053	459.12
337.281	456.12
337.51	465.12
337.738	452.12
337.966	449.12
338.194	448.12
338.422	464.12
338.65	461.12
338.878	463.12
339.106	443.12
339.334	460.12
339.562	446.12
339.79	463.12
340.018	426.12
340.246	446.12
340.474	456.12
340.702	434.12
340.93	437.12
341.158	447.12
341.386	437.12
341.614	445.12
341.842	418.12
342.07	428.12
342.298	439.12
342.526	425.12
342.754	442.12
342.981	430.12
343.209	426.12
343.437	440.12
343.665	448.12
343.893	476.12
344.12	488.12
344.348	469.12
344.576	460.12
344.804	473.12
345.031	459.12
345.259	460.12
345.487	437.12
345.714	446.12
345.942	418.12
346.17	438.12
346.397	426.12
346.625	424.12
346.853	427.12
347.08	420.12
347.308	428.12
347.535	427.12
347.763	421.12
347.99	414.12
348.218	433.12
348.445	435.12
348.673	443.12
348.9	415.12
349.128	434.12
349.355	402.12
349.583	399.12
349.81	396.12
350.037	391.12
350.265	423.12
350.492	405.12
350.72	419.12
350.947	421.12
351.174	416.12
351.402	424.12
351.629	408.12
351.856	419.12
352.083	442.12
352.311	425.12
352.538	428.12
352.765	420.12
352.992	421.12
353.22	400.12
353.447	391.12
353.674	399.12
353.901	411.12
354.128	396.12
354.355	401.12
354.583	410.12
354.81	375.12
355.037	404.12
355.264	406.12
355.491	388.12
355.718	388.12
355.945	406.12
356.172	405.12
356.399	395.12
356.626	424.12
356.853	404.12
357.08	391.12
357.307	396.12
357.534	392.12
357.761	393.12
357.988	389.12
358.215	390.12
358.441	415.12
358.668	389.12
358.895	397.12
359.122	408.12
359.349	398.12
359.576	424.12
359.802	411.12
360.029	431.12
360.256	427.12
360.483	427.12
360.709	418.12
360.936	422.12
361.163	395.12
361.39	428.12
361.616	413.12
361.843	435.12
362.07	410.12
362.296	411.12
362.523	409.12
362.749	407.12
362.976	399.12
363.203	421.12
363.429	422.12
363.656	395.12
363.882	395.12
364.109	436.12
364.335	411.12
364.562	402.12
364.788	393.12
365.015	401.12
365.241	408.12
365.468	404.12
365.694	393.12
365.92	401.12
366.147	419.12
366.373	403.12
366.599	422.12
366.826	414.12
367.052	427.12
367.278	405.12
367.505	403.12
367.731	406.12
367.957	410.12
368.184	420.12
368.41	423.12
368.636	430.12
368.862	419.12
369.089	412.12
369.315	410.12
369.541	417.12
369.767	405.12
369.993	414.12
370.219	407.12
370.445	418.12
370.672	414.12
370.898	422.12
371.124	420.12
371.35	412.12
371.576	413.12
371.802	416.12
372.028	404.12
372.254	420.12
372.48	431.12
372.706	417.12
372.932	422.12
373.158	428.12
373.384	427.12
373.61	427.12
373.835	423.12
374.061	424.12
374.287	407.12
374.513	416.12
374.739	412.12
374.965	435.12
375.191	442.12
375.416	435.12
375.642	444.12
375.868	408.12
376.094	430.12
376.319	435.12
376.545	434.12
376.771	410.12
376.997	441.12
377.222	430.12
377.448	391.12
377.674	406.12
377.899	408.12
378.125	407.12
378.35	410.12
378.576	409.12
378.802	412.12
379.027	416.12
379.253	426.12
379.478	427.12
379.704	427.12
379.929	430.12
380.155	419.12
380.38	436.12
380.606	397.12
380.831	404.12
381.057	426.12
381.282	397.12
381.507	424.12
381.733	418.12
381.958	423.12
382.184	403.12
382.409	446.12
382.634	429.12
382.86	428.12
383.085	428.12
383.31	426.12
383.535	445.12
383.761	439.12
383.986	441.12
384.211	449.12
384.436	452.12
384.662	442.12
384.887	446.12
385.112	454.12
385.337	449.12
385.562	466.12
385.787	460.12
386.013	493.12
386.238	479.12
386.463	471.12
386.688	484.12
386.913	461.12
387.138	462.12
387.363	468.12
387.588	476.12
387.813	463.12
388.038	475.12
388.263	467.12
388.488	474.12
388.713	461.12
388.938	476.12
389.163	468.12
389.387	462.12
389.612	457.12
389.837	468.12
390.062	462.12
390.287	483.12
390.512	481.12
390.736	475.12
390.961	463.12
391.186	492.12
391.411	493.12
391.636	468.12
391.86	502.12
392.085	499.12
392.31	498.12
392.534	515.12
392.759	492.12
392.984	488.12
393.208	468.12
393.433	486.12
393.658	499.12
393.882	478.12
394.107	466.12
394.331	479.12
394.556	474.12
394.78	518.12
395.005	492.12
395.229	488.12
395.454	503.12
395.678	487.12
395.903	498.12
396.127	526.12
396.352	525.12
396.576	523.12
396.801	497.12
397.025	534.12
397.249	495.12
397.474	525.12
397.698	511.12
397.922	533.12
398.147	550.12
398.371	545.12
398.595	557.12
398.82	552.12
399.044	558.12
399.268	602.12
399.492	648.12
399.717	667.12
399.941	705.12
400.165	733.12
400.389	702.12
400.613	657.12
400.837	603.12
401.062	575.12
401.286	556.12
401.51	566.12
401.734	555.12
401.958	544.12
402.182	580.12
402.406	580.12
402.63	563.12
402.854	574.12
403.078	581.12
403.302	584.12
403.526	572.12
403.75	608.12
403.974	598.12
404.198	573.12
404.422	598.12
404.645	608.12
404.869	598.12
405.093	651.12
405.317	663.12
405.541	668.12
405.765	632.12
405.988	614.12
406.212	603.12
406.436	634.12
406.66	620.12
406.883	631.12
407.107	657.12
407.331	685.12
407.555	735.12
407.778	740.12
408.002	691.12
408.226	650.12
408.449	639.12
408.673	631.12
408.896	647.12
409.12	674.12
409.344	657.12
409.567	606.12
409.791	620.12
410.014	572.12
410.238	589.12
410.461	596.12
410.685	588.12
410.908	581.12
411.132	614.12
411.355	614.12
411.578	633.12
411.802	584.12
412.025	580.12
412.249	591.12
412.472	593.12
412.695	626.12
412.919	606.12
413.142	584.12
413.365	592.12
413.589	568.12
413.812	563.12
414.035	557.12
414.258	542.12
414.482	547.12
414.705	547.12
414.928	543.12
415.151	542.12
415.374	549.12
415.597	528.12
415.821	527.12
416.044	554.12
416.267	578.12
416.49	523.12
416.713	548.12
416.936	536.12
417.159	547.12
417.382	535.12
417.605	563.12
417.828	556.12
418.051	546.12
418.274	562.12
418.497	544.12
418.72	542.12
418.943	552.12
419.166	592.12
419.389	604.12
419.611	599.12
419.834	567.12
420.057	578.12
420.28	559.12
420.503	565.12
420.726	552.12
420.948	579.12
421.171	602.12
421.394	616.12
421.617	588.12
421.839	562.12
422.062	592.12
422.285	594.12
422.507	636.12
422.73	674.12
422.953	661.12
423.175	589.12
423.398	603.12
423.621	588.12
423.843	600.12
424.066	592.12
424.288	600.12
424.511	610.12
424.733	629.12
424.956	707.12
425.178	702.12
425.401	676.12
425.623	682.12
425.846	604.12
426.068	585.12
426.291	559.12
426.513	590.12
426.735	588.12
426.958	605.12
427.18	653.12
427.402	790.12
427.625	834.12
427.847	696.12
428.069	659.12
428.292	601.12
428.514	546.12
428.736	536.12
428.958	532.12
429.181	529.12
429.403	526.12
429.625	535.12
429.847	551.12
430.069	605.12
430.292	612.12
430.514	526.12
430.736	511.12
430.958	538.12
431.18	507.12
431.402	490.12
431.624	496.12
431.846	532.12
432.068	516.12
432.29	521.12
432.512	518.12
432.734	512.12
432.956	517.12
433.178	523.12
433.4	535.12
433.622	517.12
433.844	502.12
434.066	501.12
434.287	532.12
434.509	532.12
434.731	538.12
434.953	552.12
435.175	568.12
435.397	583.12
435.618	568.12
435.84	570.12
436.062	664.12
436.284	678.12
436.505	607.12
436.727	576.12
436.949	553.12
437.17	527.12
437.392	529.12
437.614	543.12
437.835	548.12
438.057	608.12
438.278	714.12
438.5	702.12
438.721	760.12
438.943	749.12
439.165	613.12
439.386	564.12
439.608	567.12
439.829	556.12
440.05	564.12
440.272	611.12
440.493	593.12
440.715	558.12
440.936	556.12
441.158	560.12
441.379	544.12
441.6	578.12
441.822	570.12
442.043	613.12
442.264	663.12
442.486	704.12
442.707	616.12
442.928	574.12
443.149	557.12
443.371	611.12
443.592	646.12
443.813	694.12
444.034	767.12
444.255	660.12
444.476	630.12
444.698	632.12
444.919	630.12
445.14	742.12
445.361	655.12
445.582	619.12
445.803	655.12
446.024	720.12
446.245	729.12
446.466	656.12
446.687	594.12
446.908	566.12
447.129	521.12
447.35	516.12
447.571	534.12
447.792	500.12
448.013	526.12
448.234	518.12
448.455	551.12
448.675	679.12
448.896	726.12
449.117	648.12
449.338	622.12
449.559	706.12
449.779	809.12
450	648.12
450.221	535.12
450.442	510.12
450.662	500.12
450.883	506.12
451.104	503.12
451.324	509.12
451.545	490.12
451.766	490.12
451.986	481.12
452.207	470.12
452.428	483.12
452.648	479.12
452.869	473.12
453.089	474.12
453.31	497.12
453.53	475.12
453.751	475.12
453.971	495.12
454.192	463.12
454.412	475.12
454.633	472.12
454.853	459.12
455.073	458.12
455.294	464.12
455.514	551.12
455.734	520.12
455.955	485.12
456.175	474.12
456.395	466.12
456.616	451.12
456.836	453.12
457.056	457.12
457.276	446.12
457.497	436.12
457.717	439.12
457.937	475.12
458.157	467.12
458.377	452.12
458.598	482.12
458.818	550.12
459.038	591.12
459.258	606.12
459.478	546.12
459.698	524.12
459.918	528.12
460.138	554.12
460.358	556.12
460.578	535.12
460.798	542.12
461.018	554.12
461.238	556.12
461.458	558.12
461.678	552.12
461.898	540.12
462.118	552.12
462.338	574.12
462.558	582.12
462.777	604.12
462.997	618.12
463.217	617.12
463.437	634.12
463.657	634.12
463.876	616.12
464.096	616.12
464.316	600.12
464.536	611.12
464.755	596.12
464.975	583.12
465.195	587.12
465.414	620.12
465.634	555.12
465.854	532.12
466.073	511.12
466.293	522.12
466.512	504.12
466.732	491.12
466.951	514.12
467.171	503.12
467.391	495.12
467.61	472.12
467.829	483.12
468.049	504.12
468.268	507.12
468.488	480.12
468.707	476.12
468.927	496.12
469.146	483.12
469.365	478.12
469.585	464.12
469.804	485.12
470.023	499.12
470.243	490.12
470.462	508.12
470.681	512.12
470.901	519.12
471.12	516.12
471.339	523.12
471.558	491.12
471.777	489.12
471.997	490.12
472.216	510.12
472.435	537.12
472.654	495.12
472.873	495.12
473.092	476.12
473.311	487.12
473.53	497.12
473.749	506.12
473.968	485.12
474.187	597.12
474.406	582.12
474.625	539.12
474.844	494.12
475.063	498.12
475.282	482.12
475.501	474.12
475.72	483.12
475.939	505.12
476.158	520.12
476.377	530.12
476.596	532.12
476.814	526.12
477.033	535.12
477.252	522.12
477.471	532.12
477.69	535.12
477.908	558.12
478.127	550.12
478.346	554.12
478.564	559.12
478.783	567.12
479.002	577.12
479.22	584.12
479.439	607.12
479.658	566.12
479.876	605.12
480.095	619.12
480.313	648.12
480.532	640.12
480.751	632.12
480.969	613.12
481.188	619.12
481.406	654.12
481.624	613.12
481.843	574.12
482.061	580.12
482.28	581.12
482.498	563.12
482.717	566.12
482.935	588.12
483.153	594.12
483.372	591.12
483.59	567.12
483.808	572.12
484.027	600.12
484.245	592.12
484.463	571.12
484.681	578.12
484.9	580.12
485.118	587.12
485.336	590.12
485.554	587.12
485.772	567.12
485.99	587.12
486.209	599.12
486.427	611.12
486.645	597.12
486.863	615.12
487.081	619.12
487.299	595.12
487.517	615.12
487.735	605.12
487.953	619.12
488.171	587.12
488.389	591.12
488.607	608.12
488.825	608.12
489.043	600.12
489.261	602.12
489.479	592.12
489.696	614.12
489.914	611.12
490.132	593.12
490.35	634.12
490.568	636.12
490.786	626.12
491.003	658.12
491.221	644.12
491.439	657.12
491.657	653.12
491.874	663.12
492.092	663.12
492.31	688.12
492.527	685.12
492.745	698.12
492.963	696.12
493.18	693.12
493.398	690.12
493.615	691.12
493.833	682.12
494.05	679.12
494.268	709.12
494.485	682.12
494.703	708.12
494.92	669.12
495.138	709.12
495.355	708.12
495.573	698.12
495.79	724.12
496.008	720.12
496.225	736.12
496.442	703.12
496.66	697.12
496.877	729.12
497.094	718.12
497.312	726.12
497.529	738.12
497.746	762.12
497.963	782.12
498.181	803.12
498.398	829.12
498.615	853.12
498.832	885.12
499.049	904.12
499.267	926.12
499.484	1023.12
499.701	1010.12
499.918	1078.12
500.135	1150.12
500.352	1236.12
500.569	1294.12
500.786	1258.12
501.003	1218.12
501.22	1151.12
501.437	1108.12
501.654	1042.12
501.871	989.12
