Data from 1962.PennyLincolnUp.Lamp.En5.5.200Scan.071719.P1._HRD10591_13-52-54-060.txt Node
Date: Thu Jul 18 13:52:54 EDT 2019
User: cochatt
Spectrometer: HR+D1059
Trigger mode: 1
Integration Time (sec): 1.000000E-1
Scans to average: 1
Electric dark correction enabled: true
Nonlinearity correction enabled: false
Boxcar width: 0
XAxis mode: Wavelengths
Number of Pixels in Spectrum: 2048
>>>>>Begin Spectral Data<<<<<
223.165	-19.19
223.4	-19.19
223.635	-19.19
223.869	-12.19
224.104	-22.19
224.338	-29.19
224.573	-3.19
224.808	2.81
225.042	-6.19
225.277	-9.19
225.511	-13.19
225.746	-10.19
225.98	16.81
226.215	8.81
226.449	15.81
226.683	20.81
226.918	34.81
227.152	24.81
227.387	36.81
227.621	45.81
227.856	67.81
228.09	61.81
228.324	49.81
228.559	60.81
228.793	60.81
229.027	77.81
229.262	79.81
229.496	87.81
229.73	105.81
229.964	127.81
230.199	115.81
230.433	96.81
230.667	110.81
230.901	107.81
231.136	91.81
231.37	113.81
231.604	104.81
231.838	118.81
232.072	107.81
232.306	121.81
232.541	94.81
232.775	116.81
233.009	94.81
233.243	121.81
233.477	107.81
233.711	96.81
233.945	127.81
234.179	124.81
234.413	119.81
234.647	120.81
234.881	111.81
235.115	114.81
235.349	112.81
235.583	98.81
235.817	111.81
236.051	111.81
236.285	106.81
236.519	134.81
236.753	117.81
236.987	111.81
237.221	136.81
237.455	155.81
237.689	152.81
237.922	126.81
238.156	125.81
238.39	111.81
238.624	121.81
238.858	126.81
239.091	127.81
239.325	111.81
239.559	120.81
239.793	118.81
240.027	118.81
240.26	129.81
240.494	126.81
240.728	124.81
240.961	121.81
241.195	117.81
241.429	130.81
241.662	130.81
241.896	126.81
242.13	116.81
242.363	133.81
242.597	128.81
242.83	144.81
243.064	134.81
243.298	142.81
243.531	154.81
243.765	120.81
243.998	143.81
244.232	128.81
244.465	129.81
244.699	140.81
244.932	144.81
245.166	132.81
245.399	153.81
245.633	134.81
245.866	140.81
246.099	149.81
246.333	139.81
246.566	136.81
246.8	140.81
247.033	139.81
247.266	155.81
247.5	154.81
247.733	155.81
247.966	166.81
248.2	159.81
248.433	166.81
248.666	171.81
248.899	174.81
249.133	165.81
249.366	163.81
249.599	178.81
249.832	166.81
250.066	160.81
250.299	151.81
250.532	167.81
250.765	174.81
250.998	187.81
251.231	194.81
251.465	187.81
251.698	172.81
251.931	183.81
252.164	166.81
252.397	163.81
252.63	163.81
252.863	185.81
253.096	157.81
253.329	181.81
253.562	185.81
253.795	183.81
254.028	190.81
254.261	178.81
254.494	192.81
254.727	207.81
254.96	201.81
255.193	218.81
255.426	212.81
255.659	201.81
255.892	181.81
256.124	168.81
256.357	202.81
256.59	204.81
256.823	198.81
257.056	192.81
257.289	176.81
257.521	203.81
257.754	179.81
257.987	179.81
258.22	190.81
258.452	182.81
258.685	187.81
258.918	210.81
259.151	188.81
259.383	205.81
259.616	191.81
259.849	208.81
260.081	199.81
260.314	215.81
260.547	214.81
260.779	201.81
261.012	201.81
261.244	197.81
261.477	203.81
261.71	194.81
261.942	214.81
262.175	193.81
262.407	202.81
262.64	175.81
262.872	208.81
263.105	200.81
263.337	204.81
263.57	201.81
263.802	182.81
264.035	197.81
264.267	212.81
264.499	195.81
264.732	197.81
264.964	209.81
265.197	198.81
265.429	208.81
265.661	208.81
265.894	201.81
266.126	184.81
266.358	213.81
266.591	203.81
266.823	222.81
267.055	194.81
267.287	212.81
267.52	216.81
267.752	213.81
267.984	219.81
268.216	229.81
268.448	222.81
268.681	219.81
268.913	232.81
269.145	238.81
269.377	221.81
269.609	234.81
269.841	228.81
270.073	229.81
270.306	243.81
270.538	245.81
270.77	245.81
271.002	255.81
271.234	246.81
271.466	256.81
271.698	262.81
271.93	239.81
272.162	241.81
272.394	266.81
272.626	268.81
272.858	256.81
273.09	246.81
273.322	226.81
273.553	235.81
273.785	226.81
274.017	248.81
274.249	260.81
274.481	239.81
274.713	242.81
274.945	262.81
275.176	248.81
275.408	251.81
275.64	234.81
275.872	232.81
276.104	256.81
276.335	249.81
276.567	256.81
276.799	250.81
277.031	279.81
277.262	266.81
277.494	252.81
277.726	256.81
277.957	278.81
278.189	255.81
278.421	251.81
278.652	244.81
278.884	242.81
279.115	264.81
279.347	247.81
279.579	263.81
279.81	284.81
280.042	252.81
280.273	264.81
280.505	279.81
280.736	252.81
280.968	264.81
281.199	259.81
281.431	248.81
281.662	265.81
281.894	250.81
282.125	264.81
282.356	284.81
282.588	270.81
282.819	294.81
283.051	259.81
283.282	263.81
283.513	285.81
283.745	272.81
283.976	279.81
284.207	278.81
284.439	283.81
284.67	274.81
284.901	270.81
285.132	262.81
285.364	262.81
285.595	263.81
285.826	266.81
286.057	266.81
286.288	264.81
286.52	280.81
286.751	294.81
286.982	267.81
287.213	280.81
287.444	278.81
287.675	291.81
287.906	279.81
288.138	276.81
288.369	289.81
288.6	295.81
288.831	294.81
289.062	292.81
289.293	278.81
289.524	269.81
289.755	276.81
289.986	274.81
290.217	288.81
290.448	285.81
290.679	286.81
290.91	286.81
291.141	282.81
291.371	278.81
291.602	282.81
291.833	303.81
292.064	273.81
292.295	267.81
292.526	274.81
292.757	293.81
292.987	296.81
293.218	283.81
293.449	294.81
293.68	300.81
293.91	286.81
294.141	294.81
294.372	283.81
294.603	278.81
294.833	282.81
295.064	280.81
295.295	286.81
295.525	286.81
295.756	296.81
295.987	280.81
296.217	314.81
296.448	316.81
296.679	278.81
296.909	291.81
297.14	298.81
297.37	301.81
297.601	317.81
297.831	307.81
298.062	302.81
298.292	290.81
298.523	307.81
298.753	310.81
298.984	276.81
299.214	304.81
299.445	296.81
299.675	299.81
299.905	310.81
300.136	299.81
300.366	309.81
300.597	296.81
300.827	326.81
301.057	313.81
301.288	317.81
301.518	327.81
301.748	319.81
301.979	331.81
302.209	330.81
302.439	338.81
302.669	320.81
302.9	330.81
303.13	326.81
303.36	330.81
303.59	326.81
303.82	332.81
304.051	338.81
304.281	330.81
304.511	333.81
304.741	335.81
304.971	311.81
305.201	326.81
305.431	331.81
305.661	313.81
305.891	333.81
306.121	334.81
306.352	334.81
306.582	336.81
306.812	308.81
307.042	318.81
307.272	323.81
307.502	311.81
307.731	321.81
307.961	318.81
308.191	311.81
308.421	330.81
308.651	332.81
308.881	317.81
309.111	330.81
309.341	321.81
309.571	334.81
309.8	327.81
310.03	330.81
310.26	330.81
310.49	334.81
310.72	348.81
310.949	325.81
311.179	336.81
311.409	334.81
311.639	334.81
311.868	346.81
312.098	344.81
312.328	348.81
312.557	346.81
312.787	347.81
313.017	374.81
313.246	376.81
313.476	360.81
313.706	358.81
313.935	372.81
314.165	356.81
314.394	351.81
314.624	368.81
314.853	352.81
315.083	344.81
315.312	353.81
315.542	364.81
315.771	378.81
316.001	356.81
316.23	344.81
316.46	346.81
316.689	356.81
316.919	354.81
317.148	340.81
317.377	343.81
317.607	345.81
317.836	354.81
318.065	361.81
318.295	343.81
318.524	357.81
318.753	358.81
318.983	350.81
319.212	342.81
319.441	371.81
319.67	356.81
319.9	330.81
320.129	371.81
320.358	362.81
320.587	372.81
320.816	356.81
321.046	348.81
321.275	362.81
321.504	368.81
321.733	371.81
321.962	358.81
322.191	372.81
322.42	382.81
322.649	391.81
322.878	391.81
323.108	382.81
323.337	405.81
323.566	397.81
323.795	389.81
324.024	424.81
324.253	467.81
324.482	568.81
324.71	811.81
324.939	1101.81
325.168	982.81
325.397	571.81
325.626	464.81
325.855	434.81
326.084	407.81
326.313	392.81
326.542	409.81
326.77	404.81
326.999	450.81
327.228	548.81
327.457	734.81
327.686	867.81
327.914	641.81
328.143	505.81
328.372	457.81
328.6	434.81
328.829	417.81
329.058	422.81
329.287	424.81
329.515	415.81
329.744	416.81
329.972	419.81
330.201	429.81
330.43	429.81
330.658	443.81
330.887	438.81
331.115	430.81
331.344	416.81
331.572	398.81
331.801	407.81
332.03	404.81
332.258	425.81
332.486	424.81
332.715	418.81
332.943	446.81
333.172	434.81
333.4	436.81
333.629	477.81
333.857	471.81
334.085	462.81
334.314	482.81
334.542	485.81
334.771	487.81
334.999	460.81
335.227	471.81
335.455	452.81
335.684	431.81
335.912	434.81
336.14	445.81
336.369	444.81
336.597	422.81
336.825	436.81
337.053	441.81
337.281	417.81
337.51	427.81
337.738	405.81
337.966	431.81
338.194	430.81
338.422	410.81
338.65	418.81
338.878	413.81
339.106	422.81
339.334	414.81
339.562	413.81
339.79	406.81
340.018	395.81
340.246	390.81
340.474	413.81
340.702	413.81
340.93	421.81
341.158	409.81
341.386	407.81
341.614	412.81
341.842	400.81
342.07	388.81
342.298	401.81
342.526	407.81
342.754	408.81
342.981	409.81
343.209	390.81
343.437	402.81
343.665	424.81
343.893	438.81
344.12	450.81
344.348	438.81
344.576	426.81
344.804	406.81
345.031	425.81
345.259	426.81
345.487	413.81
345.714	414.81
345.942	379.81
346.17	408.81
346.397	370.81
346.625	379.81
346.853	374.81
347.08	392.81
347.308	407.81
347.535	407.81
347.763	397.81
347.99	374.81
348.218	380.81
348.445	389.81
348.673	384.81
348.9	379.81
349.128	376.81
349.355	378.81
349.583	377.81
349.81	385.81
350.037	389.81
350.265	390.81
350.492	379.81
350.72	369.81
350.947	373.81
351.174	374.81
351.402	394.81
351.629	383.81
351.856	379.81
352.083	382.81
352.311	384.81
352.538	399.81
352.765	395.81
352.992	380.81
353.22	382.81
353.447	390.81
353.674	387.81
353.901	378.81
354.128	378.81
354.355	347.81
354.583	378.81
354.81	363.81
355.037	386.81
355.264	376.81
355.491	385.81
355.718	374.81
355.945	372.81
356.172	376.81
356.399	394.81
356.626	380.81
356.853	376.81
357.08	361.81
357.307	380.81
357.534	364.81
357.761	372.81
357.988	382.81
358.215	366.81
358.441	380.81
358.668	383.81
358.895	371.81
359.122	360.81
359.349	394.81
359.576	388.81
359.802	401.81
360.029	402.81
360.256	399.81
360.483	407.81
360.709	378.81
360.936	376.81
361.163	377.81
361.39	362.81
361.616	376.81
361.843	365.81
362.07	380.81
362.296	370.81
362.523	375.81
362.749	374.81
362.976	388.81
363.203	386.81
363.429	380.81
363.656	383.81
363.882	388.81
364.109	380.81
364.335	384.81
364.562	380.81
364.788	370.81
365.015	374.81
365.241	366.81
365.468	392.81
365.694	386.81
365.92	382.81
366.147	364.81
366.373	378.81
366.599	372.81
366.826	370.81
367.052	365.81
367.278	365.81
367.505	379.81
367.731	386.81
367.957	377.81
368.184	376.81
368.41	373.81
368.636	391.81
368.862	389.81
369.089	388.81
369.315	367.81
369.541	398.81
369.767	362.81
369.993	370.81
370.219	386.81
370.445	401.81
370.672	387.81
370.898	386.81
371.124	404.81
371.35	379.81
371.576	391.81
371.802	399.81
372.028	385.81
372.254	427.81
372.48	390.81
372.706	394.81
372.932	412.81
373.158	382.81
373.384	379.81
373.61	398.81
373.835	396.81
374.061	390.81
374.287	390.81
374.513	404.81
374.739	404.81
374.965	406.81
375.191	424.81
375.416	409.81
375.642	402.81
375.868	414.81
376.094	406.81
376.319	405.81
376.545	384.81
376.771	383.81
376.997	380.81
377.222	382.81
377.448	380.81
377.674	389.81
377.899	380.81
378.125	385.81
378.35	392.81
378.576	390.81
378.802	397.81
379.027	387.81
379.253	380.81
379.478	381.81
379.704	379.81
379.929	388.81
380.155	384.81
380.38	388.81
380.606	390.81
380.831	398.81
381.057	405.81
381.282	386.81
381.507	406.81
381.733	398.81
381.958	397.81
382.184	419.81
382.409	404.81
382.634	408.81
382.86	392.81
383.085	394.81
383.31	378.81
383.535	423.81
383.761	418.81
383.986	407.81
384.211	438.81
384.436	415.81
384.662	432.81
384.887	438.81
385.112	427.81
385.337	433.81
385.562	459.81
385.787	455.81
386.013	467.81
386.238	437.81
386.463	459.81
386.688	476.81
386.913	455.81
387.138	443.81
387.363	450.81
387.588	444.81
387.813	442.81
388.038	443.81
388.263	456.81
388.488	453.81
388.713	453.81
388.938	421.81
389.163	439.81
389.387	438.81
389.612	438.81
389.837	431.81
390.062	430.81
390.287	441.81
390.512	443.81
390.736	431.81
390.961	424.81
391.186	467.81
391.411	460.81
391.636	454.81
391.86	477.81
392.085	467.81
392.31	473.81
392.534	467.81
392.759	482.81
392.984	451.81
393.208	460.81
393.433	472.81
393.658	475.81
393.882	458.81
394.107	470.81
394.331	464.81
394.556	440.81
394.78	456.81
395.005	443.81
395.229	460.81
395.454	444.81
395.678	503.81
395.903	479.81
396.127	502.81
396.352	476.81
396.576	466.81
396.801	474.81
397.025	493.81
397.249	466.81
397.474	488.81
397.698	508.81
397.922	486.81
398.147	512.81
398.371	532.81
398.595	507.81
398.82	507.81
399.044	539.81
399.268	572.81
399.492	590.81
399.717	688.81
399.941	653.81
400.165	657.81
400.389	640.81
400.613	593.81
400.837	570.81
401.062	556.81
401.286	520.81
401.51	512.81
401.734	518.81
401.958	522.81
402.182	531.81
402.406	536.81
402.63	555.81
402.854	524.81
403.078	534.81
403.302	518.81
403.526	564.81
403.75	559.81
403.974	537.81
404.198	554.81
404.422	575.81
404.645	550.81
404.869	542.81
405.093	577.81
405.317	603.81
405.541	611.81
405.765	576.81
405.988	575.81
406.212	574.81
406.436	578.81
406.66	567.81
406.883	572.81
407.107	601.81
407.331	645.81
407.555	668.81
407.778	662.81
408.002	603.81
408.226	608.81
408.449	571.81
408.673	584.81
408.896	608.81
409.12	610.81
409.344	614.81
409.567	574.81
409.791	593.81
410.014	553.81
410.238	554.81
410.461	557.81
410.685	545.81
410.908	552.81
411.132	549.81
411.355	558.81
411.578	571.81
411.802	548.81
412.025	548.81
412.249	519.81
412.472	532.81
412.695	565.81
412.919	571.81
413.142	529.81
413.365	544.81
413.589	528.81
413.812	498.81
414.035	524.81
414.258	505.81
414.482	520.81
414.705	514.81
414.928	515.81
415.151	503.81
415.374	531.81
415.597	502.81
415.821	498.81
416.044	496.81
416.267	493.81
416.49	507.81
416.713	494.81
416.936	490.81
417.159	497.81
417.382	514.81
417.605	516.81
417.828	505.81
418.051	520.81
418.274	501.81
418.497	518.81
418.72	504.81
418.943	511.81
419.166	524.81
419.389	556.81
419.611	551.81
419.834	536.81
420.057	527.81
420.28	518.81
420.503	514.81
420.726	522.81
420.948	519.81
421.171	539.81
421.394	586.81
421.617	543.81
421.839	535.81
422.062	516.81
422.285	538.81
422.507	568.81
422.73	601.81
422.953	590.81
423.175	557.81
423.398	549.81
423.621	536.81
423.843	556.81
424.066	548.81
424.288	562.81
424.511	559.81
424.733	585.81
424.956	649.81
425.178	623.81
425.401	607.81
425.623	599.81
425.846	570.81
426.068	543.81
426.291	526.81
426.513	522.81
426.735	530.81
426.958	532.81
427.18	579.81
427.402	668.81
427.625	726.81
427.847	629.81
428.069	577.81
428.292	541.81
428.514	498.81
428.736	506.81
428.958	479.81
429.181	481.81
429.403	494.81
429.625	490.81
429.847	508.81
430.069	530.81
430.292	538.81
430.514	505.81
430.736	501.81
430.958	472.81
431.18	477.81
431.402	475.81
431.624	471.81
431.846	484.81
432.068	485.81
432.29	477.81
432.512	473.81
432.734	483.81
432.956	473.81
433.178	490.81
433.4	487.81
433.622	501.81
433.844	494.81
434.066	506.81
434.287	487.81
434.509	491.81
434.731	515.81
434.953	525.81
435.175	528.81
435.397	525.81
435.618	534.81
435.84	560.81
436.062	591.81
436.284	618.81
436.505	575.81
436.727	498.81
436.949	498.81
437.17	496.81
437.392	498.81
437.614	502.81
437.835	490.81
438.057	562.81
438.278	608.81
438.5	630.81
438.721	674.81
438.943	675.81
439.165	556.81
439.386	533.81
439.608	521.81
439.829	512.81
440.05	538.81
440.272	560.81
440.493	506.81
440.715	527.81
440.936	509.81
441.158	500.81
441.379	512.81
441.6	510.81
441.822	540.81
442.043	542.81
442.264	583.81
442.486	630.81
442.707	571.81
442.928	539.81
443.149	528.81
443.371	538.81
443.592	571.81
443.813	646.81
444.034	675.81
444.255	606.81
444.476	571.81
444.698	572.81
444.919	547.81
445.14	682.81
445.361	602.81
445.582	576.81
445.803	563.81
446.024	602.81
446.245	619.81
446.466	614.81
446.687	524.81
446.908	519.81
447.129	490.81
447.35	478.81
447.571	466.81
447.792	485.81
448.013	451.81
448.234	475.81
448.455	510.81
448.675	579.81
448.896	644.81
449.117	564.81
449.338	526.81
449.559	596.81
449.779	679.81
450	576.81
450.221	495.81
450.442	466.81
450.662	468.81
450.883	452.81
451.104	456.81
451.324	446.81
451.545	460.81
451.766	440.81
451.986	437.81
452.207	442.81
452.428	438.81
452.648	444.81
452.869	414.81
453.089	434.81
453.31	441.81
453.53	425.81
453.751	429.81
453.971	431.81
454.192	440.81
454.412	442.81
454.633	432.81
454.853	425.81
455.073	432.81
455.294	465.81
455.514	474.81
455.734	466.81
455.955	409.81
456.175	423.81
456.395	417.81
456.616	417.81
456.836	413.81
457.056	405.81
457.276	403.81
457.497	419.81
457.717	407.81
457.937	413.81
458.157	451.81
458.377	455.81
458.598	436.81
458.818	474.81
459.038	510.81
459.258	523.81
459.478	514.81
459.698	482.81
459.918	477.81
460.138	500.81
460.358	525.81
460.578	494.81
460.798	526.81
461.018	519.81
461.238	515.81
461.458	514.81
461.678	534.81
461.898	530.81
462.118	539.81
462.338	538.81
462.558	539.81
462.777	540.81
462.997	592.81
463.217	601.81
463.437	612.81
463.657	596.81
463.876	583.81
464.096	574.81
464.316	564.81
464.536	582.81
464.755	554.81
464.975	573.81
465.195	542.81
465.414	551.81
465.634	506.81
465.854	499.81
466.073	474.81
466.293	479.81
466.512	477.81
466.732	465.81
466.951	467.81
467.171	472.81
467.391	467.81
467.61	442.81
467.829	442.81
468.049	469.81
468.268	453.81
468.488	452.81
468.707	448.81
468.927	448.81
469.146	443.81
469.365	454.81
469.585	434.81
469.804	471.81
470.023	461.81
470.243	454.81
470.462	475.81
470.681	481.81
470.901	459.81
471.12	474.81
471.339	462.81
471.558	448.81
471.777	468.81
471.997	452.81
472.216	453.81
472.435	470.81
472.654	470.81
472.873	446.81
473.092	453.81
473.311	467.81
473.53	455.81
473.749	461.81
473.968	503.81
474.187	526.81
474.406	528.81
474.625	484.81
474.844	466.81
475.063	458.81
475.282	461.81
475.501	454.81
475.72	448.81
475.939	462.81
476.158	458.81
476.377	483.81
476.596	448.81
476.814	480.81
477.033	506.81
477.252	484.81
477.471	509.81
477.69	495.81
477.908	516.81
478.127	522.81
478.346	508.81
478.564	511.81
478.783	519.81
479.002	523.81
479.22	552.81
479.439	555.81
479.658	540.81
479.876	553.81
480.095	543.81
480.313	566.81
480.532	576.81
480.751	596.81
480.969	615.81
481.188	583.81
481.406	579.81
481.624	556.81
481.843	547.81
482.061	537.81
482.28	516.81
482.498	552.81
482.717	533.81
482.935	539.81
483.153	541.81
483.372	544.81
483.59	531.81
483.808	550.81
484.027	542.81
484.245	543.81
484.463	536.81
484.681	558.81
484.9	539.81
485.118	548.81
485.336	559.81
485.554	555.81
485.772	566.81
485.99	554.81
486.209	570.81
486.427	582.81
486.645	586.81
486.863	580.81
487.081	591.81
487.299	562.81
487.517	576.81
487.735	581.81
487.953	566.81
488.171	570.81
488.389	572.81
488.607	553.81
488.825	581.81
489.043	570.81
489.261	570.81
489.479	574.81
489.696	578.81
489.914	562.81
490.132	598.81
490.35	598.81
490.568	569.81
490.786	571.81
491.003	595.81
491.221	587.81
491.439	599.81
491.657	589.81
491.874	613.81
492.092	597.81
492.31	633.81
492.527	614.81
492.745	619.81
492.963	634.81
493.18	632.81
493.398	611.81
493.615	622.81
493.833	658.81
494.05	630.81
494.268	644.81
494.485	626.81
494.703	618.81
494.92	642.81
495.138	644.81
495.355	648.81
495.573	657.81
495.79	646.81
496.008	650.81
496.225	656.81
496.442	675.81
496.66	669.81
496.877	651.81
497.094	631.81
497.312	671.81
497.529	658.81
497.746	692.81
497.963	704.81
498.181	706.81
498.398	727.81
498.615	774.81
498.832	798.81
499.049	823.81
499.267	855.81
499.484	890.81
499.701	950.81
499.918	994.81
500.135	1096.81
500.352	1152.81
500.569	1193.81
500.786	1164.81
501.003	1159.81
501.22	1107.81
501.437	1014.81
501.654	983.81
501.871	917.81
502.088	890.81
