Data from 1962.PennyLincolnUp.Lamp.En5.5.200Scan.071719.P1._HRD10591_13-54-05-061.txt Node
Date: Thu Jul 18 13:54:05 EDT 2019
User: cochatt
Spectrometer: HR+D1059
Trigger mode: 1
Integration Time (sec): 1.000000E-1
Scans to average: 1
Electric dark correction enabled: true
Nonlinearity correction enabled: false
Boxcar width: 0
XAxis mode: Wavelengths
Number of Pixels in Spectrum: 2048
>>>>>Begin Spectral Data<<<<<
223.165	-5.38
223.4	-5.38
223.635	-5.38
223.869	-20.38
224.104	1.62
224.338	-11.38
224.573	-24.38
224.808	-16.38
225.042	-13.38
225.277	-5.38
225.511	-2.38
225.746	7.62
225.98	10.62
226.215	16.62
226.449	3.62
226.683	11.62
226.918	25.62
227.152	21.62
227.387	41.62
227.621	41.62
227.856	38.62
228.09	51.62
228.324	52.62
228.559	59.62
228.793	70.62
229.027	83.62
229.262	94.62
229.496	96.62
229.73	114.62
229.964	119.62
230.199	123.62
230.433	103.62
230.667	122.62
230.901	96.62
231.136	107.62
231.37	108.62
231.604	95.62
231.838	94.62
232.072	103.62
232.306	115.62
232.541	106.62
232.775	100.62
233.009	108.62
233.243	106.62
233.477	104.62
233.711	111.62
233.945	101.62
234.179	95.62
234.413	116.62
234.647	114.62
234.881	102.62
235.115	104.62
235.349	108.62
235.583	114.62
235.817	122.62
236.051	122.62
236.285	126.62
236.519	114.62
236.753	117.62
236.987	143.62
237.221	158.62
237.455	175.62
237.689	141.62
237.922	127.62
238.156	121.62
238.39	116.62
238.624	120.62
238.858	128.62
239.091	111.62
239.325	130.62
239.559	115.62
239.793	112.62
240.027	125.62
240.26	118.62
240.494	150.62
240.728	140.62
240.961	139.62
241.195	137.62
241.429	136.62
241.662	142.62
241.896	130.62
242.13	135.62
242.363	139.62
242.597	134.62
242.83	135.62
243.064	138.62
243.298	136.62
243.531	131.62
243.765	142.62
243.998	134.62
244.232	129.62
244.465	142.62
244.699	147.62
244.932	150.62
245.166	140.62
245.399	131.62
245.633	132.62
245.866	134.62
246.099	142.62
246.333	143.62
246.566	124.62
246.8	151.62
247.033	150.62
247.266	141.62
247.5	149.62
247.733	154.62
247.966	162.62
248.2	161.62
248.433	163.62
248.666	156.62
248.899	171.62
249.133	190.62
249.366	172.62
249.599	166.62
249.832	169.62
250.066	172.62
250.299	178.62
250.532	166.62
250.765	182.62
250.998	201.62
251.231	172.62
251.465	195.62
251.698	158.62
251.931	176.62
252.164	178.62
252.397	176.62
252.63	173.62
252.863	183.62
253.096	201.62
253.329	196.62
253.562	195.62
253.795	188.62
254.028	194.62
254.261	186.62
254.494	182.62
254.727	207.62
254.96	215.62
255.193	218.62
255.426	195.62
255.659	189.62
255.892	198.62
256.124	199.62
256.357	198.62
256.59	200.62
256.823	202.62
257.056	198.62
257.289	181.62
257.521	192.62
257.754	178.62
257.987	176.62
258.22	206.62
258.452	182.62
258.685	193.62
258.918	206.62
259.151	184.62
259.383	200.62
259.616	213.62
259.849	207.62
260.081	218.62
260.314	240.62
260.547	210.62
260.779	218.62
261.012	211.62
261.244	205.62
261.477	203.62
261.71	197.62
261.942	211.62
262.175	202.62
262.407	212.62
262.64	186.62
262.872	183.62
263.105	197.62
263.337	213.62
263.57	222.62
263.802	199.62
264.035	207.62
264.267	206.62
264.499	197.62
264.732	199.62
264.964	194.62
265.197	203.62
265.429	207.62
265.661	198.62
265.894	205.62
266.126	198.62
266.358	202.62
266.591	220.62
266.823	224.62
267.055	219.62
267.287	220.62
267.52	207.62
267.752	208.62
267.984	207.62
268.216	235.62
268.448	223.62
268.681	231.62
268.913	230.62
269.145	232.62
269.377	236.62
269.609	239.62
269.841	239.62
270.073	236.62
270.306	245.62
270.538	268.62
270.77	276.62
271.002	272.62
271.234	253.62
271.466	268.62
271.698	250.62
271.93	262.62
272.162	282.62
272.394	280.62
272.626	262.62
272.858	268.62
273.09	267.62
273.322	258.62
273.553	242.62
273.785	253.62
274.017	246.62
274.249	248.62
274.481	249.62
274.713	254.62
274.945	248.62
275.176	262.62
275.408	260.62
275.64	243.62
275.872	254.62
276.104	249.62
276.335	250.62
276.567	238.62
276.799	266.62
277.031	277.62
277.262	292.62
277.494	302.62
277.726	278.62
277.957	261.62
278.189	265.62
278.421	259.62
278.652	254.62
278.884	263.62
279.115	260.62
279.347	275.62
279.579	271.62
279.81	255.62
280.042	278.62
280.273	280.62
280.505	258.62
280.736	262.62
280.968	258.62
281.199	274.62
281.431	282.62
281.662	264.62
281.894	255.62
282.125	267.62
282.356	286.62
282.588	280.62
282.819	288.62
283.051	282.62
283.282	286.62
283.513	275.62
283.745	260.62
283.976	295.62
284.207	280.62
284.439	276.62
284.67	271.62
284.901	274.62
285.132	282.62
285.364	289.62
285.595	286.62
285.826	265.62
286.057	282.62
286.288	287.62
286.52	269.62
286.751	303.62
286.982	297.62
287.213	286.62
287.444	277.62
287.675	282.62
287.906	288.62
288.138	298.62
288.369	297.62
288.6	297.62
288.831	278.62
289.062	298.62
289.293	289.62
289.524	290.62
289.755	282.62
289.986	305.62
290.217	276.62
290.448	299.62
290.679	284.62
290.91	275.62
291.141	303.62
291.371	298.62
291.602	294.62
291.833	289.62
292.064	288.62
292.295	278.62
292.526	278.62
292.757	277.62
292.987	287.62
293.218	283.62
293.449	290.62
293.68	299.62
293.91	286.62
294.141	292.62
294.372	307.62
294.603	292.62
294.833	284.62
295.064	301.62
295.295	290.62
295.525	294.62
295.756	298.62
295.987	301.62
296.217	308.62
296.448	324.62
296.679	311.62
296.909	288.62
297.14	304.62
297.37	306.62
297.601	319.62
297.831	300.62
298.062	303.62
298.292	300.62
298.523	292.62
298.753	336.62
298.984	299.62
299.214	313.62
299.445	301.62
299.675	311.62
299.905	318.62
300.136	332.62
300.366	322.62
300.597	295.62
300.827	319.62
301.057	330.62
301.288	339.62
301.518	341.62
301.748	316.62
301.979	325.62
302.209	315.62
302.439	334.62
302.669	334.62
302.9	322.62
303.13	314.62
303.36	334.62
303.59	323.62
303.82	324.62
304.051	341.62
304.281	310.62
304.511	309.62
304.741	338.62
304.971	331.62
305.201	326.62
305.431	334.62
305.661	331.62
305.891	330.62
306.121	331.62
306.352	332.62
306.582	318.62
306.812	331.62
307.042	342.62
307.272	325.62
307.502	340.62
307.731	345.62
307.961	333.62
308.191	313.62
308.421	328.62
308.651	332.62
308.881	339.62
309.111	344.62
309.341	316.62
309.571	344.62
309.8	359.62
310.03	350.62
310.26	352.62
310.49	342.62
310.72	359.62
310.949	354.62
311.179	361.62
311.409	349.62
311.639	376.62
311.868	360.62
312.098	343.62
312.328	352.62
312.557	378.62
312.787	381.62
313.017	369.62
313.246	380.62
313.476	380.62
313.706	373.62
313.935	356.62
314.165	378.62
314.394	378.62
314.624	364.62
314.853	364.62
315.083	364.62
315.312	368.62
315.542	365.62
315.771	359.62
316.001	367.62
316.23	379.62
316.46	374.62
316.689	368.62
316.919	378.62
317.148	370.62
317.377	374.62
317.607	378.62
317.836	375.62
318.065	358.62
318.295	367.62
318.524	383.62
318.753	372.62
318.983	373.62
319.212	363.62
319.441	378.62
319.67	371.62
319.9	373.62
320.129	384.62
320.358	382.62
320.587	372.62
320.816	380.62
321.046	385.62
321.275	379.62
321.504	382.62
321.733	397.62
321.962	363.62
322.191	376.62
322.42	396.62
322.649	417.62
322.878	405.62
323.108	401.62
323.337	410.62
323.566	420.62
323.795	426.62
324.024	463.62
324.253	515.62
324.482	681.62
324.71	970.62
324.939	1351.62
325.168	1210.62
325.397	668.62
325.626	499.62
325.855	458.62
326.084	440.62
326.313	449.62
326.542	438.62
326.77	470.62
326.999	516.62
327.228	646.62
327.457	874.62
327.686	1036.62
327.914	760.62
328.143	558.62
328.372	520.62
328.6	486.62
328.829	461.62
329.058	480.62
329.287	472.62
329.515	451.62
329.744	450.62
329.972	463.62
330.201	456.62
330.43	465.62
330.658	481.62
330.887	478.62
331.115	482.62
331.344	476.62
331.572	426.62
331.801	471.62
332.03	440.62
332.258	432.62
332.486	427.62
332.715	446.62
332.943	464.62
333.172	461.62
333.4	469.62
333.629	470.62
333.857	469.62
334.085	475.62
334.314	507.62
334.542	500.62
334.771	507.62
334.999	479.62
335.227	472.62
335.455	462.62
335.684	451.62
335.912	450.62
336.14	465.62
336.369	439.62
336.597	429.62
336.825	426.62
337.053	444.62
337.281	438.62
337.51	430.62
337.738	427.62
337.966	429.62
338.194	439.62
338.422	448.62
338.65	435.62
338.878	428.62
339.106	415.62
339.334	440.62
339.562	417.62
339.79	420.62
340.018	415.62
340.246	414.62
340.474	418.62
340.702	422.62
340.93	420.62
341.158	427.62
341.386	428.62
341.614	411.62
341.842	428.62
342.07	428.62
342.298	412.62
342.526	406.62
342.754	400.62
342.981	390.62
343.209	419.62
343.437	434.62
343.665	439.62
343.893	454.62
344.12	464.62
344.348	463.62
344.576	421.62
344.804	454.62
345.031	434.62
345.259	413.62
345.487	413.62
345.714	407.62
345.942	439.62
346.17	414.62
346.397	404.62
346.625	408.62
346.853	406.62
347.08	396.62
347.308	402.62
347.535	405.62
347.763	393.62
347.99	388.62
348.218	397.62
348.445	396.62
348.673	406.62
348.9	396.62
349.128	388.62
349.355	395.62
349.583	418.62
349.81	418.62
350.037	387.62
350.265	386.62
350.492	394.62
350.72	393.62
350.947	374.62
351.174	398.62
351.402	394.62
351.629	394.62
351.856	386.62
352.083	404.62
352.311	391.62
352.538	418.62
352.765	400.62
352.992	412.62
353.22	387.62
353.447	402.62
353.674	378.62
353.901	383.62
354.128	378.62
354.355	386.62
354.583	387.62
354.81	378.62
355.037	408.62
355.264	402.62
355.491	379.62
355.718	384.62
355.945	380.62
356.172	379.62
356.399	381.62
356.626	380.62
356.853	374.62
357.08	381.62
357.307	374.62
357.534	348.62
357.761	368.62
357.988	370.62
358.215	404.62
358.441	391.62
358.668	404.62
358.895	378.62
359.122	386.62
359.349	387.62
359.576	380.62
359.802	407.62
360.029	406.62
360.256	408.62
360.483	418.62
360.709	395.62
360.936	401.62
361.163	394.62
361.39	392.62
361.616	408.62
361.843	381.62
362.07	376.62
362.296	400.62
362.523	402.62
362.749	377.62
362.976	388.62
363.203	379.62
363.429	384.62
363.656	390.62
363.882	409.62
364.109	384.62
364.335	396.62
364.562	391.62
364.788	388.62
365.015	384.62
365.241	403.62
365.468	383.62
365.694	393.62
365.92	386.62
366.147	398.62
366.373	378.62
366.599	370.62
366.826	365.62
367.052	382.62
367.278	371.62
367.505	394.62
367.731	383.62
367.957	380.62
368.184	388.62
368.41	380.62
368.636	390.62
368.862	394.62
369.089	398.62
369.315	409.62
369.541	401.62
369.767	396.62
369.993	412.62
370.219	401.62
370.445	393.62
370.672	395.62
370.898	399.62
371.124	406.62
371.35	384.62
371.576	383.62
371.802	394.62
372.028	419.62
372.254	397.62
372.48	406.62
372.706	421.62
372.932	423.62
373.158	403.62
373.384	409.62
373.61	396.62
373.835	408.62
374.061	426.62
374.287	406.62
374.513	389.62
374.739	422.62
374.965	418.62
375.191	410.62
375.416	428.62
375.642	402.62
375.868	416.62
376.094	406.62
376.319	390.62
376.545	420.62
376.771	410.62
376.997	395.62
377.222	395.62
377.448	383.62
377.674	389.62
377.899	406.62
378.125	404.62
378.35	392.62
378.576	405.62
378.802	400.62
379.027	429.62
379.253	398.62
379.478	395.62
379.704	412.62
379.929	406.62
380.155	400.62
380.38	385.62
380.606	392.62
380.831	391.62
381.057	414.62
381.282	409.62
381.507	418.62
381.733	405.62
381.958	390.62
382.184	399.62
382.409	390.62
382.634	401.62
382.86	423.62
383.085	416.62
383.31	449.62
383.535	426.62
383.761	419.62
383.986	406.62
384.211	420.62
384.436	443.62
384.662	450.62
384.887	432.62
385.112	442.62
385.337	455.62
385.562	436.62
385.787	470.62
386.013	442.62
386.238	472.62
386.463	461.62
386.688	466.62
386.913	450.62
387.138	441.62
387.363	447.62
387.588	445.62
387.813	452.62
388.038	463.62
388.263	470.62
388.488	468.62
388.713	457.62
388.938	442.62
389.163	449.62
389.387	460.62
389.612	457.62
389.837	468.62
390.062	457.62
390.287	465.62
390.512	452.62
390.736	463.62
390.961	467.62
391.186	442.62
391.411	456.62
391.636	480.62
391.86	491.62
392.085	477.62
392.31	495.62
392.534	483.62
392.759	475.62
392.984	464.62
393.208	467.62
393.433	494.62
393.658	454.62
393.882	447.62
394.107	464.62
394.331	489.62
394.556	472.62
394.78	465.62
395.005	475.62
395.229	482.62
395.454	476.62
395.678	472.62
395.903	503.62
396.127	514.62
396.352	512.62
396.576	489.62
396.801	492.62
397.025	502.62
397.249	494.62
397.474	504.62
397.698	495.62
397.922	491.62
398.147	507.62
398.371	510.62
398.595	538.62
398.82	550.62
399.044	561.62
399.268	591.62
399.492	638.62
399.717	673.62
399.941	689.62
400.165	677.62
400.389	684.62
400.613	626.62
400.837	578.62
401.062	571.62
401.286	543.62
401.51	534.62
401.734	554.62
401.958	547.62
402.182	551.62
402.406	554.62
402.63	551.62
402.854	566.62
403.078	576.62
403.302	537.62
403.526	555.62
403.75	571.62
403.974	575.62
404.198	596.62
404.422	580.62
404.645	560.62
404.869	588.62
405.093	603.62
405.317	631.62
405.541	614.62
405.765	605.62
405.988	577.62
406.212	574.62
406.436	594.62
406.66	626.62
406.883	618.62
407.107	631.62
407.331	651.62
407.555	680.62
407.778	708.62
408.002	654.62
408.226	612.62
408.449	619.62
408.673	625.62
408.896	612.62
409.12	642.62
409.344	618.62
409.567	586.62
409.791	591.62
410.014	560.62
410.238	587.62
410.461	568.62
410.685	558.62
410.908	566.62
411.132	588.62
411.355	610.62
411.578	596.62
411.802	564.62
412.025	559.62
412.249	540.62
412.472	562.62
412.695	615.62
412.919	584.62
413.142	578.62
413.365	543.62
413.589	526.62
413.812	532.62
414.035	540.62
414.258	510.62
414.482	531.62
414.705	530.62
414.928	554.62
415.151	503.62
415.374	548.62
415.597	522.62
415.821	520.62
416.044	534.62
416.267	511.62
416.49	530.62
416.713	498.62
416.936	515.62
417.159	555.62
417.382	507.62
417.605	528.62
417.828	505.62
418.051	559.62
418.274	518.62
418.497	522.62
418.72	532.62
418.943	528.62
419.166	552.62
419.389	580.62
419.611	569.62
419.834	532.62
420.057	560.62
420.28	557.62
420.503	559.62
420.726	532.62
420.948	545.62
421.171	569.62
421.394	595.62
421.617	543.62
421.839	531.62
422.062	529.62
422.285	552.62
422.507	585.62
422.73	634.62
422.953	580.62
423.175	578.62
423.398	535.62
423.621	550.62
423.843	561.62
424.066	560.62
424.288	578.62
424.511	568.62
424.733	594.62
424.956	662.62
425.178	640.62
425.401	632.62
425.623	682.62
425.846	590.62
426.068	554.62
426.291	543.62
426.513	556.62
426.735	538.62
426.958	566.62
427.18	623.62
427.402	720.62
427.625	787.62
427.847	648.62
428.069	602.62
428.292	552.62
428.514	527.62
428.736	510.62
428.958	512.62
429.181	496.62
429.403	506.62
429.625	506.62
429.847	544.62
430.069	562.62
430.292	574.62
430.514	512.62
430.736	510.62
430.958	502.62
431.18	487.62
431.402	483.62
431.624	490.62
431.846	487.62
432.068	482.62
432.29	502.62
432.512	493.62
432.734	510.62
432.956	498.62
433.178	483.62
433.4	510.62
433.622	498.62
433.844	514.62
434.066	489.62
434.287	505.62
434.509	496.62
434.731	514.62
434.953	518.62
435.175	534.62
435.397	550.62
435.618	543.62
435.84	556.62
436.062	615.62
436.284	683.62
436.505	605.62
436.727	554.62
436.949	509.62
437.17	508.62
437.392	525.62
437.614	497.62
437.835	514.62
438.057	590.62
438.278	628.62
438.5	673.62
438.721	706.62
438.943	697.62
439.165	594.62
439.386	543.62
439.608	547.62
439.829	526.62
440.05	544.62
440.272	565.62
440.493	564.62
440.715	514.62
440.936	530.62
441.158	534.62
441.379	526.62
441.6	557.62
441.822	565.62
442.043	557.62
442.264	621.62
442.486	664.62
442.707	589.62
442.928	555.62
443.149	538.62
443.371	571.62
443.592	607.62
443.813	634.62
444.034	730.62
444.255	620.62
444.476	587.62
444.698	591.62
444.919	593.62
445.14	700.62
445.361	642.62
445.582	605.62
445.803	601.62
446.024	650.62
446.245	670.62
446.466	636.62
446.687	570.62
446.908	550.62
447.129	521.62
447.35	515.62
447.571	493.62
447.792	471.62
448.013	483.62
448.234	498.62
448.455	527.62
448.675	595.62
448.896	696.62
449.117	602.62
449.338	585.62
449.559	653.62
449.779	718.62
450	598.62
450.221	520.62
450.442	470.62
450.662	493.62
450.883	485.62
451.104	494.62
451.324	484.62
451.545	470.62
451.766	460.62
451.986	464.62
452.207	434.62
452.428	446.62
452.648	450.62
452.869	442.62
453.089	447.62
453.31	471.62
453.53	452.62
453.751	455.62
453.971	450.62
454.192	452.62
454.412	447.62
454.633	437.62
454.853	438.62
455.073	423.62
455.294	438.62
455.514	506.62
455.734	501.62
455.955	457.62
456.175	424.62
456.395	436.62
456.616	435.62
456.836	437.62
457.056	454.62
457.276	420.62
457.497	444.62
457.717	425.62
457.937	429.62
458.157	464.62
458.377	445.62
458.598	478.62
458.818	490.62
459.038	526.62
459.258	548.62
459.478	516.62
459.698	494.62
459.918	489.62
460.138	510.62
460.358	540.62
460.578	524.62
460.798	523.62
461.018	526.62
461.238	525.62
461.458	524.62
461.678	536.62
461.898	536.62
462.118	536.62
462.338	543.62
462.558	577.62
462.777	546.62
462.997	602.62
463.217	618.62
463.437	631.62
463.657	607.62
463.876	566.62
464.096	589.62
464.316	590.62
464.536	594.62
464.755	571.62
464.975	562.62
465.195	578.62
465.414	600.62
465.634	536.62
465.854	535.62
466.073	507.62
466.293	483.62
466.512	481.62
466.732	485.62
466.951	473.62
467.171	479.62
467.391	483.62
467.61	464.62
467.829	460.62
468.049	485.62
468.268	489.62
468.488	464.62
468.707	457.62
468.927	480.62
469.146	482.62
469.365	483.62
469.585	460.62
469.804	456.62
470.023	493.62
470.243	491.62
470.462	501.62
470.681	488.62
470.901	498.62
471.12	494.62
471.339	493.62
471.558	485.62
471.777	468.62
471.997	480.62
472.216	488.62
472.435	479.62
472.654	487.62
472.873	480.62
473.092	478.62
473.311	453.62
473.53	459.62
473.749	443.62
473.968	519.62
474.187	560.62
474.406	573.62
474.625	495.62
474.844	487.62
475.063	464.62
475.282	473.62
475.501	492.62
475.72	461.62
475.939	481.62
476.158	475.62
476.377	467.62
476.596	504.62
476.814	459.62
477.033	498.62
477.252	503.62
477.471	482.62
477.69	526.62
477.908	516.62
478.127	536.62
478.346	536.62
478.564	533.62
478.783	534.62
479.002	563.62
479.22	549.62
479.439	564.62
479.658	568.62
479.876	560.62
480.095	584.62
480.313	615.62
480.532	592.62
480.751	592.62
480.969	579.62
481.188	608.62
481.406	634.62
481.624	582.62
481.843	560.62
482.061	573.62
482.28	555.62
482.498	525.62
482.717	557.62
482.935	557.62
483.153	554.62
483.372	547.62
483.59	558.62
483.808	516.62
484.027	583.62
484.245	561.62
484.463	581.62
484.681	542.62
484.9	562.62
485.118	563.62
485.336	567.62
485.554	568.62
485.772	570.62
485.99	579.62
486.209	568.62
486.427	563.62
486.645	572.62
486.863	590.62
487.081	596.62
487.299	578.62
487.517	604.62
487.735	586.62
487.953	590.62
488.171	564.62
488.389	572.62
488.607	577.62
488.825	582.62
489.043	596.62
489.261	574.62
489.479	574.62
489.696	576.62
489.914	580.62
490.132	583.62
490.35	606.62
490.568	604.62
490.786	600.62
491.003	638.62
491.221	599.62
491.439	602.62
491.657	635.62
491.874	613.62
492.092	612.62
492.31	657.62
492.527	636.62
492.745	622.62
492.963	646.62
493.18	646.62
493.398	657.62
493.615	652.62
493.833	668.62
494.05	642.62
494.268	647.62
494.485	648.62
494.703	646.62
494.92	655.62
495.138	667.62
495.355	667.62
495.573	675.62
495.79	648.62
496.008	662.62
496.225	659.62
496.442	683.62
496.66	687.62
496.877	694.62
497.094	682.62
497.312	668.62
497.529	693.62
497.746	712.62
497.963	739.62
498.181	749.62
498.398	786.62
498.615	788.62
498.832	802.62
499.049	847.62
499.267	862.62
499.484	950.62
499.701	981.62
499.918	990.62
500.135	1114.62
500.352	1221.62
500.569	1256.62
500.786	1239.62
501.003	1158.62
501.22	1142.62
501.437	1065.62
501.654	986.62
501.871	949.62
502.088	882.62
