Data from 1962.PennyLincolnUp.Lamp.En5.5.200Scan.071719.P1._HRD10591_13-54-12-061.txt Node
Date: Thu Jul 18 13:54:12 EDT 2019
User: cochatt
Spectrometer: HR+D1059
Trigger mode: 1
Integration Time (sec): 1.000000E-1
Scans to average: 1
Electric dark correction enabled: true
Nonlinearity correction enabled: false
Boxcar width: 0
XAxis mode: Wavelengths
Number of Pixels in Spectrum: 2048
>>>>>Begin Spectral Data<<<<<
223.165	-25.94
223.4	-25.94
223.635	-25.94
223.869	-28.94
224.104	-23.94
224.338	-12.94
224.573	2.06
224.808	-10.94
225.042	-3.94
225.277	-0.94
225.511	-7.94
225.746	-1.94
225.98	6.06
226.215	14.06
226.449	30.06
226.683	26.06
226.918	5.06
227.152	34.06
227.387	38.06
227.621	39.06
227.856	52.06
228.09	62.06
228.324	48.06
228.559	42.06
228.793	61.06
229.027	90.06
229.262	95.06
229.496	92.06
229.73	105.06
229.964	121.06
230.199	112.06
230.433	104.06
230.667	111.06
230.901	105.06
231.136	115.06
231.37	96.06
231.604	101.06
231.838	111.06
232.072	103.06
232.306	114.06
232.541	114.06
232.775	102.06
233.009	118.06
233.243	119.06
233.477	111.06
233.711	102.06
233.945	114.06
234.179	116.06
234.413	121.06
234.647	118.06
234.881	114.06
235.115	98.06
235.349	99.06
235.583	115.06
235.817	98.06
236.051	127.06
236.285	127.06
236.519	106.06
236.753	119.06
236.987	120.06
237.221	156.06
237.455	183.06
237.689	139.06
237.922	119.06
238.156	136.06
238.39	126.06
238.624	99.06
238.858	132.06
239.091	109.06
239.325	122.06
239.559	124.06
239.793	133.06
240.027	127.06
240.26	141.06
240.494	146.06
240.728	123.06
240.961	131.06
241.195	136.06
241.429	133.06
241.662	122.06
241.896	104.06
242.13	111.06
242.363	117.06
242.597	131.06
242.83	140.06
243.064	150.06
243.298	140.06
243.531	131.06
243.765	137.06
243.998	129.06
244.232	142.06
244.465	131.06
244.699	136.06
244.932	136.06
245.166	148.06
245.399	155.06
245.633	138.06
245.866	149.06
246.099	133.06
246.333	114.06
246.566	152.06
246.8	146.06
247.033	149.06
247.266	133.06
247.5	155.06
247.733	170.06
247.966	171.06
248.2	163.06
248.433	177.06
248.666	155.06
248.899	166.06
249.133	185.06
249.366	181.06
249.599	171.06
249.832	178.06
250.066	168.06
250.299	168.06
250.532	185.06
250.765	152.06
250.998	196.06
251.231	192.06
251.465	173.06
251.698	188.06
251.931	179.06
252.164	179.06
252.397	157.06
252.63	180.06
252.863	171.06
253.096	182.06
253.329	192.06
253.562	184.06
253.795	183.06
254.028	196.06
254.261	191.06
254.494	203.06
254.727	220.06
254.96	233.06
255.193	233.06
255.426	210.06
255.659	195.06
255.892	214.06
256.124	204.06
256.357	201.06
256.59	212.06
256.823	201.06
257.056	190.06
257.289	185.06
257.521	185.06
257.754	196.06
257.987	191.06
258.22	186.06
258.452	190.06
258.685	198.06
258.918	180.06
259.151	192.06
259.383	198.06
259.616	194.06
259.849	200.06
260.081	204.06
260.314	234.06
260.547	217.06
260.779	218.06
261.012	218.06
261.244	224.06
261.477	218.06
261.71	202.06
261.942	202.06
262.175	207.06
262.407	203.06
262.64	193.06
262.872	210.06
263.105	205.06
263.337	226.06
263.57	217.06
263.802	213.06
264.035	206.06
264.267	211.06
264.499	202.06
264.732	216.06
264.964	206.06
265.197	199.06
265.429	201.06
265.661	210.06
265.894	196.06
266.126	198.06
266.358	210.06
266.591	194.06
266.823	208.06
267.055	208.06
267.287	214.06
267.52	204.06
267.752	213.06
267.984	224.06
268.216	225.06
268.448	223.06
268.681	210.06
268.913	242.06
269.145	232.06
269.377	246.06
269.609	254.06
269.841	240.06
270.073	247.06
270.306	257.06
270.538	262.06
270.77	273.06
271.002	279.06
271.234	263.06
271.466	257.06
271.698	291.06
271.93	275.06
272.162	268.06
272.394	280.06
272.626	266.06
272.858	254.06
273.09	263.06
273.322	227.06
273.553	244.06
273.785	250.06
274.017	238.06
274.249	239.06
274.481	250.06
274.713	255.06
274.945	257.06
275.176	249.06
275.408	252.06
275.64	245.06
275.872	250.06
276.104	247.06
276.335	266.06
276.567	262.06
276.799	274.06
277.031	267.06
277.262	288.06
277.494	292.06
277.726	286.06
277.957	275.06
278.189	260.06
278.421	271.06
278.652	268.06
278.884	274.06
279.115	245.06
279.347	270.06
279.579	264.06
279.81	292.06
280.042	277.06
280.273	271.06
280.505	265.06
280.736	271.06
280.968	256.06
281.199	261.06
281.431	264.06
281.662	258.06
281.894	277.06
282.125	263.06
282.356	280.06
282.588	288.06
282.819	276.06
283.051	271.06
283.282	276.06
283.513	271.06
283.745	285.06
283.976	277.06
284.207	287.06
284.439	276.06
284.67	268.06
284.901	280.06
285.132	284.06
285.364	282.06
285.595	265.06
285.826	278.06
286.057	276.06
286.288	276.06
286.52	278.06
286.751	267.06
286.982	280.06
287.213	258.06
287.444	280.06
287.675	282.06
287.906	299.06
288.138	298.06
288.369	314.06
288.6	298.06
288.831	295.06
289.062	290.06
289.293	304.06
289.524	298.06
289.755	298.06
289.986	292.06
290.217	295.06
290.448	288.06
290.679	317.06
290.91	294.06
291.141	292.06
291.371	310.06
291.602	291.06
291.833	288.06
292.064	293.06
292.295	287.06
292.526	294.06
292.757	276.06
292.987	299.06
293.218	286.06
293.449	298.06
293.68	287.06
293.91	286.06
294.141	273.06
294.372	287.06
294.603	293.06
294.833	294.06
295.064	285.06
295.295	295.06
295.525	299.06
295.756	313.06
295.987	300.06
296.217	314.06
296.448	336.06
296.679	296.06
296.909	322.06
297.14	305.06
297.37	313.06
297.601	321.06
297.831	308.06
298.062	288.06
298.292	318.06
298.523	322.06
298.753	311.06
298.984	316.06
299.214	325.06
299.445	320.06
299.675	327.06
299.905	323.06
300.136	318.06
300.366	303.06
300.597	312.06
300.827	347.06
301.057	330.06
301.288	328.06
301.518	314.06
301.748	312.06
301.979	329.06
302.209	322.06
302.439	329.06
302.669	329.06
302.9	350.06
303.13	328.06
303.36	325.06
303.59	340.06
303.82	333.06
304.051	335.06
304.281	334.06
304.511	313.06
304.741	337.06
304.971	318.06
305.201	311.06
305.431	331.06
305.661	322.06
305.891	323.06
306.121	355.06
306.352	347.06
306.582	327.06
306.812	327.06
307.042	340.06
307.272	321.06
307.502	336.06
307.731	343.06
307.961	346.06
308.191	301.06
308.421	325.06
308.651	313.06
308.881	345.06
309.111	324.06
309.341	342.06
309.571	341.06
309.8	339.06
310.03	352.06
310.26	353.06
310.49	351.06
310.72	358.06
310.949	373.06
311.179	354.06
311.409	361.06
311.639	360.06
311.868	366.06
312.098	362.06
312.328	370.06
312.557	382.06
312.787	389.06
313.017	391.06
313.246	367.06
313.476	356.06
313.706	360.06
313.935	360.06
314.165	373.06
314.394	380.06
314.624	356.06
314.853	364.06
315.083	370.06
315.312	378.06
315.542	369.06
315.771	378.06
316.001	378.06
316.23	360.06
316.46	380.06
316.689	373.06
316.919	339.06
317.148	373.06
317.377	364.06
317.607	357.06
317.836	369.06
318.065	368.06
318.295	358.06
318.524	360.06
318.753	361.06
318.983	380.06
319.212	360.06
319.441	360.06
319.67	388.06
319.9	373.06
320.129	370.06
320.358	367.06
320.587	393.06
320.816	392.06
321.046	387.06
321.275	364.06
321.504	359.06
321.733	363.06
321.962	373.06
322.191	386.06
322.42	385.06
322.649	423.06
322.878	408.06
323.108	412.06
323.337	427.06
323.566	411.06
323.795	431.06
324.024	470.06
324.253	528.06
324.482	688.06
324.71	969.06
324.939	1312.06
325.168	1193.06
325.397	678.06
325.626	508.06
325.855	449.06
326.084	462.06
326.313	460.06
326.542	446.06
326.77	464.06
326.999	497.06
327.228	631.06
327.457	869.06
327.686	1078.06
327.914	752.06
328.143	546.06
328.372	482.06
328.6	467.06
328.829	460.06
329.058	466.06
329.287	482.06
329.515	485.06
329.744	461.06
329.972	448.06
330.201	465.06
330.43	471.06
330.658	478.06
330.887	499.06
331.115	510.06
331.344	458.06
331.572	458.06
331.801	463.06
332.03	473.06
332.258	457.06
332.486	453.06
332.715	442.06
332.943	456.06
333.172	450.06
333.4	466.06
333.629	482.06
333.857	490.06
334.085	498.06
334.314	482.06
334.542	497.06
334.771	510.06
334.999	476.06
335.227	472.06
335.455	452.06
335.684	458.06
335.912	455.06
336.14	449.06
336.369	445.06
336.597	458.06
336.825	439.06
337.053	462.06
337.281	437.06
337.51	434.06
337.738	464.06
337.966	420.06
338.194	426.06
338.422	434.06
338.65	454.06
338.878	426.06
339.106	436.06
339.334	415.06
339.562	425.06
339.79	397.06
340.018	406.06
340.246	406.06
340.474	403.06
340.702	403.06
340.93	419.06
341.158	403.06
341.386	402.06
341.614	405.06
341.842	405.06
342.07	406.06
342.298	427.06
342.526	394.06
342.754	411.06
342.981	406.06
343.209	404.06
343.437	433.06
343.665	439.06
343.893	438.06
344.12	458.06
344.348	452.06
344.576	438.06
344.804	443.06
345.031	426.06
345.259	443.06
345.487	427.06
345.714	433.06
345.942	420.06
346.17	402.06
346.397	387.06
346.625	382.06
346.853	419.06
347.08	396.06
347.308	412.06
347.535	385.06
347.763	404.06
347.99	390.06
348.218	414.06
348.445	395.06
348.673	414.06
348.9	410.06
349.128	389.06
349.355	390.06
349.583	391.06
349.81	409.06
350.037	384.06
350.265	392.06
350.492	379.06
350.72	427.06
350.947	411.06
351.174	394.06
351.402	398.06
351.629	401.06
351.856	391.06
352.083	389.06
352.311	395.06
352.538	403.06
352.765	419.06
352.992	403.06
353.22	394.06
353.447	390.06
353.674	411.06
353.901	416.06
354.128	396.06
354.355	378.06
354.583	391.06
354.81	376.06
355.037	370.06
355.264	394.06
355.491	368.06
355.718	377.06
355.945	380.06
356.172	402.06
356.399	390.06
356.626	372.06
356.853	379.06
357.08	378.06
357.307	374.06
357.534	374.06
357.761	372.06
357.988	384.06
358.215	383.06
358.441	383.06
358.668	393.06
358.895	360.06
359.122	375.06
359.349	416.06
359.576	402.06
359.802	400.06
360.029	412.06
360.256	429.06
360.483	427.06
360.709	399.06
360.936	378.06
361.163	390.06
361.39	400.06
361.616	393.06
361.843	382.06
362.07	396.06
362.296	394.06
362.523	395.06
362.749	382.06
362.976	382.06
363.203	385.06
363.429	374.06
363.656	386.06
363.882	378.06
364.109	378.06
364.335	377.06
364.562	399.06
364.788	379.06
365.015	393.06
365.241	394.06
365.468	403.06
365.694	382.06
365.92	378.06
366.147	406.06
366.373	395.06
366.599	402.06
366.826	394.06
367.052	394.06
367.278	385.06
367.505	386.06
367.731	384.06
367.957	390.06
368.184	387.06
368.41	404.06
368.636	388.06
368.862	410.06
369.089	381.06
369.315	386.06
369.541	382.06
369.767	380.06
369.993	383.06
370.219	396.06
370.445	400.06
370.672	371.06
370.898	388.06
371.124	396.06
371.35	387.06
371.576	392.06
371.802	393.06
372.028	410.06
372.254	408.06
372.48	426.06
372.706	396.06
372.932	408.06
373.158	404.06
373.384	400.06
373.61	416.06
373.835	399.06
374.061	422.06
374.287	416.06
374.513	400.06
374.739	420.06
374.965	410.06
375.191	414.06
375.416	433.06
375.642	389.06
375.868	407.06
376.094	403.06
376.319	396.06
376.545	397.06
376.771	392.06
376.997	391.06
377.222	380.06
377.448	403.06
377.674	396.06
377.899	396.06
378.125	401.06
378.35	378.06
378.576	395.06
378.802	400.06
379.027	394.06
379.253	400.06
379.478	401.06
379.704	400.06
379.929	388.06
380.155	402.06
380.38	399.06
380.606	395.06
380.831	400.06
381.057	408.06
381.282	395.06
381.507	422.06
381.733	417.06
381.958	391.06
382.184	409.06
382.409	415.06
382.634	396.06
382.86	414.06
383.085	432.06
383.31	414.06
383.535	421.06
383.761	409.06
383.986	426.06
384.211	437.06
384.436	425.06
384.662	434.06
384.887	443.06
385.112	446.06
385.337	438.06
385.562	460.06
385.787	464.06
386.013	465.06
386.238	466.06
386.463	460.06
386.688	451.06
386.913	424.06
387.138	446.06
387.363	450.06
387.588	473.06
387.813	454.06
388.038	459.06
388.263	422.06
388.488	448.06
388.713	459.06
388.938	479.06
389.163	467.06
389.387	466.06
389.612	444.06
389.837	434.06
390.062	451.06
390.287	443.06
390.512	455.06
390.736	464.06
390.961	443.06
391.186	457.06
391.411	461.06
391.636	488.06
391.86	484.06
392.085	468.06
392.31	482.06
392.534	453.06
392.759	448.06
392.984	462.06
393.208	457.06
393.433	464.06
393.658	465.06
393.882	483.06
394.107	454.06
394.331	478.06
394.556	464.06
394.78	468.06
395.005	455.06
395.229	473.06
395.454	470.06
395.678	512.06
395.903	521.06
396.127	478.06
396.352	478.06
396.576	484.06
396.801	464.06
397.025	474.06
397.249	479.06
397.474	497.06
397.698	498.06
397.922	505.06
398.147	518.06
398.371	521.06
398.595	516.06
398.82	536.06
399.044	552.06
399.268	582.06
399.492	619.06
399.717	655.06
399.941	723.06
400.165	678.06
400.389	664.06
400.613	624.06
400.837	569.06
401.062	553.06
401.286	534.06
401.51	544.06
401.734	534.06
401.958	572.06
402.182	530.06
402.406	576.06
402.63	562.06
402.854	536.06
403.078	559.06
403.302	556.06
403.526	566.06
403.75	576.06
403.974	592.06
404.198	554.06
404.422	560.06
404.645	558.06
404.869	584.06
405.093	608.06
405.317	609.06
405.541	654.06
405.765	629.06
405.988	601.06
406.212	574.06
406.436	591.06
406.66	584.06
406.883	591.06
407.107	633.06
407.331	677.06
407.555	708.06
407.778	676.06
408.002	666.06
408.226	618.06
408.449	610.06
408.673	607.06
408.896	617.06
409.12	652.06
409.344	610.06
409.567	584.06
409.791	574.06
410.014	550.06
410.238	567.06
410.461	551.06
410.685	589.06
410.908	556.06
411.132	576.06
411.355	605.06
411.578	592.06
411.802	574.06
412.025	537.06
412.249	573.06
412.472	580.06
412.695	594.06
412.919	587.06
413.142	552.06
413.365	536.06
413.589	544.06
413.812	511.06
414.035	509.06
414.258	538.06
414.482	530.06
414.705	520.06
414.928	515.06
415.151	528.06
415.374	554.06
415.597	526.06
415.821	519.06
416.044	518.06
416.267	509.06
416.49	532.06
416.713	525.06
416.936	523.06
417.159	508.06
417.382	550.06
417.605	503.06
417.828	523.06
418.051	543.06
418.274	530.06
418.497	528.06
418.72	542.06
418.943	533.06
419.166	549.06
419.389	592.06
419.611	569.06
419.834	558.06
420.057	554.06
420.28	560.06
420.503	547.06
420.726	522.06
420.948	560.06
421.171	566.06
421.394	607.06
421.617	539.06
421.839	546.06
422.062	546.06
422.285	550.06
422.507	588.06
422.73	628.06
422.953	616.06
423.175	579.06
423.398	573.06
423.621	561.06
423.843	565.06
424.066	560.06
424.288	575.06
424.511	579.06
424.733	606.06
424.956	650.06
425.178	626.06
425.401	631.06
425.623	638.06
425.846	592.06
426.068	577.06
426.291	536.06
426.513	522.06
426.735	538.06
426.958	585.06
427.18	605.06
427.402	723.06
427.625	768.06
427.847	657.06
428.069	612.06
428.292	579.06
428.514	547.06
428.736	522.06
428.958	535.06
429.181	524.06
429.403	510.06
429.625	513.06
429.847	533.06
430.069	566.06
430.292	592.06
430.514	525.06
430.736	511.06
430.958	496.06
431.18	499.06
431.402	522.06
431.624	498.06
431.846	482.06
432.068	513.06
432.29	499.06
432.512	511.06
432.734	501.06
432.956	489.06
433.178	488.06
433.4	514.06
433.622	494.06
433.844	512.06
434.066	514.06
434.287	497.06
434.509	498.06
434.731	542.06
434.953	527.06
435.175	550.06
435.397	534.06
435.618	532.06
435.84	570.06
436.062	630.06
436.284	691.06
436.505	578.06
436.727	549.06
436.949	516.06
437.17	533.06
437.392	516.06
437.614	507.06
437.835	538.06
438.057	600.06
438.278	635.06
438.5	660.06
438.721	699.06
438.943	697.06
439.165	583.06
439.386	542.06
439.608	532.06
439.829	550.06
440.05	539.06
440.272	583.06
440.493	565.06
440.715	521.06
440.936	510.06
441.158	524.06
441.379	499.06
441.6	525.06
441.822	547.06
442.043	582.06
442.264	624.06
442.486	653.06
442.707	569.06
442.928	557.06
443.149	552.06
443.371	581.06
443.592	604.06
443.813	657.06
444.034	721.06
444.255	625.06
444.476	588.06
444.698	623.06
444.919	600.06
445.14	702.06
445.361	634.06
445.582	619.06
445.803	619.06
446.024	680.06
446.245	670.06
446.466	619.06
446.687	546.06
446.908	528.06
447.129	530.06
447.35	510.06
447.571	502.06
447.792	490.06
448.013	486.06
448.234	491.06
448.455	537.06
448.675	627.06
448.896	714.06
449.117	591.06
449.338	592.06
449.559	645.06
449.779	719.06
450	597.06
450.221	510.06
450.442	515.06
450.662	478.06
450.883	480.06
451.104	471.06
451.324	497.06
451.545	457.06
451.766	458.06
451.986	454.06
452.207	450.06
452.428	458.06
452.648	434.06
452.869	441.06
453.089	465.06
453.31	470.06
453.53	451.06
453.751	459.06
453.971	451.06
454.192	467.06
454.412	455.06
454.633	416.06
454.853	429.06
455.073	436.06
455.294	461.06
455.514	496.06
455.734	482.06
455.955	452.06
456.175	418.06
456.395	430.06
456.616	428.06
456.836	442.06
457.056	431.06
457.276	420.06
457.497	449.06
457.717	441.06
457.937	420.06
458.157	454.06
458.377	471.06
458.598	489.06
458.818	508.06
459.038	542.06
459.258	556.06
459.478	536.06
459.698	515.06
459.918	526.06
460.138	510.06
460.358	517.06
460.578	549.06
460.798	530.06
461.018	515.06
461.238	524.06
461.458	522.06
461.678	533.06
461.898	556.06
462.118	549.06
462.338	574.06
462.558	559.06
462.777	563.06
462.997	595.06
463.217	602.06
463.437	636.06
463.657	588.06
463.876	586.06
464.096	581.06
464.316	575.06
464.536	587.06
464.755	579.06
464.975	562.06
465.195	582.06
465.414	575.06
465.634	529.06
465.854	521.06
466.073	498.06
466.293	490.06
466.512	483.06
466.732	483.06
466.951	488.06
467.171	457.06
467.391	469.06
467.61	491.06
467.829	472.06
468.049	459.06
468.268	478.06
468.488	468.06
468.707	450.06
468.927	474.06
469.146	458.06
469.365	475.06
469.585	466.06
469.804	476.06
470.023	484.06
470.243	482.06
470.462	482.06
470.681	474.06
470.901	498.06
471.12	472.06
471.339	481.06
471.558	472.06
471.777	469.06
471.997	473.06
472.216	465.06
472.435	474.06
472.654	481.06
472.873	463.06
473.092	469.06
473.311	483.06
473.53	472.06
473.749	459.06
473.968	503.06
474.187	540.06
474.406	567.06
474.625	505.06
474.844	475.06
475.063	482.06
475.282	487.06
475.501	463.06
475.72	476.06
475.939	491.06
476.158	490.06
476.377	497.06
476.596	516.06
476.814	484.06
477.033	502.06
477.252	501.06
477.471	505.06
477.69	526.06
477.908	517.06
478.127	527.06
478.346	524.06
478.564	543.06
478.783	537.06
479.002	555.06
479.22	578.06
479.439	560.06
479.658	563.06
479.876	548.06
480.095	583.06
480.313	598.06
480.532	611.06
480.751	580.06
480.969	604.06
481.188	600.06
481.406	617.06
481.624	586.06
481.843	583.06
482.061	548.06
482.28	573.06
482.498	537.06
482.717	524.06
482.935	560.06
483.153	523.06
483.372	555.06
483.59	547.06
483.808	539.06
484.027	554.06
484.245	548.06
484.463	558.06
484.681	572.06
484.9	551.06
485.118	551.06
485.336	554.06
485.554	581.06
485.772	576.06
485.99	540.06
486.209	565.06
486.427	566.06
486.645	571.06
486.863	580.06
487.081	580.06
487.299	564.06
487.517	559.06
487.735	562.06
487.953	565.06
488.171	581.06
488.389	586.06
488.607	616.06
488.825	578.06
489.043	599.06
489.261	568.06
489.479	592.06
489.696	573.06
489.914	586.06
490.132	603.06
490.35	603.06
490.568	590.06
490.786	585.06
491.003	602.06
491.221	613.06
491.439	634.06
491.657	630.06
491.874	624.06
492.092	630.06
492.31	616.06
492.527	624.06
492.745	622.06
492.963	659.06
493.18	642.06
493.398	667.06
493.615	675.06
493.833	662.06
494.05	652.06
494.268	676.06
494.485	656.06
494.703	642.06
494.92	670.06
495.138	682.06
495.355	668.06
495.573	665.06
495.79	664.06
496.008	674.06
496.225	682.06
496.442	663.06
496.66	672.06
496.877	682.06
497.094	691.06
497.312	729.06
497.529	705.06
497.746	754.06
497.963	717.06
498.181	756.06
498.398	765.06
498.615	799.06
498.832	842.06
499.049	855.06
499.267	897.06
499.484	940.06
499.701	979.06
499.918	1061.06
500.135	1115.06
500.352	1194.06
500.569	1208.06
500.786	1222.06
501.003	1199.06
501.22	1111.06
501.437	1081.06
501.654	1010.06
501.871	968.06
