Data from 1962.PennyLincolnUp.Lamp.En5.5.200Scan.071719.P1._HRD10591_13-54-59-061.txt Node
Date: Thu Jul 18 13:54:59 EDT 2019
User: cochatt
Spectrometer: HR+D1059
Trigger mode: 1
Integration Time (sec): 1.000000E-1
Scans to average: 1
Electric dark correction enabled: true
Nonlinearity correction enabled: false
Boxcar width: 0
XAxis mode: Wavelengths
Number of Pixels in Spectrum: 2048
>>>>>Begin Spectral Data<<<<<
223.165	-14.88
223.4	-14.88
223.635	-14.88
223.869	-21.88
224.104	-18.88
224.338	-6.88
224.573	-13.88
224.808	-28.88
225.042	-6.88
225.277	-8.88
225.511	-0.88
225.746	16.12
225.98	14.12
226.215	8.12
226.449	12.12
226.683	15.12
226.918	31.12
227.152	25.12
227.387	26.12
227.621	47.12
227.856	39.12
228.09	47.12
228.324	43.12
228.559	50.12
228.793	51.12
229.027	86.12
229.262	86.12
229.496	90.12
229.73	110.12
229.964	143.12
230.199	107.12
230.433	102.12
230.667	111.12
230.901	106.12
231.136	98.12
231.37	115.12
231.604	111.12
231.838	96.12
232.072	103.12
232.306	107.12
232.541	111.12
232.775	103.12
233.009	118.12
233.243	105.12
233.477	98.12
233.711	109.12
233.945	117.12
234.179	114.12
234.413	122.12
234.647	105.12
234.881	118.12
235.115	115.12
235.349	105.12
235.583	108.12
235.817	111.12
236.051	123.12
236.285	110.12
236.519	115.12
236.753	126.12
236.987	139.12
237.221	141.12
237.455	188.12
237.689	171.12
237.922	137.12
238.156	124.12
238.39	117.12
238.624	115.12
238.858	119.12
239.091	123.12
239.325	133.12
239.559	125.12
239.793	111.12
240.027	120.12
240.26	141.12
240.494	135.12
240.728	133.12
240.961	126.12
241.195	146.12
241.429	127.12
241.662	129.12
241.896	130.12
242.13	116.12
242.363	131.12
242.597	132.12
242.83	131.12
243.064	147.12
243.298	134.12
243.531	128.12
243.765	130.12
243.998	122.12
244.232	138.12
244.465	145.12
244.699	157.12
244.932	132.12
245.166	139.12
245.399	135.12
245.633	137.12
245.866	145.12
246.099	148.12
246.333	142.12
246.566	157.12
246.8	141.12
247.033	142.12
247.266	149.12
247.5	158.12
247.733	157.12
247.966	145.12
248.2	166.12
248.433	163.12
248.666	156.12
248.899	168.12
249.133	184.12
249.366	174.12
249.599	189.12
249.832	177.12
250.066	171.12
250.299	181.12
250.532	169.12
250.765	184.12
250.998	185.12
251.231	211.12
251.465	195.12
251.698	185.12
251.931	169.12
252.164	181.12
252.397	187.12
252.63	192.12
252.863	173.12
253.096	180.12
253.329	210.12
253.562	195.12
253.795	189.12
254.028	206.12
254.261	208.12
254.494	213.12
254.727	223.12
254.96	255.12
255.193	258.12
255.426	217.12
255.659	207.12
255.892	198.12
256.124	226.12
256.357	192.12
256.59	208.12
256.823	211.12
257.056	203.12
257.289	184.12
257.521	216.12
257.754	199.12
257.987	195.12
258.22	190.12
258.452	185.12
258.685	191.12
258.918	197.12
259.151	195.12
259.383	206.12
259.616	203.12
259.849	193.12
260.081	238.12
260.314	231.12
260.547	237.12
260.779	227.12
261.012	206.12
261.244	227.12
261.477	209.12
261.71	219.12
261.942	217.12
262.175	197.12
262.407	208.12
262.64	215.12
262.872	200.12
263.105	214.12
263.337	194.12
263.57	216.12
263.802	227.12
264.035	220.12
264.267	214.12
264.499	211.12
264.732	217.12
264.964	195.12
265.197	205.12
265.429	215.12
265.661	206.12
265.894	201.12
266.126	211.12
266.358	219.12
266.591	233.12
266.823	230.12
267.055	214.12
267.287	226.12
267.52	222.12
267.752	205.12
267.984	234.12
268.216	211.12
268.448	200.12
268.681	239.12
268.913	253.12
269.145	248.12
269.377	265.12
269.609	257.12
269.841	238.12
270.073	254.12
270.306	266.12
270.538	290.12
270.77	290.12
271.002	290.12
271.234	294.12
271.466	274.12
271.698	292.12
271.93	276.12
272.162	307.12
272.394	282.12
272.626	273.12
272.858	274.12
273.09	268.12
273.322	262.12
273.553	263.12
273.785	264.12
274.017	267.12
274.249	240.12
274.481	246.12
274.713	258.12
274.945	254.12
275.176	254.12
275.408	258.12
275.64	263.12
275.872	247.12
276.104	258.12
276.335	281.12
276.567	274.12
276.799	259.12
277.031	288.12
277.262	308.12
277.494	300.12
277.726	309.12
277.957	290.12
278.189	273.12
278.421	269.12
278.652	272.12
278.884	252.12
279.115	261.12
279.347	273.12
279.579	267.12
279.81	258.12
280.042	275.12
280.273	274.12
280.505	261.12
280.736	260.12
280.968	262.12
281.199	265.12
281.431	251.12
281.662	286.12
281.894	278.12
282.125	274.12
282.356	286.12
282.588	291.12
282.819	306.12
283.051	296.12
283.282	275.12
283.513	276.12
283.745	293.12
283.976	271.12
284.207	291.12
284.439	288.12
284.67	293.12
284.901	282.12
285.132	273.12
285.364	292.12
285.595	281.12
285.826	281.12
286.057	286.12
286.288	292.12
286.52	282.12
286.751	286.12
286.982	313.12
287.213	273.12
287.444	264.12
287.675	315.12
287.906	298.12
288.138	309.12
288.369	301.12
288.6	289.12
288.831	294.12
289.062	313.12
289.293	307.12
289.524	303.12
289.755	289.12
289.986	281.12
290.217	308.12
290.448	303.12
290.679	292.12
290.91	312.12
291.141	288.12
291.371	301.12
291.602	309.12
291.833	303.12
292.064	305.12
292.295	296.12
292.526	317.12
292.757	267.12
292.987	277.12
293.218	288.12
293.449	315.12
293.68	306.12
293.91	313.12
294.141	301.12
294.372	297.12
294.603	304.12
294.833	301.12
295.064	302.12
295.295	319.12
295.525	300.12
295.756	324.12
295.987	312.12
296.217	323.12
296.448	321.12
296.679	325.12
296.909	302.12
297.14	313.12
297.37	321.12
297.601	317.12
297.831	309.12
298.062	314.12
298.292	306.12
298.523	339.12
298.753	318.12
298.984	331.12
299.214	333.12
299.445	317.12
299.675	291.12
299.905	323.12
300.136	336.12
300.366	307.12
300.597	337.12
300.827	331.12
301.057	338.12
301.288	334.12
301.518	340.12
301.748	330.12
301.979	331.12
302.209	329.12
302.439	352.12
302.669	353.12
302.9	349.12
303.13	324.12
303.36	345.12
303.59	349.12
303.82	345.12
304.051	341.12
304.281	344.12
304.511	342.12
304.741	327.12
304.971	346.12
305.201	342.12
305.431	361.12
305.661	349.12
305.891	357.12
306.121	345.12
306.352	331.12
306.582	356.12
306.812	326.12
307.042	332.12
307.272	337.12
307.502	341.12
307.731	328.12
307.961	334.12
308.191	328.12
308.421	354.12
308.651	338.12
308.881	318.12
309.111	356.12
309.341	356.12
309.571	348.12
309.8	356.12
310.03	361.12
310.26	341.12
310.49	359.12
310.72	371.12
310.949	377.12
311.179	391.12
311.409	364.12
311.639	362.12
311.868	363.12
312.098	375.12
312.328	382.12
312.557	372.12
312.787	375.12
313.017	388.12
313.246	378.12
313.476	372.12
313.706	402.12
313.935	387.12
314.165	381.12
314.394	389.12
314.624	389.12
314.853	362.12
315.083	393.12
315.312	376.12
315.542	386.12
315.771	372.12
316.001	369.12
316.23	378.12
316.46	379.12
316.689	382.12
316.919	385.12
317.148	376.12
317.377	399.12
317.607	384.12
317.836	373.12
318.065	369.12
318.295	360.12
318.524	393.12
318.753	385.12
318.983	370.12
319.212	398.12
319.441	385.12
319.67	383.12
319.9	391.12
320.129	390.12
320.358	402.12
320.587	399.12
320.816	382.12
321.046	395.12
321.275	410.12
321.504	380.12
321.733	385.12
321.962	400.12
322.191	413.12
322.42	401.12
322.649	424.12
322.878	427.12
323.108	431.12
323.337	440.12
323.566	433.12
323.795	451.12
324.024	478.12
324.253	577.12
324.482	739.12
324.71	1086.12
324.939	1549.12
325.168	1343.12
325.397	746.12
325.626	561.12
325.855	501.12
326.084	450.12
326.313	471.12
326.542	484.12
326.77	499.12
326.999	546.12
327.228	686.12
327.457	982.12
327.686	1189.12
327.914	835.12
328.143	585.12
328.372	560.12
328.6	490.12
328.829	498.12
329.058	488.12
329.287	492.12
329.515	500.12
329.744	492.12
329.972	478.12
330.201	511.12
330.43	496.12
330.658	553.12
330.887	519.12
331.115	517.12
331.344	480.12
331.572	450.12
331.801	482.12
332.03	472.12
332.258	464.12
332.486	437.12
332.715	465.12
332.943	468.12
333.172	491.12
333.4	474.12
333.629	490.12
333.857	512.12
334.085	494.12
334.314	521.12
334.542	522.12
334.771	522.12
334.999	524.12
335.227	465.12
335.455	471.12
335.684	486.12
335.912	471.12
336.14	450.12
336.369	460.12
336.597	451.12
336.825	479.12
337.053	502.12
337.281	465.12
337.51	454.12
337.738	453.12
337.966	452.12
338.194	443.12
338.422	456.12
338.65	440.12
338.878	424.12
339.106	426.12
339.334	435.12
339.562	434.12
339.79	447.12
340.018	433.12
340.246	445.12
340.474	430.12
340.702	444.12
340.93	424.12
341.158	429.12
341.386	452.12
341.614	437.12
341.842	445.12
342.07	424.12
342.298	437.12
342.526	411.12
342.754	409.12
342.981	421.12
343.209	430.12
343.437	447.12
343.665	440.12
343.893	470.12
344.12	482.12
344.348	468.12
344.576	445.12
344.804	471.12
345.031	457.12
345.259	450.12
345.487	440.12
345.714	432.12
345.942	427.12
346.17	438.12
346.397	439.12
346.625	430.12
346.853	418.12
347.08	420.12
347.308	429.12
347.535	401.12
347.763	430.12
347.99	423.12
348.218	410.12
348.445	435.12
348.673	401.12
348.9	409.12
349.128	438.12
349.355	404.12
349.583	395.12
349.81	404.12
350.037	416.12
350.265	399.12
350.492	416.12
350.72	418.12
350.947	411.12
351.174	419.12
351.402	435.12
351.629	407.12
351.856	417.12
352.083	407.12
352.311	405.12
352.538	417.12
352.765	438.12
352.992	418.12
353.22	416.12
353.447	413.12
353.674	403.12
353.901	400.12
354.128	397.12
354.355	388.12
354.583	396.12
354.81	397.12
355.037	420.12
355.264	385.12
355.491	389.12
355.718	387.12
355.945	379.12
356.172	372.12
356.399	385.12
356.626	406.12
356.853	394.12
357.08	397.12
357.307	395.12
357.534	386.12
357.761	381.12
357.988	401.12
358.215	410.12
358.441	391.12
358.668	386.12
358.895	410.12
359.122	418.12
359.349	396.12
359.576	418.12
359.802	435.12
360.029	420.12
360.256	426.12
360.483	422.12
360.709	403.12
360.936	407.12
361.163	421.12
361.39	421.12
361.616	438.12
361.843	405.12
362.07	418.12
362.296	431.12
362.523	411.12
362.749	419.12
362.976	399.12
363.203	396.12
363.429	394.12
363.656	415.12
363.882	398.12
364.109	401.12
364.335	381.12
364.562	400.12
364.788	405.12
365.015	407.12
365.241	395.12
365.468	401.12
365.694	391.12
365.92	407.12
366.147	389.12
366.373	400.12
366.599	405.12
366.826	381.12
367.052	410.12
367.278	404.12
367.505	406.12
367.731	401.12
367.957	392.12
368.184	401.12
368.41	415.12
368.636	409.12
368.862	425.12
369.089	421.12
369.315	401.12
369.541	396.12
369.767	406.12
369.993	394.12
370.219	403.12
370.445	406.12
370.672	411.12
370.898	387.12
371.124	395.12
371.35	416.12
371.576	425.12
371.802	419.12
372.028	388.12
372.254	391.12
372.48	409.12
372.706	410.12
372.932	406.12
373.158	408.12
373.384	387.12
373.61	392.12
373.835	416.12
374.061	416.12
374.287	414.12
374.513	417.12
374.739	442.12
374.965	455.12
375.191	424.12
375.416	427.12
375.642	439.12
375.868	432.12
376.094	433.12
376.319	423.12
376.545	399.12
376.771	389.12
376.997	390.12
377.222	425.12
377.448	411.12
377.674	388.12
377.899	397.12
378.125	396.12
378.35	385.12
378.576	401.12
378.802	409.12
379.027	401.12
379.253	403.12
379.478	410.12
379.704	410.12
379.929	407.12
380.155	420.12
380.38	387.12
380.606	401.12
380.831	404.12
381.057	403.12
381.282	405.12
381.507	394.12
381.733	418.12
381.958	430.12
382.184	428.12
382.409	422.12
382.634	431.12
382.86	430.12
383.085	430.12
383.31	440.12
383.535	407.12
383.761	435.12
383.986	450.12
384.211	445.12
384.436	448.12
384.662	455.12
384.887	463.12
385.112	464.12
385.337	455.12
385.562	466.12
385.787	446.12
386.013	468.12
386.238	461.12
386.463	469.12
386.688	487.12
386.913	470.12
387.138	482.12
387.363	449.12
387.588	458.12
387.813	469.12
388.038	473.12
388.263	470.12
388.488	465.12
388.713	451.12
388.938	465.12
389.163	456.12
389.387	459.12
389.612	456.12
389.837	453.12
390.062	460.12
390.287	465.12
390.512	462.12
390.736	466.12
390.961	462.12
391.186	469.12
391.411	486.12
391.636	488.12
391.86	495.12
392.085	487.12
392.31	496.12
392.534	473.12
392.759	493.12
392.984	480.12
393.208	478.12
393.433	477.12
393.658	484.12
393.882	466.12
394.107	465.12
394.331	466.12
394.556	465.12
394.78	484.12
395.005	456.12
395.229	491.12
395.454	509.12
395.678	501.12
395.903	514.12
396.127	507.12
396.352	505.12
396.576	487.12
396.801	474.12
397.025	485.12
397.249	506.12
397.474	504.12
397.698	505.12
397.922	517.12
398.147	520.12
398.371	543.12
398.595	559.12
398.82	543.12
399.044	579.12
399.268	617.12
399.492	646.12
399.717	685.12
399.941	720.12
400.165	709.12
400.389	674.12
400.613	631.12
400.837	605.12
401.062	563.12
401.286	557.12
401.51	543.12
401.734	539.12
401.958	554.12
402.182	548.12
402.406	594.12
402.63	571.12
402.854	570.12
403.078	554.12
403.302	545.12
403.526	583.12
403.75	576.12
403.974	592.12
404.198	595.12
404.422	611.12
404.645	615.12
404.869	599.12
405.093	632.12
405.317	637.12
405.541	643.12
405.765	623.12
405.988	595.12
406.212	604.12
406.436	630.12
406.66	640.12
406.883	605.12
407.107	641.12
407.331	687.12
407.555	738.12
407.778	749.12
408.002	702.12
408.226	655.12
408.449	631.12
408.673	631.12
408.896	682.12
409.12	674.12
409.344	650.12
409.567	598.12
409.791	608.12
410.014	597.12
410.238	600.12
410.461	585.12
410.685	576.12
410.908	587.12
411.132	599.12
411.355	610.12
411.578	599.12
411.802	578.12
412.025	558.12
412.249	579.12
412.472	592.12
412.695	630.12
412.919	602.12
413.142	552.12
413.365	544.12
413.589	546.12
413.812	576.12
414.035	547.12
414.258	518.12
414.482	542.12
414.705	546.12
414.928	543.12
415.151	561.12
415.374	538.12
415.597	541.12
415.821	529.12
416.044	545.12
416.267	544.12
416.49	531.12
416.713	536.12
416.936	522.12
417.159	527.12
417.382	523.12
417.605	544.12
417.828	558.12
418.051	556.12
418.274	558.12
418.497	534.12
418.72	570.12
418.943	551.12
419.166	561.12
419.389	597.12
419.611	609.12
419.834	580.12
420.057	571.12
420.28	552.12
420.503	571.12
420.726	533.12
420.948	550.12
421.171	579.12
421.394	619.12
421.617	553.12
421.839	576.12
422.062	579.12
422.285	555.12
422.507	617.12
422.73	640.12
422.953	658.12
423.175	603.12
423.398	593.12
423.621	581.12
423.843	602.12
424.066	606.12
424.288	622.12
424.511	601.12
424.733	626.12
424.956	698.12
425.178	664.12
425.401	681.12
425.623	681.12
425.846	608.12
426.068	585.12
426.291	579.12
426.513	558.12
426.735	562.12
426.958	594.12
427.18	671.12
427.402	755.12
427.625	831.12
427.847	674.12
428.069	627.12
428.292	594.12
428.514	568.12
428.736	538.12
428.958	521.12
429.181	559.12
429.403	534.12
429.625	527.12
429.847	581.12
430.069	595.12
430.292	582.12
430.514	542.12
430.736	520.12
430.958	520.12
431.18	496.12
431.402	515.12
431.624	509.12
431.846	509.12
432.068	521.12
432.29	534.12
432.512	514.12
432.734	540.12
432.956	527.12
433.178	527.12
433.4	544.12
433.622	524.12
433.844	495.12
434.066	500.12
434.287	516.12
434.509	536.12
434.731	523.12
434.953	553.12
435.175	555.12
435.397	574.12
435.618	589.12
435.84	608.12
436.062	672.12
436.284	694.12
436.505	588.12
436.727	562.12
436.949	551.12
437.17	535.12
437.392	536.12
437.614	535.12
437.835	545.12
438.057	618.12
438.278	693.12
438.5	695.12
438.721	766.12
438.943	739.12
439.165	637.12
439.386	569.12
439.608	549.12
439.829	574.12
440.05	559.12
440.272	602.12
440.493	587.12
440.715	539.12
440.936	529.12
441.158	539.12
441.379	534.12
441.6	532.12
441.822	583.12
442.043	598.12
442.264	660.12
442.486	687.12
442.707	617.12
442.928	585.12
443.149	574.12
443.371	582.12
443.592	622.12
443.813	673.12
444.034	752.12
444.255	688.12
444.476	589.12
444.698	597.12
444.919	596.12
445.14	774.12
445.361	629.12
445.582	621.12
445.803	649.12
446.024	725.12
446.245	711.12
446.466	652.12
446.687	599.12
446.908	565.12
447.129	544.12
447.35	525.12
447.571	523.12
447.792	505.12
448.013	529.12
448.234	538.12
448.455	566.12
448.675	646.12
448.896	712.12
449.117	641.12
449.338	613.12
449.559	694.12
449.779	769.12
450	640.12
450.221	569.12
450.442	528.12
450.662	511.12
450.883	474.12
451.104	488.12
451.324	505.12
451.545	500.12
451.766	504.12
451.986	471.12
452.207	455.12
452.428	474.12
452.648	461.12
452.869	480.12
453.089	478.12
453.31	479.12
453.53	471.12
453.751	471.12
453.971	472.12
454.192	466.12
454.412	461.12
454.633	463.12
454.853	465.12
455.073	456.12
455.294	476.12
455.514	512.12
455.734	520.12
455.955	462.12
456.175	436.12
456.395	438.12
456.616	451.12
456.836	449.12
457.056	448.12
457.276	430.12
457.497	454.12
457.717	434.12
457.937	462.12
458.157	462.12
458.377	448.12
458.598	475.12
458.818	527.12
459.038	551.12
459.258	610.12
459.478	541.12
459.698	533.12
459.918	520.12
460.138	518.12
460.358	560.12
460.578	553.12
460.798	543.12
461.018	551.12
461.238	570.12
461.458	548.12
461.678	539.12
461.898	569.12
462.118	548.12
462.338	583.12
462.558	602.12
462.777	567.12
462.997	616.12
463.217	638.12
463.437	662.12
463.657	588.12
463.876	615.12
464.096	608.12
464.316	596.12
464.536	591.12
464.755	585.12
464.975	590.12
465.195	583.12
465.414	598.12
465.634	575.12
465.854	552.12
466.073	503.12
466.293	510.12
466.512	506.12
466.732	495.12
466.951	497.12
467.171	515.12
467.391	489.12
467.61	485.12
467.829	497.12
468.049	511.12
468.268	479.12
468.488	489.12
468.707	473.12
468.927	481.12
469.146	486.12
469.365	493.12
469.585	486.12
469.804	486.12
470.023	491.12
470.243	483.12
470.462	507.12
470.681	512.12
470.901	516.12
471.12	487.12
471.339	504.12
471.558	496.12
471.777	504.12
471.997	489.12
472.216	481.12
472.435	501.12
472.654	499.12
472.873	483.12
473.092	479.12
473.311	460.12
473.53	492.12
473.749	485.12
473.968	495.12
474.187	582.12
474.406	623.12
474.625	539.12
474.844	524.12
475.063	483.12
475.282	460.12
475.501	498.12
475.72	482.12
475.939	507.12
476.158	499.12
476.377	494.12
476.596	511.12
476.814	527.12
477.033	515.12
477.252	493.12
477.471	525.12
477.69	537.12
477.908	543.12
478.127	546.12
478.346	555.12
478.564	565.12
478.783	578.12
479.002	570.12
479.22	608.12
479.439	578.12
479.658	605.12
479.876	591.12
480.095	581.12
480.313	619.12
480.532	618.12
480.751	597.12
480.969	623.12
481.188	625.12
481.406	657.12
481.624	608.12
481.843	591.12
482.061	580.12
482.28	557.12
482.498	569.12
482.717	573.12
482.935	562.12
483.153	546.12
483.372	561.12
483.59	579.12
483.808	576.12
484.027	581.12
484.245	552.12
484.463	583.12
484.681	568.12
484.9	587.12
485.118	579.12
485.336	588.12
485.554	585.12
485.772	602.12
485.99	590.12
486.209	592.12
486.427	590.12
486.645	612.12
486.863	603.12
487.081	580.12
487.299	610.12
487.517	607.12
487.735	592.12
487.953	599.12
488.171	602.12
488.389	615.12
488.607	591.12
488.825	601.12
489.043	598.12
489.261	607.12
489.479	609.12
489.696	599.12
489.914	626.12
490.132	625.12
490.35	598.12
490.568	623.12
490.786	635.12
491.003	644.12
491.221	650.12
491.439	633.12
491.657	644.12
491.874	651.12
492.092	662.12
492.31	644.12
492.527	672.12
492.745	673.12
492.963	681.12
493.18	678.12
493.398	698.12
493.615	690.12
493.833	681.12
494.05	687.12
494.268	681.12
494.485	706.12
494.703	685.12
494.92	683.12
495.138	672.12
495.355	695.12
495.573	723.12
495.79	718.12
496.008	714.12
496.225	687.12
496.442	688.12
496.66	691.12
496.877	706.12
497.094	723.12
497.312	733.12
497.529	712.12
497.746	754.12
497.963	749.12
498.181	788.12
498.398	824.12
498.615	811.12
498.832	864.12
499.049	902.12
499.267	915.12
499.484	959.12
499.701	1016.12
499.918	1063.12
500.135	1144.12
500.352	1214.12
500.569	1286.12
500.786	1241.12
501.003	1216.12
501.22	1157.12
501.437	1064.12
501.654	1033.12
501.871	1022.12
