Data from 1962.PennyLincolnUp.Lamp.En5.5.200Scan.071719.P1._HRD10591_13-53-24-060.txt Node
Date: Thu Jul 18 13:53:24 EDT 2019
User: cochatt
Spectrometer: HR+D1059
Trigger mode: 1
Integration Time (sec): 1.000000E-1
Scans to average: 1
Electric dark correction enabled: true
Nonlinearity correction enabled: false
Boxcar width: 0
XAxis mode: Wavelengths
Number of Pixels in Spectrum: 2048
>>>>>Begin Spectral Data<<<<<
223.165	-14.94
223.4	-14.94
223.635	-14.94
223.869	-11.94
224.104	-7.94
224.338	-24.94
224.573	-5.94
224.808	-9.94
225.042	0.06
225.277	-7.94
225.511	0.06
225.746	8.06
225.98	6.06
226.215	14.06
226.449	8.06
226.683	8.06
226.918	16.06
227.152	23.06
227.387	37.06
227.621	38.06
227.856	51.06
228.09	58.06
228.324	52.06
228.559	71.06
228.793	66.06
229.027	84.06
229.262	97.06
229.496	114.06
229.73	102.06
229.964	128.06
230.199	102.06
230.433	118.06
230.667	97.06
230.901	104.06
231.136	112.06
231.37	101.06
231.604	112.06
231.838	106.06
232.072	94.06
232.306	110.06
232.541	105.06
232.775	114.06
233.009	99.06
233.243	113.06
233.477	118.06
233.711	107.06
233.945	124.06
234.179	114.06
234.413	113.06
234.647	109.06
234.881	119.06
235.115	102.06
235.349	107.06
235.583	105.06
235.817	113.06
236.051	123.06
236.285	122.06
236.519	112.06
236.753	102.06
236.987	135.06
237.221	147.06
237.455	185.06
237.689	168.06
237.922	129.06
238.156	123.06
238.39	112.06
238.624	107.06
238.858	121.06
239.091	118.06
239.325	118.06
239.559	109.06
239.793	108.06
240.027	120.06
240.26	130.06
240.494	131.06
240.728	122.06
240.961	147.06
241.195	128.06
241.429	133.06
241.662	130.06
241.896	126.06
242.13	134.06
242.363	115.06
242.597	134.06
242.83	125.06
243.064	125.06
243.298	123.06
243.531	136.06
243.765	134.06
243.998	137.06
244.232	150.06
244.465	130.06
244.699	134.06
244.932	130.06
245.166	141.06
245.399	155.06
245.633	139.06
245.866	141.06
246.099	132.06
246.333	138.06
246.566	143.06
246.8	148.06
247.033	143.06
247.266	156.06
247.5	136.06
247.733	157.06
247.966	148.06
248.2	161.06
248.433	162.06
248.666	164.06
248.899	169.06
249.133	176.06
249.366	180.06
249.599	182.06
249.832	155.06
250.066	169.06
250.299	151.06
250.532	161.06
250.765	179.06
250.998	188.06
251.231	181.06
251.465	176.06
251.698	192.06
251.931	159.06
252.164	180.06
252.397	166.06
252.63	176.06
252.863	173.06
253.096	185.06
253.329	190.06
253.562	191.06
253.795	191.06
254.028	193.06
254.261	195.06
254.494	192.06
254.727	194.06
254.96	213.06
255.193	211.06
255.426	214.06
255.659	190.06
255.892	200.06
256.124	182.06
256.357	209.06
256.59	221.06
256.823	185.06
257.056	173.06
257.289	202.06
257.521	186.06
257.754	183.06
257.987	188.06
258.22	200.06
258.452	203.06
258.685	185.06
258.918	190.06
259.151	175.06
259.383	197.06
259.616	196.06
259.849	188.06
260.081	206.06
260.314	217.06
260.547	210.06
260.779	216.06
261.012	206.06
261.244	206.06
261.477	193.06
261.71	187.06
261.942	199.06
262.175	208.06
262.407	199.06
262.64	214.06
262.872	212.06
263.105	195.06
263.337	210.06
263.57	201.06
263.802	206.06
264.035	190.06
264.267	201.06
264.499	215.06
264.732	208.06
264.964	200.06
265.197	203.06
265.429	208.06
265.661	204.06
265.894	204.06
266.126	219.06
266.358	200.06
266.591	206.06
266.823	218.06
267.055	213.06
267.287	232.06
267.52	225.06
267.752	216.06
267.984	216.06
268.216	205.06
268.448	224.06
268.681	236.06
268.913	216.06
269.145	236.06
269.377	235.06
269.609	232.06
269.841	251.06
270.073	246.06
270.306	256.06
270.538	247.06
270.77	263.06
271.002	280.06
271.234	256.06
271.466	263.06
271.698	276.06
271.93	266.06
272.162	270.06
272.394	298.06
272.626	260.06
272.858	242.06
273.09	254.06
273.322	246.06
273.553	253.06
273.785	250.06
274.017	232.06
274.249	237.06
274.481	277.06
274.713	250.06
274.945	246.06
275.176	231.06
275.408	236.06
275.64	246.06
275.872	257.06
276.104	251.06
276.335	246.06
276.567	256.06
276.799	256.06
277.031	285.06
277.262	271.06
277.494	292.06
277.726	269.06
277.957	277.06
278.189	271.06
278.421	259.06
278.652	257.06
278.884	259.06
279.115	260.06
279.347	249.06
279.579	265.06
279.81	249.06
280.042	257.06
280.273	252.06
280.505	278.06
280.736	261.06
280.968	262.06
281.199	267.06
281.431	255.06
281.662	273.06
281.894	284.06
282.125	258.06
282.356	270.06
282.588	280.06
282.819	272.06
283.051	255.06
283.282	259.06
283.513	271.06
283.745	274.06
283.976	283.06
284.207	275.06
284.439	277.06
284.67	289.06
284.901	281.06
285.132	276.06
285.364	270.06
285.595	271.06
285.826	280.06
286.057	261.06
286.288	274.06
286.52	269.06
286.751	294.06
286.982	276.06
287.213	292.06
287.444	288.06
287.675	295.06
287.906	302.06
288.138	304.06
288.369	296.06
288.6	279.06
288.831	295.06
289.062	287.06
289.293	290.06
289.524	270.06
289.755	284.06
289.986	284.06
290.217	295.06
290.448	292.06
290.679	311.06
290.91	290.06
291.141	278.06
291.371	302.06
291.602	293.06
291.833	277.06
292.064	300.06
292.295	307.06
292.526	294.06
292.757	286.06
292.987	292.06
293.218	292.06
293.449	310.06
293.68	303.06
293.91	307.06
294.141	290.06
294.372	298.06
294.603	300.06
294.833	298.06
295.064	314.06
295.295	300.06
295.525	294.06
295.756	291.06
295.987	290.06
296.217	312.06
296.448	337.06
296.679	330.06
296.909	298.06
297.14	296.06
297.37	305.06
297.601	311.06
297.831	301.06
298.062	299.06
298.292	304.06
298.523	308.06
298.753	309.06
298.984	310.06
299.214	321.06
299.445	315.06
299.675	320.06
299.905	314.06
300.136	328.06
300.366	304.06
300.597	316.06
300.827	319.06
301.057	316.06
301.288	342.06
301.518	314.06
301.748	325.06
301.979	339.06
302.209	320.06
302.439	331.06
302.669	307.06
302.9	320.06
303.13	318.06
303.36	343.06
303.59	324.06
303.82	341.06
304.051	333.06
304.281	336.06
304.511	317.06
304.741	318.06
304.971	318.06
305.201	340.06
305.431	326.06
305.661	347.06
305.891	328.06
306.121	319.06
306.352	341.06
306.582	326.06
306.812	340.06
307.042	348.06
307.272	350.06
307.502	338.06
307.731	351.06
307.961	326.06
308.191	315.06
308.421	320.06
308.651	337.06
308.881	333.06
309.111	337.06
309.341	339.06
309.571	336.06
309.8	342.06
310.03	332.06
310.26	358.06
310.49	343.06
310.72	347.06
310.949	365.06
311.179	377.06
311.409	355.06
311.639	357.06
311.868	357.06
312.098	381.06
312.328	362.06
312.557	371.06
312.787	368.06
313.017	370.06
313.246	381.06
313.476	345.06
313.706	366.06
313.935	362.06
314.165	342.06
314.394	369.06
314.624	362.06
314.853	382.06
315.083	381.06
315.312	372.06
315.542	356.06
315.771	359.06
316.001	364.06
316.23	348.06
316.46	350.06
316.689	368.06
316.919	352.06
317.148	357.06
317.377	375.06
317.607	366.06
317.836	373.06
318.065	366.06
318.295	378.06
318.524	362.06
318.753	364.06
318.983	364.06
319.212	355.06
319.441	346.06
319.67	372.06
319.9	361.06
320.129	372.06
320.358	378.06
320.587	369.06
320.816	350.06
321.046	365.06
321.275	382.06
321.504	376.06
321.733	381.06
321.962	390.06
322.191	380.06
322.42	386.06
322.649	406.06
322.878	387.06
323.108	387.06
323.337	375.06
323.566	419.06
323.795	427.06
324.024	443.06
324.253	516.06
324.482	636.06
324.71	917.06
324.939	1259.06
325.168	1130.06
325.397	648.06
325.626	503.06
325.855	460.06
326.084	444.06
326.313	408.06
326.542	425.06
326.77	445.06
326.999	499.06
327.228	588.06
327.457	838.06
327.686	993.06
327.914	729.06
328.143	533.06
328.372	502.06
328.6	457.06
328.829	440.06
329.058	445.06
329.287	463.06
329.515	439.06
329.744	425.06
329.972	444.06
330.201	441.06
330.43	450.06
330.658	461.06
330.887	482.06
331.115	477.06
331.344	438.06
331.572	442.06
331.801	454.06
332.03	438.06
332.258	442.06
332.486	432.06
332.715	441.06
332.943	444.06
333.172	465.06
333.4	467.06
333.629	466.06
333.857	496.06
334.085	480.06
334.314	502.06
334.542	488.06
334.771	510.06
334.999	482.06
335.227	465.06
335.455	481.06
335.684	463.06
335.912	458.06
336.14	456.06
336.369	443.06
336.597	445.06
336.825	434.06
337.053	453.06
337.281	434.06
337.51	424.06
337.738	439.06
337.966	454.06
338.194	455.06
338.422	432.06
338.65	436.06
338.878	419.06
339.106	427.06
339.334	410.06
339.562	438.06
339.79	416.06
340.018	422.06
340.246	425.06
340.474	400.06
340.702	423.06
340.93	414.06
341.158	413.06
341.386	416.06
341.614	416.06
341.842	409.06
342.07	408.06
342.298	410.06
342.526	395.06
342.754	413.06
342.981	418.06
343.209	413.06
343.437	430.06
343.665	425.06
343.893	453.06
344.12	465.06
344.348	444.06
344.576	449.06
344.804	415.06
345.031	418.06
345.259	428.06
345.487	409.06
345.714	411.06
345.942	417.06
346.17	409.06
346.397	406.06
346.625	399.06
346.853	394.06
347.08	375.06
347.308	403.06
347.535	394.06
347.763	392.06
347.99	390.06
348.218	396.06
348.445	426.06
348.673	405.06
348.9	380.06
349.128	399.06
349.355	396.06
349.583	388.06
349.81	381.06
350.037	401.06
350.265	395.06
350.492	388.06
350.72	391.06
350.947	387.06
351.174	412.06
351.402	407.06
351.629	386.06
351.856	391.06
352.083	394.06
352.311	422.06
352.538	379.06
352.765	382.06
352.992	379.06
353.22	378.06
353.447	387.06
353.674	375.06
353.901	371.06
354.128	374.06
354.355	384.06
354.583	386.06
354.81	363.06
355.037	376.06
355.264	380.06
355.491	375.06
355.718	385.06
355.945	388.06
356.172	378.06
356.399	383.06
356.626	379.06
356.853	386.06
357.08	381.06
357.307	378.06
357.534	382.06
357.761	385.06
357.988	394.06
358.215	395.06
358.441	358.06
358.668	386.06
358.895	362.06
359.122	396.06
359.349	381.06
359.576	391.06
359.802	396.06
360.029	406.06
360.256	398.06
360.483	420.06
360.709	392.06
360.936	388.06
361.163	386.06
361.39	379.06
361.616	412.06
361.843	373.06
362.07	385.06
362.296	382.06
362.523	425.06
362.749	391.06
362.976	381.06
363.203	387.06
363.429	391.06
363.656	393.06
363.882	391.06
364.109	392.06
364.335	382.06
364.562	379.06
364.788	368.06
365.015	383.06
365.241	381.06
365.468	378.06
365.694	402.06
365.92	372.06
366.147	382.06
366.373	392.06
366.599	402.06
366.826	382.06
367.052	390.06
367.278	383.06
367.505	388.06
367.731	401.06
367.957	367.06
368.184	381.06
368.41	397.06
368.636	391.06
368.862	396.06
369.089	382.06
369.315	383.06
369.541	381.06
369.767	384.06
369.993	389.06
370.219	373.06
370.445	362.06
370.672	386.06
370.898	380.06
371.124	398.06
371.35	410.06
371.576	387.06
371.802	386.06
372.028	396.06
372.254	404.06
372.48	401.06
372.706	418.06
372.932	381.06
373.158	427.06
373.384	398.06
373.61	409.06
373.835	410.06
374.061	408.06
374.287	392.06
374.513	406.06
374.739	411.06
374.965	396.06
375.191	407.06
375.416	395.06
375.642	404.06
375.868	416.06
376.094	399.06
376.319	406.06
376.545	405.06
376.771	395.06
376.997	396.06
377.222	398.06
377.448	409.06
377.674	379.06
377.899	400.06
378.125	392.06
378.35	397.06
378.576	389.06
378.802	405.06
379.027	400.06
379.253	392.06
379.478	389.06
379.704	395.06
379.929	396.06
380.155	388.06
380.38	387.06
380.606	382.06
380.831	395.06
381.057	410.06
381.282	403.06
381.507	382.06
381.733	408.06
381.958	404.06
382.184	416.06
382.409	428.06
382.634	421.06
382.86	412.06
383.085	422.06
383.31	409.06
383.535	421.06
383.761	423.06
383.986	421.06
384.211	433.06
384.436	434.06
384.662	433.06
384.887	449.06
385.112	449.06
385.337	441.06
385.562	449.06
385.787	452.06
386.013	454.06
386.238	446.06
386.463	438.06
386.688	452.06
386.913	438.06
387.138	451.06
387.363	456.06
387.588	435.06
387.813	451.06
388.038	450.06
388.263	455.06
388.488	444.06
388.713	431.06
388.938	458.06
389.163	439.06
389.387	460.06
389.612	461.06
389.837	462.06
390.062	460.06
390.287	465.06
390.512	471.06
390.736	442.06
390.961	454.06
391.186	454.06
391.411	478.06
391.636	456.06
391.86	466.06
392.085	471.06
392.31	484.06
392.534	464.06
392.759	454.06
392.984	456.06
393.208	460.06
393.433	449.06
393.658	458.06
393.882	461.06
394.107	461.06
394.331	480.06
394.556	457.06
394.78	476.06
395.005	471.06
395.229	499.06
395.454	480.06
395.678	498.06
395.903	492.06
396.127	498.06
396.352	477.06
396.576	497.06
396.801	468.06
397.025	462.06
397.249	483.06
397.474	499.06
397.698	509.06
397.922	516.06
398.147	509.06
398.371	517.06
398.595	522.06
398.82	538.06
399.044	544.06
399.268	586.06
399.492	633.06
399.717	665.06
399.941	677.06
400.165	685.06
400.389	645.06
400.613	609.06
400.837	550.06
401.062	523.06
401.286	541.06
401.51	520.06
401.734	566.06
401.958	525.06
402.182	533.06
402.406	531.06
402.63	534.06
402.854	549.06
403.078	547.06
403.302	555.06
403.526	560.06
403.75	569.06
403.974	560.06
404.198	576.06
404.422	562.06
404.645	574.06
404.869	572.06
405.093	577.06
405.317	602.06
405.541	635.06
405.765	597.06
405.988	565.06
406.212	579.06
406.436	579.06
406.66	573.06
406.883	589.06
407.107	610.06
407.331	660.06
407.555	702.06
407.778	690.06
408.002	638.06
408.226	620.06
408.449	618.06
408.673	597.06
408.896	624.06
409.12	642.06
409.344	635.06
409.567	587.06
409.791	579.06
410.014	553.06
410.238	558.06
410.461	547.06
410.685	562.06
410.908	580.06
411.132	586.06
411.355	597.06
411.578	583.06
411.802	549.06
412.025	552.06
412.249	540.06
412.472	562.06
412.695	606.06
412.919	586.06
413.142	560.06
413.365	558.06
413.589	558.06
413.812	573.06
414.035	517.06
414.258	523.06
414.482	548.06
414.705	531.06
414.928	523.06
415.151	547.06
415.374	543.06
415.597	509.06
415.821	506.06
416.044	526.06
416.267	521.06
416.49	520.06
416.713	521.06
416.936	519.06
417.159	516.06
417.382	518.06
417.605	531.06
417.828	515.06
418.051	558.06
418.274	538.06
418.497	535.06
418.72	502.06
418.943	520.06
419.166	557.06
419.389	583.06
419.611	573.06
419.834	562.06
420.057	533.06
420.28	529.06
420.503	519.06
420.726	520.06
420.948	525.06
421.171	576.06
421.394	589.06
421.617	556.06
421.839	528.06
422.062	507.06
422.285	540.06
422.507	572.06
422.73	629.06
422.953	587.06
423.175	560.06
423.398	551.06
423.621	564.06
423.843	536.06
424.066	569.06
424.288	568.06
424.511	587.06
424.733	604.06
424.956	661.06
425.178	622.06
425.401	617.06
425.623	647.06
425.846	573.06
426.068	538.06
426.291	550.06
426.513	551.06
426.735	534.06
426.958	578.06
427.18	612.06
427.402	706.06
427.625	736.06
427.847	651.06
428.069	610.06
428.292	562.06
428.514	542.06
428.736	514.06
428.958	506.06
429.181	474.06
429.403	508.06
429.625	500.06
429.847	532.06
430.069	566.06
430.292	578.06
430.514	515.06
430.736	518.06
430.958	484.06
431.18	489.06
431.402	494.06
431.624	488.06
431.846	505.06
432.068	492.06
432.29	499.06
432.512	499.06
432.734	480.06
432.956	503.06
433.178	500.06
433.4	489.06
433.622	493.06
433.844	488.06
434.066	493.06
434.287	516.06
434.509	505.06
434.731	501.06
434.953	526.06
435.175	551.06
435.397	534.06
435.618	543.06
435.84	566.06
436.062	635.06
436.284	675.06
436.505	572.06
436.727	526.06
436.949	507.06
437.17	496.06
437.392	509.06
437.614	488.06
437.835	518.06
438.057	582.06
438.278	633.06
438.5	639.06
438.721	701.06
438.943	679.06
439.165	546.06
439.386	515.06
439.608	526.06
439.829	523.06
440.05	546.06
440.272	550.06
440.493	530.06
440.715	503.06
440.936	522.06
441.158	527.06
441.379	519.06
441.6	530.06
441.822	541.06
442.043	554.06
442.264	617.06
442.486	636.06
442.707	581.06
442.928	544.06
443.149	560.06
443.371	544.06
443.592	586.06
443.813	656.06
444.034	725.06
444.255	618.06
444.476	584.06
444.698	595.06
444.919	589.06
445.14	660.06
445.361	614.06
445.582	580.06
445.803	588.06
446.024	650.06
446.245	662.06
446.466	617.06
446.687	561.06
446.908	554.06
447.129	520.06
447.35	499.06
447.571	490.06
447.792	486.06
448.013	501.06
448.234	506.06
448.455	516.06
448.675	619.06
448.896	684.06
449.117	574.06
449.338	555.06
449.559	626.06
449.779	714.06
450	611.06
450.221	512.06
450.442	496.06
450.662	480.06
450.883	478.06
451.104	486.06
451.324	472.06
451.545	467.06
451.766	464.06
451.986	446.06
452.207	441.06
452.428	434.06
452.648	448.06
452.869	472.06
453.089	445.06
453.31	460.06
453.53	455.06
453.751	444.06
453.971	436.06
454.192	439.06
454.412	442.06
454.633	442.06
454.853	427.06
455.073	446.06
455.294	438.06
455.514	472.06
455.734	498.06
455.955	425.06
456.175	458.06
456.395	433.06
456.616	435.06
456.836	422.06
457.056	408.06
457.276	434.06
457.497	436.06
457.717	424.06
457.937	456.06
458.157	442.06
458.377	460.06
458.598	476.06
458.818	491.06
459.038	526.06
459.258	545.06
459.478	505.06
459.698	504.06
459.918	491.06
460.138	475.06
460.358	505.06
460.578	530.06
460.798	548.06
461.018	545.06
461.238	515.06
461.458	531.06
461.678	524.06
461.898	531.06
462.118	522.06
462.338	536.06
462.558	557.06
462.777	552.06
462.997	612.06
463.217	625.06
463.437	616.06
463.657	603.06
463.876	606.06
464.096	569.06
464.316	578.06
464.536	580.06
464.755	552.06
464.975	566.06
465.195	563.06
465.414	566.06
465.634	523.06
465.854	532.06
466.073	509.06
466.293	499.06
466.512	469.06
466.732	495.06
466.951	470.06
467.171	464.06
467.391	484.06
467.61	468.06
467.829	466.06
468.049	465.06
468.268	476.06
468.488	461.06
468.707	461.06
468.927	452.06
469.146	459.06
469.365	473.06
469.585	468.06
469.804	475.06
470.023	478.06
470.243	461.06
470.462	474.06
470.681	498.06
470.901	485.06
471.12	482.06
471.339	484.06
471.558	466.06
471.777	471.06
471.997	458.06
472.216	461.06
472.435	485.06
472.654	469.06
472.873	470.06
473.092	461.06
473.311	466.06
473.53	470.06
473.749	472.06
473.968	496.06
474.187	530.06
474.406	551.06
474.625	487.06
474.844	485.06
475.063	465.06
475.282	471.06
475.501	500.06
475.72	480.06
475.939	465.06
476.158	483.06
476.377	498.06
476.596	471.06
476.814	500.06
477.033	467.06
477.252	487.06
477.471	517.06
477.69	533.06
477.908	496.06
478.127	501.06
478.346	539.06
478.564	537.06
478.783	555.06
479.002	532.06
479.22	564.06
479.439	576.06
479.658	561.06
479.876	564.06
480.095	577.06
480.313	587.06
480.532	587.06
480.751	584.06
480.969	605.06
481.188	598.06
481.406	607.06
481.624	563.06
481.843	566.06
482.061	543.06
482.28	560.06
482.498	541.06
482.717	555.06
482.935	544.06
483.153	541.06
483.372	538.06
483.59	548.06
483.808	547.06
484.027	537.06
484.245	539.06
484.463	540.06
484.681	560.06
484.9	568.06
485.118	534.06
485.336	561.06
485.554	566.06
485.772	564.06
485.99	557.06
486.209	548.06
486.427	551.06
486.645	600.06
486.863	596.06
487.081	597.06
487.299	589.06
487.517	553.06
487.735	554.06
487.953	580.06
488.171	573.06
488.389	564.06
488.607	557.06
488.825	570.06
489.043	594.06
489.261	590.06
489.479	597.06
489.696	583.06
489.914	599.06
490.132	578.06
490.35	588.06
490.568	584.06
490.786	585.06
491.003	596.06
491.221	609.06
491.439	600.06
491.657	637.06
491.874	616.06
492.092	636.06
492.31	628.06
492.527	622.06
492.745	638.06
492.963	626.06
493.18	627.06
493.398	650.06
493.615	629.06
493.833	646.06
494.05	636.06
494.268	643.06
494.485	646.06
494.703	636.06
494.92	652.06
495.138	645.06
495.355	651.06
495.573	651.06
495.79	646.06
496.008	653.06
496.225	663.06
496.442	687.06
496.66	680.06
496.877	694.06
497.094	688.06
497.312	677.06
497.529	710.06
497.746	696.06
497.963	729.06
498.181	755.06
498.398	731.06
498.615	789.06
498.832	833.06
499.049	819.06
499.267	876.06
499.484	945.06
499.701	972.06
499.918	1032.06
500.135	1085.06
500.352	1175.06
500.569	1190.06
500.786	1216.06
501.003	1190.06
501.22	1101.06
501.437	1062.06
501.654	1002.06
501.871	940.06
502.088	900.06
