Data from 1962.PennyLincolnUp.Lamp.En5.5.200Scan.071719.P1._HRD10591_13-53-07-061.txt Node
Date: Thu Jul 18 13:53:07 EDT 2019
User: cochatt
Spectrometer: HR+D1059
Trigger mode: 1
Integration Time (sec): 1.000000E-1
Scans to average: 1
Electric dark correction enabled: true
Nonlinearity correction enabled: false
Boxcar width: 0
XAxis mode: Wavelengths
Number of Pixels in Spectrum: 2048
>>>>>Begin Spectral Data<<<<<
223.165	-19.94
223.4	-19.94
223.635	-19.94
223.869	-10.94
224.104	-16.94
224.338	-27.94
224.573	-20.94
224.808	-14.94
225.042	-12.94
225.277	-9.94
225.511	-2.94
225.746	4.06
225.98	11.06
226.215	9.06
226.449	31.06
226.683	26.06
226.918	27.06
227.152	29.06
227.387	37.06
227.621	32.06
227.856	25.06
228.09	45.06
228.324	44.06
228.559	56.06
228.793	48.06
229.027	67.06
229.262	84.06
229.496	81.06
229.73	100.06
229.964	125.06
230.199	109.06
230.433	111.06
230.667	74.06
230.901	111.06
231.136	111.06
231.37	116.06
231.604	108.06
231.838	108.06
232.072	111.06
232.306	112.06
232.541	103.06
232.775	112.06
233.009	102.06
233.243	104.06
233.477	91.06
233.711	110.06
233.945	123.06
234.179	116.06
234.413	109.06
234.647	107.06
234.881	109.06
235.115	116.06
235.349	105.06
235.583	95.06
235.817	107.06
236.051	120.06
236.285	113.06
236.519	115.06
236.753	111.06
236.987	112.06
237.221	144.06
237.455	159.06
237.689	131.06
237.922	134.06
238.156	107.06
238.39	105.06
238.624	119.06
238.858	120.06
239.091	110.06
239.325	105.06
239.559	112.06
239.793	114.06
240.027	122.06
240.26	126.06
240.494	110.06
240.728	124.06
240.961	117.06
241.195	123.06
241.429	126.06
241.662	121.06
241.896	135.06
242.13	126.06
242.363	101.06
242.597	134.06
242.83	134.06
243.064	120.06
243.298	134.06
243.531	120.06
243.765	127.06
243.998	136.06
244.232	115.06
244.465	116.06
244.699	127.06
244.932	125.06
245.166	135.06
245.399	115.06
245.633	139.06
245.866	132.06
246.099	146.06
246.333	136.06
246.566	140.06
246.8	135.06
247.033	138.06
247.266	127.06
247.5	126.06
247.733	142.06
247.966	145.06
248.2	133.06
248.433	157.06
248.666	148.06
248.899	155.06
249.133	139.06
249.366	161.06
249.599	171.06
249.832	144.06
250.066	149.06
250.299	160.06
250.532	160.06
250.765	159.06
250.998	178.06
251.231	170.06
251.465	180.06
251.698	160.06
251.931	157.06
252.164	163.06
252.397	168.06
252.63	156.06
252.863	175.06
253.096	189.06
253.329	184.06
253.562	173.06
253.795	167.06
254.028	189.06
254.261	184.06
254.494	179.06
254.727	189.06
254.96	188.06
255.193	201.06
255.426	186.06
255.659	190.06
255.892	209.06
256.124	174.06
256.357	185.06
256.59	176.06
256.823	187.06
257.056	196.06
257.289	155.06
257.521	185.06
257.754	191.06
257.987	187.06
258.22	171.06
258.452	184.06
258.685	168.06
258.918	158.06
259.151	185.06
259.383	187.06
259.616	195.06
259.849	200.06
260.081	204.06
260.314	204.06
260.547	230.06
260.779	192.06
261.012	203.06
261.244	203.06
261.477	200.06
261.71	186.06
261.942	200.06
262.175	199.06
262.407	199.06
262.64	179.06
262.872	185.06
263.105	188.06
263.337	209.06
263.57	181.06
263.802	187.06
264.035	191.06
264.267	198.06
264.499	182.06
264.732	192.06
264.964	198.06
265.197	184.06
265.429	190.06
265.661	206.06
265.894	184.06
266.126	198.06
266.358	179.06
266.591	199.06
266.823	198.06
267.055	192.06
267.287	193.06
267.52	200.06
267.752	199.06
267.984	199.06
268.216	217.06
268.448	199.06
268.681	197.06
268.913	220.06
269.145	235.06
269.377	235.06
269.609	240.06
269.841	226.06
270.073	244.06
270.306	232.06
270.538	245.06
270.77	253.06
271.002	226.06
271.234	240.06
271.466	246.06
271.698	240.06
271.93	260.06
272.162	257.06
272.394	266.06
272.626	245.06
272.858	224.06
273.09	230.06
273.322	229.06
273.553	236.06
273.785	229.06
274.017	247.06
274.249	231.06
274.481	233.06
274.713	246.06
274.945	243.06
275.176	229.06
275.408	233.06
275.64	238.06
275.872	232.06
276.104	240.06
276.335	244.06
276.567	232.06
276.799	253.06
277.031	269.06
277.262	273.06
277.494	263.06
277.726	271.06
277.957	254.06
278.189	249.06
278.421	229.06
278.652	256.06
278.884	245.06
279.115	240.06
279.347	241.06
279.579	246.06
279.81	229.06
280.042	251.06
280.273	232.06
280.505	257.06
280.736	260.06
280.968	271.06
281.199	241.06
281.431	255.06
281.662	264.06
281.894	256.06
282.125	255.06
282.356	247.06
282.588	256.06
282.819	277.06
283.051	265.06
283.282	266.06
283.513	257.06
283.745	238.06
283.976	277.06
284.207	267.06
284.439	288.06
284.67	280.06
284.901	277.06
285.132	264.06
285.364	280.06
285.595	275.06
285.826	260.06
286.057	267.06
286.288	268.06
286.52	279.06
286.751	274.06
286.982	269.06
287.213	273.06
287.444	268.06
287.675	284.06
287.906	263.06
288.138	296.06
288.369	284.06
288.6	295.06
288.831	267.06
289.062	288.06
289.293	278.06
289.524	258.06
289.755	277.06
289.986	282.06
290.217	295.06
290.448	261.06
290.679	279.06
290.91	278.06
291.141	276.06
291.371	271.06
291.602	269.06
291.833	289.06
292.064	275.06
292.295	277.06
292.526	268.06
292.757	287.06
292.987	269.06
293.218	259.06
293.449	285.06
293.68	286.06
293.91	277.06
294.141	271.06
294.372	293.06
294.603	270.06
294.833	283.06
295.064	269.06
295.295	296.06
295.525	291.06
295.756	301.06
295.987	279.06
296.217	295.06
296.448	305.06
296.679	294.06
296.909	293.06
297.14	292.06
297.37	301.06
297.601	289.06
297.831	296.06
298.062	292.06
298.292	282.06
298.523	295.06
298.753	316.06
298.984	301.06
299.214	297.06
299.445	305.06
299.675	279.06
299.905	299.06
300.136	304.06
300.366	297.06
300.597	283.06
300.827	306.06
301.057	325.06
301.288	307.06
301.518	320.06
301.748	319.06
301.979	322.06
302.209	307.06
302.439	324.06
302.669	320.06
302.9	315.06
303.13	312.06
303.36	311.06
303.59	317.06
303.82	310.06
304.051	326.06
304.281	319.06
304.511	310.06
304.741	322.06
304.971	288.06
305.201	320.06
305.431	315.06
305.661	336.06
305.891	321.06
306.121	324.06
306.352	323.06
306.582	315.06
306.812	306.06
307.042	320.06
307.272	323.06
307.502	311.06
307.731	315.06
307.961	311.06
308.191	323.06
308.421	316.06
308.651	335.06
308.881	323.06
309.111	328.06
309.341	323.06
309.571	315.06
309.8	328.06
310.03	329.06
310.26	338.06
310.49	323.06
310.72	356.06
310.949	347.06
311.179	326.06
311.409	328.06
311.639	333.06
311.868	338.06
312.098	353.06
312.328	335.06
312.557	340.06
312.787	341.06
313.017	349.06
313.246	335.06
313.476	356.06
313.706	351.06
313.935	328.06
314.165	348.06
314.394	336.06
314.624	351.06
314.853	349.06
315.083	351.06
315.312	355.06
315.542	354.06
315.771	339.06
316.001	340.06
316.23	339.06
316.46	354.06
316.689	344.06
316.919	348.06
317.148	353.06
317.377	343.06
317.607	353.06
317.836	336.06
318.065	374.06
318.295	355.06
318.524	344.06
318.753	348.06
318.983	338.06
319.212	349.06
319.441	356.06
319.67	359.06
319.9	364.06
320.129	363.06
320.358	347.06
320.587	348.06
320.816	358.06
321.046	360.06
321.275	376.06
321.504	361.06
321.733	361.06
321.962	372.06
322.191	366.06
322.42	384.06
322.649	391.06
322.878	370.06
323.108	375.06
323.337	398.06
323.566	395.06
323.795	402.06
324.024	433.06
324.253	457.06
324.482	603.06
324.71	815.06
324.939	1116.06
325.168	1006.06
325.397	604.06
325.626	449.06
325.855	421.06
326.084	395.06
326.313	388.06
326.542	400.06
326.77	412.06
326.999	449.06
327.228	569.06
327.457	769.06
327.686	920.06
327.914	662.06
328.143	482.06
328.372	456.06
328.6	438.06
328.829	447.06
329.058	427.06
329.287	425.06
329.515	439.06
329.744	428.06
329.972	424.06
330.201	429.06
330.43	453.06
330.658	452.06
330.887	467.06
331.115	413.06
331.344	408.06
331.572	421.06
331.801	412.06
332.03	427.06
332.258	405.06
332.486	421.06
332.715	423.06
332.943	431.06
333.172	424.06
333.4	446.06
333.629	434.06
333.857	480.06
334.085	457.06
334.314	479.06
334.542	473.06
334.771	484.06
334.999	447.06
335.227	441.06
335.455	450.06
335.684	418.06
335.912	443.06
336.14	417.06
336.369	419.06
336.597	427.06
336.825	424.06
337.053	425.06
337.281	431.06
337.51	428.06
337.738	410.06
337.966	403.06
338.194	414.06
338.422	409.06
338.65	420.06
338.878	430.06
339.106	400.06
339.334	397.06
339.562	406.06
339.79	396.06
340.018	394.06
340.246	388.06
340.474	393.06
340.702	420.06
340.93	385.06
341.158	398.06
341.386	397.06
341.614	383.06
341.842	396.06
342.07	414.06
342.298	371.06
342.526	399.06
342.754	388.06
342.981	393.06
343.209	391.06
343.437	397.06
343.665	421.06
343.893	444.06
344.12	425.06
344.348	441.06
344.576	430.06
344.804	409.06
345.031	421.06
345.259	408.06
345.487	408.06
345.714	392.06
345.942	391.06
346.17	413.06
346.397	370.06
346.625	375.06
346.853	375.06
347.08	384.06
347.308	385.06
347.535	380.06
347.763	373.06
347.99	384.06
348.218	391.06
348.445	378.06
348.673	378.06
348.9	365.06
349.128	381.06
349.355	381.06
349.583	376.06
349.81	381.06
350.037	391.06
350.265	380.06
350.492	376.06
350.72	365.06
350.947	379.06
351.174	388.06
351.402	373.06
351.629	395.06
351.856	375.06
352.083	372.06
352.311	368.06
352.538	378.06
352.765	374.06
352.992	384.06
353.22	361.06
353.447	356.06
353.674	377.06
353.901	379.06
354.128	364.06
354.355	375.06
354.583	393.06
354.81	368.06
355.037	359.06
355.264	371.06
355.491	365.06
355.718	357.06
355.945	367.06
356.172	369.06
356.399	374.06
356.626	363.06
356.853	360.06
357.08	358.06
357.307	367.06
357.534	364.06
357.761	379.06
357.988	368.06
358.215	365.06
358.441	366.06
358.668	372.06
358.895	364.06
359.122	343.06
359.349	373.06
359.576	373.06
359.802	375.06
360.029	367.06
360.256	384.06
360.483	394.06
360.709	371.06
360.936	371.06
361.163	378.06
361.39	374.06
361.616	374.06
361.843	373.06
362.07	373.06
362.296	367.06
362.523	372.06
362.749	389.06
362.976	383.06
363.203	355.06
363.429	369.06
363.656	383.06
363.882	373.06
364.109	379.06
364.335	368.06
364.562	370.06
364.788	352.06
365.015	397.06
365.241	373.06
365.468	367.06
365.694	355.06
365.92	367.06
366.147	367.06
366.373	368.06
366.599	368.06
366.826	380.06
367.052	373.06
367.278	359.06
367.505	388.06
367.731	383.06
367.957	375.06
368.184	377.06
368.41	368.06
368.636	388.06
368.862	378.06
369.089	379.06
369.315	371.06
369.541	368.06
369.767	345.06
369.993	361.06
370.219	377.06
370.445	387.06
370.672	397.06
370.898	387.06
371.124	388.06
371.35	385.06
371.576	385.06
371.802	380.06
372.028	378.06
372.254	383.06
372.48	392.06
372.706	413.06
372.932	399.06
373.158	389.06
373.384	406.06
373.61	377.06
373.835	397.06
374.061	375.06
374.287	371.06
374.513	397.06
374.739	388.06
374.965	389.06
375.191	412.06
375.416	405.06
375.642	389.06
375.868	368.06
376.094	386.06
376.319	383.06
376.545	394.06
376.771	375.06
376.997	376.06
377.222	384.06
377.448	372.06
377.674	369.06
377.899	387.06
378.125	390.06
378.35	374.06
378.576	387.06
378.802	364.06
379.027	380.06
379.253	390.06
379.478	373.06
379.704	377.06
379.929	386.06
380.155	393.06
380.38	379.06
380.606	379.06
380.831	378.06
381.057	390.06
381.282	399.06
381.507	393.06
381.733	387.06
381.958	389.06
382.184	382.06
382.409	387.06
382.634	403.06
382.86	389.06
383.085	399.06
383.31	396.06
383.535	412.06
383.761	394.06
383.986	407.06
384.211	429.06
384.436	432.06
384.662	422.06
384.887	422.06
385.112	427.06
385.337	413.06
385.562	434.06
385.787	443.06
386.013	438.06
386.238	439.06
386.463	455.06
386.688	457.06
386.913	434.06
387.138	421.06
387.363	438.06
387.588	420.06
387.813	421.06
388.038	436.06
388.263	424.06
388.488	433.06
388.713	445.06
388.938	452.06
389.163	430.06
389.387	434.06
389.612	433.06
389.837	441.06
390.062	422.06
390.287	424.06
390.512	436.06
390.736	453.06
390.961	452.06
391.186	424.06
391.411	446.06
391.636	466.06
391.86	447.06
392.085	486.06
392.31	476.06
392.534	453.06
392.759	450.06
392.984	468.06
393.208	466.06
393.433	455.06
393.658	450.06
393.882	450.06
394.107	431.06
394.331	447.06
394.556	447.06
394.78	460.06
395.005	455.06
395.229	446.06
395.454	460.06
395.678	465.06
395.903	476.06
396.127	469.06
396.352	479.06
396.576	456.06
396.801	453.06
397.025	457.06
397.249	483.06
397.474	479.06
397.698	488.06
397.922	493.06
398.147	507.06
398.371	514.06
398.595	511.06
398.82	532.06
399.044	531.06
399.268	570.06
399.492	603.06
399.717	650.06
399.941	647.06
400.165	631.06
400.389	609.06
400.613	557.06
400.837	521.06
401.062	491.06
401.286	527.06
401.51	515.06
401.734	522.06
401.958	510.06
402.182	496.06
402.406	530.06
402.63	537.06
402.854	518.06
403.078	519.06
403.302	516.06
403.526	546.06
403.75	567.06
403.974	550.06
404.198	541.06
404.422	543.06
404.645	529.06
404.869	523.06
405.093	550.06
405.317	601.06
405.541	616.06
405.765	604.06
405.988	560.06
406.212	571.06
406.436	567.06
406.66	579.06
406.883	563.06
407.107	578.06
407.331	608.06
407.555	689.06
407.778	669.06
408.002	625.06
408.226	601.06
408.449	599.06
408.673	573.06
408.896	621.06
409.12	604.06
409.344	593.06
409.567	556.06
409.791	543.06
410.014	530.06
410.238	554.06
410.461	519.06
410.685	533.06
410.908	558.06
411.132	569.06
411.355	580.06
411.578	569.06
411.802	530.06
412.025	509.06
412.249	533.06
412.472	568.06
412.695	589.06
412.919	549.06
413.142	540.06
413.365	525.06
413.589	521.06
413.812	516.06
414.035	521.06
414.258	494.06
414.482	511.06
414.705	522.06
414.928	508.06
415.151	499.06
415.374	489.06
415.597	511.06
415.821	510.06
416.044	511.06
416.267	490.06
416.49	495.06
416.713	495.06
416.936	513.06
417.159	499.06
417.382	470.06
417.605	498.06
417.828	513.06
418.051	516.06
418.274	496.06
418.497	496.06
418.72	502.06
418.943	483.06
419.166	531.06
419.389	558.06
419.611	548.06
419.834	559.06
420.057	534.06
420.28	527.06
420.503	529.06
420.726	504.06
420.948	519.06
421.171	566.06
421.394	554.06
421.617	536.06
421.839	505.06
422.062	531.06
422.285	534.06
422.507	562.06
422.73	594.06
422.953	593.06
423.175	545.06
423.398	533.06
423.621	537.06
423.843	548.06
424.066	517.06
424.288	548.06
424.511	545.06
424.733	575.06
424.956	633.06
425.178	587.06
425.401	598.06
425.623	641.06
425.846	541.06
426.068	527.06
426.291	532.06
426.513	537.06
426.735	520.06
426.958	529.06
427.18	565.06
427.402	691.06
427.625	757.06
427.847	629.06
428.069	599.06
428.292	525.06
428.514	515.06
428.736	493.06
428.958	513.06
429.181	504.06
429.403	473.06
429.625	486.06
429.847	512.06
430.069	529.06
430.292	547.06
430.514	486.06
430.736	511.06
430.958	481.06
431.18	464.06
431.402	486.06
431.624	452.06
431.846	468.06
432.068	477.06
432.29	480.06
432.512	461.06
432.734	488.06
432.956	476.06
433.178	461.06
433.4	495.06
433.622	463.06
433.844	471.06
434.066	466.06
434.287	481.06
434.509	505.06
434.731	523.06
434.953	511.06
435.175	532.06
435.397	523.06
435.618	528.06
435.84	550.06
436.062	575.06
436.284	614.06
436.505	573.06
436.727	518.06
436.949	480.06
437.17	488.06
437.392	458.06
437.614	473.06
437.835	501.06
438.057	564.06
438.278	622.06
438.5	614.06
438.721	659.06
438.943	635.06
439.165	521.06
439.386	499.06
439.608	547.06
439.829	512.06
440.05	518.06
440.272	526.06
440.493	526.06
440.715	494.06
440.936	490.06
441.158	494.06
441.379	494.06
441.6	514.06
441.822	508.06
442.043	517.06
442.264	590.06
442.486	606.06
442.707	573.06
442.928	532.06
443.149	533.06
443.371	540.06
443.592	561.06
443.813	626.06
444.034	671.06
444.255	581.06
444.476	568.06
444.698	539.06
444.919	547.06
445.14	659.06
445.361	600.06
445.582	544.06
445.803	580.06
446.024	625.06
446.245	614.06
446.466	590.06
446.687	512.06
446.908	494.06
447.129	455.06
447.35	472.06
447.571	471.06
447.792	466.06
448.013	459.06
448.234	472.06
448.455	493.06
448.675	583.06
448.896	645.06
449.117	555.06
449.338	533.06
449.559	588.06
449.779	694.06
450	566.06
450.221	493.06
450.442	466.06
450.662	463.06
450.883	464.06
451.104	465.06
451.324	447.06
451.545	459.06
451.766	441.06
451.986	434.06
452.207	431.06
452.428	440.06
452.648	430.06
452.869	435.06
453.089	441.06
453.31	446.06
453.53	440.06
453.751	444.06
453.971	436.06
454.192	424.06
454.412	428.06
454.633	408.06
454.853	405.06
455.073	411.06
455.294	435.06
455.514	472.06
455.734	468.06
455.955	432.06
456.175	403.06
456.395	387.06
456.616	414.06
456.836	433.06
457.056	429.06
457.276	405.06
457.497	413.06
457.717	415.06
457.937	436.06
458.157	421.06
458.377	421.06
458.598	443.06
458.818	465.06
459.038	487.06
459.258	514.06
459.478	479.06
459.698	480.06
459.918	485.06
460.138	482.06
460.358	495.06
460.578	494.06
460.798	494.06
461.018	512.06
461.238	508.06
461.458	497.06
461.678	509.06
461.898	513.06
462.118	512.06
462.338	533.06
462.558	527.06
462.777	550.06
462.997	572.06
463.217	618.06
463.437	603.06
463.657	561.06
463.876	542.06
464.096	562.06
464.316	567.06
464.536	552.06
464.755	547.06
464.975	543.06
465.195	536.06
465.414	559.06
465.634	516.06
465.854	507.06
466.073	477.06
466.293	467.06
466.512	476.06
466.732	455.06
466.951	463.06
467.171	458.06
467.391	477.06
467.61	449.06
467.829	457.06
468.049	478.06
468.268	451.06
468.488	460.06
468.707	443.06
468.927	450.06
469.146	431.06
469.365	436.06
469.585	431.06
469.804	454.06
470.023	465.06
470.243	464.06
470.462	447.06
470.681	446.06
470.901	461.06
471.12	448.06
471.339	465.06
471.558	469.06
471.777	450.06
471.997	451.06
472.216	436.06
472.435	445.06
472.654	455.06
472.873	447.06
473.092	447.06
473.311	468.06
473.53	437.06
473.749	454.06
473.968	495.06
474.187	518.06
474.406	517.06
474.625	480.06
474.844	450.06
475.063	472.06
475.282	461.06
475.501	460.06
475.72	484.06
475.939	478.06
476.158	465.06
476.377	460.06
476.596	477.06
476.814	445.06
477.033	473.06
477.252	484.06
477.471	483.06
477.69	507.06
477.908	475.06
478.127	516.06
478.346	503.06
478.564	513.06
478.783	513.06
479.002	521.06
479.22	529.06
479.439	543.06
479.658	540.06
479.876	555.06
480.095	563.06
480.313	585.06
480.532	561.06
480.751	553.06
480.969	588.06
481.188	578.06
481.406	555.06
481.624	544.06
481.843	521.06
482.061	529.06
482.28	530.06
482.498	518.06
482.717	530.06
482.935	493.06
483.153	511.06
483.372	531.06
483.59	531.06
483.808	547.06
484.027	513.06
484.245	540.06
484.463	541.06
484.681	546.06
484.9	542.06
485.118	564.06
485.336	556.06
485.554	527.06
485.772	556.06
485.99	561.06
486.209	577.06
486.427	557.06
486.645	544.06
486.863	559.06
487.081	564.06
487.299	562.06
487.517	555.06
487.735	553.06
487.953	561.06
488.171	559.06
488.389	563.06
488.607	562.06
488.825	548.06
489.043	563.06
489.261	539.06
489.479	573.06
489.696	579.06
489.914	558.06
490.132	585.06
490.35	584.06
490.568	571.06
490.786	564.06
491.003	552.06
491.221	585.06
491.439	598.06
491.657	589.06
491.874	595.06
492.092	590.06
492.31	612.06
492.527	607.06
492.745	614.06
492.963	597.06
493.18	637.06
493.398	615.06
493.615	608.06
493.833	630.06
494.05	609.06
494.268	605.06
494.485	607.06
494.703	624.06
494.92	641.06
495.138	633.06
495.355	619.06
495.573	619.06
495.79	637.06
496.008	638.06
496.225	636.06
496.442	634.06
496.66	651.06
496.877	633.06
497.094	649.06
497.312	654.06
497.529	677.06
497.746	678.06
497.963	713.06
498.181	703.06
498.398	739.06
498.615	761.06
498.832	804.06
499.049	797.06
499.267	847.06
499.484	889.06
499.701	944.06
499.918	996.06
500.135	1051.06
500.352	1147.06
500.569	1178.06
500.786	1173.06
501.003	1120.06
501.22	1077.06
501.437	1007.06
501.654	963.06
501.871	913.06
