Data from 1962.PennyLincolnUp.Lamp.En5.5.200Scan.071719.P1._HRD10591_13-55-45-061.txt Node
Date: Thu Jul 18 13:55:45 EDT 2019
User: cochatt
Spectrometer: HR+D1059
Trigger mode: 1
Integration Time (sec): 1.000000E-1
Scans to average: 1
Electric dark correction enabled: true
Nonlinearity correction enabled: false
Boxcar width: 0
XAxis mode: Wavelengths
Number of Pixels in Spectrum: 2048
>>>>>Begin Spectral Data<<<<<
223.165	-23.06
223.4	-23.06
223.635	-23.06
223.869	-7.06
224.104	-18.06
224.338	-2.06
224.573	-18.06
224.808	-23.06
225.042	-15.06
225.277	0.94
225.511	-12.06
225.746	1.94
225.98	10.94
226.215	-1.06
226.449	21.94
226.683	27.94
226.918	18.94
227.152	36.94
227.387	30.94
227.621	44.94
227.856	46.94
228.09	37.94
228.324	60.94
228.559	59.94
228.793	69.94
229.027	90.94
229.262	104.94
229.496	103.94
229.73	111.94
229.964	115.94
230.199	121.94
230.433	115.94
230.667	115.94
230.901	119.94
231.136	116.94
231.37	111.94
231.604	121.94
231.838	113.94
232.072	122.94
232.306	111.94
232.541	117.94
232.775	115.94
233.009	111.94
233.243	119.94
233.477	116.94
233.711	124.94
233.945	118.94
234.179	106.94
234.413	112.94
234.647	122.94
234.881	113.94
235.115	114.94
235.349	114.94
235.583	108.94
235.817	127.94
236.051	141.94
236.285	115.94
236.519	128.94
236.753	122.94
236.987	133.94
237.221	143.94
237.455	199.94
237.689	159.94
237.922	142.94
238.156	139.94
238.39	111.94
238.624	116.94
238.858	119.94
239.091	125.94
239.325	119.94
239.559	120.94
239.793	133.94
240.027	127.94
240.26	139.94
240.494	136.94
240.728	144.94
240.961	136.94
241.195	140.94
241.429	142.94
241.662	133.94
241.896	133.94
242.13	119.94
242.363	135.94
242.597	139.94
242.83	133.94
243.064	125.94
243.298	145.94
243.531	134.94
243.765	125.94
243.998	131.94
244.232	141.94
244.465	137.94
244.699	144.94
244.932	148.94
245.166	123.94
245.399	147.94
245.633	138.94
245.866	154.94
246.099	146.94
246.333	128.94
246.566	138.94
246.8	132.94
247.033	154.94
247.266	148.94
247.5	156.94
247.733	158.94
247.966	162.94
248.2	155.94
248.433	172.94
248.666	183.94
248.899	174.94
249.133	159.94
249.366	199.94
249.599	166.94
249.832	173.94
250.066	162.94
250.299	159.94
250.532	174.94
250.765	170.94
250.998	188.94
251.231	202.94
251.465	181.94
251.698	195.94
251.931	185.94
252.164	187.94
252.397	189.94
252.63	183.94
252.863	193.94
253.096	180.94
253.329	211.94
253.562	207.94
253.795	217.94
254.028	201.94
254.261	195.94
254.494	212.94
254.727	233.94
254.96	252.94
255.193	227.94
255.426	217.94
255.659	201.94
255.892	198.94
256.124	218.94
256.357	227.94
256.59	219.94
256.823	212.94
257.056	205.94
257.289	196.94
257.521	190.94
257.754	196.94
257.987	179.94
258.22	186.94
258.452	190.94
258.685	215.94
258.918	194.94
259.151	193.94
259.383	213.94
259.616	218.94
259.849	217.94
260.081	217.94
260.314	221.94
260.547	226.94
260.779	222.94
261.012	206.94
261.244	214.94
261.477	209.94
261.71	199.94
261.942	202.94
262.175	213.94
262.407	216.94
262.64	196.94
262.872	222.94
263.105	216.94
263.337	213.94
263.57	208.94
263.802	213.94
264.035	207.94
264.267	207.94
264.499	195.94
264.732	211.94
264.964	205.94
265.197	225.94
265.429	205.94
265.661	221.94
265.894	220.94
266.126	206.94
266.358	219.94
266.591	216.94
266.823	215.94
267.055	208.94
267.287	219.94
267.52	221.94
267.752	228.94
267.984	220.94
268.216	231.94
268.448	220.94
268.681	228.94
268.913	245.94
269.145	250.94
269.377	263.94
269.609	258.94
269.841	253.94
270.073	257.94
270.306	260.94
270.538	277.94
270.77	282.94
271.002	283.94
271.234	265.94
271.466	271.94
271.698	291.94
271.93	284.94
272.162	281.94
272.394	283.94
272.626	276.94
272.858	290.94
273.09	268.94
273.322	247.94
273.553	264.94
273.785	258.94
274.017	259.94
274.249	249.94
274.481	259.94
274.713	257.94
274.945	267.94
275.176	281.94
275.408	253.94
275.64	255.94
275.872	259.94
276.104	266.94
276.335	257.94
276.567	268.94
276.799	266.94
277.031	282.94
277.262	293.94
277.494	296.94
277.726	286.94
277.957	288.94
278.189	277.94
278.421	264.94
278.652	257.94
278.884	268.94
279.115	272.94
279.347	277.94
279.579	276.94
279.81	264.94
280.042	276.94
280.273	270.94
280.505	272.94
280.736	293.94
280.968	264.94
281.199	257.94
281.431	285.94
281.662	283.94
281.894	287.94
282.125	262.94
282.356	279.94
282.588	289.94
282.819	305.94
283.051	305.94
283.282	282.94
283.513	267.94
283.745	270.94
283.976	283.94
284.207	281.94
284.439	275.94
284.67	276.94
284.901	293.94
285.132	258.94
285.364	291.94
285.595	290.94
285.826	291.94
286.057	287.94
286.288	281.94
286.52	287.94
286.751	294.94
286.982	288.94
287.213	294.94
287.444	282.94
287.675	298.94
287.906	289.94
288.138	299.94
288.369	265.94
288.6	299.94
288.831	303.94
289.062	309.94
289.293	305.94
289.524	298.94
289.755	292.94
289.986	308.94
290.217	289.94
290.448	307.94
290.679	313.94
290.91	294.94
291.141	286.94
291.371	310.94
291.602	308.94
291.833	296.94
292.064	282.94
292.295	293.94
292.526	319.94
292.757	298.94
292.987	293.94
293.218	297.94
293.449	302.94
293.68	290.94
293.91	297.94
294.141	311.94
294.372	316.94
294.603	297.94
294.833	310.94
295.064	290.94
295.295	294.94
295.525	298.94
295.756	294.94
295.987	309.94
296.217	325.94
296.448	311.94
296.679	332.94
296.909	301.94
297.14	323.94
297.37	326.94
297.601	309.94
297.831	322.94
298.062	297.94
298.292	303.94
298.523	334.94
298.753	316.94
298.984	331.94
299.214	325.94
299.445	335.94
299.675	336.94
299.905	341.94
300.136	314.94
300.366	325.94
300.597	324.94
300.827	319.94
301.057	316.94
301.288	326.94
301.518	338.94
301.748	340.94
301.979	332.94
302.209	358.94
302.439	343.94
302.669	355.94
302.9	347.94
303.13	331.94
303.36	330.94
303.59	342.94
303.82	346.94
304.051	334.94
304.281	330.94
304.511	344.94
304.741	318.94
304.971	337.94
305.201	330.94
305.431	333.94
305.661	333.94
305.891	323.94
306.121	330.94
306.352	330.94
306.582	360.94
306.812	343.94
307.042	346.94
307.272	322.94
307.502	338.94
307.731	352.94
307.961	334.94
308.191	335.94
308.421	357.94
308.651	327.94
308.881	343.94
309.111	360.94
309.341	338.94
309.571	362.94
309.8	366.94
310.03	359.94
310.26	350.94
310.49	350.94
310.72	347.94
310.949	354.94
311.179	371.94
311.409	362.94
311.639	356.94
311.868	372.94
312.098	355.94
312.328	368.94
312.557	398.94
312.787	379.94
313.017	389.94
313.246	364.94
313.476	379.94
313.706	371.94
313.935	381.94
314.165	379.94
314.394	368.94
314.624	374.94
314.853	381.94
315.083	363.94
315.312	352.94
315.542	365.94
315.771	382.94
316.001	376.94
316.23	381.94
316.46	387.94
316.689	361.94
316.919	368.94
317.148	379.94
317.377	376.94
317.607	390.94
317.836	358.94
318.065	366.94
318.295	365.94
318.524	369.94
318.753	377.94
318.983	364.94
319.212	366.94
319.441	365.94
319.67	395.94
319.9	397.94
320.129	363.94
320.358	393.94
320.587	362.94
320.816	388.94
321.046	389.94
321.275	390.94
321.504	378.94
321.733	382.94
321.962	389.94
322.191	399.94
322.42	438.94
322.649	391.94
322.878	410.94
323.108	415.94
323.337	445.94
323.566	457.94
323.795	452.94
324.024	482.94
324.253	584.94
324.482	742.94
324.71	1115.94
324.939	1549.94
325.168	1350.94
325.397	733.94
325.626	546.94
325.855	483.94
326.084	461.94
326.313	452.94
326.542	461.94
326.77	497.94
326.999	567.94
327.228	705.94
327.457	990.94
327.686	1179.94
327.914	843.94
328.143	579.94
328.372	539.94
328.6	488.94
328.829	503.94
329.058	482.94
329.287	493.94
329.515	490.94
329.744	484.94
329.972	462.94
330.201	458.94
330.43	486.94
330.658	516.94
330.887	530.94
331.115	525.94
331.344	494.94
331.572	455.94
331.801	471.94
332.03	478.94
332.258	486.94
332.486	461.94
332.715	457.94
332.943	464.94
333.172	489.94
333.4	480.94
333.629	493.94
333.857	486.94
334.085	485.94
334.314	526.94
334.542	539.94
334.771	531.94
334.999	527.94
335.227	481.94
335.455	471.94
335.684	451.94
335.912	468.94
336.14	461.94
336.369	476.94
336.597	453.94
336.825	454.94
337.053	469.94
337.281	434.94
337.51	449.94
337.738	462.94
337.966	438.94
338.194	458.94
338.422	443.94
338.65	443.94
338.878	446.94
339.106	425.94
339.334	427.94
339.562	429.94
339.79	421.94
340.018	426.94
340.246	426.94
340.474	431.94
340.702	412.94
340.93	434.94
341.158	431.94
341.386	429.94
341.614	436.94
341.842	427.94
342.07	436.94
342.298	427.94
342.526	419.94
342.754	418.94
342.981	418.94
343.209	411.94
343.437	427.94
343.665	449.94
343.893	445.94
344.12	461.94
344.348	445.94
344.576	457.94
344.804	453.94
345.031	440.94
345.259	451.94
345.487	437.94
345.714	427.94
345.942	396.94
346.17	411.94
346.397	416.94
346.625	417.94
346.853	401.94
347.08	399.94
347.308	420.94
347.535	411.94
347.763	413.94
347.99	405.94
348.218	425.94
348.445	427.94
348.673	430.94
348.9	427.94
349.128	413.94
349.355	403.94
349.583	408.94
349.81	419.94
350.037	418.94
350.265	399.94
350.492	395.94
350.72	399.94
350.947	393.94
351.174	403.94
351.402	405.94
351.629	413.94
351.856	429.94
352.083	402.94
352.311	437.94
352.538	428.94
352.765	424.94
352.992	398.94
353.22	391.94
353.447	408.94
353.674	404.94
353.901	399.94
354.128	405.94
354.355	390.94
354.583	378.94
354.81	402.94
355.037	417.94
355.264	379.94
355.491	374.94
355.718	406.94
355.945	413.94
356.172	387.94
356.399	388.94
356.626	389.94
356.853	390.94
357.08	389.94
357.307	395.94
357.534	406.94
357.761	390.94
357.988	379.94
358.215	387.94
358.441	398.94
358.668	384.94
358.895	400.94
359.122	405.94
359.349	390.94
359.576	418.94
359.802	420.94
360.029	427.94
360.256	439.94
360.483	430.94
360.709	439.94
360.936	446.94
361.163	407.94
361.39	409.94
361.616	396.94
361.843	411.94
362.07	403.94
362.296	411.94
362.523	403.94
362.749	399.94
362.976	392.94
363.203	412.94
363.429	418.94
363.656	402.94
363.882	394.94
364.109	401.94
364.335	391.94
364.562	388.94
364.788	409.94
365.015	401.94
365.241	389.94
365.468	402.94
365.694	396.94
365.92	395.94
366.147	396.94
366.373	390.94
366.599	384.94
366.826	413.94
367.052	403.94
367.278	403.94
367.505	398.94
367.731	385.94
367.957	401.94
368.184	396.94
368.41	422.94
368.636	417.94
368.862	411.94
369.089	397.94
369.315	409.94
369.541	397.94
369.767	390.94
369.993	396.94
370.219	395.94
370.445	408.94
370.672	407.94
370.898	386.94
371.124	403.94
371.35	406.94
371.576	392.94
371.802	409.94
372.028	398.94
372.254	426.94
372.48	408.94
372.706	413.94
372.932	415.94
373.158	419.94
373.384	403.94
373.61	412.94
373.835	425.94
374.061	403.94
374.287	419.94
374.513	416.94
374.739	427.94
374.965	438.94
375.191	428.94
375.416	415.94
375.642	395.94
375.868	412.94
376.094	401.94
376.319	405.94
376.545	409.94
376.771	391.94
376.997	425.94
377.222	421.94
377.448	409.94
377.674	403.94
377.899	411.94
378.125	407.94
378.35	414.94
378.576	398.94
378.802	406.94
379.027	405.94
379.253	412.94
379.478	421.94
379.704	394.94
379.929	397.94
380.155	402.94
380.38	409.94
380.606	418.94
380.831	395.94
381.057	441.94
381.282	400.94
381.507	421.94
381.733	406.94
381.958	399.94
382.184	421.94
382.409	408.94
382.634	420.94
382.86	426.94
383.085	429.94
383.31	443.94
383.535	425.94
383.761	447.94
383.986	437.94
384.211	452.94
384.436	442.94
384.662	441.94
384.887	454.94
385.112	439.94
385.337	458.94
385.562	454.94
385.787	479.94
386.013	453.94
386.238	457.94
386.463	446.94
386.688	469.94
386.913	462.94
387.138	456.94
387.363	459.94
387.588	457.94
387.813	453.94
388.038	456.94
388.263	459.94
388.488	469.94
388.713	461.94
388.938	470.94
389.163	449.94
389.387	482.94
389.612	470.94
389.837	462.94
390.062	463.94
390.287	454.94
390.512	452.94
390.736	462.94
390.961	451.94
391.186	460.94
391.411	473.94
391.636	475.94
391.86	474.94
392.085	489.94
392.31	489.94
392.534	475.94
392.759	489.94
392.984	485.94
393.208	462.94
393.433	473.94
393.658	487.94
393.882	471.94
394.107	449.94
394.331	466.94
394.556	457.94
394.78	467.94
395.005	468.94
395.229	482.94
395.454	497.94
395.678	491.94
395.903	505.94
396.127	512.94
396.352	502.94
396.576	484.94
396.801	492.94
397.025	495.94
397.249	482.94
397.474	509.94
397.698	516.94
397.922	519.94
398.147	502.94
398.371	538.94
398.595	537.94
398.82	528.94
399.044	562.94
399.268	583.94
399.492	641.94
399.717	677.94
399.941	709.94
400.165	722.94
400.389	689.94
400.613	619.94
400.837	601.94
401.062	571.94
401.286	556.94
401.51	512.94
401.734	551.94
401.958	555.94
402.182	549.94
402.406	550.94
402.63	547.94
402.854	563.94
403.078	556.94
403.302	560.94
403.526	574.94
403.75	583.94
403.974	605.94
404.198	582.94
404.422	561.94
404.645	568.94
404.869	580.94
405.093	618.94
405.317	628.94
405.541	645.94
405.765	630.94
405.988	592.94
406.212	605.94
406.436	611.94
406.66	616.94
406.883	605.94
407.107	620.94
407.331	655.94
407.555	729.94
407.778	711.94
408.002	696.94
408.226	637.94
408.449	640.94
408.673	626.94
408.896	628.94
409.12	659.94
409.344	638.94
409.567	583.94
409.791	574.94
410.014	589.94
410.238	545.94
410.461	551.94
410.685	569.94
410.908	595.94
411.132	592.94
411.355	618.94
411.578	598.94
411.802	581.94
412.025	561.94
412.249	596.94
412.472	588.94
412.695	638.94
412.919	609.94
413.142	542.94
413.365	569.94
413.589	535.94
413.812	540.94
414.035	539.94
414.258	545.94
414.482	539.94
414.705	556.94
414.928	541.94
415.151	536.94
415.374	533.94
415.597	519.94
415.821	544.94
416.044	542.94
416.267	531.94
416.49	541.94
416.713	517.94
416.936	533.94
417.159	515.94
417.382	530.94
417.605	536.94
417.828	527.94
418.051	533.94
418.274	554.94
418.497	545.94
418.72	527.94
418.943	550.94
419.166	580.94
419.389	581.94
419.611	590.94
419.834	573.94
420.057	599.94
420.28	586.94
420.503	545.94
420.726	542.94
420.948	573.94
421.171	566.94
421.394	601.94
421.617	574.94
421.839	547.94
422.062	549.94
422.285	566.94
422.507	592.94
422.73	671.94
422.953	629.94
423.175	575.94
423.398	573.94
423.621	584.94
423.843	578.94
424.066	587.94
424.288	570.94
424.511	597.94
424.733	600.94
424.956	714.94
425.178	653.94
425.401	660.94
425.623	683.94
425.846	610.94
426.068	586.94
426.291	576.94
426.513	564.94
426.735	569.94
426.958	605.94
427.18	645.94
427.402	761.94
427.625	811.94
427.847	699.94
428.069	618.94
428.292	599.94
428.514	553.94
428.736	533.94
428.958	507.94
429.181	500.94
429.403	511.94
429.625	492.94
429.847	533.94
430.069	608.94
430.292	610.94
430.514	526.94
430.736	539.94
430.958	515.94
431.18	485.94
431.402	494.94
431.624	502.94
431.846	506.94
432.068	510.94
432.29	493.94
432.512	522.94
432.734	524.94
432.956	504.94
433.178	530.94
433.4	513.94
433.622	501.94
433.844	493.94
434.066	511.94
434.287	514.94
434.509	523.94
434.731	541.94
434.953	530.94
435.175	561.94
435.397	562.94
435.618	546.94
435.84	574.94
436.062	664.94
436.284	722.94
436.505	614.94
436.727	569.94
436.949	522.94
437.17	533.94
437.392	505.94
437.614	521.94
437.835	547.94
438.057	621.94
438.278	673.94
438.5	703.94
438.721	753.94
438.943	737.94
439.165	585.94
439.386	559.94
439.608	547.94
439.829	567.94
440.05	565.94
440.272	590.94
440.493	588.94
440.715	558.94
440.936	519.94
441.158	530.94
441.379	538.94
441.6	564.94
441.822	551.94
442.043	567.94
442.264	667.94
442.486	684.94
442.707	598.94
442.928	590.94
443.149	592.94
443.371	595.94
443.592	633.94
443.813	705.94
444.034	765.94
444.255	630.94
444.476	602.94
444.698	613.94
444.919	588.94
445.14	719.94
445.361	637.94
445.582	617.94
445.803	638.94
446.024	742.94
446.245	728.94
446.466	653.94
446.687	598.94
446.908	535.94
447.129	531.94
447.35	509.94
447.571	501.94
447.792	497.94
448.013	519.94
448.234	522.94
448.455	552.94
448.675	659.94
448.896	767.94
449.117	642.94
449.338	622.94
449.559	685.94
449.779	794.94
450	635.94
450.221	543.94
450.442	511.94
450.662	512.94
450.883	494.94
451.104	493.94
451.324	491.94
451.545	501.94
451.766	475.94
451.986	462.94
452.207	463.94
452.428	463.94
452.648	462.94
452.869	465.94
453.089	446.94
453.31	494.94
453.53	446.94
453.751	450.94
453.971	447.94
454.192	472.94
454.412	460.94
454.633	454.94
454.853	457.94
455.073	444.94
455.294	467.94
455.514	519.94
455.734	522.94
455.955	460.94
456.175	449.94
456.395	423.94
456.616	455.94
456.836	458.94
457.056	450.94
457.276	460.94
457.497	445.94
457.717	447.94
457.937	469.94
458.157	477.94
458.377	460.94
458.598	495.94
458.818	517.94
459.038	566.94
459.258	581.94
459.478	565.94
459.698	528.94
459.918	534.94
460.138	513.94
460.358	532.94
460.578	536.94
460.798	554.94
461.018	546.94
461.238	561.94
461.458	551.94
461.678	542.94
461.898	543.94
462.118	548.94
462.338	559.94
462.558	585.94
462.777	574.94
462.997	581.94
463.217	635.94
463.437	620.94
463.657	584.94
463.876	607.94
464.096	584.94
464.316	595.94
464.536	594.94
464.755	572.94
464.975	591.94
465.195	598.94
465.414	579.94
465.634	556.94
465.854	531.94
466.073	534.94
466.293	512.94
466.512	462.94
466.732	495.94
466.951	485.94
467.171	497.94
467.391	496.94
467.61	483.94
467.829	489.94
468.049	477.94
468.268	492.94
468.488	486.94
468.707	478.94
468.927	463.94
469.146	455.94
469.365	496.94
469.585	485.94
469.804	475.94
470.023	503.94
470.243	506.94
470.462	490.94
470.681	495.94
470.901	496.94
471.12	491.94
471.339	481.94
471.558	490.94
471.777	485.94
471.997	488.94
472.216	462.94
472.435	519.94
472.654	496.94
472.873	477.94
473.092	497.94
473.311	484.94
473.53	465.94
473.749	494.94
473.968	501.94
474.187	589.94
474.406	585.94
474.625	529.94
474.844	487.94
475.063	470.94
475.282	483.94
475.501	476.94
475.72	493.94
475.939	503.94
476.158	507.94
476.377	505.94
476.596	485.94
476.814	501.94
477.033	503.94
477.252	504.94
477.471	509.94
477.69	532.94
477.908	523.94
478.127	562.94
478.346	521.94
478.564	535.94
478.783	571.94
479.002	569.94
479.22	574.94
479.439	584.94
479.658	565.94
479.876	577.94
480.095	595.94
480.313	628.94
480.532	611.94
480.751	639.94
480.969	611.94
481.188	629.94
481.406	639.94
481.624	601.94
481.843	589.94
482.061	581.94
482.28	579.94
482.498	538.94
482.717	543.94
482.935	571.94
483.153	553.94
483.372	574.94
483.59	552.94
483.808	564.94
484.027	558.94
484.245	567.94
484.463	544.94
484.681	585.94
484.9	576.94
485.118	588.94
485.336	574.94
485.554	562.94
485.772	563.94
485.99	580.94
486.209	583.94
486.427	598.94
486.645	572.94
486.863	597.94
487.081	598.94
487.299	585.94
487.517	621.94
487.735	587.94
487.953	595.94
488.171	580.94
488.389	571.94
488.607	598.94
488.825	610.94
489.043	585.94
489.261	598.94
489.479	614.94
489.696	606.94
489.914	602.94
490.132	603.94
490.35	608.94
490.568	643.94
490.786	599.94
491.003	641.94
491.221	643.94
491.439	628.94
491.657	636.94
491.874	626.94
492.092	660.94
492.31	656.94
492.527	673.94
492.745	670.94
492.963	641.94
493.18	662.94
493.398	664.94
493.615	674.94
493.833	669.94
494.05	669.94
494.268	665.94
494.485	685.94
494.703	687.94
494.92	675.94
495.138	677.94
495.355	684.94
495.573	689.94
495.79	686.94
496.008	676.94
496.225	705.94
496.442	711.94
496.66	702.94
496.877	702.94
497.094	694.94
497.312	725.94
497.529	728.94
497.746	749.94
497.963	746.94
498.181	781.94
498.398	814.94
498.615	823.94
498.832	859.94
499.049	862.94
499.267	889.94
499.484	935.94
499.701	991.94
499.918	1027.94
500.135	1118.94
500.352	1185.94
500.569	1202.94
500.786	1209.94
501.003	1203.94
501.22	1130.94
501.437	1065.94
501.654	1028.94
501.871	986.94
