Data from 1962.PennyLincolnUp.Lamp.En5.5.200Scan.071719.P1._HRD10591_13-53-18-061.txt Node
Date: Thu Jul 18 13:53:18 EDT 2019
User: cochatt
Spectrometer: HR+D1059
Trigger mode: 1
Integration Time (sec): 1.000000E-1
Scans to average: 1
Electric dark correction enabled: true
Nonlinearity correction enabled: false
Boxcar width: 0
XAxis mode: Wavelengths
Number of Pixels in Spectrum: 2048
>>>>>Begin Spectral Data<<<<<
223.165	-7.88
223.4	-7.88
223.635	-7.88
223.869	-10.88
224.104	-10.88
224.338	-11.88
224.573	-22.88
224.808	-9.88
225.042	-6.88
225.277	-0.88
225.511	-8.88
225.746	3.12
225.98	9.12
226.215	17.12
226.449	14.12
226.683	8.12
226.918	23.12
227.152	16.12
227.387	24.12
227.621	24.12
227.856	33.12
228.09	37.12
228.324	54.12
228.559	71.12
228.793	57.12
229.027	85.12
229.262	92.12
229.496	100.12
229.73	101.12
229.964	116.12
230.199	109.12
230.433	115.12
230.667	85.12
230.901	86.12
231.136	97.12
231.37	115.12
231.604	113.12
231.838	105.12
232.072	81.12
232.306	100.12
232.541	116.12
232.775	121.12
233.009	103.12
233.243	109.12
233.477	112.12
233.711	107.12
233.945	113.12
234.179	115.12
234.413	116.12
234.647	111.12
234.881	106.12
235.115	131.12
235.349	131.12
235.583	119.12
235.817	124.12
236.051	114.12
236.285	113.12
236.519	116.12
236.753	126.12
236.987	127.12
237.221	131.12
237.455	177.12
237.689	156.12
237.922	135.12
238.156	121.12
238.39	112.12
238.624	110.12
238.858	108.12
239.091	121.12
239.325	113.12
239.559	125.12
239.793	127.12
240.027	109.12
240.26	124.12
240.494	137.12
240.728	125.12
240.961	122.12
241.195	129.12
241.429	130.12
241.662	136.12
241.896	133.12
242.13	131.12
242.363	149.12
242.597	127.12
242.83	136.12
243.064	125.12
243.298	137.12
243.531	129.12
243.765	133.12
243.998	140.12
244.232	131.12
244.465	141.12
244.699	129.12
244.932	139.12
245.166	152.12
245.399	156.12
245.633	137.12
245.866	151.12
246.099	131.12
246.333	120.12
246.566	140.12
246.8	140.12
247.033	156.12
247.266	139.12
247.5	149.12
247.733	151.12
247.966	148.12
248.2	151.12
248.433	153.12
248.666	139.12
248.899	149.12
249.133	180.12
249.366	181.12
249.599	164.12
249.832	168.12
250.066	166.12
250.299	161.12
250.532	183.12
250.765	173.12
250.998	181.12
251.231	184.12
251.465	186.12
251.698	170.12
251.931	193.12
252.164	187.12
252.397	171.12
252.63	172.12
252.863	186.12
253.096	172.12
253.329	203.12
253.562	188.12
253.795	195.12
254.028	203.12
254.261	199.12
254.494	206.12
254.727	203.12
254.96	224.12
255.193	223.12
255.426	209.12
255.659	189.12
255.892	195.12
256.124	199.12
256.357	205.12
256.59	213.12
256.823	205.12
257.056	179.12
257.289	201.12
257.521	182.12
257.754	199.12
257.987	198.12
258.22	185.12
258.452	185.12
258.685	188.12
258.918	190.12
259.151	207.12
259.383	179.12
259.616	189.12
259.849	201.12
260.081	202.12
260.314	221.12
260.547	223.12
260.779	206.12
261.012	212.12
261.244	201.12
261.477	206.12
261.71	197.12
261.942	202.12
262.175	211.12
262.407	202.12
262.64	201.12
262.872	208.12
263.105	199.12
263.337	199.12
263.57	204.12
263.802	204.12
264.035	207.12
264.267	184.12
264.499	213.12
264.732	207.12
264.964	210.12
265.197	209.12
265.429	210.12
265.661	211.12
265.894	201.12
266.126	219.12
266.358	227.12
266.591	214.12
266.823	217.12
267.055	211.12
267.287	218.12
267.52	213.12
267.752	206.12
267.984	220.12
268.216	214.12
268.448	231.12
268.681	207.12
268.913	220.12
269.145	247.12
269.377	257.12
269.609	249.12
269.841	248.12
270.073	246.12
270.306	251.12
270.538	268.12
270.77	262.12
271.002	257.12
271.234	263.12
271.466	253.12
271.698	256.12
271.93	272.12
272.162	254.12
272.394	288.12
272.626	249.12
272.858	243.12
273.09	260.12
273.322	265.12
273.553	261.12
273.785	242.12
274.017	249.12
274.249	262.12
274.481	249.12
274.713	259.12
274.945	277.12
275.176	250.12
275.408	266.12
275.64	250.12
275.872	244.12
276.104	257.12
276.335	241.12
276.567	260.12
276.799	274.12
277.031	278.12
277.262	284.12
277.494	277.12
277.726	297.12
277.957	280.12
278.189	262.12
278.421	251.12
278.652	262.12
278.884	241.12
279.115	263.12
279.347	275.12
279.579	256.12
279.81	271.12
280.042	259.12
280.273	267.12
280.505	254.12
280.736	271.12
280.968	250.12
281.199	272.12
281.431	278.12
281.662	276.12
281.894	259.12
282.125	266.12
282.356	269.12
282.588	293.12
282.819	294.12
283.051	257.12
283.282	265.12
283.513	274.12
283.745	268.12
283.976	292.12
284.207	273.12
284.439	282.12
284.67	276.12
284.901	285.12
285.132	281.12
285.364	279.12
285.595	283.12
285.826	277.12
286.057	285.12
286.288	271.12
286.52	278.12
286.751	279.12
286.982	274.12
287.213	262.12
287.444	277.12
287.675	286.12
287.906	313.12
288.138	289.12
288.369	275.12
288.6	290.12
288.831	305.12
289.062	301.12
289.293	292.12
289.524	277.12
289.755	287.12
289.986	277.12
290.217	293.12
290.448	291.12
290.679	283.12
290.91	287.12
291.141	295.12
291.371	281.12
291.602	297.12
291.833	299.12
292.064	283.12
292.295	288.12
292.526	296.12
292.757	289.12
292.987	271.12
293.218	281.12
293.449	293.12
293.68	299.12
293.91	300.12
294.141	279.12
294.372	289.12
294.603	283.12
294.833	301.12
295.064	285.12
295.295	302.12
295.525	284.12
295.756	308.12
295.987	305.12
296.217	313.12
296.448	302.12
296.679	306.12
296.909	302.12
297.14	305.12
297.37	315.12
297.601	323.12
297.831	309.12
298.062	308.12
298.292	286.12
298.523	319.12
298.753	318.12
298.984	315.12
299.214	314.12
299.445	323.12
299.675	320.12
299.905	323.12
300.136	318.12
300.366	309.12
300.597	325.12
300.827	323.12
301.057	325.12
301.288	326.12
301.518	340.12
301.748	351.12
301.979	325.12
302.209	330.12
302.439	334.12
302.669	352.12
302.9	311.12
303.13	319.12
303.36	347.12
303.59	342.12
303.82	338.12
304.051	343.12
304.281	336.12
304.511	324.12
304.741	341.12
304.971	314.12
305.201	340.12
305.431	334.12
305.661	330.12
305.891	315.12
306.121	339.12
306.352	327.12
306.582	326.12
306.812	332.12
307.042	321.12
307.272	338.12
307.502	340.12
307.731	343.12
307.961	344.12
308.191	316.12
308.421	347.12
308.651	357.12
308.881	337.12
309.111	329.12
309.341	323.12
309.571	331.12
309.8	344.12
310.03	340.12
310.26	346.12
310.49	358.12
310.72	379.12
310.949	361.12
311.179	371.12
311.409	355.12
311.639	362.12
311.868	337.12
312.098	357.12
312.328	371.12
312.557	377.12
312.787	361.12
313.017	370.12
313.246	361.12
313.476	359.12
313.706	365.12
313.935	359.12
314.165	359.12
314.394	366.12
314.624	385.12
314.853	359.12
315.083	373.12
315.312	369.12
315.542	348.12
315.771	361.12
316.001	356.12
316.23	373.12
316.46	363.12
316.689	364.12
316.919	359.12
317.148	366.12
317.377	379.12
317.607	377.12
317.836	357.12
318.065	363.12
318.295	357.12
318.524	359.12
318.753	357.12
318.983	382.12
319.212	353.12
319.441	381.12
319.67	375.12
319.9	362.12
320.129	377.12
320.358	387.12
320.587	374.12
320.816	368.12
321.046	382.12
321.275	378.12
321.504	360.12
321.733	373.12
321.962	371.12
322.191	388.12
322.42	384.12
322.649	402.12
322.878	401.12
323.108	390.12
323.337	399.12
323.566	412.12
323.795	433.12
324.024	456.12
324.253	487.12
324.482	631.12
324.71	885.12
324.939	1237.12
325.168	1097.12
325.397	633.12
325.626	501.12
325.855	433.12
326.084	420.12
326.313	441.12
326.542	433.12
326.77	426.12
326.999	484.12
327.228	573.12
327.457	845.12
327.686	974.12
327.914	686.12
328.143	534.12
328.372	466.12
328.6	455.12
328.829	427.12
329.058	441.12
329.287	449.12
329.515	454.12
329.744	445.12
329.972	430.12
330.201	453.12
330.43	460.12
330.658	468.12
330.887	489.12
331.115	452.12
331.344	445.12
331.572	457.12
331.801	441.12
332.03	435.12
332.258	463.12
332.486	440.12
332.715	418.12
332.943	439.12
333.172	483.12
333.4	474.12
333.629	465.12
333.857	467.12
334.085	477.12
334.314	487.12
334.542	490.12
334.771	493.12
334.999	470.12
335.227	459.12
335.455	471.12
335.684	466.12
335.912	454.12
336.14	451.12
336.369	434.12
336.597	455.12
336.825	459.12
337.053	418.12
337.281	443.12
337.51	415.12
337.738	435.12
337.966	422.12
338.194	450.12
338.422	447.12
338.65	425.12
338.878	411.12
339.106	406.12
339.334	397.12
339.562	401.12
339.79	426.12
340.018	407.12
340.246	402.12
340.474	410.12
340.702	404.12
340.93	427.12
341.158	403.12
341.386	414.12
341.614	401.12
341.842	413.12
342.07	415.12
342.298	410.12
342.526	394.12
342.754	405.12
342.981	420.12
343.209	410.12
343.437	403.12
343.665	421.12
343.893	449.12
344.12	467.12
344.348	437.12
344.576	443.12
344.804	414.12
345.031	408.12
345.259	426.12
345.487	432.12
345.714	438.12
345.942	412.12
346.17	398.12
346.397	395.12
346.625	413.12
346.853	400.12
347.08	390.12
347.308	381.12
347.535	406.12
347.763	413.12
347.99	399.12
348.218	397.12
348.445	390.12
348.673	419.12
348.9	388.12
349.128	397.12
349.355	381.12
349.583	382.12
349.81	391.12
350.037	376.12
350.265	398.12
350.492	388.12
350.72	382.12
350.947	395.12
351.174	427.12
351.402	388.12
351.629	391.12
351.856	407.12
352.083	402.12
352.311	398.12
352.538	398.12
352.765	412.12
352.992	388.12
353.22	396.12
353.447	401.12
353.674	399.12
353.901	391.12
354.128	379.12
354.355	386.12
354.583	388.12
354.81	397.12
355.037	403.12
355.264	376.12
355.491	383.12
355.718	370.12
355.945	387.12
356.172	387.12
356.399	381.12
356.626	377.12
356.853	384.12
357.08	387.12
357.307	392.12
357.534	375.12
357.761	381.12
357.988	400.12
358.215	387.12
358.441	386.12
358.668	389.12
358.895	379.12
359.122	388.12
359.349	394.12
359.576	395.12
359.802	381.12
360.029	395.12
360.256	395.12
360.483	399.12
360.709	402.12
360.936	399.12
361.163	393.12
361.39	377.12
361.616	392.12
361.843	394.12
362.07	410.12
362.296	391.12
362.523	395.12
362.749	398.12
362.976	392.12
363.203	378.12
363.429	375.12
363.656	382.12
363.882	359.12
364.109	371.12
364.335	377.12
364.562	390.12
364.788	381.12
365.015	399.12
365.241	405.12
365.468	399.12
365.694	392.12
365.92	381.12
366.147	378.12
366.373	350.12
366.599	397.12
366.826	383.12
367.052	384.12
367.278	379.12
367.505	404.12
367.731	388.12
367.957	371.12
368.184	397.12
368.41	382.12
368.636	391.12
368.862	399.12
369.089	395.12
369.315	390.12
369.541	418.12
369.767	397.12
369.993	388.12
370.219	384.12
370.445	384.12
370.672	382.12
370.898	385.12
371.124	394.12
371.35	396.12
371.576	405.12
371.802	413.12
372.028	403.12
372.254	385.12
372.48	407.12
372.706	399.12
372.932	408.12
373.158	416.12
373.384	415.12
373.61	397.12
373.835	392.12
374.061	402.12
374.287	426.12
374.513	420.12
374.739	421.12
374.965	429.12
375.191	416.12
375.416	430.12
375.642	419.12
375.868	407.12
376.094	405.12
376.319	386.12
376.545	393.12
376.771	384.12
376.997	395.12
377.222	395.12
377.448	386.12
377.674	377.12
377.899	386.12
378.125	397.12
378.35	392.12
378.576	399.12
378.802	396.12
379.027	386.12
379.253	399.12
379.478	386.12
379.704	417.12
379.929	394.12
380.155	412.12
380.38	390.12
380.606	407.12
380.831	409.12
381.057	399.12
381.282	395.12
381.507	391.12
381.733	406.12
381.958	397.12
382.184	408.12
382.409	415.12
382.634	393.12
382.86	411.12
383.085	415.12
383.31	417.12
383.535	424.12
383.761	429.12
383.986	400.12
384.211	410.12
384.436	430.12
384.662	449.12
384.887	438.12
385.112	449.12
385.337	453.12
385.562	427.12
385.787	447.12
386.013	456.12
386.238	447.12
386.463	459.12
386.688	460.12
386.913	458.12
387.138	433.12
387.363	470.12
387.588	459.12
387.813	437.12
388.038	461.12
388.263	438.12
388.488	443.12
388.713	458.12
388.938	435.12
389.163	458.12
389.387	468.12
389.612	439.12
389.837	447.12
390.062	452.12
390.287	441.12
390.512	436.12
390.736	445.12
390.961	453.12
391.186	454.12
391.411	466.12
391.636	483.12
391.86	474.12
392.085	489.12
392.31	478.12
392.534	482.12
392.759	480.12
392.984	455.12
393.208	492.12
393.433	485.12
393.658	463.12
393.882	454.12
394.107	458.12
394.331	462.12
394.556	457.12
394.78	452.12
395.005	446.12
395.229	454.12
395.454	467.12
395.678	473.12
395.903	511.12
396.127	501.12
396.352	499.12
396.576	488.12
396.801	469.12
397.025	492.12
397.249	479.12
397.474	469.12
397.698	489.12
397.922	510.12
398.147	515.12
398.371	501.12
398.595	508.12
398.82	534.12
399.044	552.12
399.268	563.12
399.492	621.12
399.717	653.12
399.941	673.12
400.165	679.12
400.389	664.12
400.613	599.12
400.837	567.12
401.062	561.12
401.286	543.12
401.51	551.12
401.734	538.12
401.958	535.12
402.182	534.12
402.406	540.12
402.63	541.12
402.854	548.12
403.078	541.12
403.302	553.12
403.526	563.12
403.75	583.12
403.974	565.12
404.198	583.12
404.422	559.12
404.645	557.12
404.869	572.12
405.093	577.12
405.317	633.12
405.541	633.12
405.765	590.12
405.988	569.12
406.212	580.12
406.436	580.12
406.66	592.12
406.883	594.12
407.107	619.12
407.331	654.12
407.555	695.12
407.778	685.12
408.002	646.12
408.226	598.12
408.449	595.12
408.673	589.12
408.896	613.12
409.12	646.12
409.344	616.12
409.567	580.12
409.791	562.12
410.014	556.12
410.238	541.12
410.461	567.12
410.685	567.12
410.908	582.12
411.132	602.12
411.355	617.12
411.578	593.12
411.802	535.12
412.025	559.12
412.249	569.12
412.472	574.12
412.695	579.12
412.919	579.12
413.142	532.12
413.365	559.12
413.589	534.12
413.812	516.12
414.035	522.12
414.258	539.12
414.482	499.12
414.705	534.12
414.928	514.12
415.151	501.12
415.374	531.12
415.597	525.12
415.821	509.12
416.044	525.12
416.267	490.12
416.49	497.12
416.713	518.12
416.936	508.12
417.159	524.12
417.382	513.12
417.605	521.12
417.828	499.12
418.051	506.12
418.274	533.12
418.497	519.12
418.72	507.12
418.943	524.12
419.166	538.12
419.389	569.12
419.611	569.12
419.834	556.12
420.057	539.12
420.28	557.12
420.503	513.12
420.726	542.12
420.948	524.12
421.171	532.12
421.394	571.12
421.617	545.12
421.839	535.12
422.062	524.12
422.285	523.12
422.507	558.12
422.73	637.12
422.953	609.12
423.175	575.12
423.398	543.12
423.621	559.12
423.843	531.12
424.066	569.12
424.288	571.12
424.511	581.12
424.733	617.12
424.956	651.12
425.178	644.12
425.401	616.12
425.623	628.12
425.846	583.12
426.068	539.12
426.291	517.12
426.513	548.12
426.735	550.12
426.958	580.12
427.18	608.12
427.402	713.12
427.625	773.12
427.847	662.12
428.069	606.12
428.292	540.12
428.514	524.12
428.736	492.12
428.958	511.12
429.181	494.12
429.403	483.12
429.625	517.12
429.847	520.12
430.069	558.12
430.292	557.12
430.514	533.12
430.736	492.12
430.958	504.12
431.18	507.12
431.402	489.12
431.624	486.12
431.846	464.12
432.068	485.12
432.29	474.12
432.512	483.12
432.734	499.12
432.956	492.12
433.178	507.12
433.4	497.12
433.622	493.12
433.844	501.12
434.066	509.12
434.287	502.12
434.509	481.12
434.731	501.12
434.953	504.12
435.175	508.12
435.397	534.12
435.618	533.12
435.84	556.12
436.062	606.12
436.284	657.12
436.505	589.12
436.727	544.12
436.949	531.12
437.17	502.12
437.392	498.12
437.614	518.12
437.835	515.12
438.057	567.12
438.278	607.12
438.5	636.12
438.721	694.12
438.943	686.12
439.165	554.12
439.386	522.12
439.608	517.12
439.829	505.12
440.05	504.12
440.272	557.12
440.493	552.12
440.715	533.12
440.936	526.12
441.158	517.12
441.379	518.12
441.6	542.12
441.822	522.12
442.043	564.12
442.264	620.12
442.486	630.12
442.707	589.12
442.928	557.12
443.149	567.12
443.371	567.12
443.592	584.12
443.813	641.12
444.034	714.12
444.255	607.12
444.476	586.12
444.698	581.12
444.919	599.12
445.14	709.12
445.361	649.12
445.582	587.12
445.803	602.12
446.024	654.12
446.245	651.12
446.466	590.12
446.687	551.12
446.908	542.12
447.129	488.12
447.35	523.12
447.571	483.12
447.792	494.12
448.013	487.12
448.234	514.12
448.455	533.12
448.675	580.12
448.896	671.12
449.117	595.12
449.338	549.12
449.559	618.12
449.779	699.12
450	599.12
450.221	516.12
450.442	468.12
450.662	471.12
450.883	489.12
451.104	487.12
451.324	462.12
451.545	462.12
451.766	477.12
451.986	447.12
452.207	436.12
452.428	434.12
452.648	430.12
452.869	451.12
453.089	455.12
453.31	457.12
453.53	453.12
453.751	454.12
453.971	444.12
454.192	447.12
454.412	438.12
454.633	447.12
454.853	414.12
455.073	425.12
455.294	463.12
455.514	494.12
455.734	484.12
455.955	441.12
456.175	423.12
456.395	451.12
456.616	423.12
456.836	414.12
457.056	448.12
457.276	419.12
457.497	425.12
457.717	425.12
457.937	419.12
458.157	441.12
458.377	442.12
458.598	456.12
458.818	498.12
459.038	534.12
459.258	561.12
459.478	511.12
459.698	497.12
459.918	500.12
460.138	510.12
460.358	532.12
460.578	517.12
460.798	522.12
461.018	540.12
461.238	493.12
461.458	544.12
461.678	527.12
461.898	532.12
462.118	505.12
462.338	562.12
462.558	588.12
462.777	567.12
462.997	610.12
463.217	602.12
463.437	626.12
463.657	593.12
463.876	591.12
464.096	578.12
464.316	575.12
464.536	568.12
464.755	561.12
464.975	541.12
465.195	538.12
465.414	556.12
465.634	525.12
465.854	511.12
466.073	486.12
466.293	493.12
466.512	476.12
466.732	493.12
466.951	473.12
467.171	453.12
467.391	446.12
467.61	475.12
467.829	471.12
468.049	479.12
468.268	460.12
468.488	477.12
468.707	474.12
468.927	462.12
469.146	455.12
469.365	462.12
469.585	460.12
469.804	484.12
470.023	473.12
470.243	468.12
470.462	487.12
470.681	480.12
470.901	489.12
471.12	483.12
471.339	490.12
471.558	478.12
471.777	488.12
471.997	465.12
472.216	473.12
472.435	481.12
472.654	466.12
472.873	464.12
473.092	467.12
473.311	454.12
473.53	445.12
473.749	448.12
473.968	504.12
474.187	558.12
474.406	571.12
474.625	490.12
474.844	484.12
475.063	456.12
475.282	468.12
475.501	457.12
475.72	479.12
475.939	484.12
476.158	484.12
476.377	469.12
476.596	473.12
476.814	482.12
477.033	494.12
477.252	502.12
477.471	502.12
477.69	514.12
477.908	534.12
478.127	525.12
478.346	561.12
478.564	539.12
478.783	542.12
479.002	537.12
479.22	532.12
479.439	549.12
479.658	563.12
479.876	569.12
480.095	559.12
480.313	597.12
480.532	598.12
480.751	584.12
480.969	603.12
481.188	606.12
481.406	607.12
481.624	572.12
481.843	583.12
482.061	560.12
482.28	545.12
482.498	558.12
482.717	524.12
482.935	532.12
483.153	548.12
483.372	546.12
483.59	534.12
483.808	539.12
484.027	533.12
484.245	546.12
484.463	546.12
484.681	552.12
484.9	574.12
485.118	558.12
485.336	573.12
485.554	552.12
485.772	561.12
485.99	599.12
486.209	577.12
486.427	566.12
486.645	583.12
486.863	573.12
487.081	586.12
487.299	580.12
487.517	594.12
487.735	590.12
487.953	566.12
488.171	577.12
488.389	579.12
488.607	568.12
488.825	597.12
489.043	575.12
489.261	577.12
489.479	592.12
489.696	596.12
489.914	575.12
490.132	603.12
490.35	602.12
490.568	606.12
490.786	590.12
491.003	609.12
491.221	611.12
491.439	628.12
491.657	637.12
491.874	631.12
492.092	612.12
492.31	613.12
492.527	619.12
492.745	631.12
492.963	636.12
493.18	641.12
493.398	639.12
493.615	651.12
493.833	643.12
494.05	641.12
494.268	635.12
494.485	650.12
494.703	655.12
494.92	652.12
495.138	656.12
495.355	621.12
495.573	668.12
495.79	658.12
496.008	660.12
496.225	643.12
496.442	634.12
496.66	659.12
496.877	661.12
497.094	675.12
497.312	678.12
497.529	699.12
497.746	733.12
497.963	718.12
498.181	738.12
498.398	776.12
498.615	771.12
498.832	809.12
499.049	814.12
499.267	867.12
499.484	908.12
499.701	965.12
499.918	1021.12
500.135	1113.12
500.352	1185.12
500.569	1183.12
500.786	1180.12
501.003	1149.12
501.22	1109.12
501.437	1031.12
501.654	989.12
501.871	926.12
502.088	869.12
