Data from 1962.PennyLincolnUp.Lamp.En5.5.200Scan.071719.P1._HRD10591_13-55-19-061.txt Node
Date: Thu Jul 18 13:55:19 EDT 2019
User: cochatt
Spectrometer: HR+D1059
Trigger mode: 1
Integration Time (sec): 1.000000E-1
Scans to average: 1
Electric dark correction enabled: true
Nonlinearity correction enabled: false
Boxcar width: 0
XAxis mode: Wavelengths
Number of Pixels in Spectrum: 2048
>>>>>Begin Spectral Data<<<<<
223.165	-13.06
223.4	-13.06
223.635	-13.06
223.869	-2.06
224.104	-18.06
224.338	-13.06
224.573	-19.06
224.808	-15.06
225.042	-11.06
225.277	-2.06
225.511	-0.06
225.746	10.94
225.98	7.94
226.215	1.94
226.449	13.94
226.683	30.94
226.918	9.94
227.152	17.94
227.387	32.94
227.621	35.94
227.856	51.94
228.09	50.94
228.324	48.94
228.559	44.94
228.793	63.94
229.027	84.94
229.262	75.94
229.496	95.94
229.73	111.94
229.964	134.94
230.199	132.94
230.433	104.94
230.667	93.94
230.901	98.94
231.136	107.94
231.37	106.94
231.604	100.94
231.838	105.94
232.072	105.94
232.306	90.94
232.541	98.94
232.775	111.94
233.009	98.94
233.243	93.94
233.477	112.94
233.711	107.94
233.945	102.94
234.179	99.94
234.413	113.94
234.647	106.94
234.881	115.94
235.115	116.94
235.349	113.94
235.583	117.94
235.817	113.94
236.051	117.94
236.285	107.94
236.519	123.94
236.753	112.94
236.987	119.94
237.221	142.94
237.455	182.94
237.689	159.94
237.922	135.94
238.156	133.94
238.39	132.94
238.624	126.94
238.858	101.94
239.091	102.94
239.325	125.94
239.559	105.94
239.793	111.94
240.027	119.94
240.26	112.94
240.494	142.94
240.728	131.94
240.961	129.94
241.195	136.94
241.429	139.94
241.662	122.94
241.896	127.94
242.13	127.94
242.363	121.94
242.597	116.94
242.83	123.94
243.064	131.94
243.298	129.94
243.531	136.94
243.765	138.94
243.998	136.94
244.232	121.94
244.465	129.94
244.699	121.94
244.932	138.94
245.166	126.94
245.399	137.94
245.633	143.94
245.866	139.94
246.099	127.94
246.333	128.94
246.566	136.94
246.8	144.94
247.033	145.94
247.266	162.94
247.5	147.94
247.733	142.94
247.966	140.94
248.2	150.94
248.433	150.94
248.666	148.94
248.899	166.94
249.133	175.94
249.366	177.94
249.599	164.94
249.832	155.94
250.066	168.94
250.299	179.94
250.532	177.94
250.765	192.94
250.998	199.94
251.231	191.94
251.465	194.94
251.698	199.94
251.931	181.94
252.164	189.94
252.397	173.94
252.63	179.94
252.863	181.94
253.096	183.94
253.329	181.94
253.562	190.94
253.795	188.94
254.028	182.94
254.261	188.94
254.494	186.94
254.727	216.94
254.96	228.94
255.193	234.94
255.426	214.94
255.659	194.94
255.892	204.94
256.124	185.94
256.357	176.94
256.59	214.94
256.823	187.94
257.056	192.94
257.289	184.94
257.521	201.94
257.754	202.94
257.987	193.94
258.22	195.94
258.452	197.94
258.685	178.94
258.918	195.94
259.151	183.94
259.383	189.94
259.616	212.94
259.849	219.94
260.081	201.94
260.314	230.94
260.547	229.94
260.779	232.94
261.012	217.94
261.244	221.94
261.477	193.94
261.71	205.94
261.942	190.94
262.175	192.94
262.407	202.94
262.64	203.94
262.872	191.94
263.105	192.94
263.337	207.94
263.57	200.94
263.802	199.94
264.035	199.94
264.267	186.94
264.499	190.94
264.732	218.94
264.964	201.94
265.197	233.94
265.429	215.94
265.661	205.94
265.894	197.94
266.126	208.94
266.358	214.94
266.591	215.94
266.823	208.94
267.055	213.94
267.287	212.94
267.52	218.94
267.752	217.94
267.984	239.94
268.216	226.94
268.448	219.94
268.681	231.94
268.913	210.94
269.145	249.94
269.377	260.94
269.609	262.94
269.841	262.94
270.073	256.94
270.306	261.94
270.538	286.94
270.77	261.94
271.002	275.94
271.234	267.94
271.466	256.94
271.698	293.94
271.93	291.94
272.162	255.94
272.394	278.94
272.626	277.94
272.858	261.94
273.09	247.94
273.322	264.94
273.553	229.94
273.785	246.94
274.017	248.94
274.249	249.94
274.481	245.94
274.713	234.94
274.945	271.94
275.176	270.94
275.408	253.94
275.64	253.94
275.872	246.94
276.104	252.94
276.335	248.94
276.567	270.94
276.799	267.94
277.031	257.94
277.262	284.94
277.494	302.94
277.726	275.94
277.957	290.94
278.189	270.94
278.421	276.94
278.652	255.94
278.884	261.94
279.115	270.94
279.347	255.94
279.579	272.94
279.81	259.94
280.042	250.94
280.273	268.94
280.505	265.94
280.736	262.94
280.968	265.94
281.199	247.94
281.431	245.94
281.662	262.94
281.894	263.94
282.125	269.94
282.356	275.94
282.588	290.94
282.819	275.94
283.051	278.94
283.282	289.94
283.513	261.94
283.745	279.94
283.976	277.94
284.207	285.94
284.439	271.94
284.67	282.94
284.901	287.94
285.132	257.94
285.364	285.94
285.595	285.94
285.826	274.94
286.057	278.94
286.288	270.94
286.52	278.94
286.751	280.94
286.982	278.94
287.213	283.94
287.444	278.94
287.675	280.94
287.906	305.94
288.138	289.94
288.369	302.94
288.6	298.94
288.831	298.94
289.062	275.94
289.293	282.94
289.524	303.94
289.755	294.94
289.986	290.94
290.217	289.94
290.448	278.94
290.679	303.94
290.91	322.94
291.141	293.94
291.371	303.94
291.602	283.94
291.833	297.94
292.064	306.94
292.295	324.94
292.526	293.94
292.757	293.94
292.987	280.94
293.218	279.94
293.449	309.94
293.68	301.94
293.91	285.94
294.141	293.94
294.372	304.94
294.603	294.94
294.833	285.94
295.064	281.94
295.295	310.94
295.525	309.94
295.756	302.94
295.987	297.94
296.217	306.94
296.448	324.94
296.679	301.94
296.909	306.94
297.14	286.94
297.37	294.94
297.601	316.94
297.831	297.94
298.062	287.94
298.292	312.94
298.523	307.94
298.753	325.94
298.984	309.94
299.214	311.94
299.445	323.94
299.675	303.94
299.905	312.94
300.136	316.94
300.366	311.94
300.597	321.94
300.827	318.94
301.057	305.94
301.288	332.94
301.518	335.94
301.748	331.94
301.979	320.94
302.209	343.94
302.439	318.94
302.669	345.94
302.9	313.94
303.13	338.94
303.36	326.94
303.59	317.94
303.82	346.94
304.051	350.94
304.281	339.94
304.511	334.94
304.741	317.94
304.971	318.94
305.201	335.94
305.431	330.94
305.661	336.94
305.891	329.94
306.121	333.94
306.352	322.94
306.582	327.94
306.812	307.94
307.042	329.94
307.272	315.94
307.502	333.94
307.731	343.94
307.961	346.94
308.191	337.94
308.421	339.94
308.651	347.94
308.881	336.94
309.111	336.94
309.341	336.94
309.571	319.94
309.8	342.94
310.03	348.94
310.26	337.94
310.49	351.94
310.72	372.94
310.949	379.94
311.179	378.94
311.409	352.94
311.639	373.94
311.868	373.94
312.098	350.94
312.328	362.94
312.557	369.94
312.787	389.94
313.017	375.94
313.246	362.94
313.476	373.94
313.706	369.94
313.935	370.94
314.165	382.94
314.394	377.94
314.624	383.94
314.853	377.94
315.083	375.94
315.312	353.94
315.542	377.94
315.771	378.94
316.001	355.94
316.23	356.94
316.46	339.94
316.689	365.94
316.919	386.94
317.148	358.94
317.377	373.94
317.607	380.94
317.836	375.94
318.065	381.94
318.295	377.94
318.524	368.94
318.753	379.94
318.983	377.94
319.212	360.94
319.441	363.94
319.67	381.94
319.9	391.94
320.129	395.94
320.358	370.94
320.587	378.94
320.816	370.94
321.046	377.94
321.275	386.94
321.504	360.94
321.733	392.94
321.962	380.94
322.191	381.94
322.42	382.94
322.649	413.94
322.878	415.94
323.108	420.94
323.337	423.94
323.566	442.94
323.795	485.94
324.024	498.94
324.253	545.94
324.482	731.94
324.71	1069.94
324.939	1513.94
325.168	1307.94
325.397	719.94
325.626	533.94
325.855	491.94
326.084	469.94
326.313	437.94
326.542	450.94
326.77	486.94
326.999	543.94
327.228	676.94
327.457	951.94
327.686	1145.94
327.914	799.94
328.143	581.94
328.372	525.94
328.6	496.94
328.829	479.94
329.058	502.94
329.287	508.94
329.515	477.94
329.744	433.94
329.972	434.94
330.201	471.94
330.43	472.94
330.658	511.94
330.887	511.94
331.115	507.94
331.344	484.94
331.572	455.94
331.801	449.94
332.03	462.94
332.258	468.94
332.486	458.94
332.715	436.94
332.943	450.94
333.172	438.94
333.4	477.94
333.629	472.94
333.857	495.94
334.085	479.94
334.314	489.94
334.542	502.94
334.771	491.94
334.999	513.94
335.227	479.94
335.455	473.94
335.684	460.94
335.912	464.94
336.14	440.94
336.369	454.94
336.597	448.94
336.825	433.94
337.053	448.94
337.281	449.94
337.51	467.94
337.738	431.94
337.966	447.94
338.194	422.94
338.422	431.94
338.65	443.94
338.878	435.94
339.106	436.94
339.334	451.94
339.562	430.94
339.79	409.94
340.018	421.94
340.246	421.94
340.474	417.94
340.702	433.94
340.93	412.94
341.158	407.94
341.386	415.94
341.614	410.94
341.842	419.94
342.07	407.94
342.298	400.94
342.526	403.94
342.754	409.94
342.981	414.94
343.209	391.94
343.437	427.94
343.665	418.94
343.893	465.94
344.12	466.94
344.348	471.94
344.576	423.94
344.804	440.94
345.031	431.94
345.259	441.94
345.487	425.94
345.714	409.94
345.942	401.94
346.17	407.94
346.397	421.94
346.625	390.94
346.853	401.94
347.08	407.94
347.308	413.94
347.535	414.94
347.763	411.94
347.99	405.94
348.218	404.94
348.445	394.94
348.673	405.94
348.9	415.94
349.128	400.94
349.355	395.94
349.583	385.94
349.81	389.94
350.037	386.94
350.265	406.94
350.492	369.94
350.72	407.94
350.947	393.94
351.174	414.94
351.402	405.94
351.629	403.94
351.856	396.94
352.083	392.94
352.311	417.94
352.538	391.94
352.765	385.94
352.992	400.94
353.22	403.94
353.447	412.94
353.674	402.94
353.901	374.94
354.128	385.94
354.355	377.94
354.583	390.94
354.81	386.94
355.037	389.94
355.264	387.94
355.491	369.94
355.718	371.94
355.945	387.94
356.172	381.94
356.399	367.94
356.626	389.94
356.853	408.94
357.08	367.94
357.307	397.94
357.534	384.94
357.761	389.94
357.988	403.94
358.215	393.94
358.441	393.94
358.668	400.94
358.895	409.94
359.122	388.94
359.349	396.94
359.576	386.94
359.802	415.94
360.029	422.94
360.256	434.94
360.483	405.94
360.709	393.94
360.936	403.94
361.163	390.94
361.39	406.94
361.616	409.94
361.843	374.94
362.07	392.94
362.296	396.94
362.523	388.94
362.749	413.94
362.976	385.94
363.203	399.94
363.429	394.94
363.656	393.94
363.882	411.94
364.109	389.94
364.335	393.94
364.562	366.94
364.788	394.94
365.015	406.94
365.241	402.94
365.468	382.94
365.694	393.94
365.92	393.94
366.147	402.94
366.373	385.94
366.599	403.94
366.826	391.94
367.052	391.94
367.278	394.94
367.505	372.94
367.731	385.94
367.957	388.94
368.184	390.94
368.41	379.94
368.636	393.94
368.862	378.94
369.089	398.94
369.315	394.94
369.541	399.94
369.767	390.94
369.993	401.94
370.219	398.94
370.445	415.94
370.672	415.94
370.898	391.94
371.124	393.94
371.35	393.94
371.576	393.94
371.802	396.94
372.028	416.94
372.254	395.94
372.48	383.94
372.706	412.94
372.932	399.94
373.158	408.94
373.384	405.94
373.61	398.94
373.835	409.94
374.061	414.94
374.287	399.94
374.513	421.94
374.739	414.94
374.965	408.94
375.191	427.94
375.416	435.94
375.642	414.94
375.868	401.94
376.094	403.94
376.319	399.94
376.545	393.94
376.771	397.94
376.997	393.94
377.222	403.94
377.448	397.94
377.674	407.94
377.899	410.94
378.125	420.94
378.35	402.94
378.576	378.94
378.802	393.94
379.027	391.94
379.253	385.94
379.478	398.94
379.704	416.94
379.929	402.94
380.155	388.94
380.38	400.94
380.606	403.94
380.831	380.94
381.057	402.94
381.282	391.94
381.507	404.94
381.733	407.94
381.958	414.94
382.184	407.94
382.409	432.94
382.634	429.94
382.86	423.94
383.085	421.94
383.31	422.94
383.535	421.94
383.761	426.94
383.986	431.94
384.211	443.94
384.436	435.94
384.662	432.94
384.887	427.94
385.112	443.94
385.337	423.94
385.562	455.94
385.787	475.94
386.013	452.94
386.238	478.94
386.463	476.94
386.688	463.94
386.913	472.94
387.138	443.94
387.363	464.94
387.588	459.94
387.813	438.94
388.038	445.94
388.263	476.94
388.488	457.94
388.713	477.94
388.938	446.94
389.163	440.94
389.387	447.94
389.612	423.94
389.837	476.94
390.062	476.94
390.287	447.94
390.512	441.94
390.736	463.94
390.961	446.94
391.186	445.94
391.411	453.94
391.636	478.94
391.86	474.94
392.085	461.94
392.31	482.94
392.534	490.94
392.759	458.94
392.984	453.94
393.208	459.94
393.433	469.94
393.658	457.94
393.882	488.94
394.107	455.94
394.331	476.94
394.556	465.94
394.78	462.94
395.005	485.94
395.229	488.94
395.454	475.94
395.678	485.94
395.903	505.94
396.127	483.94
396.352	504.94
396.576	478.94
396.801	484.94
397.025	474.94
397.249	484.94
397.474	489.94
397.698	482.94
397.922	504.94
398.147	508.94
398.371	518.94
398.595	520.94
398.82	533.94
399.044	554.94
399.268	563.94
399.492	611.94
399.717	674.94
399.941	703.94
400.165	689.94
400.389	664.94
400.613	619.94
400.837	567.94
401.062	562.94
401.286	556.94
401.51	521.94
401.734	519.94
401.958	529.94
402.182	525.94
402.406	543.94
402.63	555.94
402.854	574.94
403.078	583.94
403.302	581.94
403.526	577.94
403.75	581.94
403.974	558.94
404.198	568.94
404.422	574.94
404.645	566.94
404.869	577.94
405.093	610.94
405.317	630.94
405.541	659.94
405.765	628.94
405.988	579.94
406.212	585.94
406.436	592.94
406.66	592.94
406.883	592.94
407.107	625.94
407.331	662.94
407.555	730.94
407.778	706.94
408.002	659.94
408.226	617.94
408.449	606.94
408.673	613.94
408.896	631.94
409.12	657.94
409.344	643.94
409.567	573.94
409.791	565.94
410.014	568.94
410.238	567.94
410.461	577.94
410.685	570.94
410.908	586.94
411.132	586.94
411.355	618.94
411.578	570.94
411.802	567.94
412.025	546.94
412.249	546.94
412.472	533.94
412.695	590.94
412.919	610.94
413.142	567.94
413.365	549.94
413.589	537.94
413.812	517.94
414.035	540.94
414.258	537.94
414.482	541.94
414.705	541.94
414.928	528.94
415.151	524.94
415.374	493.94
415.597	508.94
415.821	533.94
416.044	514.94
416.267	530.94
416.49	509.94
416.713	525.94
416.936	518.94
417.159	525.94
417.382	526.94
417.605	521.94
417.828	530.94
418.051	533.94
418.274	525.94
418.497	507.94
418.72	541.94
418.943	554.94
419.166	564.94
419.389	583.94
419.611	568.94
419.834	566.94
420.057	536.94
420.28	554.94
420.503	552.94
420.726	544.94
420.948	537.94
421.171	578.94
421.394	601.94
421.617	559.94
421.839	529.94
422.062	542.94
422.285	557.94
422.507	579.94
422.73	643.94
422.953	630.94
423.175	571.94
423.398	569.94
423.621	578.94
423.843	590.94
424.066	578.94
424.288	581.94
424.511	602.94
424.733	616.94
424.956	674.94
425.178	653.94
425.401	645.94
425.623	652.94
425.846	587.94
426.068	537.94
426.291	543.94
426.513	539.94
426.735	564.94
426.958	576.94
427.18	633.94
427.402	747.94
427.625	800.94
427.847	683.94
428.069	606.94
428.292	593.94
428.514	540.94
428.736	503.94
428.958	514.94
429.181	523.94
429.403	517.94
429.625	507.94
429.847	552.94
430.069	600.94
430.292	581.94
430.514	519.94
430.736	503.94
430.958	502.94
431.18	498.94
431.402	480.94
431.624	500.94
431.846	482.94
432.068	488.94
432.29	503.94
432.512	515.94
432.734	490.94
432.956	493.94
433.178	489.94
433.4	515.94
433.622	498.94
433.844	500.94
434.066	501.94
434.287	498.94
434.509	501.94
434.731	529.94
434.953	545.94
435.175	555.94
435.397	571.94
435.618	563.94
435.84	582.94
436.062	622.94
436.284	699.94
436.505	577.94
436.727	538.94
436.949	539.94
437.17	508.94
437.392	511.94
437.614	503.94
437.835	540.94
438.057	609.94
438.278	671.94
438.5	673.94
438.721	745.94
438.943	731.94
439.165	587.94
439.386	550.94
439.608	545.94
439.829	547.94
440.05	558.94
440.272	606.94
440.493	569.94
440.715	525.94
440.936	529.94
441.158	523.94
441.379	520.94
441.6	529.94
441.822	553.94
442.043	570.94
442.264	634.94
442.486	670.94
442.707	621.94
442.928	592.94
443.149	567.94
443.371	585.94
443.592	597.94
443.813	681.94
444.034	741.94
444.255	641.94
444.476	579.94
444.698	574.94
444.919	577.94
445.14	689.94
445.361	635.94
445.582	593.94
445.803	615.94
446.024	685.94
446.245	707.94
446.466	645.94
446.687	586.94
446.908	512.94
447.129	510.94
447.35	522.94
447.571	481.94
447.792	508.94
448.013	520.94
448.234	501.94
448.455	565.94
448.675	633.94
448.896	714.94
449.117	602.94
449.338	586.94
449.559	682.94
449.779	765.94
450	625.94
450.221	526.94
450.442	497.94
450.662	478.94
450.883	480.94
451.104	481.94
451.324	468.94
451.545	463.94
451.766	477.94
451.986	443.94
452.207	453.94
452.428	468.94
452.648	458.94
452.869	454.94
453.089	469.94
453.31	459.94
453.53	463.94
453.751	442.94
453.971	452.94
454.192	451.94
454.412	464.94
454.633	447.94
454.853	442.94
455.073	460.94
455.294	486.94
455.514	525.94
455.734	526.94
455.955	443.94
456.175	419.94
456.395	429.94
456.616	444.94
456.836	426.94
457.056	449.94
457.276	402.94
457.497	442.94
457.717	429.94
457.937	435.94
458.157	439.94
458.377	458.94
458.598	463.94
458.818	503.94
459.038	563.94
459.258	557.94
459.478	538.94
459.698	507.94
459.918	499.94
460.138	519.94
460.358	517.94
460.578	530.94
460.798	519.94
461.018	542.94
461.238	522.94
461.458	525.94
461.678	529.94
461.898	548.94
462.118	542.94
462.338	562.94
462.558	555.94
462.777	570.94
462.997	584.94
463.217	614.94
463.437	637.94
463.657	589.94
463.876	589.94
464.096	589.94
464.316	580.94
464.536	578.94
464.755	597.94
464.975	575.94
465.195	561.94
465.414	614.94
465.634	550.94
465.854	533.94
466.073	509.94
466.293	509.94
466.512	468.94
466.732	472.94
466.951	493.94
467.171	475.94
467.391	470.94
467.61	470.94
467.829	482.94
468.049	474.94
468.268	482.94
468.488	479.94
468.707	462.94
468.927	479.94
469.146	467.94
469.365	468.94
469.585	443.94
469.804	465.94
470.023	472.94
470.243	482.94
470.462	486.94
470.681	495.94
470.901	516.94
471.12	493.94
471.339	485.94
471.558	483.94
471.777	480.94
471.997	474.94
472.216	488.94
472.435	489.94
472.654	496.94
472.873	477.94
473.092	471.94
473.311	490.94
473.53	457.94
473.749	486.94
473.968	499.94
474.187	575.94
474.406	582.94
474.625	523.94
474.844	475.94
475.063	512.94
475.282	485.94
475.501	478.94
475.72	475.94
475.939	489.94
476.158	486.94
476.377	481.94
476.596	488.94
476.814	476.94
477.033	507.94
477.252	485.94
477.471	498.94
477.69	514.94
477.908	513.94
478.127	530.94
478.346	547.94
478.564	541.94
478.783	553.94
479.002	552.94
479.22	593.94
479.439	575.94
479.658	549.94
479.876	576.94
480.095	583.94
480.313	603.94
480.532	601.94
480.751	608.94
480.969	599.94
481.188	625.94
481.406	630.94
481.624	605.94
481.843	583.94
482.061	555.94
482.28	542.94
482.498	562.94
482.717	560.94
482.935	576.94
483.153	539.94
483.372	544.94
483.59	553.94
483.808	532.94
484.027	536.94
484.245	571.94
484.463	561.94
484.681	537.94
484.9	561.94
485.118	570.94
485.336	574.94
485.554	571.94
485.772	564.94
485.99	555.94
486.209	582.94
486.427	584.94
486.645	582.94
486.863	579.94
487.081	599.94
487.299	600.94
487.517	592.94
487.735	594.94
487.953	584.94
488.171	594.94
488.389	578.94
488.607	579.94
488.825	594.94
489.043	570.94
489.261	578.94
489.479	592.94
489.696	619.94
489.914	624.94
490.132	592.94
490.35	622.94
490.568	591.94
490.786	624.94
491.003	630.94
491.221	669.94
491.439	641.94
491.657	623.94
491.874	653.94
492.092	653.94
492.31	639.94
492.527	638.94
492.745	657.94
492.963	666.94
493.18	672.94
493.398	673.94
493.615	675.94
493.833	674.94
494.05	663.94
494.268	680.94
494.485	691.94
494.703	671.94
494.92	669.94
495.138	683.94
495.355	671.94
495.573	671.94
495.79	681.94
496.008	695.94
496.225	705.94
496.442	679.94
496.66	680.94
496.877	698.94
497.094	719.94
497.312	716.94
497.529	733.94
497.746	699.94
497.963	730.94
498.181	744.94
498.398	770.94
498.615	819.94
498.832	811.94
499.049	877.94
499.267	904.94
499.484	944.94
499.701	979.94
499.918	1031.94
500.135	1159.94
500.352	1212.94
500.569	1175.94
500.786	1221.94
501.003	1155.94
501.22	1131.94
501.437	1076.94
501.654	997.94
501.871	1000.94
