Data from 1962.PennyLincolnUp.Lamp.En5.5.200Scan.071719.P1._HRD10591_13-52-45-060.txt Node
Date: Thu Jul 18 13:52:45 EDT 2019
User: cochatt
Spectrometer: HR+D1059
Trigger mode: 1
Integration Time (sec): 1.000000E-1
Scans to average: 1
Electric dark correction enabled: true
Nonlinearity correction enabled: false
Boxcar width: 0
XAxis mode: Wavelengths
Number of Pixels in Spectrum: 2048
>>>>>Begin Spectral Data<<<<<
223.165	-19.5
223.4	-19.5
223.635	-19.5
223.869	-9.5
224.104	-16.5
224.338	-16.5
224.573	-3.5
224.808	-6.5
225.042	-4.5
225.277	-6.5
225.511	-2.5
225.746	-19.5
225.98	5.5
226.215	20.5
226.449	1.5
226.683	19.5
226.918	29.5
227.152	28.5
227.387	29.5
227.621	52.5
227.856	40.5
228.09	54.5
228.324	35.5
228.559	55.5
228.793	59.5
229.027	79.5
229.262	92.5
229.496	101.5
229.73	108.5
229.964	112.5
230.199	106.5
230.433	99.5
230.667	91.5
230.901	109.5
231.136	88.5
231.37	103.5
231.604	96.5
231.838	113.5
232.072	103.5
232.306	122.5
232.541	118.5
232.775	109.5
233.009	99.5
233.243	105.5
233.477	118.5
233.711	100.5
233.945	110.5
234.179	115.5
234.413	97.5
234.647	117.5
234.881	120.5
235.115	103.5
235.349	106.5
235.583	106.5
235.817	116.5
236.051	103.5
236.285	115.5
236.519	115.5
236.753	125.5
236.987	112.5
237.221	138.5
237.455	170.5
237.689	161.5
237.922	116.5
238.156	127.5
238.39	126.5
238.624	107.5
238.858	127.5
239.091	117.5
239.325	116.5
239.559	110.5
239.793	115.5
240.027	125.5
240.26	114.5
240.494	129.5
240.728	135.5
240.961	122.5
241.195	115.5
241.429	135.5
241.662	124.5
241.896	118.5
242.13	122.5
242.363	140.5
242.597	146.5
242.83	116.5
243.064	129.5
243.298	145.5
243.531	125.5
243.765	115.5
243.998	130.5
244.232	139.5
244.465	139.5
244.699	137.5
244.932	130.5
245.166	137.5
245.399	144.5
245.633	140.5
245.866	129.5
246.099	140.5
246.333	141.5
246.566	153.5
246.8	138.5
247.033	156.5
247.266	143.5
247.5	135.5
247.733	153.5
247.966	154.5
248.2	140.5
248.433	144.5
248.666	146.5
248.899	139.5
249.133	135.5
249.366	176.5
249.599	174.5
249.832	154.5
250.066	155.5
250.299	155.5
250.532	163.5
250.765	174.5
250.998	180.5
251.231	180.5
251.465	160.5
251.698	178.5
251.931	170.5
252.164	167.5
252.397	164.5
252.63	148.5
252.863	164.5
253.096	176.5
253.329	180.5
253.562	185.5
253.795	182.5
254.028	185.5
254.261	179.5
254.494	184.5
254.727	197.5
254.96	207.5
255.193	189.5
255.426	186.5
255.659	176.5
255.892	190.5
256.124	183.5
256.357	187.5
256.59	178.5
256.823	186.5
257.056	169.5
257.289	164.5
257.521	181.5
257.754	187.5
257.987	184.5
258.22	191.5
258.452	174.5
258.685	183.5
258.918	178.5
259.151	197.5
259.383	199.5
259.616	184.5
259.849	191.5
260.081	183.5
260.314	203.5
260.547	208.5
260.779	192.5
261.012	219.5
261.244	192.5
261.477	192.5
261.71	209.5
261.942	189.5
262.175	202.5
262.407	185.5
262.64	199.5
262.872	187.5
263.105	203.5
263.337	201.5
263.57	177.5
263.802	185.5
264.035	187.5
264.267	190.5
264.499	196.5
264.732	200.5
264.964	195.5
265.197	204.5
265.429	197.5
265.661	193.5
265.894	199.5
266.126	186.5
266.358	193.5
266.591	194.5
266.823	193.5
267.055	209.5
267.287	200.5
267.52	209.5
267.752	209.5
267.984	212.5
268.216	193.5
268.448	205.5
268.681	204.5
268.913	221.5
269.145	221.5
269.377	246.5
269.609	225.5
269.841	228.5
270.073	243.5
270.306	246.5
270.538	240.5
270.77	232.5
271.002	243.5
271.234	242.5
271.466	237.5
271.698	234.5
271.93	249.5
272.162	236.5
272.394	253.5
272.626	252.5
272.858	247.5
273.09	248.5
273.322	232.5
273.553	217.5
273.785	247.5
274.017	222.5
274.249	232.5
274.481	239.5
274.713	226.5
274.945	234.5
275.176	249.5
275.408	234.5
275.64	236.5
275.872	237.5
276.104	237.5
276.335	225.5
276.567	257.5
276.799	233.5
277.031	246.5
277.262	249.5
277.494	260.5
277.726	266.5
277.957	247.5
278.189	253.5
278.421	235.5
278.652	265.5
278.884	243.5
279.115	255.5
279.347	266.5
279.579	263.5
279.81	237.5
280.042	257.5
280.273	256.5
280.505	243.5
280.736	240.5
280.968	240.5
281.199	243.5
281.431	255.5
281.662	240.5
281.894	248.5
282.125	259.5
282.356	252.5
282.588	280.5
282.819	270.5
283.051	257.5
283.282	268.5
283.513	265.5
283.745	270.5
283.976	252.5
284.207	284.5
284.439	276.5
284.67	268.5
284.901	272.5
285.132	287.5
285.364	252.5
285.595	262.5
285.826	281.5
286.057	272.5
286.288	256.5
286.52	263.5
286.751	259.5
286.982	281.5
287.213	273.5
287.444	283.5
287.675	275.5
287.906	273.5
288.138	288.5
288.369	280.5
288.6	285.5
288.831	275.5
289.062	279.5
289.293	291.5
289.524	297.5
289.755	277.5
289.986	277.5
290.217	279.5
290.448	286.5
290.679	270.5
290.91	276.5
291.141	269.5
291.371	288.5
291.602	283.5
291.833	284.5
292.064	279.5
292.295	263.5
292.526	263.5
292.757	286.5
292.987	274.5
293.218	277.5
293.449	288.5
293.68	282.5
293.91	272.5
294.141	283.5
294.372	280.5
294.603	285.5
294.833	288.5
295.064	288.5
295.295	269.5
295.525	266.5
295.756	283.5
295.987	275.5
296.217	295.5
296.448	287.5
296.679	287.5
296.909	289.5
297.14	288.5
297.37	277.5
297.601	285.5
297.831	299.5
298.062	286.5
298.292	310.5
298.523	277.5
298.753	305.5
298.984	300.5
299.214	300.5
299.445	285.5
299.675	306.5
299.905	311.5
300.136	303.5
300.366	316.5
300.597	315.5
300.827	310.5
301.057	319.5
301.288	307.5
301.518	308.5
301.748	311.5
301.979	320.5
302.209	330.5
302.439	321.5
302.669	308.5
302.9	311.5
303.13	330.5
303.36	322.5
303.59	320.5
303.82	316.5
304.051	331.5
304.281	329.5
304.511	314.5
304.741	331.5
304.971	316.5
305.201	322.5
305.431	310.5
305.661	319.5
305.891	313.5
306.121	308.5
306.352	314.5
306.582	335.5
306.812	329.5
307.042	327.5
307.272	312.5
307.502	311.5
307.731	326.5
307.961	325.5
308.191	315.5
308.421	326.5
308.651	305.5
308.881	312.5
309.111	331.5
309.341	333.5
309.571	307.5
309.8	316.5
310.03	326.5
310.26	325.5
310.49	334.5
310.72	316.5
310.949	328.5
311.179	351.5
311.409	330.5
311.639	342.5
311.868	332.5
312.098	321.5
312.328	352.5
312.557	340.5
312.787	347.5
313.017	350.5
313.246	333.5
313.476	334.5
313.706	340.5
313.935	345.5
314.165	359.5
314.394	352.5
314.624	363.5
314.853	365.5
315.083	339.5
315.312	344.5
315.542	339.5
315.771	349.5
316.001	342.5
316.23	353.5
316.46	345.5
316.689	362.5
316.919	339.5
317.148	355.5
317.377	361.5
317.607	358.5
317.836	332.5
318.065	349.5
318.295	359.5
318.524	355.5
318.753	333.5
318.983	359.5
319.212	342.5
319.441	345.5
319.67	345.5
319.9	342.5
320.129	368.5
320.358	348.5
320.587	347.5
320.816	369.5
321.046	361.5
321.275	356.5
321.504	349.5
321.733	351.5
321.962	335.5
322.191	360.5
322.42	387.5
322.649	340.5
322.878	372.5
323.108	373.5
323.337	380.5
323.566	389.5
323.795	387.5
324.024	402.5
324.253	452.5
324.482	542.5
324.71	755.5
324.939	1014.5
325.168	874.5
325.397	541.5
325.626	446.5
325.855	404.5
326.084	381.5
326.313	404.5
326.542	385.5
326.77	420.5
326.999	453.5
327.228	538.5
327.457	712.5
327.686	796.5
327.914	583.5
328.143	458.5
328.372	420.5
328.6	421.5
328.829	409.5
329.058	408.5
329.287	392.5
329.515	418.5
329.744	393.5
329.972	397.5
330.201	404.5
330.43	400.5
330.658	432.5
330.887	437.5
331.115	423.5
331.344	397.5
331.572	393.5
331.801	421.5
332.03	420.5
332.258	410.5
332.486	389.5
332.715	401.5
332.943	425.5
333.172	438.5
333.4	451.5
333.629	428.5
333.857	436.5
334.085	430.5
334.314	447.5
334.542	445.5
334.771	440.5
334.999	448.5
335.227	439.5
335.455	438.5
335.684	415.5
335.912	424.5
336.14	426.5
336.369	415.5
336.597	401.5
336.825	429.5
337.053	424.5
337.281	392.5
337.51	404.5
337.738	421.5
337.966	406.5
338.194	410.5
338.422	411.5
338.65	408.5
338.878	400.5
339.106	413.5
339.334	387.5
339.562	404.5
339.79	407.5
340.018	389.5
340.246	379.5
340.474	386.5
340.702	395.5
340.93	405.5
341.158	381.5
341.386	406.5
341.614	384.5
341.842	387.5
342.07	376.5
342.298	383.5
342.526	405.5
342.754	400.5
342.981	379.5
343.209	399.5
343.437	396.5
343.665	402.5
343.893	432.5
344.12	457.5
344.348	428.5
344.576	413.5
344.804	400.5
345.031	408.5
345.259	392.5
345.487	401.5
345.714	385.5
345.942	385.5
346.17	369.5
346.397	380.5
346.625	383.5
346.853	368.5
347.08	371.5
347.308	386.5
347.535	392.5
347.763	378.5
347.99	383.5
348.218	380.5
348.445	381.5
348.673	383.5
348.9	394.5
349.128	376.5
349.355	373.5
349.583	367.5
349.81	360.5
350.037	368.5
350.265	360.5
350.492	377.5
350.72	336.5
350.947	348.5
351.174	355.5
351.402	366.5
351.629	362.5
351.856	377.5
352.083	361.5
352.311	386.5
352.538	367.5
352.765	391.5
352.992	378.5
353.22	379.5
353.447	364.5
353.674	379.5
353.901	360.5
354.128	355.5
354.355	351.5
354.583	357.5
354.81	353.5
355.037	371.5
355.264	364.5
355.491	366.5
355.718	356.5
355.945	365.5
356.172	363.5
356.399	363.5
356.626	372.5
356.853	369.5
357.08	368.5
357.307	357.5
357.534	361.5
357.761	371.5
357.988	373.5
358.215	375.5
358.441	374.5
358.668	359.5
358.895	372.5
359.122	362.5
359.349	371.5
359.576	372.5
359.802	357.5
360.029	394.5
360.256	383.5
360.483	371.5
360.709	379.5
360.936	364.5
361.163	359.5
361.39	380.5
361.616	381.5
361.843	372.5
362.07	377.5
362.296	375.5
362.523	356.5
362.749	374.5
362.976	370.5
363.203	363.5
363.429	362.5
363.656	356.5
363.882	375.5
364.109	363.5
364.335	354.5
364.562	364.5
364.788	373.5
365.015	363.5
365.241	369.5
365.468	368.5
365.694	360.5
365.92	358.5
366.147	358.5
366.373	341.5
366.599	375.5
366.826	373.5
367.052	360.5
367.278	370.5
367.505	366.5
367.731	359.5
367.957	380.5
368.184	381.5
368.41	358.5
368.636	366.5
368.862	371.5
369.089	388.5
369.315	364.5
369.541	375.5
369.767	368.5
369.993	379.5
370.219	349.5
370.445	381.5
370.672	375.5
370.898	366.5
371.124	366.5
371.35	379.5
371.576	387.5
371.802	362.5
372.028	379.5
372.254	384.5
372.48	387.5
372.706	385.5
372.932	376.5
373.158	387.5
373.384	378.5
373.61	395.5
373.835	396.5
374.061	395.5
374.287	368.5
374.513	385.5
374.739	407.5
374.965	398.5
375.191	399.5
375.416	398.5
375.642	391.5
375.868	398.5
376.094	383.5
376.319	363.5
376.545	377.5
376.771	397.5
376.997	391.5
377.222	362.5
377.448	366.5
377.674	387.5
377.899	391.5
378.125	384.5
378.35	373.5
378.576	383.5
378.802	364.5
379.027	385.5
379.253	389.5
379.478	391.5
379.704	381.5
379.929	377.5
380.155	379.5
380.38	367.5
380.606	371.5
380.831	360.5
381.057	398.5
381.282	381.5
381.507	388.5
381.733	395.5
381.958	388.5
382.184	381.5
382.409	386.5
382.634	385.5
382.86	390.5
383.085	419.5
383.31	399.5
383.535	414.5
383.761	422.5
383.986	396.5
384.211	404.5
384.436	434.5
384.662	429.5
384.887	441.5
385.112	447.5
385.337	426.5
385.562	448.5
385.787	423.5
386.013	424.5
386.238	447.5
386.463	435.5
386.688	437.5
386.913	429.5
387.138	447.5
387.363	432.5
387.588	427.5
387.813	434.5
388.038	433.5
388.263	442.5
388.488	440.5
388.713	417.5
388.938	427.5
389.163	443.5
389.387	424.5
389.612	415.5
389.837	426.5
390.062	429.5
390.287	418.5
390.512	428.5
390.736	436.5
390.961	434.5
391.186	440.5
391.411	456.5
391.636	432.5
391.86	449.5
392.085	468.5
392.31	470.5
392.534	461.5
392.759	444.5
392.984	444.5
393.208	436.5
393.433	454.5
393.658	464.5
393.882	457.5
394.107	446.5
394.331	429.5
394.556	434.5
394.78	453.5
395.005	456.5
395.229	445.5
395.454	477.5
395.678	453.5
395.903	474.5
396.127	472.5
396.352	476.5
396.576	442.5
396.801	468.5
397.025	470.5
397.249	460.5
397.474	469.5
397.698	463.5
397.922	470.5
398.147	459.5
398.371	503.5
398.595	491.5
398.82	521.5
399.044	519.5
399.268	560.5
399.492	599.5
399.717	649.5
399.941	654.5
400.165	647.5
400.389	618.5
400.613	563.5
400.837	520.5
401.062	548.5
401.286	506.5
401.51	509.5
401.734	519.5
401.958	523.5
402.182	505.5
402.406	518.5
402.63	505.5
402.854	517.5
403.078	514.5
403.302	542.5
403.526	528.5
403.75	546.5
403.974	533.5
404.198	547.5
404.422	540.5
404.645	548.5
404.869	524.5
405.093	566.5
405.317	585.5
405.541	591.5
405.765	569.5
405.988	547.5
406.212	554.5
406.436	533.5
406.66	580.5
406.883	570.5
407.107	600.5
407.331	605.5
407.555	670.5
407.778	656.5
408.002	619.5
408.226	601.5
408.449	565.5
408.673	555.5
408.896	576.5
409.12	617.5
409.344	567.5
409.567	539.5
409.791	531.5
410.014	522.5
410.238	537.5
410.461	518.5
410.685	535.5
410.908	534.5
411.132	579.5
411.355	577.5
411.578	532.5
411.802	539.5
412.025	527.5
412.249	533.5
412.472	540.5
412.695	555.5
412.919	535.5
413.142	520.5
413.365	514.5
413.589	501.5
413.812	504.5
414.035	514.5
414.258	494.5
414.482	499.5
414.705	503.5
414.928	503.5
415.151	483.5
415.374	507.5
415.597	519.5
415.821	501.5
416.044	474.5
416.267	505.5
416.49	502.5
416.713	463.5
416.936	517.5
417.159	488.5
417.382	493.5
417.605	475.5
417.828	511.5
418.051	496.5
418.274	473.5
418.497	490.5
418.72	496.5
418.943	511.5
419.166	501.5
419.389	533.5
419.611	543.5
419.834	533.5
420.057	512.5
420.28	506.5
420.503	514.5
420.726	493.5
420.948	524.5
421.171	551.5
421.394	574.5
421.617	501.5
421.839	492.5
422.062	509.5
422.285	495.5
422.507	521.5
422.73	577.5
422.953	589.5
423.175	526.5
423.398	529.5
423.621	540.5
423.843	528.5
424.066	540.5
424.288	525.5
424.511	561.5
424.733	560.5
424.956	612.5
425.178	587.5
425.401	584.5
425.623	590.5
425.846	548.5
426.068	506.5
426.291	519.5
426.513	498.5
426.735	509.5
426.958	528.5
427.18	577.5
427.402	655.5
427.625	714.5
427.847	598.5
428.069	552.5
428.292	510.5
428.514	491.5
428.736	479.5
428.958	511.5
429.181	483.5
429.403	453.5
429.625	468.5
429.847	491.5
430.069	500.5
430.292	529.5
430.514	488.5
430.736	485.5
430.958	460.5
431.18	443.5
431.402	476.5
431.624	461.5
431.846	478.5
432.068	479.5
432.29	492.5
432.512	459.5
432.734	470.5
432.956	460.5
433.178	469.5
433.4	477.5
433.622	469.5
433.844	475.5
434.066	471.5
434.287	464.5
434.509	500.5
434.731	483.5
434.953	517.5
435.175	509.5
435.397	509.5
435.618	523.5
435.84	543.5
436.062	560.5
436.284	631.5
436.505	537.5
436.727	501.5
436.949	503.5
437.17	467.5
437.392	449.5
437.614	477.5
437.835	507.5
438.057	530.5
438.278	573.5
438.5	588.5
438.721	659.5
438.943	629.5
439.165	520.5
439.386	489.5
439.608	493.5
439.829	486.5
440.05	499.5
440.272	523.5
440.493	488.5
440.715	485.5
440.936	492.5
441.158	473.5
441.379	491.5
441.6	500.5
441.822	501.5
442.043	518.5
442.264	581.5
442.486	604.5
442.707	542.5
442.928	506.5
443.149	531.5
443.371	513.5
443.592	548.5
443.813	579.5
444.034	632.5
444.255	580.5
444.476	525.5
444.698	520.5
444.919	541.5
445.14	671.5
445.361	579.5
445.582	556.5
445.803	560.5
446.024	577.5
446.245	586.5
446.466	558.5
446.687	517.5
446.908	507.5
447.129	476.5
447.35	463.5
447.571	445.5
447.792	455.5
448.013	447.5
448.234	479.5
448.455	512.5
448.675	572.5
448.896	627.5
449.117	547.5
449.338	529.5
449.559	587.5
449.779	632.5
450	527.5
450.221	489.5
450.442	442.5
450.662	455.5
450.883	447.5
451.104	430.5
451.324	445.5
451.545	442.5
451.766	424.5
451.986	439.5
452.207	430.5
452.428	424.5
452.648	414.5
452.869	448.5
453.089	417.5
453.31	431.5
453.53	438.5
453.751	401.5
453.971	411.5
454.192	426.5
454.412	422.5
454.633	427.5
454.853	420.5
455.073	402.5
455.294	421.5
455.514	473.5
455.734	451.5
455.955	426.5
456.175	406.5
456.395	412.5
456.616	405.5
456.836	401.5
457.056	394.5
457.276	399.5
457.497	422.5
457.717	408.5
457.937	415.5
458.157	438.5
458.377	413.5
458.598	456.5
458.818	425.5
459.038	486.5
459.258	483.5
459.478	473.5
459.698	463.5
459.918	466.5
460.138	494.5
460.358	490.5
460.578	502.5
460.798	497.5
461.018	528.5
461.238	502.5
461.458	484.5
461.678	501.5
461.898	512.5
462.118	496.5
462.338	514.5
462.558	526.5
462.777	558.5
462.997	569.5
463.217	601.5
463.437	598.5
463.657	566.5
463.876	557.5
464.096	552.5
464.316	543.5
464.536	553.5
464.755	557.5
464.975	519.5
465.195	503.5
465.414	526.5
465.634	503.5
465.854	495.5
466.073	473.5
466.293	469.5
466.512	463.5
466.732	456.5
466.951	460.5
467.171	443.5
467.391	461.5
467.61	459.5
467.829	457.5
468.049	440.5
468.268	435.5
468.488	427.5
468.707	443.5
468.927	448.5
469.146	454.5
469.365	433.5
469.585	467.5
469.804	455.5
470.023	452.5
470.243	454.5
470.462	463.5
470.681	460.5
470.901	444.5
471.12	454.5
471.339	453.5
471.558	443.5
471.777	439.5
471.997	455.5
472.216	451.5
472.435	455.5
472.654	447.5
472.873	437.5
473.092	445.5
473.311	453.5
473.53	465.5
473.749	445.5
473.968	462.5
474.187	487.5
474.406	532.5
474.625	483.5
474.844	447.5
475.063	443.5
475.282	454.5
475.501	456.5
475.72	465.5
475.939	459.5
476.158	445.5
476.377	464.5
476.596	452.5
476.814	482.5
477.033	469.5
477.252	467.5
477.471	501.5
477.69	503.5
477.908	473.5
478.127	517.5
478.346	486.5
478.564	507.5
478.783	523.5
479.002	518.5
479.22	498.5
479.439	525.5
479.658	546.5
479.876	555.5
480.095	567.5
480.313	579.5
480.532	557.5
480.751	551.5
480.969	567.5
481.188	579.5
481.406	576.5
481.624	530.5
481.843	527.5
482.061	516.5
482.28	515.5
482.498	531.5
482.717	523.5
482.935	525.5
483.153	524.5
483.372	534.5
483.59	503.5
483.808	511.5
484.027	521.5
484.245	519.5
484.463	513.5
484.681	533.5
484.9	526.5
485.118	535.5
485.336	529.5
485.554	542.5
485.772	545.5
485.99	530.5
486.209	529.5
486.427	553.5
486.645	536.5
486.863	569.5
487.081	552.5
487.299	549.5
487.517	555.5
487.735	555.5
487.953	573.5
488.171	599.5
488.389	564.5
488.607	553.5
488.825	555.5
489.043	541.5
489.261	542.5
489.479	551.5
489.696	574.5
489.914	548.5
490.132	567.5
490.35	567.5
490.568	559.5
490.786	553.5
491.003	564.5
491.221	563.5
491.439	601.5
491.657	585.5
491.874	578.5
492.092	593.5
492.31	604.5
492.527	596.5
492.745	600.5
492.963	592.5
493.18	588.5
493.398	595.5
493.615	604.5
493.833	616.5
494.05	594.5
494.268	614.5
494.485	609.5
494.703	584.5
494.92	636.5
495.138	601.5
495.355	592.5
495.573	615.5
495.79	634.5
496.008	630.5
496.225	619.5
496.442	609.5
496.66	633.5
496.877	631.5
497.094	635.5
497.312	653.5
497.529	657.5
497.746	650.5
497.963	681.5
498.181	710.5
498.398	736.5
498.615	770.5
498.832	785.5
499.049	771.5
499.267	823.5
499.484	870.5
499.701	910.5
499.918	1011.5
500.135	1050.5
500.352	1116.5
500.569	1171.5
500.786	1146.5
501.003	1104.5
501.22	1040.5
501.437	979.5
501.654	917.5
501.871	899.5
502.088	843.5
502.305	795.5
502.522	758.5
502.739	757.5
502.956	704.5
503.172	709.5
503.389	681.5
503.606	663.5
503.823	647.5
504.04	688.5
504.256	673.5
504.473	640.5
504.69	697.5
504.907	666.5
505.123	663.5
505.34	630.5
505.557	600.5
505.773	596.5
505.99	598.5
506.207	587.5
506.423	588.5
506.64	577.5
506.856	571.5
507.073	575.5
507.289	576.5
507.506	544.5
507.722	557.5
507.939	570.5
508.155	563.5
508.372	532.5
508.588	536.5
508.805	533.5
509.021	538.5
509.238	536.5
509.454	537.5
509.67	513.5
509.887	558.5
510.103	527.5
510.319	521.5
510.536	543.5
510.752	663.5
510.968	612.5
511.184	551.5
511.401	538.5
511.617	522.5
511.833	515.5
512.049	501.5
512.265	532.5
512.481	512.5
512.698	517.5
512.914	535.5
513.13	509.5
513.346	535.5
513.562	517.5
513.778	497.5
513.994	509.5
514.21	493.5
514.426	531.5
514.642	529.5
514.858	523.5
515.074	538.5
515.29	577.5
515.506	667.5
515.721	618.5
515.937	571.5
516.153	519.5
516.369	542.5
516.585	570.5
516.801	571.5
517.016	575.5
517.232	601.5
517.448	598.5
517.664	585.5
517.879	588.5
518.095	592.5
518.311	593.5
518.527	591.5
518.742	567.5
518.958	548.5
519.173	554.5
519.389	531.5
519.605	521.5
519.82	532.5
520.036	523.5
