Data from 1962.PennyLincolnUp.Lamp.En5.5.200Scan.071719.P1._HRD10591_13-55-14-061.txt Node
Date: Thu Jul 18 13:55:14 EDT 2019
User: cochatt
Spectrometer: HR+D1059
Trigger mode: 1
Integration Time (sec): 1.000000E-1
Scans to average: 1
Electric dark correction enabled: true
Nonlinearity correction enabled: false
Boxcar width: 0
XAxis mode: Wavelengths
Number of Pixels in Spectrum: 2048
>>>>>Begin Spectral Data<<<<<
223.165	-3.81
223.4	-3.81
223.635	-3.81
223.869	-13.81
224.104	-7.81
224.338	-11.81
224.573	-12.81
224.808	-17.81
225.042	-10.81
225.277	-16.81
225.511	-3.81
225.746	3.19
225.98	14.19
226.215	10.19
226.449	11.19
226.683	29.19
226.918	16.19
227.152	15.19
227.387	28.19
227.621	26.19
227.856	31.19
228.09	44.19
228.324	60.19
228.559	50.19
228.793	80.19
229.027	94.19
229.262	80.19
229.496	109.19
229.73	117.19
229.964	132.19
230.199	116.19
230.433	124.19
230.667	97.19
230.901	122.19
231.136	110.19
231.37	108.19
231.604	112.19
231.838	118.19
232.072	116.19
232.306	102.19
232.541	96.19
232.775	109.19
233.009	115.19
233.243	117.19
233.477	112.19
233.711	121.19
233.945	111.19
234.179	110.19
234.413	130.19
234.647	95.19
234.881	111.19
235.115	104.19
235.349	130.19
235.583	107.19
235.817	108.19
236.051	121.19
236.285	118.19
236.519	130.19
236.753	132.19
236.987	124.19
237.221	148.19
237.455	187.19
237.689	145.19
237.922	124.19
238.156	134.19
238.39	138.19
238.624	122.19
238.858	124.19
239.091	122.19
239.325	127.19
239.559	139.19
239.793	122.19
240.027	126.19
240.26	143.19
240.494	143.19
240.728	153.19
240.961	139.19
241.195	134.19
241.429	128.19
241.662	142.19
241.896	134.19
242.13	134.19
242.363	134.19
242.597	131.19
242.83	138.19
243.064	127.19
243.298	160.19
243.531	133.19
243.765	137.19
243.998	131.19
244.232	148.19
244.465	138.19
244.699	150.19
244.932	149.19
245.166	143.19
245.399	153.19
245.633	135.19
245.866	125.19
246.099	153.19
246.333	154.19
246.566	146.19
246.8	144.19
247.033	155.19
247.266	152.19
247.5	152.19
247.733	166.19
247.966	163.19
248.2	174.19
248.433	164.19
248.666	158.19
248.899	150.19
249.133	184.19
249.366	188.19
249.599	176.19
249.832	187.19
250.066	182.19
250.299	172.19
250.532	176.19
250.765	173.19
250.998	182.19
251.231	212.19
251.465	208.19
251.698	198.19
251.931	197.19
252.164	186.19
252.397	185.19
252.63	183.19
252.863	199.19
253.096	202.19
253.329	203.19
253.562	200.19
253.795	193.19
254.028	205.19
254.261	197.19
254.494	187.19
254.727	230.19
254.96	235.19
255.193	227.19
255.426	239.19
255.659	195.19
255.892	220.19
256.124	219.19
256.357	222.19
256.59	202.19
256.823	206.19
257.056	197.19
257.289	200.19
257.521	197.19
257.754	197.19
257.987	190.19
258.22	183.19
258.452	184.19
258.685	205.19
258.918	205.19
259.151	200.19
259.383	201.19
259.616	210.19
259.849	214.19
260.081	223.19
260.314	229.19
260.547	239.19
260.779	207.19
261.012	212.19
261.244	217.19
261.477	206.19
261.71	208.19
261.942	198.19
262.175	194.19
262.407	228.19
262.64	199.19
262.872	205.19
263.105	204.19
263.337	223.19
263.57	210.19
263.802	202.19
264.035	205.19
264.267	207.19
264.499	208.19
264.732	213.19
264.964	202.19
265.197	200.19
265.429	206.19
265.661	206.19
265.894	208.19
266.126	211.19
266.358	205.19
266.591	216.19
266.823	217.19
267.055	235.19
267.287	223.19
267.52	206.19
267.752	221.19
267.984	205.19
268.216	219.19
268.448	218.19
268.681	244.19
268.913	244.19
269.145	215.19
269.377	260.19
269.609	248.19
269.841	256.19
270.073	259.19
270.306	291.19
270.538	286.19
270.77	276.19
271.002	287.19
271.234	284.19
271.466	280.19
271.698	272.19
271.93	296.19
272.162	281.19
272.394	278.19
272.626	275.19
272.858	267.19
273.09	277.19
273.322	260.19
273.553	237.19
273.785	263.19
274.017	258.19
274.249	258.19
274.481	249.19
274.713	255.19
274.945	269.19
275.176	263.19
275.408	248.19
275.64	269.19
275.872	259.19
276.104	245.19
276.335	250.19
276.567	258.19
276.799	262.19
277.031	270.19
277.262	289.19
277.494	282.19
277.726	287.19
277.957	270.19
278.189	260.19
278.421	260.19
278.652	255.19
278.884	264.19
279.115	262.19
279.347	264.19
279.579	282.19
279.81	277.19
280.042	263.19
280.273	275.19
280.505	253.19
280.736	256.19
280.968	278.19
281.199	280.19
281.431	275.19
281.662	272.19
281.894	276.19
282.125	272.19
282.356	289.19
282.588	294.19
282.819	287.19
283.051	270.19
283.282	281.19
283.513	285.19
283.745	285.19
283.976	293.19
284.207	277.19
284.439	296.19
284.67	288.19
284.901	269.19
285.132	294.19
285.364	275.19
285.595	282.19
285.826	287.19
286.057	290.19
286.288	298.19
286.52	275.19
286.751	278.19
286.982	294.19
287.213	284.19
287.444	274.19
287.675	279.19
287.906	292.19
288.138	287.19
288.369	294.19
288.6	311.19
288.831	290.19
289.062	302.19
289.293	294.19
289.524	291.19
289.755	298.19
289.986	301.19
290.217	294.19
290.448	301.19
290.679	297.19
290.91	298.19
291.141	302.19
291.371	288.19
291.602	287.19
291.833	306.19
292.064	298.19
292.295	287.19
292.526	290.19
292.757	308.19
292.987	295.19
293.218	290.19
293.449	306.19
293.68	285.19
293.91	285.19
294.141	285.19
294.372	322.19
294.603	302.19
294.833	301.19
295.064	303.19
295.295	302.19
295.525	298.19
295.756	312.19
295.987	323.19
296.217	320.19
296.448	302.19
296.679	305.19
296.909	310.19
297.14	314.19
297.37	310.19
297.601	306.19
297.831	315.19
298.062	302.19
298.292	301.19
298.523	308.19
298.753	326.19
298.984	303.19
299.214	319.19
299.445	322.19
299.675	319.19
299.905	305.19
300.136	312.19
300.366	311.19
300.597	315.19
300.827	315.19
301.057	309.19
301.288	333.19
301.518	319.19
301.748	330.19
301.979	343.19
302.209	328.19
302.439	331.19
302.669	327.19
302.9	327.19
303.13	335.19
303.36	333.19
303.59	330.19
303.82	351.19
304.051	314.19
304.281	331.19
304.511	331.19
304.741	337.19
304.971	333.19
305.201	338.19
305.431	336.19
305.661	339.19
305.891	342.19
306.121	334.19
306.352	338.19
306.582	328.19
306.812	337.19
307.042	323.19
307.272	334.19
307.502	340.19
307.731	338.19
307.961	364.19
308.191	351.19
308.421	352.19
308.651	333.19
308.881	352.19
309.111	356.19
309.341	333.19
309.571	342.19
309.8	339.19
310.03	358.19
310.26	360.19
310.49	387.19
310.72	358.19
310.949	372.19
311.179	374.19
311.409	358.19
311.639	361.19
311.868	367.19
312.098	373.19
312.328	372.19
312.557	359.19
312.787	382.19
313.017	378.19
313.246	387.19
313.476	344.19
313.706	363.19
313.935	357.19
314.165	385.19
314.394	376.19
314.624	395.19
314.853	388.19
315.083	361.19
315.312	375.19
315.542	363.19
315.771	384.19
316.001	367.19
316.23	351.19
316.46	349.19
316.689	375.19
316.919	376.19
317.148	378.19
317.377	366.19
317.607	362.19
317.836	367.19
318.065	370.19
318.295	371.19
318.524	360.19
318.753	362.19
318.983	352.19
319.212	365.19
319.441	375.19
319.67	378.19
319.9	378.19
320.129	377.19
320.358	375.19
320.587	368.19
320.816	381.19
321.046	388.19
321.275	389.19
321.504	383.19
321.733	385.19
321.962	393.19
322.191	381.19
322.42	402.19
322.649	401.19
322.878	422.19
323.108	408.19
323.337	437.19
323.566	451.19
323.795	459.19
324.024	496.19
324.253	545.19
324.482	745.19
324.71	1074.19
324.939	1488.19
325.168	1298.19
325.397	707.19
325.626	524.19
325.855	460.19
326.084	474.19
326.313	460.19
326.542	468.19
326.77	470.19
326.999	536.19
327.228	678.19
327.457	1007.19
327.686	1142.19
327.914	808.19
328.143	564.19
328.372	512.19
328.6	493.19
328.829	478.19
329.058	511.19
329.287	490.19
329.515	479.19
329.744	459.19
329.972	447.19
330.201	485.19
330.43	492.19
330.658	512.19
330.887	516.19
331.115	469.19
331.344	482.19
331.572	471.19
331.801	442.19
332.03	454.19
332.258	454.19
332.486	469.19
332.715	447.19
332.943	460.19
333.172	464.19
333.4	475.19
333.629	477.19
333.857	480.19
334.085	498.19
334.314	489.19
334.542	504.19
334.771	505.19
334.999	471.19
335.227	477.19
335.455	477.19
335.684	458.19
335.912	467.19
336.14	444.19
336.369	440.19
336.597	456.19
336.825	474.19
337.053	447.19
337.281	446.19
337.51	425.19
337.738	440.19
337.966	442.19
338.194	451.19
338.422	444.19
338.65	431.19
338.878	449.19
339.106	443.19
339.334	437.19
339.562	420.19
339.79	419.19
340.018	435.19
340.246	432.19
340.474	426.19
340.702	432.19
340.93	426.19
341.158	426.19
341.386	423.19
341.614	419.19
341.842	420.19
342.07	398.19
342.298	406.19
342.526	415.19
342.754	419.19
342.981	438.19
343.209	425.19
343.437	438.19
343.665	415.19
343.893	426.19
344.12	457.19
344.348	463.19
344.576	451.19
344.804	442.19
345.031	431.19
345.259	445.19
345.487	436.19
345.714	441.19
345.942	413.19
346.17	404.19
346.397	391.19
346.625	409.19
346.853	384.19
347.08	415.19
347.308	396.19
347.535	420.19
347.763	410.19
347.99	396.19
348.218	407.19
348.445	419.19
348.673	426.19
348.9	386.19
349.128	397.19
349.355	382.19
349.583	387.19
349.81	396.19
350.037	412.19
350.265	376.19
350.492	382.19
350.72	397.19
350.947	395.19
351.174	391.19
351.402	410.19
351.629	426.19
351.856	399.19
352.083	387.19
352.311	403.19
352.538	405.19
352.765	412.19
352.992	400.19
353.22	399.19
353.447	391.19
353.674	385.19
353.901	408.19
354.128	382.19
354.355	399.19
354.583	393.19
354.81	400.19
355.037	387.19
355.264	411.19
355.491	379.19
355.718	398.19
355.945	402.19
356.172	394.19
356.399	367.19
356.626	382.19
356.853	384.19
357.08	392.19
357.307	383.19
357.534	391.19
357.761	381.19
357.988	392.19
358.215	385.19
358.441	400.19
358.668	376.19
358.895	375.19
359.122	396.19
359.349	391.19
359.576	408.19
359.802	420.19
360.029	435.19
360.256	429.19
360.483	400.19
360.709	399.19
360.936	421.19
361.163	412.19
361.39	397.19
361.616	404.19
361.843	418.19
362.07	412.19
362.296	391.19
362.523	390.19
362.749	382.19
362.976	402.19
363.203	401.19
363.429	400.19
363.656	384.19
363.882	403.19
364.109	402.19
364.335	407.19
364.562	411.19
364.788	393.19
365.015	379.19
365.241	400.19
365.468	408.19
365.694	386.19
365.92	393.19
366.147	400.19
366.373	394.19
366.599	392.19
366.826	409.19
367.052	402.19
367.278	393.19
367.505	397.19
367.731	377.19
367.957	391.19
368.184	410.19
368.41	397.19
368.636	404.19
368.862	382.19
369.089	392.19
369.315	394.19
369.541	403.19
369.767	391.19
369.993	385.19
370.219	397.19
370.445	397.19
370.672	376.19
370.898	390.19
371.124	396.19
371.35	395.19
371.576	382.19
371.802	392.19
372.028	386.19
372.254	422.19
372.48	422.19
372.706	407.19
372.932	404.19
373.158	424.19
373.384	407.19
373.61	396.19
373.835	414.19
374.061	398.19
374.287	401.19
374.513	406.19
374.739	414.19
374.965	427.19
375.191	438.19
375.416	407.19
375.642	408.19
375.868	420.19
376.094	410.19
376.319	423.19
376.545	399.19
376.771	413.19
376.997	407.19
377.222	392.19
377.448	394.19
377.674	404.19
377.899	411.19
378.125	393.19
378.35	399.19
378.576	408.19
378.802	416.19
379.027	415.19
379.253	428.19
379.478	404.19
379.704	393.19
379.929	409.19
380.155	394.19
380.38	409.19
380.606	417.19
380.831	410.19
381.057	412.19
381.282	423.19
381.507	411.19
381.733	427.19
381.958	401.19
382.184	404.19
382.409	401.19
382.634	421.19
382.86	406.19
383.085	414.19
383.31	422.19
383.535	442.19
383.761	423.19
383.986	445.19
384.211	411.19
384.436	442.19
384.662	419.19
384.887	446.19
385.112	446.19
385.337	445.19
385.562	446.19
385.787	462.19
386.013	460.19
386.238	459.19
386.463	476.19
386.688	454.19
386.913	449.19
387.138	458.19
387.363	477.19
387.588	446.19
387.813	439.19
388.038	454.19
388.263	464.19
388.488	448.19
388.713	468.19
388.938	457.19
389.163	450.19
389.387	474.19
389.612	452.19
389.837	452.19
390.062	458.19
390.287	449.19
390.512	464.19
390.736	460.19
390.961	470.19
391.186	462.19
391.411	467.19
391.636	468.19
391.86	478.19
392.085	495.19
392.31	489.19
392.534	486.19
392.759	483.19
392.984	499.19
393.208	448.19
393.433	479.19
393.658	467.19
393.882	475.19
394.107	485.19
394.331	485.19
394.556	458.19
394.78	478.19
395.005	463.19
395.229	465.19
395.454	474.19
395.678	483.19
395.903	494.19
396.127	492.19
396.352	517.19
396.576	484.19
396.801	500.19
397.025	491.19
397.249	477.19
397.474	488.19
397.698	474.19
397.922	515.19
398.147	529.19
398.371	508.19
398.595	518.19
398.82	527.19
399.044	559.19
399.268	587.19
399.492	614.19
399.717	691.19
399.941	698.19
400.165	677.19
400.389	681.19
400.613	629.19
400.837	570.19
401.062	550.19
401.286	534.19
401.51	545.19
401.734	526.19
401.958	547.19
402.182	550.19
402.406	554.19
402.63	540.19
402.854	557.19
403.078	560.19
403.302	569.19
403.526	570.19
403.75	556.19
403.974	579.19
404.198	589.19
404.422	565.19
404.645	566.19
404.869	574.19
405.093	571.19
405.317	638.19
405.541	646.19
405.765	614.19
405.988	583.19
406.212	565.19
406.436	616.19
406.66	598.19
406.883	606.19
407.107	649.19
407.331	685.19
407.555	706.19
407.778	717.19
408.002	671.19
408.226	650.19
408.449	604.19
408.673	587.19
408.896	621.19
409.12	638.19
409.344	637.19
409.567	579.19
409.791	581.19
410.014	563.19
410.238	558.19
410.461	574.19
410.685	581.19
410.908	576.19
411.132	584.19
411.355	611.19
411.578	624.19
411.802	552.19
412.025	583.19
412.249	559.19
412.472	572.19
412.695	616.19
412.919	592.19
413.142	568.19
413.365	522.19
413.589	540.19
413.812	527.19
414.035	522.19
414.258	538.19
414.482	516.19
414.705	528.19
414.928	552.19
415.151	519.19
415.374	517.19
415.597	519.19
415.821	504.19
416.044	534.19
416.267	527.19
416.49	512.19
416.713	492.19
416.936	525.19
417.159	502.19
417.382	523.19
417.605	532.19
417.828	535.19
418.051	544.19
418.274	551.19
418.497	522.19
418.72	536.19
418.943	527.19
419.166	541.19
419.389	588.19
419.611	575.19
419.834	562.19
420.057	567.19
420.28	547.19
420.503	560.19
420.726	544.19
420.948	545.19
421.171	592.19
421.394	605.19
421.617	542.19
421.839	542.19
422.062	535.19
422.285	556.19
422.507	580.19
422.73	650.19
422.953	624.19
423.175	604.19
423.398	581.19
423.621	572.19
423.843	576.19
424.066	583.19
424.288	560.19
424.511	578.19
424.733	633.19
424.956	676.19
425.178	673.19
425.401	644.19
425.623	671.19
425.846	592.19
426.068	579.19
426.291	541.19
426.513	564.19
426.735	568.19
426.958	579.19
427.18	663.19
427.402	766.19
427.625	816.19
427.847	698.19
428.069	614.19
428.292	589.19
428.514	548.19
428.736	525.19
428.958	552.19
429.181	525.19
429.403	526.19
429.625	516.19
429.847	559.19
430.069	596.19
430.292	597.19
430.514	535.19
430.736	515.19
430.958	498.19
431.18	490.19
431.402	513.19
431.624	495.19
431.846	482.19
432.068	492.19
432.29	522.19
432.512	500.19
432.734	500.19
432.956	509.19
433.178	518.19
433.4	520.19
433.622	505.19
433.844	505.19
434.066	492.19
434.287	505.19
434.509	502.19
434.731	546.19
434.953	520.19
435.175	533.19
435.397	592.19
435.618	568.19
435.84	577.19
436.062	648.19
436.284	690.19
436.505	615.19
436.727	545.19
436.949	534.19
437.17	518.19
437.392	524.19
437.614	514.19
437.835	541.19
438.057	622.19
438.278	672.19
438.5	673.19
438.721	735.19
438.943	724.19
439.165	595.19
439.386	543.19
439.608	549.19
439.829	541.19
440.05	546.19
440.272	617.19
440.493	591.19
440.715	541.19
440.936	560.19
441.158	549.19
441.379	542.19
441.6	535.19
441.822	564.19
442.043	589.19
442.264	643.19
442.486	686.19
442.707	633.19
442.928	595.19
443.149	581.19
443.371	590.19
443.592	616.19
443.813	703.19
444.034	745.19
444.255	649.19
444.476	604.19
444.698	617.19
444.919	605.19
445.14	728.19
445.361	636.19
445.582	576.19
445.803	627.19
446.024	721.19
446.245	735.19
446.466	652.19
446.687	576.19
446.908	551.19
447.129	530.19
447.35	500.19
447.571	518.19
447.792	484.19
448.013	499.19
448.234	498.19
448.455	523.19
448.675	650.19
448.896	730.19
449.117	625.19
449.338	619.19
449.559	668.19
449.779	772.19
450	598.19
450.221	532.19
450.442	519.19
450.662	487.19
450.883	452.19
451.104	486.19
451.324	514.19
451.545	471.19
451.766	486.19
451.986	434.19
452.207	449.19
452.428	429.19
452.648	460.19
452.869	470.19
453.089	455.19
453.31	463.19
453.53	440.19
453.751	465.19
453.971	461.19
454.192	463.19
454.412	457.19
454.633	430.19
454.853	464.19
455.073	438.19
455.294	471.19
455.514	518.19
455.734	527.19
455.955	468.19
456.175	438.19
456.395	436.19
456.616	420.19
456.836	440.19
457.056	438.19
457.276	428.19
457.497	423.19
457.717	432.19
457.937	453.19
458.157	447.19
458.377	459.19
458.598	485.19
458.818	509.19
459.038	542.19
459.258	581.19
459.478	543.19
459.698	509.19
459.918	517.19
460.138	513.19
460.358	529.19
460.578	535.19
460.798	516.19
461.018	546.19
461.238	535.19
461.458	535.19
461.678	521.19
461.898	538.19
462.118	538.19
462.338	561.19
462.558	572.19
462.777	594.19
462.997	599.19
463.217	629.19
463.437	620.19
463.657	600.19
463.876	592.19
464.096	589.19
464.316	599.19
464.536	591.19
464.755	575.19
464.975	566.19
465.195	568.19
465.414	568.19
465.634	542.19
465.854	545.19
466.073	511.19
466.293	500.19
466.512	495.19
466.732	483.19
466.951	485.19
467.171	483.19
467.391	503.19
467.61	497.19
467.829	497.19
468.049	480.19
468.268	475.19
468.488	474.19
468.707	475.19
468.927	454.19
469.146	469.19
469.365	479.19
469.585	450.19
469.804	472.19
470.023	479.19
470.243	487.19
470.462	478.19
470.681	488.19
470.901	484.19
471.12	498.19
471.339	511.19
471.558	478.19
471.777	477.19
471.997	486.19
472.216	488.19
472.435	487.19
472.654	489.19
472.873	461.19
473.092	477.19
473.311	485.19
473.53	461.19
473.749	479.19
473.968	500.19
474.187	581.19
474.406	566.19
474.625	521.19
474.844	474.19
475.063	475.19
475.282	472.19
475.501	486.19
475.72	479.19
475.939	512.19
476.158	490.19
476.377	484.19
476.596	509.19
476.814	506.19
477.033	504.19
477.252	516.19
477.471	506.19
477.69	510.19
477.908	525.19
478.127	526.19
478.346	544.19
478.564	527.19
478.783	549.19
479.002	560.19
479.22	577.19
479.439	578.19
479.658	578.19
479.876	588.19
480.095	583.19
480.313	609.19
480.532	598.19
480.751	593.19
480.969	594.19
481.188	624.19
481.406	637.19
481.624	604.19
481.843	562.19
482.061	562.19
482.28	569.19
482.498	536.19
482.717	571.19
482.935	574.19
483.153	543.19
483.372	540.19
483.59	547.19
483.808	546.19
484.027	569.19
484.245	581.19
484.463	554.19
484.681	570.19
484.9	548.19
485.118	574.19
485.336	582.19
485.554	569.19
485.772	587.19
485.99	572.19
486.209	570.19
486.427	588.19
486.645	568.19
486.863	616.19
487.081	578.19
487.299	598.19
487.517	580.19
487.735	575.19
487.953	588.19
488.171	551.19
488.389	596.19
488.607	606.19
488.825	576.19
489.043	572.19
489.261	593.19
489.479	585.19
489.696	587.19
489.914	604.19
490.132	624.19
490.35	616.19
490.568	616.19
490.786	607.19
491.003	628.19
491.221	634.19
491.439	652.19
491.657	665.19
491.874	635.19
492.092	666.19
492.31	644.19
492.527	668.19
492.745	647.19
492.963	674.19
493.18	680.19
493.398	678.19
493.615	643.19
493.833	680.19
494.05	659.19
494.268	657.19
494.485	648.19
494.703	671.19
494.92	682.19
495.138	670.19
495.355	703.19
495.573	681.19
495.79	706.19
496.008	691.19
496.225	692.19
496.442	686.19
496.66	697.19
496.877	709.19
497.094	692.19
497.312	692.19
497.529	708.19
497.746	718.19
497.963	758.19
498.181	778.19
498.398	769.19
498.615	811.19
498.832	831.19
499.049	863.19
499.267	901.19
499.484	926.19
499.701	999.19
499.918	1061.19
500.135	1095.19
500.352	1188.19
500.569	1219.19
500.786	1198.19
501.003	1172.19
501.22	1118.19
501.437	1055.19
501.654	1011.19
501.871	964.19
