Data from 1962.PennyLincolnUp.Lamp.En5.5.200Scan.071719.P1._HRD10591_13-53-55-060.txt Node
Date: Thu Jul 18 13:53:55 EDT 2019
User: cochatt
Spectrometer: HR+D1059
Trigger mode: 1
Integration Time (sec): 1.000000E-1
Scans to average: 1
Electric dark correction enabled: true
Nonlinearity correction enabled: false
Boxcar width: 0
XAxis mode: Wavelengths
Number of Pixels in Spectrum: 2048
>>>>>Begin Spectral Data<<<<<
223.165	-13
223.4	-13
223.635	-13
223.869	-11
224.104	-17
224.338	-19
224.573	-33
224.808	-9
225.042	1
225.277	-3
225.511	10
225.746	6
225.98	9
226.215	7
226.449	3
226.683	13
226.918	20
227.152	36
227.387	30
227.621	38
227.856	28
228.09	40
228.324	62
228.559	57
228.793	67
229.027	93
229.262	94
229.496	104
229.73	104
229.964	126
230.199	115
230.433	100
230.667	126
230.901	116
231.136	118
231.37	113
231.604	103
231.838	114
232.072	118
232.306	119
232.541	121
232.775	105
233.009	102
233.243	99
233.477	96
233.711	103
233.945	109
234.179	107
234.413	114
234.647	110
234.881	110
235.115	111
235.349	105
235.583	119
235.817	118
236.051	114
236.285	120
236.519	130
236.753	126
236.987	130
237.221	140
237.455	195
237.689	156
237.922	150
238.156	129
238.39	124
238.624	110
238.858	113
239.091	125
239.325	119
239.559	126
239.793	115
240.027	139
240.26	135
240.494	138
240.728	151
240.961	133
241.195	140
241.429	130
241.662	128
241.896	124
242.13	123
242.363	121
242.597	142
242.83	128
243.064	142
243.298	128
243.531	127
243.765	146
243.998	127
244.232	140
244.465	127
244.699	125
244.932	125
245.166	154
245.399	138
245.633	146
245.866	135
246.099	133
246.333	160
246.566	139
246.8	150
247.033	146
247.266	150
247.5	150
247.733	144
247.966	177
248.2	170
248.433	172
248.666	160
248.899	154
249.133	185
249.366	182
249.599	197
249.832	167
250.066	160
250.299	186
250.532	181
250.765	187
250.998	171
251.231	184
251.465	188
251.698	195
251.931	171
252.164	163
252.397	192
252.63	198
252.863	179
253.096	195
253.329	205
253.562	182
253.795	222
254.028	201
254.261	201
254.494	222
254.727	208
254.96	227
255.193	222
255.426	220
255.659	194
255.892	198
256.124	203
256.357	210
256.59	212
256.823	196
257.056	182
257.289	187
257.521	197
257.754	184
257.987	189
258.22	202
258.452	198
258.685	189
258.918	198
259.151	189
259.383	195
259.616	205
259.849	195
260.081	206
260.314	203
260.547	224
260.779	227
261.012	228
261.244	216
261.477	220
261.71	191
261.942	212
262.175	212
262.407	212
262.64	195
262.872	194
263.105	213
263.337	205
263.57	201
263.802	220
264.035	201
264.267	206
264.499	206
264.732	208
264.964	205
265.197	189
265.429	202
265.661	203
265.894	197
266.126	212
266.358	200
266.591	222
266.823	221
267.055	223
267.287	234
267.52	217
267.752	225
267.984	208
268.216	223
268.448	224
268.681	222
268.913	233
269.145	251
269.377	247
269.609	243
269.841	246
270.073	250
270.306	259
270.538	276
270.77	280
271.002	269
271.234	276
271.466	278
271.698	276
271.93	285
272.162	290
272.394	278
272.626	280
272.858	242
273.09	267
273.322	264
273.553	253
273.785	264
274.017	243
274.249	265
274.481	259
274.713	253
274.945	263
275.176	255
275.408	247
275.64	246
275.872	262
276.104	243
276.335	249
276.567	255
276.799	284
277.031	286
277.262	311
277.494	284
277.726	279
277.957	269
278.189	267
278.421	287
278.652	284
278.884	256
279.115	265
279.347	259
279.579	259
279.81	287
280.042	279
280.273	284
280.505	271
280.736	273
280.968	282
281.199	275
281.431	266
281.662	263
281.894	260
282.125	272
282.356	284
282.588	283
282.819	304
283.051	273
283.282	279
283.513	279
283.745	272
283.976	276
284.207	290
284.439	300
284.67	272
284.901	271
285.132	275
285.364	263
285.595	278
285.826	278
286.057	268
286.288	283
286.52	303
286.751	272
286.982	287
287.213	272
287.444	298
287.675	288
287.906	326
288.138	278
288.369	314
288.6	306
288.831	298
289.062	322
289.293	303
289.524	294
289.755	307
289.986	280
290.217	288
290.448	307
290.679	294
290.91	280
291.141	292
291.371	301
291.602	286
291.833	281
292.064	292
292.295	304
292.526	294
292.757	310
292.987	303
293.218	296
293.449	300
293.68	308
293.91	317
294.141	296
294.372	299
294.603	312
294.833	301
295.064	308
295.295	303
295.525	309
295.756	320
295.987	300
296.217	318
296.448	322
296.679	302
296.909	307
297.14	312
297.37	317
297.601	306
297.831	311
298.062	313
298.292	305
298.523	328
298.753	314
298.984	325
299.214	338
299.445	317
299.675	318
299.905	328
300.136	323
300.366	315
300.597	323
300.827	325
301.057	322
301.288	327
301.518	332
301.748	340
301.979	326
302.209	331
302.439	333
302.669	330
302.9	341
303.13	335
303.36	346
303.59	339
303.82	333
304.051	348
304.281	335
304.511	355
304.741	346
304.971	335
305.201	334
305.431	354
305.661	347
305.891	311
306.121	332
306.352	363
306.582	318
306.812	340
307.042	328
307.272	329
307.502	335
307.731	343
307.961	331
308.191	357
308.421	341
308.651	334
308.881	351
309.111	332
309.341	331
309.571	336
309.8	341
310.03	344
310.26	355
310.49	360
310.72	361
310.949	372
311.179	367
311.409	345
311.639	366
311.868	336
312.098	358
312.328	370
312.557	363
312.787	376
313.017	381
313.246	380
313.476	354
313.706	366
313.935	363
314.165	377
314.394	370
314.624	379
314.853	370
315.083	379
315.312	370
315.542	383
315.771	371
316.001	374
316.23	378
316.46	354
316.689	372
316.919	371
317.148	380
317.377	391
317.607	375
317.836	374
318.065	384
318.295	377
318.524	395
318.753	365
318.983	376
319.212	371
319.441	389
319.67	387
319.9	381
320.129	370
320.358	394
320.587	387
320.816	390
321.046	382
321.275	373
321.504	377
321.733	389
321.962	384
322.191	392
322.42	395
322.649	391
322.878	387
323.108	417
323.337	426
323.566	440
323.795	464
324.024	482
324.253	543
324.482	695
324.71	980
324.939	1382
325.168	1175
325.397	710
325.626	511
325.855	467
326.084	466
326.313	458
326.542	444
326.77	483
326.999	528
327.228	646
327.457	905
327.686	1088
327.914	742
328.143	553
328.372	509
328.6	472
328.829	460
329.058	471
329.287	458
329.515	455
329.744	454
329.972	450
330.201	456
330.43	496
330.658	496
330.887	515
331.115	489
331.344	475
331.572	443
331.801	466
332.03	451
332.258	442
332.486	460
332.715	468
332.943	427
333.172	449
333.4	491
333.629	490
333.857	488
334.085	495
334.314	489
334.542	499
334.771	520
334.999	503
335.227	463
335.455	482
335.684	466
335.912	447
336.14	454
336.369	451
336.597	470
336.825	466
337.053	477
337.281	454
337.51	460
337.738	424
337.966	434
338.194	440
338.422	418
338.65	453
338.878	436
339.106	436
339.334	436
339.562	435
339.79	444
340.018	456
340.246	446
340.474	435
340.702	424
340.93	415
341.158	412
341.386	413
341.614	431
341.842	422
342.07	422
342.298	419
342.526	427
342.754	412
342.981	409
343.209	425
343.437	436
343.665	462
343.893	467
344.12	475
344.348	462
344.576	423
344.804	452
345.031	437
345.259	448
345.487	413
345.714	442
345.942	414
346.17	424
346.397	400
346.625	407
346.853	412
347.08	407
347.308	406
347.535	399
347.763	412
347.99	403
348.218	403
348.445	435
348.673	401
348.9	401
349.128	414
349.355	405
349.583	395
349.81	399
350.037	388
350.265	379
350.492	382
350.72	384
350.947	414
351.174	415
351.402	412
351.629	406
351.856	373
352.083	383
352.311	396
352.538	401
352.765	404
352.992	401
353.22	414
353.447	382
353.674	382
353.901	400
354.128	381
354.355	395
354.583	390
354.81	389
355.037	372
355.264	404
355.491	383
355.718	390
355.945	391
356.172	399
356.399	375
356.626	386
356.853	398
357.08	393
357.307	395
357.534	390
357.761	384
357.988	405
358.215	410
358.441	379
358.668	392
358.895	388
359.122	397
359.349	395
359.576	386
359.802	415
360.029	442
360.256	431
360.483	417
360.709	410
360.936	416
361.163	397
361.39	392
361.616	397
361.843	404
362.07	390
362.296	418
362.523	394
362.749	393
362.976	411
363.203	386
363.429	382
363.656	407
363.882	375
364.109	409
364.335	413
364.562	404
364.788	383
365.015	384
365.241	387
365.468	398
365.694	391
365.92	388
366.147	376
366.373	395
366.599	383
366.826	400
367.052	393
367.278	389
367.505	391
367.731	394
367.957	388
368.184	384
368.41	408
368.636	427
368.862	416
369.089	395
369.315	410
369.541	396
369.767	397
369.993	401
370.219	381
370.445	407
370.672	406
370.898	396
371.124	416
371.35	420
371.576	398
371.802	386
372.028	396
372.254	426
372.48	423
372.706	411
372.932	419
373.158	420
373.384	397
373.61	431
373.835	408
374.061	398
374.287	402
374.513	414
374.739	434
374.965	424
375.191	424
375.416	407
375.642	427
375.868	437
376.094	434
376.319	392
376.545	412
376.771	395
376.997	406
377.222	406
377.448	394
377.674	409
377.899	404
378.125	412
378.35	396
378.576	399
378.802	400
379.027	408
379.253	407
379.478	400
379.704	408
379.929	408
380.155	401
380.38	406
380.606	398
380.831	406
381.057	409
381.282	380
381.507	396
381.733	401
381.958	397
382.184	416
382.409	405
382.634	412
382.86	402
383.085	447
383.31	431
383.535	435
383.761	430
383.986	407
384.211	437
384.436	444
384.662	425
384.887	452
385.112	468
385.337	454
385.562	438
385.787	466
386.013	459
386.238	479
386.463	480
386.688	484
386.913	441
387.138	466
387.363	452
387.588	448
387.813	455
388.038	479
388.263	454
388.488	482
388.713	471
388.938	473
389.163	463
389.387	463
389.612	435
389.837	465
390.062	474
390.287	454
390.512	473
390.736	479
390.961	488
391.186	474
391.411	475
391.636	500
391.86	470
392.085	483
392.31	487
392.534	486
392.759	475
392.984	484
393.208	478
393.433	505
393.658	478
393.882	462
394.107	462
394.331	485
394.556	477
394.78	494
395.005	482
395.229	468
395.454	489
395.678	483
395.903	491
396.127	503
396.352	480
396.576	479
396.801	475
397.025	491
397.249	482
397.474	499
397.698	523
397.922	511
398.147	505
398.371	528
398.595	523
398.82	536
399.044	565
399.268	584
399.492	615
399.717	687
399.941	681
400.165	685
400.389	660
400.613	616
400.837	602
401.062	584
401.286	546
401.51	543
401.734	554
401.958	538
402.182	539
402.406	561
402.63	567
402.854	557
403.078	559
403.302	578
403.526	594
403.75	581
403.974	581
404.198	563
404.422	581
404.645	564
404.869	600
405.093	591
405.317	631
405.541	656
405.765	611
405.988	586
406.212	590
406.436	602
406.66	624
406.883	624
407.107	635
407.331	679
407.555	733
407.778	682
408.002	658
408.226	628
408.449	619
408.673	617
408.896	612
409.12	669
409.344	624
409.567	572
409.791	580
410.014	577
410.238	580
410.461	586
410.685	564
410.908	607
411.132	580
411.355	629
411.578	591
411.802	576
412.025	571
412.249	554
412.472	564
412.695	578
412.919	603
413.142	564
413.365	554
413.589	549
413.812	551
414.035	552
414.258	526
414.482	544
414.705	530
414.928	532
415.151	517
415.374	528
415.597	518
415.821	531
416.044	518
416.267	527
416.49	543
416.713	507
416.936	525
417.159	518
417.382	539
417.605	522
417.828	542
418.051	536
418.274	521
418.497	536
418.72	544
418.943	536
419.166	546
419.389	604
419.611	585
419.834	566
420.057	568
420.28	560
420.503	531
420.726	534
420.948	559
421.171	581
421.394	576
421.617	547
421.839	542
422.062	551
422.285	560
422.507	595
422.73	659
422.953	651
423.175	566
423.398	575
423.621	566
423.843	576
424.066	594
424.288	564
424.511	578
424.733	615
424.956	666
425.178	654
425.401	628
425.623	652
425.846	592
426.068	564
426.291	562
426.513	558
426.735	559
426.958	623
427.18	626
427.402	734
427.625	789
427.847	684
428.069	623
428.292	612
428.514	524
428.736	522
428.958	527
429.181	523
429.403	516
429.625	532
429.847	547
430.069	588
430.292	567
430.514	541
430.736	517
430.958	503
431.18	493
431.402	493
431.624	501
431.846	514
432.068	504
432.29	491
432.512	499
432.734	528
432.956	508
433.178	503
433.4	500
433.622	491
433.844	505
434.066	490
434.287	514
434.509	509
434.731	526
434.953	537
435.175	542
435.397	549
435.618	562
435.84	583
436.062	631
436.284	678
436.505	598
436.727	534
436.949	521
437.17	544
437.392	513
437.614	517
437.835	541
438.057	598
438.278	668
438.5	662
438.721	717
438.943	694
439.165	576
439.386	555
439.608	562
439.829	543
440.05	557
440.272	581
440.493	565
440.715	542
440.936	532
441.158	520
441.379	540
441.6	575
441.822	560
442.043	596
442.264	640
442.486	675
442.707	633
442.928	555
443.149	574
443.371	574
443.592	612
443.813	657
444.034	733
444.255	638
444.476	593
444.698	569
444.919	591
445.14	724
445.361	640
445.582	596
445.803	638
446.024	684
446.245	674
446.466	655
446.687	586
446.908	554
447.129	501
447.35	522
447.571	514
447.792	493
448.013	507
448.234	514
448.455	517
448.675	615
448.896	720
449.117	610
449.338	566
449.559	663
449.779	720
450	626
450.221	536
450.442	524
450.662	493
450.883	494
451.104	478
451.324	499
451.545	484
451.766	471
451.986	466
452.207	453
452.428	456
452.648	455
452.869	481
453.089	472
453.31	465
453.53	458
453.751	469
453.971	457
454.192	460
454.412	450
454.633	468
454.853	454
455.073	446
455.294	487
455.514	499
455.734	497
455.955	461
456.175	444
456.395	448
456.616	436
456.836	446
457.056	424
457.276	432
457.497	447
457.717	439
457.937	452
458.157	465
458.377	454
458.598	483
458.818	512
459.038	557
459.258	556
459.478	526
459.698	528
459.918	510
460.138	523
460.358	512
460.578	540
460.798	551
461.018	540
461.238	519
461.458	548
461.678	533
461.898	538
462.118	536
462.338	575
462.558	578
462.777	582
462.997	606
463.217	626
463.437	637
463.657	618
463.876	598
464.096	572
464.316	596
464.536	597
464.755	576
464.975	546
465.195	590
465.414	569
465.634	538
465.854	518
466.073	512
466.293	511
466.512	482
466.732	500
466.951	472
467.171	502
467.391	484
467.61	487
467.829	481
468.049	476
468.268	484
468.488	492
468.707	474
468.927	471
469.146	464
469.365	465
469.585	462
469.804	471
470.023	513
470.243	490
470.462	515
470.681	524
470.901	526
471.12	500
471.339	489
471.558	479
471.777	492
471.997	473
472.216	483
472.435	522
472.654	494
472.873	479
473.092	468
473.311	468
473.53	479
473.749	480
473.968	501
474.187	582
474.406	583
474.625	530
474.844	497
475.063	486
475.282	485
475.501	482
475.72	485
475.939	494
476.158	482
476.377	500
476.596	502
476.814	511
477.033	490
477.252	519
477.471	507
477.69	519
477.908	516
478.127	540
478.346	527
478.564	547
478.783	582
479.002	556
479.22	567
479.439	572
479.658	547
479.876	579
480.095	596
480.313	621
480.532	629
480.751	592
480.969	577
481.188	634
481.406	662
481.624	587
481.843	573
482.061	570
482.28	567
482.498	566
482.717	579
482.935	578
483.153	579
483.372	558
483.59	582
483.808	555
484.027	550
484.245	556
484.463	550
484.681	574
484.9	589
485.118	585
485.336	578
485.554	563
485.772	580
485.99	582
486.209	558
486.427	584
486.645	590
486.863	605
487.081	581
487.299	584
487.517	592
487.735	581
487.953	603
488.171	591
488.389	576
488.607	599
488.825	584
489.043	594
489.261	611
489.479	586
489.696	602
489.914	591
490.132	605
490.35	601
490.568	608
490.786	592
491.003	612
491.221	642
491.439	645
491.657	632
491.874	640
492.092	629
492.31	639
492.527	635
492.745	653
492.963	653
493.18	660
493.398	660
493.615	693
493.833	669
494.05	672
494.268	678
494.485	666
494.703	661
494.92	661
495.138	685
495.355	671
495.573	660
495.79	662
496.008	674
496.225	662
496.442	679
496.66	697
496.877	701
497.094	695
497.312	714
497.529	718
497.746	714
497.963	739
498.181	796
498.398	777
498.615	805
498.832	849
499.049	862
499.267	904
499.484	958
499.701	979
499.918	1072
500.135	1133
500.352	1233
500.569	1226
500.786	1223
501.003	1207
501.22	1178
501.437	1082
501.654	988
501.871	958
502.088	921
502.305	876
502.522	830
502.739	822
502.956	779
503.172	773
503.389	764
503.606	749
503.823	747
504.04	716
504.256	717
504.473	705
504.69	711
504.907	721
505.123	685
505.34	679
505.557	668
505.773	658
505.99	649
506.207	647
506.423	639
506.64	651
506.856	630
507.073	620
507.289	630
507.506	620
507.722	619
507.939	611
508.155	601
508.372	607
508.588	591
508.805	597
509.021	584
509.238	607
509.454	600
509.67	618
509.887	602
510.103	582
510.319	612
510.536	645
510.752	900
510.968	740
511.184	599
511.401	570
511.617	565
511.833	565
512.049	555
512.265	581
512.481	588
512.698	576
512.914	554
513.13	546
513.346	567
513.562	551
513.778	568
513.994	567
514.21	575
514.426	568
514.642	598
514.858	617
515.074	615
515.29	668
515.506	835
515.721	731
515.937	619
516.153	599
516.369	599
516.585	599
516.801	601
517.016	629
517.232	629
517.448	641
517.664	655
517.879	644
518.095	660
518.311	635
518.527	630
518.742	629
518.958	618
519.173	599
519.389	589
519.605	587
519.82	589
520.036	600
520.251	577
520.467	593
520.682	579
520.898	574
521.113	580
521.329	598
521.544	637
521.76	708
521.975	944
522.19	931
522.406	628
522.621	591
522.836	574
523.052	524
523.267	518
523.482	525
523.698	499
523.913	506
524.128	500
524.343	514
524.559	492
524.774	509
524.989	516
525.204	493
525.419	499
525.634	469
525.849	475
526.064	498
526.28	486
526.495	497
526.71	484
526.925	482
527.14	469
527.355	480
527.57	490
527.785	473
527.999	488
528.214	497
528.429	485
528.644	494
528.859	505
529.074	470
529.289	490
529.503	510
529.718	503
529.933	480
530.148	470
530.363	478
530.577	488
530.792	468
531.007	475
531.221	492
531.436	468
531.651	496
531.865	493
532.08	460
532.295	484
532.509	474
532.724	479
532.938	474
533.153	464
533.367	456
533.582	466
533.796	463
534.011	478
534.225	462
534.44	456
534.654	457
534.868	464
535.083	469
535.297	458
535.511	468
535.726	486
535.94	479
536.154	462
536.369	471
536.583	448
536.797	457
537.011	475
537.225	455
537.44	443
537.654	466
537.868	478
538.082	449
538.296	462
538.51	456
538.724	467
538.938	448
539.153	431
539.367	443
539.581	439
539.795	438
540.009	471
540.222	458
540.436	441
540.65	453
540.864	450
541.078	469
541.292	434
541.506	470
541.72	431
541.934	440
542.147	438
542.361	412
542.575	420
542.789	446
543.002	424
543.216	452
543.43	455
543.644	453
543.857	462
544.071	436
544.285	456
544.498	433
544.712	435
544.925	450
545.139	460
545.352	441
545.566	444
545.779	432
545.993	454
546.206	440
546.42	438
546.633	441
546.847	453
547.06	425
547.274	426
547.487	442
547.7	441
547.914	406
548.127	448
548.34	423
548.554	436
548.767	438
548.98	440
549.193	442
549.407	449
549.62	445
549.833	427
550.046	438
550.259	458
550.473	444
550.686	430
550.899	446
551.112	444
551.325	454
551.538	431
551.751	442
551.964	423
552.177	443
552.39	452
552.603	447
552.816	449
553.029	469
553.242	471
553.455	485
553.667	469
553.88	474
554.093	463
554.306	454
554.519	438
554.732	437
554.944	437
555.157	435
555.37	429
555.583	429
555.795	443
556.008	404
556.221	401
556.433	397
556.646	420
556.859	406
557.071	400
557.284	402
557.496	412
557.709	393
557.921	383
558.134	395
558.346	387
558.559	399
558.771	400
558.984	387
559.196	404
559.409	409
559.621	376
559.833	378
560.046	399
560.258	373
560.47	378
560.683	372
560.895	381
561.107	371
561.32	395
561.532	394
561.744	410
561.956	392
562.168	401
562.381	377
562.593	388
562.805	382
563.017	397
563.229	399
563.441	406
563.653	413
