Data from 1962.PennyLincolnUp.Lamp.En5.5.200Scan.071719.P1._HRD10591_13-55-43-062.txt Node
Date: Thu Jul 18 13:55:43 EDT 2019
User: cochatt
Spectrometer: HR+D1059
Trigger mode: 1
Integration Time (sec): 1.000000E-1
Scans to average: 1
Electric dark correction enabled: true
Nonlinearity correction enabled: false
Boxcar width: 0
XAxis mode: Wavelengths
Number of Pixels in Spectrum: 2048
>>>>>Begin Spectral Data<<<<<
223.165	-25.69
223.4	-25.69
223.635	-25.69
223.869	-10.69
224.104	-1.69
224.338	-22.69
224.573	-13.69
224.808	-5.69
225.042	-17.69
225.277	12.31
225.511	-9.69
225.746	3.31
225.98	7.31
226.215	2.31
226.449	4.31
226.683	41.31
226.918	20.31
227.152	16.31
227.387	37.31
227.621	35.31
227.856	33.31
228.09	42.31
228.324	33.31
228.559	37.31
228.793	72.31
229.027	95.31
229.262	78.31
229.496	90.31
229.73	101.31
229.964	129.31
230.199	111.31
230.433	105.31
230.667	110.31
230.901	104.31
231.136	102.31
231.37	96.31
231.604	103.31
231.838	99.31
232.072	120.31
232.306	86.31
232.541	93.31
232.775	119.31
233.009	101.31
233.243	102.31
233.477	113.31
233.711	103.31
233.945	112.31
234.179	116.31
234.413	116.31
234.647	114.31
234.881	113.31
235.115	112.31
235.349	104.31
235.583	100.31
235.817	116.31
236.051	112.31
236.285	124.31
236.519	115.31
236.753	119.31
236.987	128.31
237.221	155.31
237.455	177.31
237.689	160.31
237.922	146.31
238.156	131.31
238.39	121.31
238.624	103.31
238.858	119.31
239.091	115.31
239.325	126.31
239.559	110.31
239.793	119.31
240.027	124.31
240.26	126.31
240.494	141.31
240.728	125.31
240.961	131.31
241.195	151.31
241.429	139.31
241.662	110.31
241.896	120.31
242.13	122.31
242.363	129.31
242.597	119.31
242.83	122.31
243.064	117.31
243.298	126.31
243.531	147.31
243.765	138.31
243.998	139.31
244.232	120.31
244.465	140.31
244.699	125.31
244.932	134.31
245.166	128.31
245.399	137.31
245.633	129.31
245.866	136.31
246.099	130.31
246.333	131.31
246.566	134.31
246.8	149.31
247.033	125.31
247.266	156.31
247.5	149.31
247.733	146.31
247.966	163.31
248.2	157.31
248.433	162.31
248.666	145.31
248.899	146.31
249.133	156.31
249.366	194.31
249.599	190.31
249.832	168.31
250.066	180.31
250.299	170.31
250.532	169.31
250.765	161.31
250.998	193.31
251.231	207.31
251.465	198.31
251.698	166.31
251.931	164.31
252.164	176.31
252.397	184.31
252.63	185.31
252.863	181.31
253.096	182.31
253.329	205.31
253.562	193.31
253.795	197.31
254.028	191.31
254.261	195.31
254.494	221.31
254.727	236.31
254.96	224.31
255.193	239.31
255.426	204.31
255.659	215.31
255.892	218.31
256.124	198.31
256.357	217.31
256.59	208.31
256.823	190.31
257.056	187.31
257.289	187.31
257.521	200.31
257.754	195.31
257.987	189.31
258.22	184.31
258.452	184.31
258.685	184.31
258.918	186.31
259.151	176.31
259.383	191.31
259.616	206.31
259.849	204.31
260.081	212.31
260.314	215.31
260.547	238.31
260.779	212.31
261.012	210.31
261.244	202.31
261.477	207.31
261.71	206.31
261.942	201.31
262.175	200.31
262.407	215.31
262.64	194.31
262.872	200.31
263.105	202.31
263.337	197.31
263.57	194.31
263.802	193.31
264.035	208.31
264.267	200.31
264.499	201.31
264.732	209.31
264.964	220.31
265.197	204.31
265.429	203.31
265.661	220.31
265.894	197.31
266.126	204.31
266.358	219.31
266.591	218.31
266.823	208.31
267.055	217.31
267.287	220.31
267.52	208.31
267.752	228.31
267.984	217.31
268.216	217.31
268.448	230.31
268.681	212.31
268.913	229.31
269.145	256.31
269.377	261.31
269.609	246.31
269.841	242.31
270.073	256.31
270.306	255.31
270.538	288.31
270.77	273.31
271.002	279.31
271.234	260.31
271.466	279.31
271.698	283.31
271.93	282.31
272.162	303.31
272.394	278.31
272.626	276.31
272.858	256.31
273.09	262.31
273.322	268.31
273.553	250.31
273.785	252.31
274.017	256.31
274.249	258.31
274.481	243.31
274.713	254.31
274.945	270.31
275.176	242.31
275.408	238.31
275.64	243.31
275.872	242.31
276.104	263.31
276.335	264.31
276.567	266.31
276.799	257.31
277.031	288.31
277.262	291.31
277.494	307.31
277.726	286.31
277.957	276.31
278.189	259.31
278.421	271.31
278.652	252.31
278.884	254.31
279.115	247.31
279.347	265.31
279.579	254.31
279.81	261.31
280.042	280.31
280.273	272.31
280.505	273.31
280.736	265.31
280.968	244.31
281.199	258.31
281.431	265.31
281.662	274.31
281.894	263.31
282.125	261.31
282.356	290.31
282.588	278.31
282.819	293.31
283.051	284.31
283.282	276.31
283.513	285.31
283.745	282.31
283.976	278.31
284.207	286.31
284.439	287.31
284.67	287.31
284.901	281.31
285.132	284.31
285.364	286.31
285.595	290.31
285.826	303.31
286.057	289.31
286.288	290.31
286.52	293.31
286.751	277.31
286.982	281.31
287.213	273.31
287.444	285.31
287.675	290.31
287.906	290.31
288.138	301.31
288.369	310.31
288.6	291.31
288.831	282.31
289.062	305.31
289.293	288.31
289.524	292.31
289.755	286.31
289.986	292.31
290.217	293.31
290.448	292.31
290.679	295.31
290.91	302.31
291.141	310.31
291.371	288.31
291.602	314.31
291.833	296.31
292.064	305.31
292.295	275.31
292.526	289.31
292.757	290.31
292.987	306.31
293.218	297.31
293.449	279.31
293.68	303.31
293.91	300.31
294.141	294.31
294.372	288.31
294.603	279.31
294.833	314.31
295.064	281.31
295.295	286.31
295.525	316.31
295.756	314.31
295.987	301.31
296.217	322.31
296.448	311.31
296.679	321.31
296.909	312.31
297.14	315.31
297.37	302.31
297.601	324.31
297.831	290.31
298.062	313.31
298.292	307.31
298.523	324.31
298.753	318.31
298.984	312.31
299.214	292.31
299.445	305.31
299.675	314.31
299.905	333.31
300.136	311.31
300.366	320.31
300.597	315.31
300.827	313.31
301.057	321.31
301.288	332.31
301.518	321.31
301.748	329.31
301.979	324.31
302.209	329.31
302.439	322.31
302.669	321.31
302.9	335.31
303.13	326.31
303.36	343.31
303.59	322.31
303.82	341.31
304.051	315.31
304.281	330.31
304.511	329.31
304.741	347.31
304.971	337.31
305.201	332.31
305.431	332.31
305.661	324.31
305.891	324.31
306.121	313.31
306.352	333.31
306.582	346.31
306.812	323.31
307.042	316.31
307.272	347.31
307.502	345.31
307.731	343.31
307.961	334.31
308.191	330.31
308.421	327.31
308.651	327.31
308.881	344.31
309.111	350.31
309.341	328.31
309.571	330.31
309.8	351.31
310.03	367.31
310.26	348.31
310.49	347.31
310.72	378.31
310.949	374.31
311.179	379.31
311.409	359.31
311.639	364.31
311.868	350.31
312.098	375.31
312.328	376.31
312.557	359.31
312.787	398.31
313.017	390.31
313.246	361.31
313.476	358.31
313.706	375.31
313.935	370.31
314.165	384.31
314.394	385.31
314.624	375.31
314.853	372.31
315.083	381.31
315.312	383.31
315.542	372.31
315.771	372.31
316.001	385.31
316.23	370.31
316.46	358.31
316.689	376.31
316.919	372.31
317.148	384.31
317.377	375.31
317.607	372.31
317.836	371.31
318.065	364.31
318.295	355.31
318.524	369.31
318.753	372.31
318.983	372.31
319.212	373.31
319.441	356.31
319.67	376.31
319.9	377.31
320.129	369.31
320.358	369.31
320.587	386.31
320.816	368.31
321.046	374.31
321.275	401.31
321.504	394.31
321.733	383.31
321.962	400.31
322.191	377.31
322.42	385.31
322.649	413.31
322.878	390.31
323.108	422.31
323.337	426.31
323.566	449.31
323.795	465.31
324.024	490.31
324.253	549.31
324.482	754.31
324.71	1065.31
324.939	1526.31
325.168	1358.31
325.397	753.31
325.626	553.31
325.855	487.31
326.084	457.31
326.313	453.31
326.542	449.31
326.77	467.31
326.999	534.31
327.228	675.31
327.457	990.31
327.686	1202.31
327.914	837.31
328.143	580.31
328.372	529.31
328.6	488.31
328.829	496.31
329.058	485.31
329.287	500.31
329.515	474.31
329.744	473.31
329.972	446.31
330.201	470.31
330.43	473.31
330.658	503.31
330.887	509.31
331.115	510.31
331.344	466.31
331.572	447.31
331.801	467.31
332.03	478.31
332.258	459.31
332.486	444.31
332.715	453.31
332.943	447.31
333.172	478.31
333.4	460.31
333.629	473.31
333.857	485.31
334.085	484.31
334.314	515.31
334.542	528.31
334.771	504.31
334.999	496.31
335.227	483.31
335.455	481.31
335.684	476.31
335.912	477.31
336.14	471.31
336.369	451.31
336.597	458.31
336.825	436.31
337.053	448.31
337.281	441.31
337.51	428.31
337.738	428.31
337.966	442.31
338.194	426.31
338.422	421.31
338.65	434.31
338.878	415.31
339.106	431.31
339.334	427.31
339.562	440.31
339.79	424.31
340.018	439.31
340.246	443.31
340.474	425.31
340.702	441.31
340.93	429.31
341.158	438.31
341.386	409.31
341.614	418.31
341.842	428.31
342.07	418.31
342.298	424.31
342.526	442.31
342.754	404.31
342.981	405.31
343.209	418.31
343.437	434.31
343.665	434.31
343.893	452.31
344.12	470.31
344.348	438.31
344.576	450.31
344.804	431.31
345.031	434.31
345.259	434.31
345.487	454.31
345.714	432.31
345.942	404.31
346.17	406.31
346.397	403.31
346.625	394.31
346.853	419.31
347.08	411.31
347.308	409.31
347.535	435.31
347.763	424.31
347.99	414.31
348.218	406.31
348.445	417.31
348.673	402.31
348.9	393.31
349.128	398.31
349.355	386.31
349.583	394.31
349.81	398.31
350.037	421.31
350.265	403.31
350.492	388.31
350.72	404.31
350.947	377.31
351.174	391.31
351.402	411.31
351.629	410.31
351.856	414.31
352.083	408.31
352.311	402.31
352.538	399.31
352.765	413.31
352.992	409.31
353.22	395.31
353.447	394.31
353.674	402.31
353.901	400.31
354.128	398.31
354.355	376.31
354.583	386.31
354.81	386.31
355.037	385.31
355.264	387.31
355.491	387.31
355.718	369.31
355.945	382.31
356.172	374.31
356.399	405.31
356.626	401.31
356.853	392.31
357.08	384.31
357.307	368.31
357.534	390.31
357.761	397.31
357.988	374.31
358.215	385.31
358.441	374.31
358.668	388.31
358.895	386.31
359.122	397.31
359.349	390.31
359.576	404.31
359.802	414.31
360.029	422.31
360.256	426.31
360.483	415.31
360.709	402.31
360.936	389.31
361.163	392.31
361.39	414.31
361.616	405.31
361.843	391.31
362.07	390.31
362.296	390.31
362.523	394.31
362.749	404.31
362.976	391.31
363.203	406.31
363.429	396.31
363.656	408.31
363.882	373.31
364.109	382.31
364.335	383.31
364.562	390.31
364.788	370.31
365.015	397.31
365.241	389.31
365.468	382.31
365.694	382.31
365.92	407.31
366.147	412.31
366.373	388.31
366.599	396.31
366.826	403.31
367.052	388.31
367.278	385.31
367.505	389.31
367.731	388.31
367.957	396.31
368.184	408.31
368.41	406.31
368.636	379.31
368.862	410.31
369.089	401.31
369.315	402.31
369.541	395.31
369.767	394.31
369.993	396.31
370.219	398.31
370.445	397.31
370.672	405.31
370.898	394.31
371.124	416.31
371.35	388.31
371.576	404.31
371.802	412.31
372.028	390.31
372.254	397.31
372.48	403.31
372.706	385.31
372.932	398.31
373.158	407.31
373.384	417.31
373.61	394.31
373.835	413.31
374.061	402.31
374.287	410.31
374.513	384.31
374.739	416.31
374.965	416.31
375.191	393.31
375.416	408.31
375.642	402.31
375.868	424.31
376.094	407.31
376.319	404.31
376.545	387.31
376.771	384.31
376.997	382.31
377.222	409.31
377.448	402.31
377.674	402.31
377.899	374.31
378.125	398.31
378.35	397.31
378.576	388.31
378.802	396.31
379.027	389.31
379.253	407.31
379.478	423.31
379.704	405.31
379.929	411.31
380.155	410.31
380.38	390.31
380.606	405.31
380.831	406.31
381.057	380.31
381.282	408.31
381.507	400.31
381.733	408.31
381.958	400.31
382.184	398.31
382.409	418.31
382.634	396.31
382.86	412.31
383.085	407.31
383.31	421.31
383.535	421.31
383.761	441.31
383.986	420.31
384.211	430.31
384.436	439.31
384.662	449.31
384.887	435.31
385.112	436.31
385.337	453.31
385.562	455.31
385.787	473.31
386.013	500.31
386.238	462.31
386.463	461.31
386.688	446.31
386.913	457.31
387.138	464.31
387.363	467.31
387.588	468.31
387.813	450.31
388.038	465.31
388.263	446.31
388.488	476.31
388.713	458.31
388.938	462.31
389.163	449.31
389.387	461.31
389.612	441.31
389.837	446.31
390.062	455.31
390.287	458.31
390.512	443.31
390.736	421.31
390.961	446.31
391.186	476.31
391.411	466.31
391.636	471.31
391.86	482.31
392.085	506.31
392.31	478.31
392.534	474.31
392.759	471.31
392.984	454.31
393.208	473.31
393.433	482.31
393.658	471.31
393.882	465.31
394.107	462.31
394.331	469.31
394.556	453.31
394.78	461.31
395.005	518.31
395.229	472.31
395.454	504.31
395.678	481.31
395.903	497.31
396.127	522.31
396.352	528.31
396.576	470.31
396.801	449.31
397.025	496.31
397.249	488.31
397.474	526.31
397.698	479.31
397.922	510.31
398.147	534.31
398.371	535.31
398.595	508.31
398.82	548.31
399.044	542.31
399.268	579.31
399.492	652.31
399.717	678.31
399.941	707.31
400.165	700.31
400.389	676.31
400.613	610.31
400.837	578.31
401.062	572.31
401.286	573.31
401.51	540.31
401.734	528.31
401.958	544.31
402.182	541.31
402.406	542.31
402.63	543.31
402.854	567.31
403.078	566.31
403.302	570.31
403.526	573.31
403.75	581.31
403.974	599.31
404.198	576.31
404.422	564.31
404.645	582.31
404.869	583.31
405.093	604.31
405.317	628.31
405.541	666.31
405.765	602.31
405.988	576.31
406.212	602.31
406.436	601.31
406.66	603.31
406.883	626.31
407.107	611.31
407.331	688.31
407.555	723.31
407.778	743.31
408.002	666.31
408.226	648.31
408.449	625.31
408.673	616.31
408.896	624.31
409.12	647.31
409.344	657.31
409.567	599.31
409.791	576.31
410.014	558.31
410.238	553.31
410.461	579.31
410.685	561.31
410.908	593.31
411.132	608.31
411.355	626.31
411.578	620.31
411.802	572.31
412.025	548.31
412.249	566.31
412.472	591.31
412.695	600.31
412.919	577.31
413.142	580.31
413.365	533.31
413.589	569.31
413.812	553.31
414.035	526.31
414.258	530.31
414.482	532.31
414.705	543.31
414.928	515.31
415.151	537.31
415.374	540.31
415.597	536.31
415.821	529.31
416.044	543.31
416.267	538.31
416.49	520.31
416.713	518.31
416.936	534.31
417.159	495.31
417.382	531.31
417.605	545.31
417.828	528.31
418.051	524.31
418.274	528.31
418.497	536.31
418.72	566.31
418.943	529.31
419.166	537.31
419.389	593.31
419.611	572.31
419.834	572.31
420.057	564.31
420.28	562.31
420.503	568.31
420.726	550.31
420.948	577.31
421.171	593.31
421.394	605.31
421.617	566.31
421.839	556.31
422.062	535.31
422.285	551.31
422.507	599.31
422.73	677.31
422.953	642.31
423.175	573.31
423.398	578.31
423.621	559.31
423.843	572.31
424.066	586.31
424.288	584.31
424.511	587.31
424.733	637.31
424.956	675.31
425.178	664.31
425.401	651.31
425.623	698.31
425.846	602.31
426.068	558.31
426.291	572.31
426.513	568.31
426.735	557.31
426.958	601.31
427.18	644.31
427.402	789.31
427.625	816.31
427.847	727.31
428.069	638.31
428.292	570.31
428.514	545.31
428.736	542.31
428.958	560.31
429.181	504.31
429.403	510.31
429.625	522.31
429.847	563.31
430.069	588.31
430.292	592.31
430.514	508.31
430.736	508.31
430.958	507.31
431.18	488.31
431.402	498.31
431.624	502.31
431.846	501.31
432.068	514.31
432.29	516.31
432.512	509.31
432.734	524.31
432.956	499.31
433.178	540.31
433.4	507.31
433.622	494.31
433.844	529.31
434.066	528.31
434.287	499.31
434.509	497.31
434.731	510.31
434.953	527.31
435.175	565.31
435.397	558.31
435.618	558.31
435.84	548.31
436.062	668.31
436.284	720.31
436.505	605.31
436.727	560.31
436.949	537.31
437.17	513.31
437.392	512.31
437.614	515.31
437.835	540.31
438.057	602.31
438.278	686.31
438.5	664.31
438.721	768.31
438.943	748.31
439.165	613.31
439.386	573.31
439.608	544.31
439.829	546.31
440.05	545.31
440.272	627.31
440.493	558.31
440.715	526.31
440.936	551.31
441.158	554.31
441.379	535.31
441.6	544.31
441.822	572.31
442.043	593.31
442.264	662.31
442.486	690.31
442.707	612.31
442.928	576.31
443.149	587.31
443.371	585.31
443.592	621.31
443.813	694.31
444.034	747.31
444.255	641.31
444.476	607.31
444.698	572.31
444.919	617.31
445.14	732.31
445.361	634.31
445.582	642.31
445.803	625.31
446.024	703.31
446.245	720.31
446.466	669.31
446.687	581.31
446.908	553.31
447.129	520.31
447.35	533.31
447.571	538.31
447.792	493.31
448.013	510.31
448.234	521.31
448.455	561.31
448.675	640.31
448.896	721.31
449.117	624.31
449.338	620.31
449.559	689.31
449.779	770.31
450	623.31
450.221	545.31
450.442	520.31
450.662	479.31
450.883	483.31
451.104	508.31
451.324	510.31
451.545	476.31
451.766	463.31
451.986	453.31
452.207	476.31
452.428	455.31
452.648	473.31
452.869	469.31
453.089	476.31
453.31	480.31
453.53	453.31
453.751	480.31
453.971	468.31
454.192	471.31
454.412	448.31
454.633	432.31
454.853	465.31
455.073	444.31
455.294	454.31
455.514	516.31
455.734	495.31
455.955	458.31
456.175	464.31
456.395	439.31
456.616	436.31
456.836	448.31
457.056	432.31
457.276	446.31
457.497	441.31
457.717	419.31
457.937	438.31
458.157	455.31
458.377	444.31
458.598	474.31
458.818	514.31
459.038	531.31
459.258	595.31
459.478	530.31
459.698	506.31
459.918	516.31
460.138	512.31
460.358	537.31
460.578	560.31
460.798	533.31
461.018	543.31
461.238	542.31
461.458	520.31
461.678	518.31
461.898	539.31
462.118	546.31
462.338	565.31
462.558	572.31
462.777	594.31
462.997	604.31
463.217	624.31
463.437	630.31
463.657	614.31
463.876	565.31
464.096	568.31
464.316	586.31
464.536	611.31
464.755	578.31
464.975	598.31
465.195	577.31
465.414	561.31
465.634	560.31
465.854	530.31
466.073	503.31
466.293	488.31
466.512	497.31
466.732	478.31
466.951	498.31
467.171	464.31
467.391	475.31
467.61	489.31
467.829	487.31
468.049	484.31
468.268	473.31
468.488	453.31
468.707	477.31
468.927	479.31
469.146	472.31
469.365	451.31
469.585	455.31
469.804	483.31
470.023	492.31
470.243	515.31
470.462	485.31
470.681	512.31
470.901	500.31
471.12	488.31
471.339	487.31
471.558	484.31
471.777	475.31
471.997	469.31
472.216	477.31
472.435	473.31
472.654	485.31
472.873	466.31
473.092	470.31
473.311	488.31
473.53	473.31
473.749	462.31
473.968	522.31
474.187	580.31
474.406	606.31
474.625	526.31
474.844	472.31
475.063	482.31
475.282	467.31
475.501	471.31
475.72	496.31
475.939	458.31
476.158	483.31
476.377	484.31
476.596	484.31
476.814	508.31
477.033	496.31
477.252	512.31
477.471	514.31
477.69	506.31
477.908	519.31
478.127	531.31
478.346	541.31
478.564	534.31
478.783	538.31
479.002	560.31
479.22	561.31
479.439	574.31
479.658	568.31
479.876	583.31
480.095	602.31
480.313	599.31
480.532	601.31
480.751	590.31
480.969	597.31
481.188	626.31
481.406	613.31
481.624	601.31
481.843	576.31
482.061	560.31
482.28	573.31
482.498	546.31
482.717	545.31
482.935	556.31
483.153	572.31
483.372	573.31
483.59	584.31
483.808	545.31
484.027	558.31
484.245	558.31
484.463	585.31
484.681	553.31
484.9	552.31
485.118	552.31
485.336	568.31
485.554	579.31
485.772	608.31
485.99	579.31
486.209	583.31
486.427	571.31
486.645	556.31
486.863	582.31
487.081	607.31
487.299	597.31
487.517	601.31
487.735	612.31
487.953	575.31
488.171	590.31
488.389	574.31
488.607	608.31
488.825	607.31
489.043	577.31
489.261	594.31
489.479	602.31
489.696	612.31
489.914	612.31
490.132	606.31
490.35	618.31
490.568	601.31
490.786	633.31
491.003	645.31
491.221	646.31
491.439	646.31
491.657	648.31
491.874	647.31
492.092	675.31
492.31	659.31
492.527	646.31
492.745	658.31
492.963	666.31
493.18	681.31
493.398	666.31
493.615	674.31
493.833	683.31
494.05	646.31
494.268	675.31
494.485	679.31
494.703	681.31
494.92	658.31
495.138	672.31
495.355	672.31
495.573	666.31
495.79	690.31
496.008	688.31
496.225	711.31
496.442	705.31
496.66	694.31
496.877	697.31
497.094	692.31
497.312	726.31
497.529	710.31
497.746	743.31
497.963	750.31
498.181	762.31
498.398	798.31
498.615	830.31
498.832	848.31
499.049	870.31
499.267	920.31
499.484	931.31
499.701	976.31
499.918	1026.31
500.135	1127.31
500.352	1193.31
500.569	1210.31
500.786	1237.31
501.003	1204.31
501.22	1145.31
501.437	1068.31
501.654	993.31
501.871	962.31
