Data from 1962.PennyLincolnUp.Lamp.En5.5.200Scan.071719.P1._HRD10591_13-53-01-060.txt Node
Date: Thu Jul 18 13:53:01 EDT 2019
User: cochatt
Spectrometer: HR+D1059
Trigger mode: 1
Integration Time (sec): 1.000000E-1
Scans to average: 1
Electric dark correction enabled: true
Nonlinearity correction enabled: false
Boxcar width: 0
XAxis mode: Wavelengths
Number of Pixels in Spectrum: 2048
>>>>>Begin Spectral Data<<<<<
223.165	-14.19
223.4	-14.19
223.635	-14.19
223.869	-14.19
224.104	-17.19
224.338	-10.19
224.573	-21.19
224.808	-6.19
225.042	6.81
225.277	-5.19
225.511	-6.19
225.746	-4.19
225.98	13.81
226.215	3.81
226.449	15.81
226.683	11.81
226.918	12.81
227.152	33.81
227.387	32.81
227.621	43.81
227.856	39.81
228.09	45.81
228.324	53.81
228.559	54.81
228.793	71.81
229.027	86.81
229.262	90.81
229.496	98.81
229.73	105.81
229.964	113.81
230.199	122.81
230.433	101.81
230.667	109.81
230.901	102.81
231.136	99.81
231.37	108.81
231.604	98.81
231.838	92.81
232.072	112.81
232.306	119.81
232.541	105.81
232.775	108.81
233.009	110.81
233.243	126.81
233.477	113.81
233.711	108.81
233.945	104.81
234.179	115.81
234.413	115.81
234.647	106.81
234.881	115.81
235.115	109.81
235.349	119.81
235.583	123.81
235.817	126.81
236.051	116.81
236.285	125.81
236.519	111.81
236.753	113.81
236.987	117.81
237.221	154.81
237.455	173.81
237.689	133.81
237.922	124.81
238.156	119.81
238.39	120.81
238.624	118.81
238.858	114.81
239.091	109.81
239.325	122.81
239.559	119.81
239.793	107.81
240.027	110.81
240.26	114.81
240.494	148.81
240.728	129.81
240.961	140.81
241.195	140.81
241.429	144.81
241.662	122.81
241.896	129.81
242.13	130.81
242.363	119.81
242.597	118.81
242.83	106.81
243.064	131.81
243.298	135.81
243.531	125.81
243.765	126.81
243.998	133.81
244.232	141.81
244.465	129.81
244.699	145.81
244.932	146.81
245.166	132.81
245.399	129.81
245.633	137.81
245.866	142.81
246.099	124.81
246.333	150.81
246.566	147.81
246.8	140.81
247.033	146.81
247.266	147.81
247.5	149.81
247.733	154.81
247.966	164.81
248.2	147.81
248.433	163.81
248.666	161.81
248.899	166.81
249.133	155.81
249.366	190.81
249.599	171.81
249.832	164.81
250.066	141.81
250.299	166.81
250.532	163.81
250.765	163.81
250.998	167.81
251.231	187.81
251.465	181.81
251.698	166.81
251.931	161.81
252.164	179.81
252.397	181.81
252.63	167.81
252.863	172.81
253.096	183.81
253.329	182.81
253.562	185.81
253.795	188.81
254.028	201.81
254.261	190.81
254.494	166.81
254.727	209.81
254.96	212.81
255.193	214.81
255.426	201.81
255.659	185.81
255.892	203.81
256.124	193.81
256.357	184.81
256.59	206.81
256.823	193.81
257.056	174.81
257.289	163.81
257.521	176.81
257.754	187.81
257.987	196.81
258.22	187.81
258.452	182.81
258.685	206.81
258.918	181.81
259.151	197.81
259.383	181.81
259.616	201.81
259.849	190.81
260.081	199.81
260.314	200.81
260.547	211.81
260.779	190.81
261.012	185.81
261.244	194.81
261.477	212.81
261.71	190.81
261.942	184.81
262.175	191.81
262.407	198.81
262.64	180.81
262.872	193.81
263.105	210.81
263.337	203.81
263.57	198.81
263.802	211.81
264.035	212.81
264.267	202.81
264.499	199.81
264.732	203.81
264.964	196.81
265.197	198.81
265.429	197.81
265.661	197.81
265.894	188.81
266.126	204.81
266.358	194.81
266.591	211.81
266.823	216.81
267.055	214.81
267.287	202.81
267.52	205.81
267.752	197.81
267.984	221.81
268.216	221.81
268.448	219.81
268.681	212.81
268.913	226.81
269.145	223.81
269.377	230.81
269.609	226.81
269.841	214.81
270.073	227.81
270.306	250.81
270.538	248.81
270.77	262.81
271.002	235.81
271.234	237.81
271.466	252.81
271.698	237.81
271.93	257.81
272.162	268.81
272.394	266.81
272.626	254.81
272.858	261.81
273.09	245.81
273.322	247.81
273.553	231.81
273.785	253.81
274.017	249.81
274.249	254.81
274.481	234.81
274.713	229.81
274.945	227.81
275.176	237.81
275.408	233.81
275.64	226.81
275.872	239.81
276.104	262.81
276.335	229.81
276.567	242.81
276.799	241.81
277.031	255.81
277.262	269.81
277.494	267.81
277.726	254.81
277.957	255.81
278.189	253.81
278.421	244.81
278.652	245.81
278.884	246.81
279.115	248.81
279.347	267.81
279.579	274.81
279.81	262.81
280.042	260.81
280.273	237.81
280.505	256.81
280.736	243.81
280.968	263.81
281.199	262.81
281.431	264.81
281.662	264.81
281.894	288.81
282.125	255.81
282.356	277.81
282.588	285.81
282.819	262.81
283.051	259.81
283.282	265.81
283.513	271.81
283.745	272.81
283.976	268.81
284.207	287.81
284.439	260.81
284.67	264.81
284.901	267.81
285.132	257.81
285.364	249.81
285.595	271.81
285.826	287.81
286.057	275.81
286.288	261.81
286.52	261.81
286.751	273.81
286.982	281.81
287.213	292.81
287.444	272.81
287.675	286.81
287.906	269.81
288.138	282.81
288.369	297.81
288.6	295.81
288.831	285.81
289.062	295.81
289.293	290.81
289.524	281.81
289.755	294.81
289.986	273.81
290.217	283.81
290.448	306.81
290.679	254.81
290.91	275.81
291.141	271.81
291.371	283.81
291.602	278.81
291.833	269.81
292.064	271.81
292.295	275.81
292.526	278.81
292.757	265.81
292.987	286.81
293.218	277.81
293.449	287.81
293.68	270.81
293.91	303.81
294.141	267.81
294.372	290.81
294.603	301.81
294.833	286.81
295.064	271.81
295.295	276.81
295.525	282.81
295.756	290.81
295.987	294.81
296.217	294.81
296.448	323.81
296.679	295.81
296.909	297.81
297.14	286.81
297.37	290.81
297.601	284.81
297.831	294.81
298.062	293.81
298.292	287.81
298.523	285.81
298.753	295.81
298.984	295.81
299.214	290.81
299.445	306.81
299.675	305.81
299.905	331.81
300.136	316.81
300.366	296.81
300.597	302.81
300.827	313.81
301.057	309.81
301.288	301.81
301.518	316.81
301.748	313.81
301.979	324.81
302.209	334.81
302.439	337.81
302.669	321.81
302.9	317.81
303.13	292.81
303.36	313.81
303.59	331.81
303.82	330.81
304.051	335.81
304.281	316.81
304.511	295.81
304.741	311.81
304.971	313.81
305.201	325.81
305.431	318.81
305.661	313.81
305.891	319.81
306.121	318.81
306.352	327.81
306.582	318.81
306.812	329.81
307.042	310.81
307.272	312.81
307.502	298.81
307.731	330.81
307.961	321.81
308.191	321.81
308.421	313.81
308.651	307.81
308.881	314.81
309.111	332.81
309.341	314.81
309.571	293.81
309.8	330.81
310.03	330.81
310.26	333.81
310.49	323.81
310.72	342.81
310.949	349.81
311.179	345.81
311.409	317.81
311.639	343.81
311.868	325.81
312.098	345.81
312.328	348.81
312.557	348.81
312.787	365.81
313.017	354.81
313.246	352.81
313.476	348.81
313.706	352.81
313.935	348.81
314.165	350.81
314.394	345.81
314.624	369.81
314.853	355.81
315.083	356.81
315.312	334.81
315.542	359.81
315.771	349.81
316.001	343.81
316.23	335.81
316.46	334.81
316.689	360.81
316.919	334.81
317.148	349.81
317.377	353.81
317.607	339.81
317.836	343.81
318.065	363.81
318.295	356.81
318.524	326.81
318.753	341.81
318.983	337.81
319.212	334.81
319.441	345.81
319.67	354.81
319.9	359.81
320.129	342.81
320.358	356.81
320.587	355.81
320.816	347.81
321.046	350.81
321.275	354.81
321.504	342.81
321.733	374.81
321.962	371.81
322.191	381.81
322.42	371.81
322.649	348.81
322.878	362.81
323.108	370.81
323.337	408.81
323.566	382.81
323.795	403.81
324.024	422.81
324.253	466.81
324.482	583.81
324.71	781.81
324.939	1078.81
325.168	941.81
325.397	565.81
325.626	447.81
325.855	414.81
326.084	389.81
326.313	406.81
326.542	408.81
326.77	403.81
326.999	455.81
327.228	542.81
327.457	740.81
327.686	845.81
327.914	630.81
328.143	493.81
328.372	457.81
328.6	443.81
328.829	411.81
329.058	423.81
329.287	412.81
329.515	452.81
329.744	398.81
329.972	408.81
330.201	427.81
330.43	435.81
330.658	442.81
330.887	433.81
331.115	442.81
331.344	421.81
331.572	417.81
331.801	429.81
332.03	406.81
332.258	435.81
332.486	419.81
332.715	423.81
332.943	451.81
333.172	417.81
333.4	441.81
333.629	440.81
333.857	466.81
334.085	465.81
334.314	467.81
334.542	459.81
334.771	463.81
334.999	450.81
335.227	443.81
335.455	438.81
335.684	430.81
335.912	441.81
336.14	427.81
336.369	429.81
336.597	443.81
336.825	428.81
337.053	426.81
337.281	439.81
337.51	412.81
337.738	422.81
337.966	398.81
338.194	414.81
338.422	409.81
338.65	411.81
338.878	427.81
339.106	407.81
339.334	403.81
339.562	412.81
339.79	412.81
340.018	404.81
340.246	419.81
340.474	408.81
340.702	408.81
340.93	391.81
341.158	385.81
341.386	403.81
341.614	385.81
341.842	379.81
342.07	391.81
342.298	395.81
342.526	376.81
342.754	397.81
342.981	400.81
343.209	378.81
343.437	424.81
343.665	396.81
343.893	408.81
344.12	419.81
344.348	452.81
344.576	429.81
344.804	411.81
345.031	415.81
345.259	390.81
345.487	434.81
345.714	385.81
345.942	375.81
346.17	377.81
346.397	393.81
346.625	370.81
346.853	383.81
347.08	370.81
347.308	392.81
347.535	370.81
347.763	358.81
347.99	379.81
348.218	374.81
348.445	370.81
348.673	396.81
348.9	386.81
349.128	373.81
349.355	366.81
349.583	381.81
349.81	377.81
350.037	370.81
350.265	354.81
350.492	364.81
350.72	376.81
350.947	367.81
351.174	370.81
351.402	362.81
351.629	387.81
351.856	385.81
352.083	383.81
352.311	385.81
352.538	378.81
352.765	370.81
352.992	380.81
353.22	389.81
353.447	366.81
353.674	367.81
353.901	379.81
354.128	358.81
354.355	358.81
354.583	370.81
354.81	374.81
355.037	369.81
355.264	371.81
355.491	371.81
355.718	340.81
355.945	367.81
356.172	338.81
356.399	371.81
356.626	369.81
356.853	371.81
357.08	367.81
357.307	377.81
357.534	355.81
357.761	366.81
357.988	369.81
358.215	365.81
358.441	369.81
358.668	373.81
358.895	359.81
359.122	363.81
359.349	386.81
359.576	391.81
359.802	388.81
360.029	400.81
360.256	379.81
360.483	395.81
360.709	388.81
360.936	400.81
361.163	371.81
361.39	384.81
361.616	381.81
361.843	360.81
362.07	364.81
362.296	374.81
362.523	383.81
362.749	382.81
362.976	369.81
363.203	377.81
363.429	367.81
363.656	364.81
363.882	359.81
364.109	373.81
364.335	345.81
364.562	366.81
364.788	362.81
365.015	370.81
365.241	377.81
365.468	393.81
365.694	381.81
365.92	374.81
366.147	361.81
366.373	389.81
366.599	359.81
366.826	389.81
367.052	371.81
367.278	347.81
367.505	357.81
367.731	380.81
367.957	383.81
368.184	375.81
368.41	359.81
368.636	361.81
368.862	395.81
369.089	379.81
369.315	381.81
369.541	383.81
369.767	366.81
369.993	366.81
370.219	375.81
370.445	369.81
370.672	369.81
370.898	382.81
371.124	385.81
371.35	395.81
371.576	386.81
371.802	389.81
372.028	388.81
372.254	389.81
372.48	362.81
372.706	395.81
372.932	389.81
373.158	381.81
373.384	406.81
373.61	394.81
373.835	391.81
374.061	382.81
374.287	377.81
374.513	395.81
374.739	404.81
374.965	403.81
375.191	395.81
375.416	401.81
375.642	399.81
375.868	403.81
376.094	377.81
376.319	378.81
376.545	370.81
376.771	392.81
376.997	379.81
377.222	404.81
377.448	363.81
377.674	387.81
377.899	389.81
378.125	385.81
378.35	367.81
378.576	383.81
378.802	387.81
379.027	379.81
379.253	363.81
379.478	378.81
379.704	379.81
379.929	400.81
380.155	383.81
380.38	381.81
380.606	381.81
380.831	401.81
381.057	377.81
381.282	385.81
381.507	398.81
381.733	401.81
381.958	392.81
382.184	398.81
382.409	396.81
382.634	403.81
382.86	390.81
383.085	420.81
383.31	431.81
383.535	423.81
383.761	397.81
383.986	412.81
384.211	409.81
384.436	423.81
384.662	427.81
384.887	442.81
385.112	410.81
385.337	443.81
385.562	442.81
385.787	426.81
386.013	452.81
386.238	441.81
386.463	435.81
386.688	457.81
386.913	430.81
387.138	443.81
387.363	446.81
387.588	427.81
387.813	454.81
388.038	429.81
388.263	420.81
388.488	450.81
388.713	430.81
388.938	421.81
389.163	409.81
389.387	420.81
389.612	433.81
389.837	443.81
390.062	442.81
390.287	434.81
390.512	440.81
390.736	418.81
390.961	429.81
391.186	431.81
391.411	430.81
391.636	456.81
391.86	453.81
392.085	466.81
392.31	479.81
392.534	468.81
392.759	471.81
392.984	462.81
393.208	459.81
393.433	455.81
393.658	433.81
393.882	447.81
394.107	438.81
394.331	455.81
394.556	453.81
394.78	466.81
395.005	442.81
395.229	441.81
395.454	468.81
395.678	474.81
395.903	460.81
396.127	464.81
396.352	485.81
396.576	453.81
396.801	446.81
397.025	463.81
397.249	456.81
397.474	489.81
397.698	464.81
397.922	507.81
398.147	484.81
398.371	497.81
398.595	514.81
398.82	497.81
399.044	528.81
399.268	569.81
399.492	604.81
399.717	631.81
399.941	647.81
400.165	638.81
400.389	633.81
400.613	580.81
400.837	537.81
401.062	525.81
401.286	531.81
401.51	503.81
401.734	513.81
401.958	526.81
402.182	509.81
402.406	519.81
402.63	518.81
402.854	508.81
403.078	508.81
403.302	521.81
403.526	553.81
403.75	543.81
403.974	533.81
404.198	548.81
404.422	539.81
404.645	542.81
404.869	533.81
405.093	557.81
405.317	607.81
405.541	590.81
405.765	588.81
405.988	539.81
406.212	548.81
406.436	569.81
406.66	553.81
406.883	565.81
407.107	592.81
407.331	613.81
407.555	665.81
407.778	638.81
408.002	607.81
408.226	595.81
408.449	581.81
408.673	570.81
408.896	572.81
409.12	601.81
409.344	592.81
409.567	556.81
409.791	558.81
410.014	556.81
410.238	524.81
410.461	536.81
410.685	548.81
410.908	549.81
411.132	560.81
411.355	566.81
411.578	559.81
411.802	540.81
412.025	536.81
412.249	541.81
412.472	514.81
412.695	540.81
412.919	547.81
413.142	513.81
413.365	534.81
413.589	520.81
413.812	499.81
414.035	521.81
414.258	485.81
414.482	519.81
414.705	485.81
414.928	520.81
415.151	514.81
415.374	507.81
415.597	476.81
415.821	517.81
416.044	490.81
416.267	505.81
416.49	496.81
416.713	485.81
416.936	511.81
417.159	475.81
417.382	483.81
417.605	484.81
417.828	517.81
418.051	493.81
418.274	507.81
418.497	509.81
418.72	478.81
418.943	490.81
419.166	524.81
419.389	569.81
419.611	543.81
419.834	537.81
420.057	538.81
420.28	532.81
420.503	533.81
420.726	500.81
420.948	507.81
421.171	527.81
421.394	550.81
421.617	511.81
421.839	499.81
422.062	524.81
422.285	539.81
422.507	556.81
422.73	600.81
422.953	574.81
423.175	531.81
423.398	541.81
423.621	527.81
423.843	554.81
424.066	545.81
424.288	558.81
424.511	531.81
424.733	568.81
424.956	585.81
425.178	584.81
425.401	600.81
425.623	625.81
425.846	552.81
426.068	518.81
426.291	522.81
426.513	511.81
426.735	513.81
426.958	535.81
427.18	577.81
427.402	682.81
427.625	714.81
427.847	610.81
428.069	553.81
428.292	522.81
428.514	499.81
428.736	521.81
428.958	509.81
429.181	466.81
429.403	501.81
429.625	486.81
429.847	513.81
430.069	528.81
430.292	535.81
430.514	499.81
430.736	473.81
430.958	476.81
431.18	470.81
431.402	490.81
431.624	456.81
431.846	466.81
432.068	478.81
432.29	474.81
432.512	479.81
432.734	470.81
432.956	476.81
433.178	466.81
433.4	466.81
433.622	468.81
433.844	472.81
434.066	477.81
434.287	473.81
434.509	490.81
434.731	498.81
434.953	486.81
435.175	513.81
435.397	519.81
435.618	524.81
435.84	542.81
436.062	569.81
436.284	627.81
436.505	527.81
436.727	504.81
436.949	485.81
437.17	484.81
437.392	461.81
437.614	486.81
437.835	485.81
438.057	538.81
438.278	600.81
438.5	616.81
438.721	659.81
438.943	644.81
439.165	541.81
439.386	515.81
439.608	513.81
439.829	490.81
440.05	523.81
440.272	511.81
440.493	501.81
440.715	491.81
440.936	503.81
441.158	489.81
441.379	478.81
441.6	505.81
441.822	534.81
442.043	545.81
442.264	595.81
442.486	636.81
442.707	545.81
442.928	519.81
443.149	528.81
443.371	529.81
443.592	561.81
443.813	596.81
444.034	659.81
444.255	583.81
444.476	533.81
444.698	565.81
444.919	555.81
445.14	652.81
445.361	606.81
445.582	547.81
445.803	574.81
446.024	630.81
446.245	622.81
446.466	561.81
446.687	533.81
446.908	494.81
447.129	476.81
447.35	457.81
447.571	462.81
447.792	444.81
448.013	468.81
448.234	463.81
448.455	512.81
448.675	585.81
448.896	647.81
449.117	565.81
449.338	533.81
449.559	593.81
449.779	662.81
450	563.81
450.221	493.81
450.442	453.81
450.662	458.81
450.883	457.81
451.104	471.81
451.324	439.81
451.545	445.81
451.766	419.81
451.986	424.81
452.207	434.81
452.428	433.81
452.648	434.81
452.869	417.81
453.089	422.81
453.31	424.81
453.53	453.81
453.751	420.81
453.971	415.81
454.192	444.81
454.412	425.81
454.633	412.81
454.853	400.81
455.073	412.81
455.294	435.81
455.514	444.81
455.734	448.81
455.955	409.81
456.175	425.81
456.395	410.81
456.616	404.81
456.836	419.81
457.056	399.81
457.276	420.81
457.497	415.81
457.717	402.81
457.937	423.81
458.157	422.81
458.377	427.81
458.598	425.81
458.818	467.81
459.038	501.81
459.258	501.81
459.478	486.81
459.698	462.81
459.918	489.81
460.138	481.81
460.358	509.81
460.578	519.81
460.798	497.81
461.018	515.81
461.238	508.81
461.458	490.81
461.678	503.81
461.898	535.81
462.118	507.81
462.338	516.81
462.558	520.81
462.777	557.81
462.997	572.81
463.217	591.81
463.437	602.81
463.657	572.81
463.876	558.81
464.096	541.81
464.316	540.81
464.536	538.81
464.755	550.81
464.975	556.81
465.195	550.81
465.414	518.81
465.634	509.81
465.854	474.81
466.073	467.81
466.293	460.81
466.512	457.81
466.732	451.81
466.951	441.81
467.171	446.81
467.391	455.81
467.61	441.81
467.829	441.81
468.049	450.81
468.268	449.81
468.488	438.81
468.707	445.81
468.927	439.81
469.146	456.81
469.365	454.81
469.585	444.81
469.804	439.81
470.023	457.81
470.243	445.81
470.462	450.81
470.681	475.81
470.901	484.81
471.12	445.81
471.339	465.81
471.558	444.81
471.777	454.81
471.997	460.81
472.216	445.81
472.435	450.81
472.654	455.81
472.873	453.81
473.092	430.81
473.311	449.81
473.53	468.81
473.749	455.81
473.968	474.81
474.187	500.81
474.406	542.81
474.625	460.81
474.844	462.81
475.063	453.81
475.282	453.81
475.501	469.81
475.72	457.81
475.939	458.81
476.158	451.81
476.377	472.81
476.596	484.81
476.814	484.81
477.033	466.81
477.252	468.81
477.471	469.81
477.69	503.81
477.908	482.81
478.127	493.81
478.346	515.81
478.564	511.81
478.783	518.81
479.002	542.81
479.22	543.81
479.439	530.81
479.658	546.81
479.876	533.81
480.095	561.81
480.313	571.81
480.532	581.81
480.751	581.81
480.969	559.81
481.188	565.81
481.406	588.81
481.624	554.81
481.843	542.81
482.061	530.81
482.28	498.81
482.498	517.81
482.717	510.81
482.935	499.81
483.153	518.81
483.372	528.81
483.59	542.81
483.808	505.81
484.027	528.81
484.245	522.81
484.463	527.81
484.681	541.81
484.9	528.81
485.118	541.81
485.336	524.81
485.554	558.81
485.772	558.81
485.99	543.81
486.209	549.81
486.427	534.81
486.645	557.81
486.863	567.81
487.081	536.81
487.299	549.81
487.517	567.81
487.735	570.81
487.953	563.81
488.171	562.81
488.389	526.81
488.607	567.81
488.825	541.81
489.043	550.81
489.261	551.81
489.479	549.81
489.696	556.81
489.914	579.81
490.132	588.81
490.35	586.81
490.568	553.81
490.786	580.81
491.003	577.81
491.221	605.81
491.439	585.81
491.657	590.81
491.874	618.81
492.092	598.81
492.31	606.81
492.527	594.81
492.745	598.81
492.963	584.81
493.18	621.81
493.398	622.81
493.615	584.81
493.833	600.81
494.05	633.81
494.268	601.81
494.485	623.81
494.703	619.81
494.92	636.81
495.138	631.81
495.355	618.81
495.573	631.81
495.79	620.81
496.008	617.81
496.225	619.81
496.442	631.81
496.66	665.81
496.877	652.81
497.094	643.81
497.312	672.81
497.529	662.81
497.746	714.81
497.963	693.81
498.181	727.81
498.398	762.81
498.615	754.81
498.832	793.81
499.049	805.81
499.267	820.81
499.484	874.81
499.701	941.81
499.918	965.81
500.135	1015.81
500.352	1113.81
500.569	1156.81
500.786	1150.81
501.003	1098.81
501.22	1044.81
501.437	990.81
501.654	924.81
501.871	910.81
502.088	847.81
