Data from 1962.PennyLincolnUp.Lamp.En5.5.200Scan.071719.P1._HRD10591_13-53-20-061.txt Node
Date: Thu Jul 18 13:53:20 EDT 2019
User: cochatt
Spectrometer: HR+D1059
Trigger mode: 1
Integration Time (sec): 1.000000E-1
Scans to average: 1
Electric dark correction enabled: true
Nonlinearity correction enabled: false
Boxcar width: 0
XAxis mode: Wavelengths
Number of Pixels in Spectrum: 2048
>>>>>Begin Spectral Data<<<<<
223.165	-36.06
223.4	-36.06
223.635	-36.06
223.869	-32.06
224.104	-10.06
224.338	-9.06
224.573	-1.06
224.808	-15.06
225.042	-7.06
225.277	-15.06
225.511	3.94
225.746	9.94
225.98	1.94
226.215	8.94
226.449	10.94
226.683	25.94
226.918	30.94
227.152	32.94
227.387	38.94
227.621	26.94
227.856	44.94
228.09	34.94
228.324	49.94
228.559	41.94
228.793	78.94
229.027	85.94
229.262	90.94
229.496	92.94
229.73	109.94
229.964	106.94
230.199	106.94
230.433	103.94
230.667	103.94
230.901	96.94
231.136	108.94
231.37	109.94
231.604	102.94
231.838	96.94
232.072	106.94
232.306	102.94
232.541	108.94
232.775	100.94
233.009	110.94
233.243	108.94
233.477	117.94
233.711	109.94
233.945	113.94
234.179	113.94
234.413	112.94
234.647	104.94
234.881	118.94
235.115	119.94
235.349	111.94
235.583	121.94
235.817	120.94
236.051	121.94
236.285	116.94
236.519	105.94
236.753	112.94
236.987	138.94
237.221	122.94
237.455	161.94
237.689	135.94
237.922	114.94
238.156	116.94
238.39	118.94
238.624	103.94
238.858	124.94
239.091	105.94
239.325	111.94
239.559	115.94
239.793	113.94
240.027	123.94
240.26	120.94
240.494	124.94
240.728	121.94
240.961	128.94
241.195	120.94
241.429	114.94
241.662	111.94
241.896	130.94
242.13	125.94
242.363	129.94
242.597	119.94
242.83	112.94
243.064	124.94
243.298	123.94
243.531	127.94
243.765	141.94
243.998	123.94
244.232	142.94
244.465	146.94
244.699	133.94
244.932	132.94
245.166	132.94
245.399	130.94
245.633	133.94
245.866	142.94
246.099	126.94
246.333	128.94
246.566	140.94
246.8	148.94
247.033	153.94
247.266	148.94
247.5	150.94
247.733	150.94
247.966	161.94
248.2	138.94
248.433	152.94
248.666	149.94
248.899	159.94
249.133	156.94
249.366	163.94
249.599	174.94
249.832	158.94
250.066	156.94
250.299	168.94
250.532	179.94
250.765	162.94
250.998	172.94
251.231	188.94
251.465	181.94
251.698	169.94
251.931	174.94
252.164	179.94
252.397	157.94
252.63	176.94
252.863	172.94
253.096	185.94
253.329	178.94
253.562	178.94
253.795	180.94
254.028	174.94
254.261	193.94
254.494	191.94
254.727	203.94
254.96	211.94
255.193	209.94
255.426	192.94
255.659	192.94
255.892	185.94
256.124	190.94
256.357	199.94
256.59	196.94
256.823	177.94
257.056	184.94
257.289	177.94
257.521	168.94
257.754	174.94
257.987	164.94
258.22	181.94
258.452	197.94
258.685	191.94
258.918	196.94
259.151	183.94
259.383	186.94
259.616	205.94
259.849	199.94
260.081	193.94
260.314	212.94
260.547	207.94
260.779	202.94
261.012	207.94
261.244	191.94
261.477	177.94
261.71	200.94
261.942	202.94
262.175	201.94
262.407	205.94
262.64	193.94
262.872	196.94
263.105	182.94
263.337	196.94
263.57	197.94
263.802	200.94
264.035	200.94
264.267	184.94
264.499	199.94
264.732	215.94
264.964	188.94
265.197	209.94
265.429	222.94
265.661	188.94
265.894	201.94
266.126	190.94
266.358	208.94
266.591	192.94
266.823	201.94
267.055	216.94
267.287	214.94
267.52	197.94
267.752	205.94
267.984	220.94
268.216	213.94
268.448	226.94
268.681	208.94
268.913	223.94
269.145	221.94
269.377	224.94
269.609	236.94
269.841	244.94
270.073	219.94
270.306	241.94
270.538	253.94
270.77	240.94
271.002	241.94
271.234	255.94
271.466	254.94
271.698	256.94
271.93	263.94
272.162	238.94
272.394	248.94
272.626	250.94
272.858	243.94
273.09	256.94
273.322	238.94
273.553	245.94
273.785	234.94
274.017	256.94
274.249	221.94
274.481	230.94
274.713	235.94
274.945	260.94
275.176	238.94
275.408	237.94
275.64	240.94
275.872	262.94
276.104	255.94
276.335	221.94
276.567	239.94
276.799	244.94
277.031	270.94
277.262	265.94
277.494	247.94
277.726	258.94
277.957	263.94
278.189	258.94
278.421	247.94
278.652	255.94
278.884	256.94
279.115	246.94
279.347	246.94
279.579	255.94
279.81	252.94
280.042	249.94
280.273	258.94
280.505	250.94
280.736	234.94
280.968	253.94
281.199	231.94
281.431	256.94
281.662	269.94
281.894	260.94
282.125	270.94
282.356	267.94
282.588	273.94
282.819	265.94
283.051	284.94
283.282	264.94
283.513	259.94
283.745	286.94
283.976	267.94
284.207	253.94
284.439	260.94
284.67	259.94
284.901	291.94
285.132	271.94
285.364	276.94
285.595	265.94
285.826	264.94
286.057	280.94
286.288	274.94
286.52	285.94
286.751	257.94
286.982	272.94
287.213	275.94
287.444	283.94
287.675	291.94
287.906	285.94
288.138	280.94
288.369	276.94
288.6	308.94
288.831	276.94
289.062	290.94
289.293	289.94
289.524	281.94
289.755	279.94
289.986	287.94
290.217	286.94
290.448	273.94
290.679	272.94
290.91	288.94
291.141	278.94
291.371	291.94
291.602	283.94
291.833	282.94
292.064	290.94
292.295	286.94
292.526	266.94
292.757	273.94
292.987	294.94
293.218	276.94
293.449	293.94
293.68	298.94
293.91	275.94
294.141	304.94
294.372	292.94
294.603	288.94
294.833	280.94
295.064	274.94
295.295	272.94
295.525	284.94
295.756	291.94
295.987	304.94
296.217	288.94
296.448	312.94
296.679	286.94
296.909	309.94
297.14	300.94
297.37	297.94
297.601	300.94
297.831	291.94
298.062	281.94
298.292	294.94
298.523	312.94
298.753	309.94
298.984	286.94
299.214	304.94
299.445	303.94
299.675	303.94
299.905	303.94
300.136	316.94
300.366	312.94
300.597	322.94
300.827	314.94
301.057	315.94
301.288	325.94
301.518	325.94
301.748	320.94
301.979	311.94
302.209	327.94
302.439	316.94
302.669	316.94
302.9	320.94
303.13	314.94
303.36	328.94
303.59	333.94
303.82	329.94
304.051	322.94
304.281	337.94
304.511	331.94
304.741	331.94
304.971	320.94
305.201	326.94
305.431	310.94
305.661	340.94
305.891	322.94
306.121	323.94
306.352	331.94
306.582	312.94
306.812	327.94
307.042	332.94
307.272	325.94
307.502	328.94
307.731	324.94
307.961	314.94
308.191	312.94
308.421	326.94
308.651	314.94
308.881	318.94
309.111	345.94
309.341	326.94
309.571	327.94
309.8	326.94
310.03	342.94
310.26	330.94
310.49	349.94
310.72	322.94
310.949	345.94
311.179	351.94
311.409	335.94
311.639	348.94
311.868	354.94
312.098	338.94
312.328	349.94
312.557	361.94
312.787	366.94
313.017	369.94
313.246	366.94
313.476	350.94
313.706	336.94
313.935	366.94
314.165	350.94
314.394	366.94
314.624	361.94
314.853	359.94
315.083	359.94
315.312	366.94
315.542	377.94
315.771	355.94
316.001	356.94
316.23	352.94
316.46	368.94
316.689	366.94
316.919	377.94
317.148	354.94
317.377	353.94
317.607	371.94
317.836	354.94
318.065	358.94
318.295	358.94
318.524	369.94
318.753	353.94
318.983	353.94
319.212	343.94
319.441	371.94
319.67	366.94
319.9	364.94
320.129	331.94
320.358	364.94
320.587	351.94
320.816	357.94
321.046	364.94
321.275	377.94
321.504	372.94
321.733	370.94
321.962	356.94
322.191	364.94
322.42	385.94
322.649	377.94
322.878	421.94
323.108	385.94
323.337	398.94
323.566	410.94
323.795	408.94
324.024	457.94
324.253	496.94
324.482	626.94
324.71	857.94
324.939	1199.94
325.168	1037.94
325.397	620.94
325.626	499.94
325.855	434.94
326.084	412.94
326.313	428.94
326.542	397.94
326.77	428.94
326.999	472.94
327.228	607.94
327.457	794.94
327.686	968.94
327.914	690.94
328.143	517.94
328.372	460.94
328.6	436.94
328.829	428.94
329.058	443.94
329.287	447.94
329.515	437.94
329.744	430.94
329.972	414.94
330.201	418.94
330.43	448.94
330.658	442.94
330.887	449.94
331.115	446.94
331.344	405.94
331.572	410.94
331.801	425.94
332.03	430.94
332.258	420.94
332.486	420.94
332.715	438.94
332.943	419.94
333.172	444.94
333.4	448.94
333.629	448.94
333.857	456.94
334.085	465.94
334.314	467.94
334.542	486.94
334.771	500.94
334.999	466.94
335.227	451.94
335.455	434.94
335.684	434.94
335.912	429.94
336.14	438.94
336.369	421.94
336.597	438.94
336.825	414.94
337.053	439.94
337.281	434.94
337.51	432.94
337.738	423.94
337.966	409.94
338.194	408.94
338.422	398.94
338.65	412.94
338.878	421.94
339.106	403.94
339.334	426.94
339.562	412.94
339.79	410.94
340.018	406.94
340.246	405.94
340.474	408.94
340.702	413.94
340.93	413.94
341.158	393.94
341.386	407.94
341.614	402.94
341.842	412.94
342.07	394.94
342.298	386.94
342.526	394.94
342.754	389.94
342.981	405.94
343.209	407.94
343.437	418.94
343.665	430.94
343.893	430.94
344.12	440.94
344.348	437.94
344.576	435.94
344.804	442.94
345.031	421.94
345.259	419.94
345.487	408.94
345.714	401.94
345.942	412.94
346.17	376.94
346.397	388.94
346.625	386.94
346.853	393.94
347.08	389.94
347.308	391.94
347.535	406.94
347.763	388.94
347.99	396.94
348.218	392.94
348.445	418.94
348.673	380.94
348.9	369.94
349.128	373.94
349.355	376.94
349.583	396.94
349.81	384.94
350.037	364.94
350.265	388.94
350.492	400.94
350.72	378.94
350.947	374.94
351.174	395.94
351.402	367.94
351.629	386.94
351.856	386.94
352.083	393.94
352.311	372.94
352.538	402.94
352.765	399.94
352.992	380.94
353.22	362.94
353.447	365.94
353.674	382.94
353.901	370.94
354.128	366.94
354.355	364.94
354.583	371.94
354.81	398.94
355.037	367.94
355.264	372.94
355.491	381.94
355.718	364.94
355.945	368.94
356.172	365.94
356.399	370.94
356.626	365.94
356.853	370.94
357.08	380.94
357.307	377.94
357.534	377.94
357.761	377.94
357.988	366.94
358.215	367.94
358.441	381.94
358.668	391.94
358.895	378.94
359.122	389.94
359.349	374.94
359.576	385.94
359.802	404.94
360.029	410.94
360.256	399.94
360.483	378.94
360.709	376.94
360.936	400.94
361.163	386.94
361.39	388.94
361.616	371.94
361.843	398.94
362.07	386.94
362.296	396.94
362.523	385.94
362.749	372.94
362.976	373.94
363.203	372.94
363.429	365.94
363.656	368.94
363.882	374.94
364.109	349.94
364.335	364.94
364.562	372.94
364.788	392.94
365.015	395.94
365.241	386.94
365.468	380.94
365.694	400.94
365.92	383.94
366.147	384.94
366.373	374.94
366.599	394.94
366.826	361.94
367.052	364.94
367.278	372.94
367.505	368.94
367.731	378.94
367.957	368.94
368.184	375.94
368.41	394.94
368.636	378.94
368.862	378.94
369.089	387.94
369.315	350.94
369.541	382.94
369.767	391.94
369.993	380.94
370.219	386.94
370.445	402.94
370.672	378.94
370.898	386.94
371.124	376.94
371.35	376.94
371.576	388.94
371.802	380.94
372.028	385.94
372.254	387.94
372.48	392.94
372.706	398.94
372.932	414.94
373.158	392.94
373.384	401.94
373.61	403.94
373.835	383.94
374.061	399.94
374.287	388.94
374.513	374.94
374.739	401.94
374.965	413.94
375.191	424.94
375.416	389.94
375.642	400.94
375.868	404.94
376.094	394.94
376.319	383.94
376.545	396.94
376.771	390.94
376.997	381.94
377.222	385.94
377.448	402.94
377.674	377.94
377.899	370.94
378.125	386.94
378.35	370.94
378.576	398.94
378.802	389.94
379.027	374.94
379.253	378.94
379.478	387.94
379.704	395.94
379.929	384.94
380.155	390.94
380.38	370.94
380.606	370.94
380.831	395.94
381.057	394.94
381.282	394.94
381.507	400.94
381.733	402.94
381.958	392.94
382.184	390.94
382.409	417.94
382.634	406.94
382.86	402.94
383.085	387.94
383.31	418.94
383.535	424.94
383.761	425.94
383.986	422.94
384.211	413.94
384.436	436.94
384.662	411.94
384.887	433.94
385.112	440.94
385.337	439.94
385.562	444.94
385.787	450.94
386.013	469.94
386.238	451.94
386.463	441.94
386.688	460.94
386.913	430.94
387.138	444.94
387.363	448.94
387.588	438.94
387.813	471.94
388.038	422.94
388.263	444.94
388.488	434.94
388.713	438.94
388.938	444.94
389.163	443.94
389.387	424.94
389.612	426.94
389.837	432.94
390.062	434.94
390.287	435.94
390.512	432.94
390.736	429.94
390.961	448.94
391.186	450.94
391.411	452.94
391.636	461.94
391.86	481.94
392.085	506.94
392.31	471.94
392.534	472.94
392.759	482.94
392.984	450.94
393.208	463.94
393.433	468.94
393.658	465.94
393.882	456.94
394.107	461.94
394.331	452.94
394.556	464.94
394.78	457.94
395.005	444.94
395.229	444.94
395.454	477.94
395.678	473.94
395.903	472.94
396.127	474.94
396.352	469.94
396.576	473.94
396.801	462.94
397.025	449.94
397.249	439.94
397.474	469.94
397.698	477.94
397.922	495.94
398.147	509.94
398.371	496.94
398.595	517.94
398.82	520.94
399.044	526.94
399.268	581.94
399.492	608.94
399.717	650.94
399.941	681.94
400.165	656.94
400.389	629.94
400.613	599.94
400.837	546.94
401.062	533.94
401.286	526.94
401.51	541.94
401.734	517.94
401.958	525.94
402.182	510.94
402.406	523.94
402.63	525.94
402.854	538.94
403.078	547.94
403.302	546.94
403.526	556.94
403.75	565.94
403.974	556.94
404.198	544.94
404.422	546.94
404.645	551.94
404.869	546.94
405.093	582.94
405.317	596.94
405.541	617.94
405.765	581.94
405.988	556.94
406.212	570.94
406.436	568.94
406.66	591.94
406.883	580.94
407.107	611.94
407.331	625.94
407.555	678.94
407.778	659.94
408.002	640.94
408.226	612.94
408.449	593.94
408.673	601.94
408.896	599.94
409.12	628.94
409.344	585.94
409.567	532.94
409.791	550.94
410.014	534.94
410.238	542.94
410.461	558.94
410.685	542.94
410.908	559.94
411.132	565.94
411.355	553.94
411.578	566.94
411.802	532.94
412.025	549.94
412.249	513.94
412.472	560.94
412.695	588.94
412.919	558.94
413.142	535.94
413.365	526.94
413.589	527.94
413.812	554.94
414.035	517.94
414.258	515.94
414.482	513.94
414.705	536.94
414.928	527.94
415.151	512.94
415.374	509.94
415.597	522.94
415.821	528.94
416.044	493.94
416.267	528.94
416.49	514.94
416.713	510.94
416.936	495.94
417.159	523.94
417.382	498.94
417.605	484.94
417.828	523.94
418.051	515.94
418.274	517.94
418.497	514.94
418.72	495.94
418.943	512.94
419.166	532.94
419.389	542.94
419.611	552.94
419.834	540.94
420.057	522.94
420.28	528.94
420.503	519.94
420.726	533.94
420.948	529.94
421.171	571.94
421.394	570.94
421.617	548.94
421.839	517.94
422.062	540.94
422.285	551.94
422.507	564.94
422.73	606.94
422.953	577.94
423.175	526.94
423.398	544.94
423.621	539.94
423.843	544.94
424.066	565.94
424.288	541.94
424.511	540.94
424.733	593.94
424.956	623.94
425.178	608.94
425.401	596.94
425.623	610.94
425.846	549.94
426.068	540.94
426.291	533.94
426.513	515.94
426.735	533.94
426.958	552.94
427.18	614.94
427.402	689.94
427.625	720.94
427.847	631.94
428.069	567.94
428.292	554.94
428.514	509.94
428.736	501.94
428.958	497.94
429.181	492.94
429.403	483.94
429.625	518.94
429.847	532.94
430.069	535.94
430.292	558.94
430.514	476.94
430.736	487.94
430.958	488.94
431.18	481.94
431.402	454.94
431.624	485.94
431.846	447.94
432.068	459.94
432.29	482.94
432.512	476.94
432.734	473.94
432.956	467.94
433.178	486.94
433.4	472.94
433.622	502.94
433.844	482.94
434.066	492.94
434.287	486.94
434.509	484.94
434.731	485.94
434.953	501.94
435.175	505.94
435.397	548.94
435.618	535.94
435.84	532.94
436.062	596.94
436.284	632.94
436.505	558.94
436.727	526.94
436.949	516.94
437.17	489.94
437.392	476.94
437.614	499.94
437.835	511.94
438.057	565.94
438.278	614.94
438.5	623.94
438.721	694.94
438.943	676.94
439.165	563.94
439.386	510.94
439.608	512.94
439.829	521.94
440.05	531.94
440.272	546.94
440.493	532.94
440.715	502.94
440.936	510.94
441.158	528.94
441.379	498.94
441.6	514.94
441.822	512.94
442.043	553.94
442.264	590.94
442.486	620.94
442.707	550.94
442.928	530.94
443.149	534.94
443.371	551.94
443.592	576.94
443.813	613.94
444.034	700.94
444.255	596.94
444.476	567.94
444.698	558.94
444.919	577.94
445.14	700.94
445.361	626.94
445.582	554.94
445.803	586.94
446.024	644.94
446.245	638.94
446.466	593.94
446.687	528.94
446.908	526.94
447.129	503.94
447.35	473.94
447.571	478.94
447.792	500.94
448.013	468.94
448.234	465.94
448.455	537.94
448.675	559.94
448.896	649.94
449.117	585.94
449.338	533.94
449.559	625.94
449.779	697.94
450	556.94
450.221	496.94
450.442	484.94
450.662	462.94
450.883	471.94
451.104	467.94
451.324	460.94
451.545	468.94
451.766	457.94
451.986	449.94
452.207	444.94
452.428	415.94
452.648	424.94
452.869	448.94
453.089	430.94
453.31	453.94
453.53	457.94
453.751	438.94
453.971	436.94
454.192	448.94
454.412	431.94
454.633	434.94
454.853	422.94
455.073	419.94
455.294	435.94
455.514	492.94
455.734	468.94
455.955	428.94
456.175	404.94
456.395	430.94
456.616	420.94
456.836	437.94
457.056	408.94
457.276	405.94
457.497	422.94
457.717	421.94
457.937	431.94
458.157	434.94
458.377	423.94
458.598	422.94
458.818	461.94
459.038	510.94
459.258	546.94
459.478	495.94
459.698	484.94
459.918	482.94
460.138	500.94
460.358	518.94
460.578	521.94
460.798	510.94
461.018	533.94
461.238	533.94
461.458	511.94
461.678	514.94
461.898	541.94
462.118	517.94
462.338	528.94
462.558	570.94
462.777	537.94
462.997	591.94
463.217	604.94
463.437	607.94
463.657	594.94
463.876	593.94
464.096	577.94
464.316	551.94
464.536	573.94
464.755	546.94
464.975	556.94
465.195	556.94
465.414	539.94
465.634	520.94
465.854	476.94
466.073	512.94
466.293	464.94
466.512	485.94
466.732	467.94
466.951	470.94
467.171	458.94
467.391	467.94
467.61	480.94
467.829	467.94
468.049	447.94
468.268	470.94
468.488	447.94
468.707	448.94
468.927	445.94
469.146	447.94
469.365	464.94
469.585	440.94
469.804	440.94
470.023	481.94
470.243	465.94
470.462	471.94
470.681	473.94
470.901	486.94
471.12	448.94
471.339	479.94
471.558	465.94
471.777	450.94
471.997	452.94
472.216	437.94
472.435	459.94
472.654	485.94
472.873	442.94
473.092	425.94
473.311	452.94
473.53	439.94
473.749	446.94
473.968	496.94
474.187	535.94
474.406	544.94
474.625	468.94
474.844	455.94
475.063	462.94
475.282	471.94
475.501	453.94
475.72	472.94
475.939	479.94
476.158	466.94
476.377	451.94
476.596	482.94
476.814	474.94
477.033	481.94
477.252	499.94
477.471	504.94
477.69	483.94
477.908	506.94
478.127	533.94
478.346	509.94
478.564	521.94
478.783	534.94
479.002	544.94
479.22	528.94
479.439	531.94
479.658	511.94
479.876	561.94
480.095	551.94
480.313	581.94
480.532	572.94
480.751	543.94
480.969	556.94
481.188	575.94
481.406	598.94
481.624	572.94
481.843	551.94
482.061	545.94
482.28	536.94
482.498	543.94
482.717	532.94
482.935	516.94
483.153	535.94
483.372	509.94
483.59	510.94
483.808	542.94
484.027	539.94
484.245	557.94
484.463	536.94
484.681	532.94
484.9	558.94
485.118	556.94
485.336	540.94
485.554	551.94
485.772	549.94
485.99	530.94
486.209	539.94
486.427	581.94
486.645	566.94
486.863	577.94
487.081	577.94
487.299	546.94
487.517	558.94
487.735	562.94
487.953	571.94
488.171	587.94
488.389	574.94
488.607	575.94
488.825	558.94
489.043	573.94
489.261	562.94
489.479	573.94
489.696	574.94
489.914	579.94
490.132	573.94
490.35	564.94
490.568	576.94
490.786	580.94
491.003	568.94
491.221	596.94
491.439	611.94
491.657	607.94
491.874	601.94
492.092	620.94
492.31	600.94
492.527	630.94
492.745	613.94
492.963	628.94
493.18	626.94
493.398	629.94
493.615	607.94
493.833	616.94
494.05	633.94
494.268	628.94
494.485	612.94
494.703	643.94
494.92	661.94
495.138	613.94
495.355	648.94
495.573	644.94
495.79	630.94
496.008	651.94
496.225	651.94
496.442	656.94
496.66	664.94
496.877	660.94
497.094	675.94
497.312	669.94
497.529	666.94
497.746	710.94
497.963	703.94
498.181	740.94
498.398	737.94
498.615	770.94
498.832	794.94
499.049	813.94
499.267	888.94
499.484	903.94
499.701	928.94
499.918	1004.94
500.135	1077.94
500.352	1126.94
500.569	1177.94
500.786	1184.94
501.003	1204.94
501.22	1078.94
501.437	1042.94
501.654	951.94
501.871	916.94
