Data from 1962.PennyLincolnUp.Lamp.En5.5.200Scan.071719.P1._HRD10591_13-55-48-062.txt Node
Date: Thu Jul 18 13:55:48 EDT 2019
User: cochatt
Spectrometer: HR+D1059
Trigger mode: 1
Integration Time (sec): 1.000000E-1
Scans to average: 1
Electric dark correction enabled: true
Nonlinearity correction enabled: false
Boxcar width: 0
XAxis mode: Wavelengths
Number of Pixels in Spectrum: 2048
>>>>>Begin Spectral Data<<<<<
223.165	-19.38
223.4	-19.38
223.635	-19.38
223.869	-12.38
224.104	-8.38
224.338	-0.38
224.573	-33.38
224.808	-10.38
225.042	-2.38
225.277	-13.38
225.511	5.62
225.746	-10.38
225.98	-7.38
226.215	9.62
226.449	19.62
226.683	27.62
226.918	25.62
227.152	29.62
227.387	34.62
227.621	25.62
227.856	47.62
228.09	37.62
228.324	49.62
228.559	41.62
228.793	69.62
229.027	86.62
229.262	110.62
229.496	109.62
229.73	119.62
229.964	138.62
230.199	119.62
230.433	109.62
230.667	107.62
230.901	99.62
231.136	118.62
231.37	87.62
231.604	118.62
231.838	113.62
232.072	108.62
232.306	111.62
232.541	122.62
232.775	96.62
233.009	115.62
233.243	113.62
233.477	103.62
233.711	117.62
233.945	118.62
234.179	122.62
234.413	99.62
234.647	107.62
234.881	122.62
235.115	133.62
235.349	115.62
235.583	114.62
235.817	141.62
236.051	106.62
236.285	129.62
236.519	105.62
236.753	128.62
236.987	143.62
237.221	169.62
237.455	194.62
237.689	167.62
237.922	132.62
238.156	131.62
238.39	141.62
238.624	131.62
238.858	129.62
239.091	123.62
239.325	126.62
239.559	121.62
239.793	121.62
240.027	119.62
240.26	137.62
240.494	145.62
240.728	140.62
240.961	154.62
241.195	127.62
241.429	137.62
241.662	131.62
241.896	139.62
242.13	125.62
242.363	133.62
242.597	137.62
242.83	129.62
243.064	133.62
243.298	136.62
243.531	123.62
243.765	132.62
243.998	128.62
244.232	142.62
244.465	144.62
244.699	135.62
244.932	149.62
245.166	146.62
245.399	138.62
245.633	145.62
245.866	132.62
246.099	160.62
246.333	153.62
246.566	159.62
246.8	162.62
247.033	162.62
247.266	152.62
247.5	159.62
247.733	163.62
247.966	169.62
248.2	164.62
248.433	156.62
248.666	154.62
248.899	179.62
249.133	171.62
249.366	195.62
249.599	191.62
249.832	185.62
250.066	161.62
250.299	172.62
250.532	185.62
250.765	177.62
250.998	206.62
251.231	207.62
251.465	200.62
251.698	185.62
251.931	194.62
252.164	185.62
252.397	182.62
252.63	181.62
252.863	193.62
253.096	208.62
253.329	196.62
253.562	206.62
253.795	211.62
254.028	191.62
254.261	204.62
254.494	215.62
254.727	203.62
254.96	253.62
255.193	245.62
255.426	242.62
255.659	211.62
255.892	228.62
256.124	210.62
256.357	213.62
256.59	197.62
256.823	206.62
257.056	205.62
257.289	199.62
257.521	208.62
257.754	198.62
257.987	201.62
258.22	196.62
258.452	218.62
258.685	199.62
258.918	187.62
259.151	209.62
259.383	230.62
259.616	202.62
259.849	217.62
260.081	209.62
260.314	237.62
260.547	250.62
260.779	217.62
261.012	210.62
261.244	211.62
261.477	212.62
261.71	221.62
261.942	214.62
262.175	226.62
262.407	221.62
262.64	216.62
262.872	210.62
263.105	218.62
263.337	211.62
263.57	218.62
263.802	211.62
264.035	218.62
264.267	219.62
264.499	204.62
264.732	211.62
264.964	199.62
265.197	217.62
265.429	229.62
265.661	212.62
265.894	225.62
266.126	209.62
266.358	228.62
266.591	216.62
266.823	225.62
267.055	217.62
267.287	225.62
267.52	223.62
267.752	234.62
267.984	239.62
268.216	254.62
268.448	250.62
268.681	242.62
268.913	246.62
269.145	277.62
269.377	272.62
269.609	276.62
269.841	260.62
270.073	251.62
270.306	299.62
270.538	287.62
270.77	286.62
271.002	277.62
271.234	279.62
271.466	294.62
271.698	294.62
271.93	305.62
272.162	309.62
272.394	320.62
272.626	310.62
272.858	285.62
273.09	261.62
273.322	279.62
273.553	272.62
273.785	252.62
274.017	259.62
274.249	255.62
274.481	271.62
274.713	265.62
274.945	266.62
275.176	268.62
275.408	248.62
275.64	263.62
275.872	263.62
276.104	251.62
276.335	271.62
276.567	273.62
276.799	267.62
277.031	283.62
277.262	275.62
277.494	316.62
277.726	311.62
277.957	286.62
278.189	278.62
278.421	274.62
278.652	273.62
278.884	281.62
279.115	268.62
279.347	268.62
279.579	266.62
279.81	275.62
280.042	278.62
280.273	280.62
280.505	285.62
280.736	275.62
280.968	271.62
281.199	262.62
281.431	263.62
281.662	283.62
281.894	288.62
282.125	261.62
282.356	288.62
282.588	293.62
282.819	294.62
283.051	292.62
283.282	275.62
283.513	274.62
283.745	292.62
283.976	293.62
284.207	278.62
284.439	301.62
284.67	295.62
284.901	294.62
285.132	290.62
285.364	300.62
285.595	313.62
285.826	289.62
286.057	305.62
286.288	291.62
286.52	304.62
286.751	305.62
286.982	300.62
287.213	283.62
287.444	299.62
287.675	307.62
287.906	311.62
288.138	308.62
288.369	319.62
288.6	313.62
288.831	293.62
289.062	313.62
289.293	319.62
289.524	309.62
289.755	298.62
289.986	284.62
290.217	314.62
290.448	305.62
290.679	305.62
290.91	284.62
291.141	305.62
291.371	305.62
291.602	315.62
291.833	309.62
292.064	296.62
292.295	313.62
292.526	307.62
292.757	309.62
292.987	298.62
293.218	309.62
293.449	323.62
293.68	307.62
293.91	300.62
294.141	324.62
294.372	297.62
294.603	301.62
294.833	318.62
295.064	307.62
295.295	332.62
295.525	313.62
295.756	316.62
295.987	301.62
296.217	349.62
296.448	341.62
296.679	311.62
296.909	302.62
297.14	318.62
297.37	328.62
297.601	319.62
297.831	324.62
298.062	315.62
298.292	318.62
298.523	329.62
298.753	336.62
298.984	342.62
299.214	317.62
299.445	316.62
299.675	341.62
299.905	333.62
300.136	335.62
300.366	320.62
300.597	322.62
300.827	337.62
301.057	345.62
301.288	349.62
301.518	350.62
301.748	340.62
301.979	323.62
302.209	343.62
302.439	353.62
302.669	346.62
302.9	338.62
303.13	337.62
303.36	346.62
303.59	359.62
303.82	343.62
304.051	353.62
304.281	378.62
304.511	335.62
304.741	351.62
304.971	332.62
305.201	354.62
305.431	334.62
305.661	358.62
305.891	349.62
306.121	356.62
306.352	354.62
306.582	329.62
306.812	347.62
307.042	342.62
307.272	349.62
307.502	344.62
307.731	332.62
307.961	335.62
308.191	343.62
308.421	332.62
308.651	354.62
308.881	341.62
309.111	361.62
309.341	353.62
309.571	343.62
309.8	360.62
310.03	383.62
310.26	381.62
310.49	377.62
310.72	402.62
310.949	381.62
311.179	390.62
311.409	390.62
311.639	394.62
311.868	375.62
312.098	387.62
312.328	394.62
312.557	383.62
312.787	390.62
313.017	407.62
313.246	423.62
313.476	386.62
313.706	378.62
313.935	390.62
314.165	395.62
314.394	402.62
314.624	414.62
314.853	405.62
315.083	383.62
315.312	374.62
315.542	383.62
315.771	372.62
316.001	384.62
316.23	382.62
316.46	379.62
316.689	392.62
316.919	386.62
317.148	391.62
317.377	393.62
317.607	380.62
317.836	376.62
318.065	385.62
318.295	373.62
318.524	396.62
318.753	366.62
318.983	362.62
319.212	392.62
319.441	385.62
319.67	388.62
319.9	394.62
320.129	391.62
320.358	387.62
320.587	398.62
320.816	379.62
321.046	385.62
321.275	381.62
321.504	396.62
321.733	406.62
321.962	361.62
322.191	413.62
322.42	421.62
322.649	428.62
322.878	442.62
323.108	449.62
323.337	474.62
323.566	441.62
323.795	470.62
324.024	515.62
324.253	578.62
324.482	778.62
324.71	1170.62
324.939	1637.62
325.168	1441.62
325.397	800.62
325.626	550.62
325.855	504.62
326.084	475.62
326.313	477.62
326.542	493.62
326.77	494.62
326.999	566.62
327.228	725.62
327.457	1037.62
327.686	1236.62
327.914	873.62
328.143	617.62
328.372	550.62
328.6	517.62
328.829	485.62
329.058	520.62
329.287	548.62
329.515	499.62
329.744	491.62
329.972	462.62
330.201	482.62
330.43	502.62
330.658	547.62
330.887	556.62
331.115	534.62
331.344	485.62
331.572	460.62
331.801	470.62
332.03	477.62
332.258	473.62
332.486	457.62
332.715	453.62
332.943	486.62
333.172	508.62
333.4	508.62
333.629	505.62
333.857	481.62
334.085	535.62
334.314	528.62
334.542	549.62
334.771	545.62
334.999	525.62
335.227	499.62
335.455	490.62
335.684	481.62
335.912	455.62
336.14	476.62
336.369	462.62
336.597	468.62
336.825	483.62
337.053	476.62
337.281	455.62
337.51	476.62
337.738	473.62
337.966	459.62
338.194	451.62
338.422	470.62
338.65	470.62
338.878	434.62
339.106	419.62
339.334	441.62
339.562	457.62
339.79	444.62
340.018	455.62
340.246	433.62
340.474	437.62
340.702	447.62
340.93	421.62
341.158	441.62
341.386	443.62
341.614	437.62
341.842	467.62
342.07	433.62
342.298	439.62
342.526	430.62
342.754	442.62
342.981	424.62
343.209	429.62
343.437	444.62
343.665	448.62
343.893	478.62
344.12	500.62
344.348	478.62
344.576	459.62
344.804	487.62
345.031	462.62
345.259	448.62
345.487	447.62
345.714	440.62
345.942	413.62
346.17	440.62
346.397	442.62
346.625	439.62
346.853	422.62
347.08	404.62
347.308	422.62
347.535	427.62
347.763	429.62
347.99	422.62
348.218	446.62
348.445	422.62
348.673	446.62
348.9	395.62
349.128	433.62
349.355	405.62
349.583	419.62
349.81	423.62
350.037	418.62
350.265	434.62
350.492	396.62
350.72	405.62
350.947	412.62
351.174	409.62
351.402	438.62
351.629	429.62
351.856	418.62
352.083	412.62
352.311	404.62
352.538	429.62
352.765	431.62
352.992	415.62
353.22	410.62
353.447	432.62
353.674	433.62
353.901	414.62
354.128	420.62
354.355	424.62
354.583	405.62
354.81	397.62
355.037	419.62
355.264	391.62
355.491	406.62
355.718	398.62
355.945	393.62
356.172	412.62
356.399	405.62
356.626	394.62
356.853	414.62
357.08	389.62
357.307	414.62
357.534	431.62
357.761	415.62
357.988	398.62
358.215	381.62
358.441	393.62
358.668	408.62
358.895	416.62
359.122	410.62
359.349	426.62
359.576	420.62
359.802	430.62
360.029	459.62
360.256	454.62
360.483	441.62
360.709	457.62
360.936	398.62
361.163	383.62
361.39	413.62
361.616	425.62
361.843	418.62
362.07	412.62
362.296	436.62
362.523	403.62
362.749	435.62
362.976	404.62
363.203	402.62
363.429	376.62
363.656	422.62
363.882	403.62
364.109	422.62
364.335	411.62
364.562	421.62
364.788	405.62
365.015	418.62
365.241	403.62
365.468	391.62
365.694	415.62
365.92	406.62
366.147	407.62
366.373	413.62
366.599	403.62
366.826	412.62
367.052	412.62
367.278	409.62
367.505	421.62
367.731	413.62
367.957	403.62
368.184	405.62
368.41	395.62
368.636	417.62
368.862	417.62
369.089	408.62
369.315	404.62
369.541	426.62
369.767	413.62
369.993	392.62
370.219	407.62
370.445	427.62
370.672	421.62
370.898	407.62
371.124	402.62
371.35	402.62
371.576	422.62
371.802	410.62
372.028	415.62
372.254	396.62
372.48	404.62
372.706	416.62
372.932	454.62
373.158	431.62
373.384	419.62
373.61	418.62
373.835	417.62
374.061	407.62
374.287	420.62
374.513	419.62
374.739	422.62
374.965	437.62
375.191	444.62
375.416	437.62
375.642	425.62
375.868	420.62
376.094	400.62
376.319	398.62
376.545	399.62
376.771	417.62
376.997	430.62
377.222	398.62
377.448	425.62
377.674	425.62
377.899	408.62
378.125	407.62
378.35	421.62
378.576	398.62
378.802	409.62
379.027	416.62
379.253	431.62
379.478	422.62
379.704	392.62
379.929	409.62
380.155	413.62
380.38	447.62
380.606	438.62
380.831	424.62
381.057	413.62
381.282	404.62
381.507	453.62
381.733	412.62
381.958	409.62
382.184	412.62
382.409	423.62
382.634	409.62
382.86	431.62
383.085	446.62
383.31	443.62
383.535	438.62
383.761	442.62
383.986	464.62
384.211	456.62
384.436	443.62
384.662	446.62
384.887	458.62
385.112	457.62
385.337	462.62
385.562	477.62
385.787	467.62
386.013	475.62
386.238	490.62
386.463	467.62
386.688	472.62
386.913	482.62
387.138	484.62
387.363	469.62
387.588	486.62
387.813	478.62
388.038	467.62
388.263	461.62
388.488	495.62
388.713	450.62
388.938	461.62
389.163	487.62
389.387	480.62
389.612	470.62
389.837	447.62
390.062	475.62
390.287	491.62
390.512	473.62
390.736	487.62
390.961	477.62
391.186	462.62
391.411	467.62
391.636	498.62
391.86	487.62
392.085	501.62
392.31	499.62
392.534	493.62
392.759	498.62
392.984	482.62
393.208	492.62
393.433	486.62
393.658	470.62
393.882	484.62
394.107	515.62
394.331	507.62
394.556	473.62
394.78	483.62
395.005	499.62
395.229	493.62
395.454	485.62
395.678	519.62
395.903	511.62
396.127	518.62
396.352	507.62
396.576	506.62
396.801	504.62
397.025	505.62
397.249	527.62
397.474	539.62
397.698	532.62
397.922	546.62
398.147	539.62
398.371	562.62
398.595	554.62
398.82	566.62
399.044	575.62
399.268	591.62
399.492	628.62
399.717	689.62
399.941	734.62
400.165	684.62
400.389	678.62
400.613	646.62
400.837	590.62
401.062	585.62
401.286	571.62
401.51	564.62
401.734	541.62
401.958	559.62
402.182	547.62
402.406	572.62
402.63	561.62
402.854	567.62
403.078	579.62
403.302	612.62
403.526	604.62
403.75	612.62
403.974	578.62
404.198	589.62
404.422	596.62
404.645	596.62
404.869	604.62
405.093	627.62
405.317	668.62
405.541	676.62
405.765	640.62
405.988	618.62
406.212	609.62
406.436	596.62
406.66	622.62
406.883	606.62
407.107	653.62
407.331	703.62
407.555	774.62
407.778	757.62
408.002	716.62
408.226	641.62
408.449	627.62
408.673	648.62
408.896	663.62
409.12	671.62
409.344	661.62
409.567	628.62
409.791	629.62
410.014	592.62
410.238	620.62
410.461	613.62
410.685	596.62
410.908	604.62
411.132	601.62
411.355	645.62
411.578	620.62
411.802	565.62
412.025	573.62
412.249	574.62
412.472	592.62
412.695	641.62
412.919	617.62
413.142	591.62
413.365	583.62
413.589	546.62
413.812	567.62
414.035	551.62
414.258	540.62
414.482	563.62
414.705	565.62
414.928	521.62
415.151	548.62
415.374	558.62
415.597	547.62
415.821	545.62
416.044	531.62
416.267	556.62
416.49	550.62
416.713	547.62
416.936	536.62
417.159	539.62
417.382	531.62
417.605	566.62
417.828	545.62
418.051	571.62
418.274	585.62
418.497	551.62
418.72	535.62
418.943	550.62
419.166	574.62
419.389	613.62
419.611	622.62
419.834	594.62
420.057	586.62
420.28	563.62
420.503	581.62
420.726	572.62
420.948	586.62
421.171	599.62
421.394	649.62
421.617	587.62
421.839	552.62
422.062	584.62
422.285	576.62
422.507	625.62
422.73	692.62
422.953	678.62
423.175	607.62
423.398	594.62
423.621	578.62
423.843	583.62
424.066	582.62
424.288	573.62
424.511	617.62
424.733	673.62
424.956	707.62
425.178	679.62
425.401	687.62
425.623	717.62
425.846	645.62
426.068	588.62
426.291	579.62
426.513	593.62
426.735	589.62
426.958	646.62
427.18	667.62
427.402	774.62
427.625	833.62
427.847	755.62
428.069	643.62
428.292	603.62
428.514	558.62
428.736	557.62
428.958	541.62
429.181	538.62
429.403	524.62
429.625	544.62
429.847	572.62
430.069	609.62
430.292	614.62
430.514	541.62
430.736	542.62
430.958	539.62
431.18	534.62
431.402	508.62
431.624	516.62
431.846	518.62
432.068	500.62
432.29	536.62
432.512	518.62
432.734	540.62
432.956	530.62
433.178	546.62
433.4	518.62
433.622	507.62
433.844	522.62
434.066	507.62
434.287	522.62
434.509	522.62
434.731	568.62
434.953	562.62
435.175	572.62
435.397	589.62
435.618	576.62
435.84	615.62
436.062	665.62
436.284	725.62
436.505	627.62
436.727	571.62
436.949	565.62
437.17	540.62
437.392	526.62
437.614	551.62
437.835	575.62
438.057	635.62
438.278	736.62
438.5	737.62
438.721	780.62
438.943	753.62
439.165	619.62
439.386	577.62
439.608	577.62
439.829	581.62
440.05	589.62
440.272	607.62
440.493	598.62
440.715	598.62
440.936	555.62
441.158	552.62
441.379	561.62
441.6	553.62
441.822	585.62
442.043	616.62
442.264	645.62
442.486	697.62
442.707	619.62
442.928	619.62
443.149	604.62
443.371	607.62
443.592	651.62
443.813	738.62
444.034	788.62
444.255	671.62
444.476	610.62
444.698	600.62
444.919	599.62
445.14	740.62
445.361	675.62
445.582	621.62
445.803	655.62
446.024	739.62
446.245	753.62
446.466	681.62
446.687	591.62
446.908	575.62
447.129	555.62
447.35	524.62
447.571	527.62
447.792	515.62
448.013	508.62
448.234	527.62
448.455	591.62
448.675	672.62
448.896	770.62
449.117	667.62
449.338	636.62
449.559	726.62
449.779	787.62
450	676.62
450.221	550.62
450.442	501.62
450.662	516.62
450.883	516.62
451.104	504.62
451.324	515.62
451.545	495.62
451.766	468.62
451.986	487.62
452.207	478.62
452.428	471.62
452.648	466.62
452.869	471.62
453.089	492.62
453.31	487.62
453.53	473.62
453.751	485.62
453.971	476.62
454.192	479.62
454.412	449.62
454.633	473.62
454.853	457.62
455.073	463.62
455.294	487.62
455.514	551.62
455.734	559.62
455.955	471.62
456.175	457.62
456.395	449.62
456.616	441.62
456.836	462.62
457.056	445.62
457.276	435.62
457.497	447.62
457.717	464.62
457.937	469.62
458.157	477.62
458.377	485.62
458.598	503.62
458.818	539.62
459.038	578.62
459.258	601.62
459.478	573.62
459.698	552.62
459.918	517.62
460.138	538.62
460.358	537.62
460.578	556.62
460.798	552.62
461.018	556.62
461.238	567.62
461.458	546.62
461.678	540.62
461.898	582.62
462.118	573.62
462.338	584.62
462.558	586.62
462.777	578.62
462.997	609.62
463.217	632.62
463.437	639.62
463.657	616.62
463.876	613.62
464.096	602.62
464.316	600.62
464.536	621.62
464.755	602.62
464.975	591.62
465.195	611.62
465.414	625.62
465.634	569.62
465.854	551.62
466.073	513.62
466.293	513.62
466.512	513.62
466.732	505.62
466.951	507.62
467.171	489.62
467.391	486.62
467.61	493.62
467.829	493.62
468.049	517.62
468.268	485.62
468.488	494.62
468.707	489.62
468.927	488.62
469.146	469.62
469.365	471.62
469.585	477.62
469.804	492.62
470.023	503.62
470.243	501.62
470.462	514.62
470.681	527.62
470.901	521.62
471.12	504.62
471.339	517.62
471.558	492.62
471.777	515.62
471.997	513.62
472.216	511.62
472.435	560.62
472.654	501.62
472.873	485.62
473.092	493.62
473.311	488.62
473.53	515.62
473.749	491.62
473.968	541.62
474.187	613.62
474.406	635.62
474.625	540.62
474.844	485.62
475.063	482.62
475.282	494.62
475.501	506.62
475.72	515.62
475.939	507.62
476.158	494.62
476.377	498.62
476.596	501.62
476.814	515.62
477.033	520.62
477.252	521.62
477.471	539.62
477.69	520.62
477.908	528.62
478.127	547.62
478.346	563.62
478.564	565.62
478.783	570.62
479.002	570.62
479.22	595.62
479.439	587.62
479.658	574.62
479.876	602.62
480.095	611.62
480.313	617.62
480.532	620.62
480.751	623.62
480.969	638.62
481.188	659.62
481.406	678.62
481.624	639.62
481.843	587.62
482.061	597.62
482.28	587.62
482.498	565.62
482.717	562.62
482.935	571.62
483.153	584.62
483.372	573.62
483.59	569.62
483.808	575.62
484.027	559.62
484.245	592.62
484.463	577.62
484.681	594.62
484.9	583.62
485.118	605.62
485.336	612.62
485.554	608.62
485.772	588.62
485.99	575.62
486.209	597.62
486.427	607.62
486.645	591.62
486.863	613.62
487.081	605.62
487.299	614.62
487.517	629.62
487.735	611.62
487.953	628.62
488.171	601.62
488.389	601.62
488.607	618.62
488.825	605.62
489.043	612.62
489.261	610.62
489.479	619.62
489.696	632.62
489.914	633.62
490.132	653.62
490.35	630.62
490.568	635.62
490.786	645.62
491.003	660.62
491.221	667.62
491.439	676.62
491.657	657.62
491.874	678.62
492.092	671.62
492.31	669.62
492.527	658.62
492.745	685.62
492.963	694.62
493.18	717.62
493.398	710.62
493.615	688.62
493.833	713.62
494.05	698.62
494.268	706.62
494.485	691.62
494.703	701.62
494.92	719.62
495.138	693.62
495.355	702.62
495.573	729.62
495.79	700.62
496.008	712.62
496.225	718.62
496.442	725.62
496.66	713.62
496.877	702.62
497.094	706.62
497.312	738.62
497.529	753.62
497.746	757.62
497.963	769.62
498.181	817.62
498.398	827.62
498.615	828.62
498.832	867.62
499.049	926.62
499.267	953.62
499.484	978.62
499.701	1039.62
499.918	1083.62
500.135	1135.62
500.352	1227.62
500.569	1251.62
500.786	1268.62
501.003	1229.62
501.22	1194.62
501.437	1106.62
501.654	1039.62
501.871	1006.62
