Data from 1962.PennyLincolnUp.Lamp.En5.5.200Scan.071719.P1._HRD10591_13-53-35-060.txt Node
Date: Thu Jul 18 13:53:35 EDT 2019
User: cochatt
Spectrometer: HR+D1059
Trigger mode: 1
Integration Time (sec): 1.000000E-1
Scans to average: 1
Electric dark correction enabled: true
Nonlinearity correction enabled: false
Boxcar width: 0
XAxis mode: Wavelengths
Number of Pixels in Spectrum: 2048
>>>>>Begin Spectral Data<<<<<
223.165	-12.31
223.4	-12.31
223.635	-12.31
223.869	-24.31
224.104	-21.31
224.338	-12.31
224.573	1.69
224.808	-24.31
225.042	-10.31
225.277	1.69
225.511	-2.31
225.746	-7.31
225.98	8.69
226.215	3.69
226.449	11.69
226.683	31.69
226.918	21.69
227.152	33.69
227.387	50.69
227.621	30.69
227.856	52.69
228.09	38.69
228.324	42.69
228.559	58.69
228.793	59.69
229.027	85.69
229.262	86.69
229.496	90.69
229.73	100.69
229.964	135.69
230.199	98.69
230.433	94.69
230.667	112.69
230.901	103.69
231.136	103.69
231.37	103.69
231.604	111.69
231.838	105.69
232.072	104.69
232.306	99.69
232.541	91.69
232.775	109.69
233.009	98.69
233.243	104.69
233.477	119.69
233.711	95.69
233.945	106.69
234.179	107.69
234.413	110.69
234.647	117.69
234.881	116.69
235.115	119.69
235.349	119.69
235.583	111.69
235.817	110.69
236.051	117.69
236.285	112.69
236.519	123.69
236.753	123.69
236.987	129.69
237.221	151.69
237.455	170.69
237.689	149.69
237.922	138.69
238.156	130.69
238.39	113.69
238.624	118.69
238.858	118.69
239.091	118.69
239.325	109.69
239.559	121.69
239.793	121.69
240.027	122.69
240.26	117.69
240.494	127.69
240.728	127.69
240.961	124.69
241.195	141.69
241.429	117.69
241.662	116.69
241.896	132.69
242.13	108.69
242.363	121.69
242.597	120.69
242.83	119.69
243.064	128.69
243.298	142.69
243.531	125.69
243.765	119.69
243.998	131.69
244.232	120.69
244.465	138.69
244.699	128.69
244.932	143.69
245.166	135.69
245.399	140.69
245.633	140.69
245.866	146.69
246.099	127.69
246.333	137.69
246.566	134.69
246.8	129.69
247.033	141.69
247.266	149.69
247.5	134.69
247.733	160.69
247.966	152.69
248.2	154.69
248.433	140.69
248.666	154.69
248.899	156.69
249.133	166.69
249.366	162.69
249.599	157.69
249.832	163.69
250.066	153.69
250.299	170.69
250.532	155.69
250.765	176.69
250.998	179.69
251.231	183.69
251.465	184.69
251.698	174.69
251.931	173.69
252.164	173.69
252.397	166.69
252.63	157.69
252.863	171.69
253.096	163.69
253.329	184.69
253.562	180.69
253.795	198.69
254.028	195.69
254.261	159.69
254.494	183.69
254.727	197.69
254.96	208.69
255.193	216.69
255.426	194.69
255.659	202.69
255.892	218.69
256.124	182.69
256.357	186.69
256.59	182.69
256.823	194.69
257.056	185.69
257.289	183.69
257.521	173.69
257.754	176.69
257.987	186.69
258.22	188.69
258.452	178.69
258.685	189.69
258.918	184.69
259.151	183.69
259.383	175.69
259.616	196.69
259.849	189.69
260.081	215.69
260.314	208.69
260.547	219.69
260.779	197.69
261.012	202.69
261.244	201.69
261.477	203.69
261.71	203.69
261.942	216.69
262.175	209.69
262.407	190.69
262.64	185.69
262.872	199.69
263.105	189.69
263.337	198.69
263.57	198.69
263.802	179.69
264.035	179.69
264.267	198.69
264.499	193.69
264.732	194.69
264.964	199.69
265.197	185.69
265.429	205.69
265.661	203.69
265.894	204.69
266.126	203.69
266.358	202.69
266.591	205.69
266.823	225.69
267.055	201.69
267.287	205.69
267.52	202.69
267.752	200.69
267.984	208.69
268.216	211.69
268.448	217.69
268.681	208.69
268.913	225.69
269.145	219.69
269.377	246.69
269.609	237.69
269.841	234.69
270.073	230.69
270.306	258.69
270.538	249.69
270.77	252.69
271.002	254.69
271.234	253.69
271.466	258.69
271.698	269.69
271.93	245.69
272.162	256.69
272.394	270.69
272.626	253.69
272.858	243.69
273.09	260.69
273.322	257.69
273.553	230.69
273.785	228.69
274.017	238.69
274.249	243.69
274.481	240.69
274.713	248.69
274.945	251.69
275.176	243.69
275.408	242.69
275.64	256.69
275.872	250.69
276.104	253.69
276.335	234.69
276.567	241.69
276.799	250.69
277.031	261.69
277.262	263.69
277.494	287.69
277.726	260.69
277.957	256.69
278.189	258.69
278.421	257.69
278.652	254.69
278.884	247.69
279.115	225.69
279.347	265.69
279.579	251.69
279.81	261.69
280.042	260.69
280.273	251.69
280.505	222.69
280.736	250.69
280.968	257.69
281.199	262.69
281.431	253.69
281.662	269.69
281.894	252.69
282.125	260.69
282.356	276.69
282.588	270.69
282.819	282.69
283.051	272.69
283.282	280.69
283.513	282.69
283.745	282.69
283.976	251.69
284.207	263.69
284.439	272.69
284.67	259.69
284.901	283.69
285.132	284.69
285.364	268.69
285.595	261.69
285.826	271.69
286.057	281.69
286.288	265.69
286.52	282.69
286.751	265.69
286.982	279.69
287.213	275.69
287.444	281.69
287.675	282.69
287.906	306.69
288.138	291.69
288.369	280.69
288.6	298.69
288.831	285.69
289.062	295.69
289.293	299.69
289.524	283.69
289.755	280.69
289.986	279.69
290.217	286.69
290.448	287.69
290.679	288.69
290.91	278.69
291.141	291.69
291.371	289.69
291.602	287.69
291.833	291.69
292.064	304.69
292.295	294.69
292.526	291.69
292.757	297.69
292.987	298.69
293.218	299.69
293.449	292.69
293.68	290.69
293.91	294.69
294.141	291.69
294.372	309.69
294.603	295.69
294.833	290.69
295.064	285.69
295.295	296.69
295.525	307.69
295.756	289.69
295.987	281.69
296.217	275.69
296.448	306.69
296.679	294.69
296.909	282.69
297.14	306.69
297.37	313.69
297.601	287.69
297.831	313.69
298.062	281.69
298.292	292.69
298.523	290.69
298.753	309.69
298.984	285.69
299.214	284.69
299.445	320.69
299.675	296.69
299.905	301.69
300.136	304.69
300.366	292.69
300.597	303.69
300.827	305.69
301.057	301.69
301.288	318.69
301.518	305.69
301.748	327.69
301.979	327.69
302.209	329.69
302.439	331.69
302.669	329.69
302.9	322.69
303.13	327.69
303.36	310.69
303.59	334.69
303.82	323.69
304.051	326.69
304.281	330.69
304.511	319.69
304.741	335.69
304.971	315.69
305.201	324.69
305.431	303.69
305.661	329.69
305.891	315.69
306.121	316.69
306.352	321.69
306.582	349.69
306.812	339.69
307.042	319.69
307.272	315.69
307.502	314.69
307.731	324.69
307.961	329.69
308.191	321.69
308.421	340.69
308.651	301.69
308.881	321.69
309.111	334.69
309.341	345.69
309.571	358.69
309.8	344.69
310.03	339.69
310.26	317.69
310.49	346.69
310.72	340.69
310.949	340.69
311.179	334.69
311.409	347.69
311.639	352.69
311.868	354.69
312.098	334.69
312.328	345.69
312.557	344.69
312.787	355.69
313.017	361.69
313.246	381.69
313.476	346.69
313.706	350.69
313.935	376.69
314.165	361.69
314.394	350.69
314.624	373.69
314.853	365.69
315.083	351.69
315.312	350.69
315.542	363.69
315.771	356.69
316.001	347.69
316.23	344.69
316.46	373.69
316.689	350.69
316.919	355.69
317.148	354.69
317.377	349.69
317.607	371.69
317.836	342.69
318.065	351.69
318.295	355.69
318.524	356.69
318.753	360.69
318.983	357.69
319.212	355.69
319.441	365.69
319.67	359.69
319.9	365.69
320.129	343.69
320.358	359.69
320.587	365.69
320.816	356.69
321.046	348.69
321.275	346.69
321.504	347.69
321.733	353.69
321.962	370.69
322.191	357.69
322.42	377.69
322.649	388.69
322.878	383.69
323.108	381.69
323.337	396.69
323.566	432.69
323.795	426.69
324.024	426.69
324.253	495.69
324.482	617.69
324.71	891.69
324.939	1208.69
325.168	1102.69
325.397	615.69
325.626	489.69
325.855	434.69
326.084	437.69
326.313	401.69
326.542	390.69
326.77	449.69
326.999	501.69
327.228	594.69
327.457	799.69
327.686	946.69
327.914	709.69
328.143	517.69
328.372	471.69
328.6	453.69
328.829	450.69
329.058	427.69
329.287	458.69
329.515	439.69
329.744	436.69
329.972	428.69
330.201	423.69
330.43	461.69
330.658	477.69
330.887	464.69
331.115	465.69
331.344	447.69
331.572	408.69
331.801	439.69
332.03	421.69
332.258	419.69
332.486	413.69
332.715	438.69
332.943	450.69
333.172	450.69
333.4	447.69
333.629	465.69
333.857	480.69
334.085	501.69
334.314	477.69
334.542	468.69
334.771	488.69
334.999	469.69
335.227	450.69
335.455	461.69
335.684	458.69
335.912	435.69
336.14	422.69
336.369	423.69
336.597	440.69
336.825	423.69
337.053	431.69
337.281	433.69
337.51	413.69
337.738	432.69
337.966	425.69
338.194	441.69
338.422	426.69
338.65	431.69
338.878	421.69
339.106	392.69
339.334	412.69
339.562	403.69
339.79	394.69
340.018	421.69
340.246	408.69
340.474	396.69
340.702	413.69
340.93	407.69
341.158	409.69
341.386	419.69
341.614	410.69
341.842	402.69
342.07	400.69
342.298	393.69
342.526	403.69
342.754	402.69
342.981	401.69
343.209	415.69
343.437	405.69
343.665	437.69
343.893	450.69
344.12	445.69
344.348	424.69
344.576	424.69
344.804	429.69
345.031	413.69
345.259	423.69
345.487	421.69
345.714	399.69
345.942	412.69
346.17	404.69
346.397	390.69
346.625	399.69
346.853	393.69
347.08	384.69
347.308	405.69
347.535	411.69
347.763	400.69
347.99	390.69
348.218	393.69
348.445	409.69
348.673	390.69
348.9	381.69
349.128	390.69
349.355	383.69
349.583	374.69
349.81	401.69
350.037	377.69
350.265	377.69
350.492	382.69
350.72	374.69
350.947	377.69
351.174	393.69
351.402	387.69
351.629	377.69
351.856	394.69
352.083	392.69
352.311	385.69
352.538	391.69
352.765	409.69
352.992	383.69
353.22	397.69
353.447	364.69
353.674	380.69
353.901	377.69
354.128	384.69
354.355	368.69
354.583	369.69
354.81	381.69
355.037	377.69
355.264	362.69
355.491	389.69
355.718	369.69
355.945	378.69
356.172	373.69
356.399	390.69
356.626	379.69
356.853	374.69
357.08	371.69
357.307	383.69
357.534	374.69
357.761	357.69
357.988	391.69
358.215	381.69
358.441	367.69
358.668	379.69
358.895	388.69
359.122	394.69
359.349	386.69
359.576	355.69
359.802	395.69
360.029	411.69
360.256	394.69
360.483	413.69
360.709	389.69
360.936	369.69
361.163	381.69
361.39	394.69
361.616	408.69
361.843	381.69
362.07	377.69
362.296	393.69
362.523	388.69
362.749	359.69
362.976	373.69
363.203	383.69
363.429	372.69
363.656	376.69
363.882	377.69
364.109	374.69
364.335	379.69
364.562	367.69
364.788	372.69
365.015	383.69
365.241	377.69
365.468	373.69
365.694	388.69
365.92	385.69
366.147	387.69
366.373	380.69
366.599	377.69
366.826	367.69
367.052	387.69
367.278	373.69
367.505	395.69
367.731	391.69
367.957	384.69
368.184	381.69
368.41	393.69
368.636	399.69
368.862	393.69
369.089	392.69
369.315	378.69
369.541	373.69
369.767	383.69
369.993	375.69
370.219	403.69
370.445	392.69
370.672	385.69
370.898	376.69
371.124	369.69
371.35	373.69
371.576	386.69
371.802	383.69
372.028	388.69
372.254	399.69
372.48	385.69
372.706	400.69
372.932	383.69
373.158	408.69
373.384	399.69
373.61	408.69
373.835	405.69
374.061	396.69
374.287	392.69
374.513	401.69
374.739	414.69
374.965	410.69
375.191	429.69
375.416	403.69
375.642	396.69
375.868	403.69
376.094	408.69
376.319	404.69
376.545	387.69
376.771	410.69
376.997	389.69
377.222	395.69
377.448	400.69
377.674	377.69
377.899	400.69
378.125	389.69
378.35	365.69
378.576	407.69
378.802	385.69
379.027	394.69
379.253	390.69
379.478	391.69
379.704	403.69
379.929	386.69
380.155	384.69
380.38	399.69
380.606	410.69
380.831	392.69
381.057	394.69
381.282	382.69
381.507	410.69
381.733	403.69
381.958	413.69
382.184	390.69
382.409	404.69
382.634	426.69
382.86	412.69
383.085	443.69
383.31	405.69
383.535	420.69
383.761	439.69
383.986	415.69
384.211	425.69
384.436	418.69
384.662	425.69
384.887	458.69
385.112	419.69
385.337	433.69
385.562	441.69
385.787	429.69
386.013	427.69
386.238	439.69
386.463	469.69
386.688	438.69
386.913	462.69
387.138	431.69
387.363	438.69
387.588	439.69
387.813	446.69
388.038	427.69
388.263	447.69
388.488	461.69
388.713	446.69
388.938	457.69
389.163	435.69
389.387	424.69
389.612	429.69
389.837	449.69
390.062	444.69
390.287	428.69
390.512	437.69
390.736	455.69
390.961	455.69
391.186	445.69
391.411	468.69
391.636	451.69
391.86	452.69
392.085	474.69
392.31	490.69
392.534	462.69
392.759	470.69
392.984	479.69
393.208	453.69
393.433	457.69
393.658	471.69
393.882	463.69
394.107	442.69
394.331	463.69
394.556	460.69
394.78	491.69
395.005	463.69
395.229	483.69
395.454	488.69
395.678	481.69
395.903	479.69
396.127	484.69
396.352	492.69
396.576	479.69
396.801	481.69
397.025	470.69
397.249	479.69
397.474	472.69
397.698	488.69
397.922	505.69
398.147	511.69
398.371	505.69
398.595	512.69
398.82	523.69
399.044	554.69
399.268	575.69
399.492	597.69
399.717	679.69
399.941	677.69
400.165	660.69
400.389	654.69
400.613	600.69
400.837	566.69
401.062	547.69
401.286	548.69
401.51	524.69
401.734	534.69
401.958	539.69
402.182	523.69
402.406	537.69
402.63	521.69
402.854	528.69
403.078	547.69
403.302	573.69
403.526	557.69
403.75	550.69
403.974	557.69
404.198	564.69
404.422	568.69
404.645	581.69
404.869	567.69
405.093	613.69
405.317	615.69
405.541	628.69
405.765	580.69
405.988	563.69
406.212	574.69
406.436	593.69
406.66	575.69
406.883	595.69
407.107	615.69
407.331	652.69
407.555	695.69
407.778	697.69
408.002	658.69
408.226	634.69
408.449	582.69
408.673	570.69
408.896	605.69
409.12	636.69
409.344	609.69
409.567	587.69
409.791	564.69
410.014	547.69
410.238	569.69
410.461	547.69
410.685	547.69
410.908	535.69
411.132	569.69
411.355	598.69
411.578	574.69
411.802	547.69
412.025	557.69
412.249	560.69
412.472	555.69
412.695	579.69
412.919	550.69
413.142	531.69
413.365	535.69
413.589	544.69
413.812	519.69
414.035	540.69
414.258	542.69
414.482	526.69
414.705	533.69
414.928	523.69
415.151	529.69
415.374	506.69
415.597	528.69
415.821	520.69
416.044	509.69
416.267	499.69
416.49	533.69
416.713	507.69
416.936	519.69
417.159	501.69
417.382	528.69
417.605	520.69
417.828	527.69
418.051	517.69
418.274	523.69
418.497	512.69
418.72	523.69
418.943	532.69
419.166	541.69
419.389	562.69
419.611	540.69
419.834	545.69
420.057	532.69
420.28	519.69
420.503	527.69
420.726	502.69
420.948	531.69
421.171	559.69
421.394	574.69
421.617	536.69
421.839	515.69
422.062	522.69
422.285	520.69
422.507	565.69
422.73	623.69
422.953	587.69
423.175	554.69
423.398	564.69
423.621	529.69
423.843	573.69
424.066	566.69
424.288	573.69
424.511	566.69
424.733	618.69
424.956	669.69
425.178	615.69
425.401	606.69
425.623	631.69
425.846	563.69
426.068	529.69
426.291	536.69
426.513	544.69
426.735	559.69
426.958	546.69
427.18	604.69
427.402	691.69
427.625	754.69
427.847	643.69
428.069	580.69
428.292	579.69
428.514	511.69
428.736	515.69
428.958	490.69
429.181	490.69
429.403	489.69
429.625	488.69
429.847	512.69
430.069	557.69
430.292	562.69
430.514	490.69
430.736	487.69
430.958	494.69
431.18	485.69
431.402	511.69
431.624	473.69
431.846	493.69
432.068	478.69
432.29	513.69
432.512	485.69
432.734	493.69
432.956	458.69
433.178	486.69
433.4	486.69
433.622	496.69
433.844	511.69
434.066	490.69
434.287	493.69
434.509	511.69
434.731	519.69
434.953	513.69
435.175	513.69
435.397	530.69
435.618	538.69
435.84	549.69
436.062	604.69
436.284	655.69
436.505	596.69
436.727	513.69
436.949	509.69
437.17	501.69
437.392	505.69
437.614	489.69
437.835	502.69
438.057	569.69
438.278	637.69
438.5	610.69
438.721	687.69
438.943	688.69
439.165	571.69
439.386	527.69
439.608	528.69
439.829	528.69
440.05	528.69
440.272	558.69
440.493	530.69
440.715	515.69
440.936	511.69
441.158	506.69
441.379	502.69
441.6	527.69
441.822	532.69
442.043	562.69
442.264	621.69
442.486	645.69
442.707	591.69
442.928	543.69
443.149	543.69
443.371	554.69
443.592	575.69
443.813	655.69
444.034	704.69
444.255	617.69
444.476	596.69
444.698	585.69
444.919	573.69
445.14	702.69
445.361	639.69
445.582	581.69
445.803	598.69
446.024	645.69
446.245	645.69
446.466	607.69
446.687	533.69
446.908	533.69
447.129	503.69
447.35	506.69
447.571	484.69
447.792	509.69
448.013	469.69
448.234	483.69
448.455	518.69
448.675	625.69
448.896	670.69
449.117	597.69
449.338	549.69
449.559	597.69
449.779	704.69
450	577.69
450.221	499.69
450.442	491.69
450.662	476.69
450.883	463.69
451.104	476.69
451.324	467.69
451.545	459.69
451.766	454.69
451.986	439.69
452.207	443.69
452.428	460.69
452.648	442.69
452.869	447.69
453.089	443.69
453.31	472.69
453.53	433.69
453.751	431.69
453.971	429.69
454.192	463.69
454.412	432.69
454.633	438.69
454.853	445.69
455.073	420.69
455.294	450.69
455.514	473.69
455.734	487.69
455.955	433.69
456.175	427.69
456.395	399.69
456.616	425.69
456.836	415.69
457.056	421.69
457.276	425.69
457.497	439.69
457.717	431.69
457.937	430.69
458.157	427.69
458.377	424.69
458.598	453.69
458.818	480.69
459.038	523.69
459.258	545.69
459.478	483.69
459.698	483.69
459.918	484.69
460.138	472.69
460.358	515.69
460.578	518.69
460.798	508.69
461.018	529.69
461.238	501.69
461.458	537.69
461.678	517.69
461.898	515.69
462.118	498.69
462.338	531.69
462.558	551.69
462.777	558.69
462.997	593.69
463.217	588.69
463.437	596.69
463.657	598.69
463.876	589.69
464.096	578.69
464.316	557.69
464.536	582.69
464.755	538.69
464.975	551.69
465.195	564.69
465.414	561.69
465.634	525.69
465.854	507.69
466.073	484.69
466.293	497.69
466.512	475.69
466.732	466.69
466.951	478.69
467.171	447.69
467.391	459.69
467.61	467.69
467.829	492.69
468.049	465.69
468.268	449.69
468.488	455.69
468.707	468.69
468.927	441.69
469.146	461.69
469.365	447.69
469.585	459.69
469.804	456.69
470.023	446.69
470.243	476.69
470.462	488.69
470.681	504.69
470.901	493.69
471.12	473.69
471.339	448.69
471.558	483.69
471.777	455.69
471.997	464.69
472.216	458.69
472.435	460.69
472.654	467.69
472.873	451.69
473.092	458.69
473.311	455.69
473.53	462.69
473.749	455.69
473.968	479.69
474.187	541.69
474.406	550.69
474.625	481.69
474.844	475.69
475.063	455.69
475.282	466.69
475.501	450.69
475.72	488.69
475.939	463.69
476.158	463.69
476.377	505.69
476.596	455.69
476.814	487.69
477.033	496.69
477.252	482.69
477.471	502.69
477.69	513.69
477.908	516.69
478.127	524.69
478.346	521.69
478.564	531.69
478.783	533.69
479.002	543.69
479.22	539.69
479.439	533.69
479.658	572.69
479.876	549.69
480.095	578.69
480.313	591.69
480.532	588.69
480.751	584.69
480.969	575.69
481.188	595.69
481.406	630.69
481.624	608.69
481.843	562.69
482.061	554.69
482.28	551.69
482.498	525.69
482.717	522.69
482.935	524.69
483.153	545.69
483.372	544.69
483.59	544.69
483.808	544.69
484.027	534.69
484.245	553.69
484.463	534.69
484.681	565.69
484.9	539.69
485.118	561.69
485.336	552.69
485.554	568.69
485.772	541.69
485.99	555.69
486.209	575.69
486.427	556.69
486.645	561.69
486.863	569.69
487.081	581.69
487.299	553.69
487.517	567.69
487.735	571.69
487.953	558.69
488.171	582.69
488.389	592.69
488.607	583.69
488.825	573.69
489.043	582.69
489.261	566.69
489.479	561.69
489.696	578.69
489.914	579.69
490.132	552.69
490.35	602.69
490.568	586.69
490.786	608.69
491.003	592.69
491.221	608.69
491.439	594.69
491.657	610.69
491.874	600.69
492.092	623.69
492.31	617.69
492.527	621.69
492.745	645.69
492.963	645.69
493.18	642.69
493.398	645.69
493.615	631.69
493.833	634.69
494.05	637.69
494.268	649.69
494.485	645.69
494.703	641.69
494.92	635.69
495.138	637.69
495.355	652.69
495.573	641.69
495.79	651.69
496.008	648.69
496.225	682.69
496.442	652.69
496.66	673.69
496.877	657.69
497.094	700.69
497.312	694.69
497.529	700.69
497.746	674.69
497.963	716.69
498.181	744.69
498.398	754.69
498.615	783.69
498.832	802.69
499.049	851.69
499.267	878.69
499.484	943.69
499.701	969.69
499.918	1035.69
500.135	1089.69
500.352	1140.69
500.569	1186.69
500.786	1211.69
501.003	1173.69
501.22	1099.69
501.437	1080.69
501.654	1007.69
501.871	943.69
502.088	897.69
