Data from 1962.PennyLincolnUp.Lamp.En5.5.200Scan.071719.P1._HRD10591_13-54-50-061.txt Node
Date: Thu Jul 18 13:54:50 EDT 2019
User: cochatt
Spectrometer: HR+D1059
Trigger mode: 1
Integration Time (sec): 1.000000E-1
Scans to average: 1
Electric dark correction enabled: true
Nonlinearity correction enabled: false
Boxcar width: 0
XAxis mode: Wavelengths
Number of Pixels in Spectrum: 2048
>>>>>Begin Spectral Data<<<<<
223.165	-23.75
223.4	-23.75
223.635	-23.75
223.869	-0.75
224.104	-19.75
224.338	-4.75
224.573	-17.75
224.808	-19.75
225.042	-9.75
225.277	-18.75
225.511	-10.75
225.746	11.25
225.98	17.25
226.215	14.25
226.449	12.25
226.683	11.25
226.918	23.25
227.152	36.25
227.387	37.25
227.621	46.25
227.856	42.25
228.09	43.25
228.324	41.25
228.559	49.25
228.793	79.25
229.027	75.25
229.262	96.25
229.496	106.25
229.73	116.25
229.964	125.25
230.199	118.25
230.433	111.25
230.667	108.25
230.901	101.25
231.136	121.25
231.37	117.25
231.604	115.25
231.838	92.25
232.072	119.25
232.306	105.25
232.541	123.25
232.775	129.25
233.009	123.25
233.243	120.25
233.477	118.25
233.711	118.25
233.945	118.25
234.179	117.25
234.413	111.25
234.647	129.25
234.881	101.25
235.115	116.25
235.349	115.25
235.583	120.25
235.817	122.25
236.051	123.25
236.285	118.25
236.519	106.25
236.753	122.25
236.987	120.25
237.221	142.25
237.455	194.25
237.689	151.25
237.922	143.25
238.156	138.25
238.39	131.25
238.624	125.25
238.858	123.25
239.091	122.25
239.325	130.25
239.559	123.25
239.793	115.25
240.027	126.25
240.26	123.25
240.494	148.25
240.728	144.25
240.961	133.25
241.195	129.25
241.429	123.25
241.662	132.25
241.896	129.25
242.13	140.25
242.363	125.25
242.597	130.25
242.83	139.25
243.064	133.25
243.298	137.25
243.531	142.25
243.765	129.25
243.998	140.25
244.232	138.25
244.465	153.25
244.699	150.25
244.932	156.25
245.166	158.25
245.399	147.25
245.633	141.25
245.866	133.25
246.099	144.25
246.333	146.25
246.566	146.25
246.8	143.25
247.033	146.25
247.266	149.25
247.5	156.25
247.733	178.25
247.966	158.25
248.2	169.25
248.433	158.25
248.666	186.25
248.899	177.25
249.133	189.25
249.366	194.25
249.599	180.25
249.832	175.25
250.066	177.25
250.299	167.25
250.532	201.25
250.765	180.25
250.998	188.25
251.231	203.25
251.465	187.25
251.698	192.25
251.931	177.25
252.164	190.25
252.397	182.25
252.63	201.25
252.863	203.25
253.096	202.25
253.329	194.25
253.562	208.25
253.795	196.25
254.028	199.25
254.261	194.25
254.494	202.25
254.727	238.25
254.96	242.25
255.193	233.25
255.426	211.25
255.659	199.25
255.892	206.25
256.124	209.25
256.357	206.25
256.59	205.25
256.823	198.25
257.056	194.25
257.289	188.25
257.521	215.25
257.754	218.25
257.987	183.25
258.22	205.25
258.452	203.25
258.685	194.25
258.918	190.25
259.151	202.25
259.383	204.25
259.616	213.25
259.849	210.25
260.081	195.25
260.314	211.25
260.547	219.25
260.779	226.25
261.012	222.25
261.244	210.25
261.477	209.25
261.71	201.25
261.942	199.25
262.175	209.25
262.407	211.25
262.64	195.25
262.872	190.25
263.105	202.25
263.337	210.25
263.57	195.25
263.802	200.25
264.035	192.25
264.267	209.25
264.499	218.25
264.732	203.25
264.964	205.25
265.197	209.25
265.429	215.25
265.661	210.25
265.894	225.25
266.126	223.25
266.358	221.25
266.591	218.25
266.823	211.25
267.055	230.25
267.287	223.25
267.52	217.25
267.752	216.25
267.984	211.25
268.216	220.25
268.448	220.25
268.681	217.25
268.913	221.25
269.145	241.25
269.377	262.25
269.609	243.25
269.841	246.25
270.073	252.25
270.306	268.25
270.538	286.25
270.77	298.25
271.002	273.25
271.234	282.25
271.466	255.25
271.698	286.25
271.93	287.25
272.162	292.25
272.394	289.25
272.626	277.25
272.858	289.25
273.09	264.25
273.322	270.25
273.553	284.25
273.785	261.25
274.017	257.25
274.249	269.25
274.481	251.25
274.713	249.25
274.945	264.25
275.176	256.25
275.408	276.25
275.64	268.25
275.872	261.25
276.104	233.25
276.335	269.25
276.567	264.25
276.799	268.25
277.031	277.25
277.262	310.25
277.494	291.25
277.726	287.25
277.957	274.25
278.189	278.25
278.421	272.25
278.652	276.25
278.884	276.25
279.115	258.25
279.347	281.25
279.579	274.25
279.81	281.25
280.042	269.25
280.273	291.25
280.505	259.25
280.736	263.25
280.968	277.25
281.199	292.25
281.431	269.25
281.662	280.25
281.894	270.25
282.125	270.25
282.356	278.25
282.588	289.25
282.819	292.25
283.051	291.25
283.282	283.25
283.513	277.25
283.745	282.25
283.976	285.25
284.207	284.25
284.439	286.25
284.67	287.25
284.901	297.25
285.132	289.25
285.364	284.25
285.595	289.25
285.826	243.25
286.057	277.25
286.288	292.25
286.52	276.25
286.751	301.25
286.982	293.25
287.213	289.25
287.444	272.25
287.675	305.25
287.906	294.25
288.138	318.25
288.369	326.25
288.6	293.25
288.831	290.25
289.062	305.25
289.293	315.25
289.524	287.25
289.755	310.25
289.986	315.25
290.217	297.25
290.448	290.25
290.679	307.25
290.91	301.25
291.141	313.25
291.371	307.25
291.602	285.25
291.833	289.25
292.064	293.25
292.295	305.25
292.526	317.25
292.757	313.25
292.987	284.25
293.218	314.25
293.449	295.25
293.68	290.25
293.91	307.25
294.141	301.25
294.372	309.25
294.603	311.25
294.833	292.25
295.064	292.25
295.295	301.25
295.525	300.25
295.756	300.25
295.987	310.25
296.217	319.25
296.448	305.25
296.679	319.25
296.909	299.25
297.14	292.25
297.37	299.25
297.601	311.25
297.831	309.25
298.062	301.25
298.292	328.25
298.523	338.25
298.753	319.25
298.984	315.25
299.214	303.25
299.445	331.25
299.675	315.25
299.905	333.25
300.136	324.25
300.366	317.25
300.597	328.25
300.827	321.25
301.057	337.25
301.288	339.25
301.518	327.25
301.748	327.25
301.979	351.25
302.209	333.25
302.439	334.25
302.669	337.25
302.9	339.25
303.13	342.25
303.36	334.25
303.59	355.25
303.82	346.25
304.051	333.25
304.281	338.25
304.511	332.25
304.741	342.25
304.971	320.25
305.201	337.25
305.431	329.25
305.661	348.25
305.891	332.25
306.121	331.25
306.352	329.25
306.582	335.25
306.812	338.25
307.042	328.25
307.272	361.25
307.502	359.25
307.731	363.25
307.961	360.25
308.191	350.25
308.421	350.25
308.651	344.25
308.881	346.25
309.111	349.25
309.341	338.25
309.571	355.25
309.8	356.25
310.03	363.25
310.26	373.25
310.49	359.25
310.72	365.25
310.949	364.25
311.179	400.25
311.409	389.25
311.639	369.25
311.868	355.25
312.098	374.25
312.328	361.25
312.557	387.25
312.787	384.25
313.017	384.25
313.246	385.25
313.476	365.25
313.706	367.25
313.935	373.25
314.165	387.25
314.394	396.25
314.624	406.25
314.853	381.25
315.083	379.25
315.312	379.25
315.542	369.25
315.771	369.25
316.001	374.25
316.23	364.25
316.46	369.25
316.689	398.25
316.919	403.25
317.148	385.25
317.377	375.25
317.607	357.25
317.836	377.25
318.065	371.25
318.295	373.25
318.524	370.25
318.753	385.25
318.983	382.25
319.212	390.25
319.441	389.25
319.67	385.25
319.9	363.25
320.129	368.25
320.358	367.25
320.587	361.25
320.816	390.25
321.046	379.25
321.275	374.25
321.504	388.25
321.733	397.25
321.962	379.25
322.191	387.25
322.42	404.25
322.649	407.25
322.878	422.25
323.108	422.25
323.337	435.25
323.566	437.25
323.795	453.25
324.024	490.25
324.253	522.25
324.482	693.25
324.71	1018.25
324.939	1451.25
325.168	1324.25
325.397	724.25
325.626	524.25
325.855	497.25
326.084	453.25
326.313	456.25
326.542	468.25
326.77	481.25
326.999	525.25
327.228	655.25
327.457	909.25
327.686	1121.25
327.914	798.25
328.143	565.25
328.372	527.25
328.6	506.25
328.829	485.25
329.058	492.25
329.287	471.25
329.515	474.25
329.744	460.25
329.972	482.25
330.201	486.25
330.43	505.25
330.658	491.25
330.887	513.25
331.115	490.25
331.344	497.25
331.572	454.25
331.801	460.25
332.03	475.25
332.258	474.25
332.486	458.25
332.715	460.25
332.943	452.25
333.172	460.25
333.4	485.25
333.629	474.25
333.857	491.25
334.085	499.25
334.314	518.25
334.542	513.25
334.771	525.25
334.999	499.25
335.227	475.25
335.455	475.25
335.684	454.25
335.912	459.25
336.14	460.25
336.369	460.25
336.597	467.25
336.825	446.25
337.053	453.25
337.281	461.25
337.51	438.25
337.738	450.25
337.966	446.25
338.194	456.25
338.422	457.25
338.65	447.25
338.878	442.25
339.106	414.25
339.334	429.25
339.562	430.25
339.79	423.25
340.018	438.25
340.246	430.25
340.474	426.25
340.702	444.25
340.93	433.25
341.158	429.25
341.386	430.25
341.614	425.25
341.842	424.25
342.07	437.25
342.298	414.25
342.526	410.25
342.754	412.25
342.981	404.25
343.209	410.25
343.437	427.25
343.665	442.25
343.893	460.25
344.12	461.25
344.348	458.25
344.576	437.25
344.804	451.25
345.031	439.25
345.259	441.25
345.487	425.25
345.714	420.25
345.942	409.25
346.17	436.25
346.397	427.25
346.625	410.25
346.853	393.25
347.08	400.25
347.308	410.25
347.535	403.25
347.763	429.25
347.99	413.25
348.218	406.25
348.445	417.25
348.673	413.25
348.9	400.25
349.128	401.25
349.355	403.25
349.583	397.25
349.81	408.25
350.037	379.25
350.265	382.25
350.492	385.25
350.72	420.25
350.947	395.25
351.174	391.25
351.402	415.25
351.629	409.25
351.856	421.25
352.083	417.25
352.311	411.25
352.538	412.25
352.765	391.25
352.992	399.25
353.22	413.25
353.447	411.25
353.674	386.25
353.901	403.25
354.128	397.25
354.355	381.25
354.583	411.25
354.81	399.25
355.037	385.25
355.264	402.25
355.491	392.25
355.718	383.25
355.945	391.25
356.172	405.25
356.399	402.25
356.626	410.25
356.853	394.25
357.08	386.25
357.307	389.25
357.534	398.25
357.761	395.25
357.988	409.25
358.215	388.25
358.441	387.25
358.668	391.25
358.895	391.25
359.122	391.25
359.349	409.25
359.576	414.25
359.802	421.25
360.029	412.25
360.256	436.25
360.483	422.25
360.709	416.25
360.936	387.25
361.163	402.25
361.39	407.25
361.616	421.25
361.843	387.25
362.07	383.25
362.296	414.25
362.523	396.25
362.749	395.25
362.976	383.25
363.203	390.25
363.429	387.25
363.656	396.25
363.882	417.25
364.109	415.25
364.335	403.25
364.562	373.25
364.788	406.25
365.015	392.25
365.241	409.25
365.468	392.25
365.694	393.25
365.92	387.25
366.147	383.25
366.373	390.25
366.599	392.25
366.826	404.25
367.052	402.25
367.278	364.25
367.505	385.25
367.731	411.25
367.957	396.25
368.184	405.25
368.41	410.25
368.636	400.25
368.862	422.25
369.089	399.25
369.315	393.25
369.541	377.25
369.767	413.25
369.993	393.25
370.219	402.25
370.445	414.25
370.672	422.25
370.898	412.25
371.124	407.25
371.35	402.25
371.576	396.25
371.802	397.25
372.028	409.25
372.254	395.25
372.48	403.25
372.706	413.25
372.932	407.25
373.158	415.25
373.384	414.25
373.61	422.25
373.835	417.25
374.061	399.25
374.287	415.25
374.513	407.25
374.739	413.25
374.965	423.25
375.191	405.25
375.416	418.25
375.642	422.25
375.868	418.25
376.094	419.25
376.319	423.25
376.545	410.25
376.771	409.25
376.997	428.25
377.222	410.25
377.448	396.25
377.674	381.25
377.899	410.25
378.125	410.25
378.35	402.25
378.576	418.25
378.802	396.25
379.027	417.25
379.253	409.25
379.478	393.25
379.704	426.25
379.929	400.25
380.155	407.25
380.38	422.25
380.606	413.25
380.831	407.25
381.057	400.25
381.282	404.25
381.507	401.25
381.733	403.25
381.958	411.25
382.184	414.25
382.409	412.25
382.634	414.25
382.86	403.25
383.085	430.25
383.31	443.25
383.535	430.25
383.761	453.25
383.986	461.25
384.211	445.25
384.436	435.25
384.662	469.25
384.887	454.25
385.112	460.25
385.337	445.25
385.562	469.25
385.787	458.25
386.013	462.25
386.238	460.25
386.463	451.25
386.688	465.25
386.913	437.25
387.138	444.25
387.363	456.25
387.588	441.25
387.813	452.25
388.038	462.25
388.263	481.25
388.488	449.25
388.713	459.25
388.938	458.25
389.163	455.25
389.387	475.25
389.612	463.25
389.837	470.25
390.062	457.25
390.287	456.25
390.512	457.25
390.736	450.25
390.961	475.25
391.186	472.25
391.411	465.25
391.636	488.25
391.86	488.25
392.085	493.25
392.31	485.25
392.534	478.25
392.759	487.25
392.984	466.25
393.208	465.25
393.433	473.25
393.658	468.25
393.882	466.25
394.107	461.25
394.331	475.25
394.556	467.25
394.78	478.25
395.005	474.25
395.229	469.25
395.454	478.25
395.678	483.25
395.903	502.25
396.127	503.25
396.352	510.25
396.576	520.25
396.801	479.25
397.025	477.25
397.249	484.25
397.474	493.25
397.698	500.25
397.922	511.25
398.147	500.25
398.371	523.25
398.595	503.25
398.82	530.25
399.044	556.25
399.268	603.25
399.492	645.25
399.717	669.25
399.941	717.25
400.165	718.25
400.389	669.25
400.613	622.25
400.837	599.25
401.062	587.25
401.286	567.25
401.51	522.25
401.734	543.25
401.958	541.25
402.182	576.25
402.406	561.25
402.63	542.25
402.854	566.25
403.078	564.25
403.302	586.25
403.526	568.25
403.75	613.25
403.974	567.25
404.198	577.25
404.422	589.25
404.645	596.25
404.869	598.25
405.093	607.25
405.317	633.25
405.541	651.25
405.765	607.25
405.988	577.25
406.212	579.25
406.436	606.25
406.66	629.25
406.883	602.25
407.107	635.25
407.331	694.25
407.555	707.25
407.778	730.25
408.002	667.25
408.226	648.25
408.449	623.25
408.673	589.25
408.896	635.25
409.12	648.25
409.344	638.25
409.567	587.25
409.791	597.25
410.014	582.25
410.238	571.25
410.461	567.25
410.685	562.25
410.908	577.25
411.132	595.25
411.355	632.25
411.578	607.25
411.802	571.25
412.025	557.25
412.249	575.25
412.472	582.25
412.695	599.25
412.919	595.25
413.142	562.25
413.365	573.25
413.589	557.25
413.812	538.25
414.035	553.25
414.258	543.25
414.482	533.25
414.705	540.25
414.928	524.25
415.151	537.25
415.374	527.25
415.597	521.25
415.821	504.25
416.044	538.25
416.267	540.25
416.49	531.25
416.713	527.25
416.936	519.25
417.159	540.25
417.382	526.25
417.605	540.25
417.828	538.25
418.051	539.25
418.274	530.25
418.497	537.25
418.72	526.25
418.943	543.25
419.166	570.25
419.389	569.25
419.611	595.25
419.834	577.25
420.057	575.25
420.28	561.25
420.503	557.25
420.726	563.25
420.948	563.25
421.171	568.25
421.394	581.25
421.617	570.25
421.839	563.25
422.062	557.25
422.285	557.25
422.507	597.25
422.73	659.25
422.953	649.25
423.175	579.25
423.398	577.25
423.621	585.25
423.843	563.25
424.066	605.25
424.288	580.25
424.511	614.25
424.733	635.25
424.956	697.25
425.178	650.25
425.401	678.25
425.623	665.25
425.846	598.25
426.068	556.25
426.291	543.25
426.513	567.25
426.735	547.25
426.958	591.25
427.18	637.25
427.402	753.25
427.625	811.25
427.847	707.25
428.069	619.25
428.292	595.25
428.514	554.25
428.736	510.25
428.958	531.25
429.181	517.25
429.403	517.25
429.625	511.25
429.847	554.25
430.069	578.25
430.292	611.25
430.514	522.25
430.736	511.25
430.958	525.25
431.18	515.25
431.402	503.25
431.624	492.25
431.846	509.25
432.068	509.25
432.29	495.25
432.512	497.25
432.734	519.25
432.956	519.25
433.178	508.25
433.4	525.25
433.622	509.25
433.844	499.25
434.066	489.25
434.287	510.25
434.509	513.25
434.731	537.25
434.953	528.25
435.175	547.25
435.397	581.25
435.618	553.25
435.84	596.25
436.062	662.25
436.284	705.25
436.505	603.25
436.727	554.25
436.949	547.25
437.17	553.25
437.392	523.25
437.614	516.25
437.835	554.25
438.057	602.25
438.278	675.25
438.5	675.25
438.721	764.25
438.943	707.25
439.165	597.25
439.386	555.25
439.608	542.25
439.829	541.25
440.05	533.25
440.272	592.25
440.493	572.25
440.715	533.25
440.936	553.25
441.158	546.25
441.379	503.25
441.6	558.25
441.822	569.25
442.043	588.25
442.264	663.25
442.486	661.25
442.707	562.25
442.928	569.25
443.149	593.25
443.371	592.25
443.592	638.25
443.813	697.25
444.034	747.25
444.255	655.25
444.476	596.25
444.698	583.25
444.919	594.25
445.14	716.25
445.361	665.25
445.582	603.25
445.803	643.25
446.024	699.25
446.245	712.25
446.466	651.25
446.687	561.25
446.908	557.25
447.129	520.25
447.35	516.25
447.571	526.25
447.792	516.25
448.013	503.25
448.234	518.25
448.455	540.25
448.675	619.25
448.896	717.25
449.117	628.25
449.338	587.25
449.559	667.25
449.779	773.25
450	629.25
450.221	562.25
450.442	526.25
450.662	503.25
450.883	488.25
451.104	497.25
451.324	472.25
451.545	462.25
451.766	458.25
451.986	491.25
452.207	456.25
452.428	474.25
452.648	465.25
452.869	454.25
453.089	463.25
453.31	460.25
453.53	458.25
453.751	438.25
453.971	468.25
454.192	477.25
454.412	448.25
454.633	445.25
454.853	459.25
455.073	471.25
455.294	478.25
455.514	499.25
455.734	515.25
455.955	470.25
456.175	441.25
456.395	422.25
456.616	450.25
456.836	445.25
457.056	451.25
457.276	425.25
457.497	435.25
457.717	420.25
457.937	448.25
458.157	459.25
458.377	476.25
458.598	469.25
458.818	503.25
459.038	564.25
459.258	586.25
459.478	519.25
459.698	516.25
459.918	497.25
460.138	520.25
460.358	554.25
460.578	544.25
460.798	551.25
461.018	554.25
461.238	548.25
461.458	553.25
461.678	524.25
461.898	552.25
462.118	547.25
462.338	568.25
462.558	565.25
462.777	591.25
462.997	604.25
463.217	638.25
463.437	643.25
463.657	589.25
463.876	590.25
464.096	586.25
464.316	602.25
464.536	594.25
464.755	562.25
464.975	575.25
465.195	586.25
465.414	598.25
465.634	550.25
465.854	532.25
466.073	505.25
466.293	517.25
466.512	514.25
466.732	495.25
466.951	502.25
467.171	473.25
467.391	492.25
467.61	488.25
467.829	483.25
468.049	480.25
468.268	469.25
468.488	474.25
468.707	467.25
468.927	489.25
469.146	463.25
469.365	473.25
469.585	471.25
469.804	476.25
470.023	483.25
470.243	486.25
470.462	520.25
470.681	519.25
470.901	507.25
471.12	488.25
471.339	485.25
471.558	495.25
471.777	509.25
471.997	468.25
472.216	481.25
472.435	475.25
472.654	490.25
472.873	480.25
473.092	481.25
473.311	484.25
473.53	476.25
473.749	485.25
473.968	498.25
474.187	582.25
474.406	616.25
474.625	523.25
474.844	491.25
475.063	496.25
475.282	493.25
475.501	504.25
475.72	477.25
475.939	487.25
476.158	478.25
476.377	502.25
476.596	491.25
476.814	519.25
477.033	508.25
477.252	510.25
477.471	521.25
477.69	523.25
477.908	530.25
478.127	542.25
478.346	567.25
478.564	548.25
478.783	566.25
479.002	558.25
479.22	545.25
479.439	593.25
479.658	587.25
479.876	558.25
480.095	598.25
480.313	612.25
480.532	631.25
480.751	596.25
480.969	605.25
481.188	633.25
481.406	634.25
481.624	615.25
481.843	574.25
482.061	593.25
482.28	568.25
482.498	571.25
482.717	581.25
482.935	566.25
483.153	575.25
483.372	570.25
483.59	537.25
483.808	545.25
484.027	546.25
484.245	566.25
484.463	547.25
484.681	601.25
484.9	572.25
485.118	566.25
485.336	573.25
485.554	582.25
485.772	605.25
485.99	590.25
486.209	579.25
486.427	593.25
486.645	600.25
486.863	614.25
487.081	612.25
487.299	578.25
487.517	583.25
487.735	595.25
487.953	587.25
488.171	591.25
488.389	589.25
488.607	593.25
488.825	609.25
489.043	611.25
489.261	599.25
489.479	630.25
489.696	600.25
489.914	596.25
490.132	610.25
490.35	605.25
490.568	633.25
490.786	605.25
491.003	641.25
491.221	628.25
491.439	648.25
491.657	652.25
491.874	672.25
492.092	659.25
492.31	647.25
492.527	651.25
492.745	680.25
492.963	674.25
493.18	680.25
493.398	674.25
493.615	667.25
493.833	662.25
494.05	669.25
494.268	658.25
494.485	687.25
494.703	670.25
494.92	687.25
495.138	696.25
495.355	697.25
495.573	708.25
495.79	696.25
496.008	670.25
496.225	685.25
496.442	700.25
496.66	727.25
496.877	694.25
497.094	717.25
497.312	725.25
497.529	721.25
497.746	737.25
497.963	760.25
498.181	762.25
498.398	798.25
498.615	829.25
498.832	844.25
499.049	851.25
499.267	927.25
499.484	919.25
499.701	995.25
499.918	1044.25
500.135	1162.25
500.352	1219.25
500.569	1203.25
500.786	1244.25
501.003	1182.25
501.22	1153.25
501.437	1066.25
501.654	1002.25
501.871	983.25
