Data from 1962.PennyLincolnUp.Lamp.En5.5.200Scan.071719.P1._HRD10591_13-53-09-059.txt Node
Date: Thu Jul 18 13:53:09 EDT 2019
User: cochatt
Spectrometer: HR+D1059
Trigger mode: 1
Integration Time (sec): 1.000000E-1
Scans to average: 1
Electric dark correction enabled: true
Nonlinearity correction enabled: false
Boxcar width: 0
XAxis mode: Wavelengths
Number of Pixels in Spectrum: 2048
>>>>>Begin Spectral Data<<<<<
223.165	-4.19
223.4	-4.19
223.635	-4.19
223.869	-32.19
224.104	-17.19
224.338	-7.19
224.573	-17.19
224.808	-20.19
225.042	-13.19
225.277	-2.19
225.511	-1.19
225.746	-4.19
225.98	7.81
226.215	16.81
226.449	3.81
226.683	27.81
226.918	37.81
227.152	24.81
227.387	46.81
227.621	36.81
227.856	31.81
228.09	45.81
228.324	47.81
228.559	65.81
228.793	68.81
229.027	90.81
229.262	91.81
229.496	89.81
229.73	107.81
229.964	129.81
230.199	86.81
230.433	95.81
230.667	88.81
230.901	109.81
231.136	102.81
231.37	94.81
231.604	100.81
231.838	105.81
232.072	112.81
232.306	115.81
232.541	99.81
232.775	103.81
233.009	111.81
233.243	99.81
233.477	108.81
233.711	111.81
233.945	124.81
234.179	102.81
234.413	110.81
234.647	106.81
234.881	107.81
235.115	123.81
235.349	107.81
235.583	113.81
235.817	122.81
236.051	116.81
236.285	115.81
236.519	102.81
236.753	124.81
236.987	138.81
237.221	143.81
237.455	168.81
237.689	161.81
237.922	131.81
238.156	110.81
238.39	130.81
238.624	119.81
238.858	123.81
239.091	116.81
239.325	117.81
239.559	105.81
239.793	128.81
240.027	124.81
240.26	132.81
240.494	151.81
240.728	140.81
240.961	127.81
241.195	124.81
241.429	117.81
241.662	133.81
241.896	120.81
242.13	114.81
242.363	116.81
242.597	134.81
242.83	135.81
243.064	137.81
243.298	131.81
243.531	134.81
243.765	143.81
243.998	127.81
244.232	141.81
244.465	134.81
244.699	137.81
244.932	125.81
245.166	137.81
245.399	144.81
245.633	136.81
245.866	159.81
246.099	131.81
246.333	130.81
246.566	150.81
246.8	134.81
247.033	144.81
247.266	141.81
247.5	147.81
247.733	154.81
247.966	152.81
248.2	143.81
248.433	158.81
248.666	135.81
248.899	161.81
249.133	153.81
249.366	169.81
249.599	167.81
249.832	166.81
250.066	171.81
250.299	167.81
250.532	183.81
250.765	172.81
250.998	174.81
251.231	179.81
251.465	186.81
251.698	168.81
251.931	163.81
252.164	168.81
252.397	157.81
252.63	159.81
252.863	171.81
253.096	202.81
253.329	204.81
253.562	183.81
253.795	177.81
254.028	188.81
254.261	199.81
254.494	192.81
254.727	212.81
254.96	208.81
255.193	211.81
255.426	204.81
255.659	188.81
255.892	180.81
256.124	195.81
256.357	214.81
256.59	198.81
256.823	203.81
257.056	187.81
257.289	197.81
257.521	182.81
257.754	175.81
257.987	196.81
258.22	199.81
258.452	206.81
258.685	196.81
258.918	191.81
259.151	191.81
259.383	193.81
259.616	189.81
259.849	192.81
260.081	196.81
260.314	223.81
260.547	210.81
260.779	222.81
261.012	210.81
261.244	211.81
261.477	208.81
261.71	196.81
261.942	201.81
262.175	213.81
262.407	216.81
262.64	200.81
262.872	192.81
263.105	200.81
263.337	203.81
263.57	185.81
263.802	202.81
264.035	198.81
264.267	197.81
264.499	201.81
264.732	201.81
264.964	201.81
265.197	195.81
265.429	190.81
265.661	209.81
265.894	213.81
266.126	207.81
266.358	212.81
266.591	210.81
266.823	210.81
267.055	222.81
267.287	210.81
267.52	215.81
267.752	214.81
267.984	223.81
268.216	201.81
268.448	215.81
268.681	216.81
268.913	223.81
269.145	227.81
269.377	245.81
269.609	233.81
269.841	210.81
270.073	250.81
270.306	238.81
270.538	281.81
270.77	270.81
271.002	270.81
271.234	244.81
271.466	246.81
271.698	247.81
271.93	272.81
272.162	242.81
272.394	267.81
272.626	259.81
272.858	266.81
273.09	244.81
273.322	243.81
273.553	231.81
273.785	226.81
274.017	237.81
274.249	256.81
274.481	249.81
274.713	241.81
274.945	227.81
275.176	242.81
275.408	248.81
275.64	252.81
275.872	258.81
276.104	248.81
276.335	261.81
276.567	239.81
276.799	272.81
277.031	264.81
277.262	274.81
277.494	278.81
277.726	267.81
277.957	273.81
278.189	265.81
278.421	263.81
278.652	264.81
278.884	252.81
279.115	276.81
279.347	259.81
279.579	242.81
279.81	269.81
280.042	262.81
280.273	263.81
280.505	253.81
280.736	260.81
280.968	273.81
281.199	276.81
281.431	263.81
281.662	277.81
281.894	277.81
282.125	267.81
282.356	265.81
282.588	274.81
282.819	291.81
283.051	276.81
283.282	278.81
283.513	273.81
283.745	279.81
283.976	278.81
284.207	286.81
284.439	277.81
284.67	268.81
284.901	273.81
285.132	274.81
285.364	271.81
285.595	292.81
285.826	268.81
286.057	265.81
286.288	281.81
286.52	280.81
286.751	276.81
286.982	288.81
287.213	284.81
287.444	293.81
287.675	294.81
287.906	284.81
288.138	294.81
288.369	298.81
288.6	291.81
288.831	287.81
289.062	289.81
289.293	297.81
289.524	280.81
289.755	288.81
289.986	280.81
290.217	284.81
290.448	270.81
290.679	299.81
290.91	308.81
291.141	272.81
291.371	284.81
291.602	287.81
291.833	282.81
292.064	279.81
292.295	296.81
292.526	288.81
292.757	268.81
292.987	269.81
293.218	289.81
293.449	290.81
293.68	295.81
293.91	300.81
294.141	306.81
294.372	297.81
294.603	276.81
294.833	306.81
295.064	296.81
295.295	294.81
295.525	292.81
295.756	300.81
295.987	299.81
296.217	318.81
296.448	293.81
296.679	298.81
296.909	298.81
297.14	291.81
297.37	295.81
297.601	310.81
297.831	315.81
298.062	312.81
298.292	313.81
298.523	291.81
298.753	301.81
298.984	309.81
299.214	309.81
299.445	299.81
299.675	314.81
299.905	313.81
300.136	300.81
300.366	315.81
300.597	314.81
300.827	304.81
301.057	322.81
301.288	320.81
301.518	322.81
301.748	321.81
301.979	324.81
302.209	323.81
302.439	325.81
302.669	329.81
302.9	314.81
303.13	326.81
303.36	320.81
303.59	313.81
303.82	327.81
304.051	334.81
304.281	334.81
304.511	332.81
304.741	336.81
304.971	334.81
305.201	348.81
305.431	311.81
305.661	328.81
305.891	320.81
306.121	322.81
306.352	337.81
306.582	335.81
306.812	325.81
307.042	325.81
307.272	331.81
307.502	323.81
307.731	336.81
307.961	333.81
308.191	335.81
308.421	332.81
308.651	333.81
308.881	330.81
309.111	336.81
309.341	327.81
309.571	326.81
309.8	324.81
310.03	330.81
310.26	343.81
310.49	339.81
310.72	324.81
310.949	344.81
311.179	370.81
311.409	350.81
311.639	338.81
311.868	347.81
312.098	350.81
312.328	363.81
312.557	366.81
312.787	373.81
313.017	343.81
313.246	351.81
313.476	340.81
313.706	344.81
313.935	347.81
314.165	362.81
314.394	347.81
314.624	373.81
314.853	355.81
315.083	370.81
315.312	376.81
315.542	353.81
315.771	362.81
316.001	358.81
316.23	350.81
316.46	370.81
316.689	377.81
316.919	358.81
317.148	378.81
317.377	362.81
317.607	367.81
317.836	352.81
318.065	356.81
318.295	363.81
318.524	347.81
318.753	362.81
318.983	376.81
319.212	359.81
319.441	344.81
319.67	349.81
319.9	357.81
320.129	375.81
320.358	362.81
320.587	364.81
320.816	362.81
321.046	362.81
321.275	382.81
321.504	381.81
321.733	373.81
321.962	380.81
322.191	375.81
322.42	382.81
322.649	382.81
322.878	397.81
323.108	404.81
323.337	401.81
323.566	411.81
323.795	399.81
324.024	419.81
324.253	491.81
324.482	640.81
324.71	866.81
324.939	1222.81
325.168	1036.81
325.397	607.81
325.626	511.81
325.855	432.81
326.084	401.81
326.313	401.81
326.542	424.81
326.77	456.81
326.999	470.81
327.228	577.81
327.457	794.81
327.686	895.81
327.914	690.81
328.143	518.81
328.372	493.81
328.6	442.81
328.829	444.81
329.058	462.81
329.287	436.81
329.515	440.81
329.744	430.81
329.972	423.81
330.201	438.81
330.43	453.81
330.658	470.81
330.887	486.81
331.115	467.81
331.344	431.81
331.572	438.81
331.801	450.81
332.03	441.81
332.258	437.81
332.486	427.81
332.715	428.81
332.943	426.81
333.172	442.81
333.4	454.81
333.629	455.81
333.857	460.81
334.085	460.81
334.314	476.81
334.542	471.81
334.771	476.81
334.999	455.81
335.227	473.81
335.455	454.81
335.684	442.81
335.912	455.81
336.14	425.81
336.369	438.81
336.597	448.81
336.825	439.81
337.053	438.81
337.281	424.81
337.51	429.81
337.738	429.81
337.966	422.81
338.194	413.81
338.422	428.81
338.65	428.81
338.878	426.81
339.106	410.81
339.334	431.81
339.562	406.81
339.79	404.81
340.018	413.81
340.246	404.81
340.474	410.81
340.702	415.81
340.93	411.81
341.158	416.81
341.386	425.81
341.614	400.81
341.842	404.81
342.07	411.81
342.298	397.81
342.526	395.81
342.754	391.81
342.981	383.81
343.209	400.81
343.437	424.81
343.665	431.81
343.893	433.81
344.12	458.81
344.348	437.81
344.576	453.81
344.804	428.81
345.031	426.81
345.259	442.81
345.487	422.81
345.714	394.81
345.942	396.81
346.17	406.81
346.397	392.81
346.625	402.81
346.853	379.81
347.08	402.81
347.308	403.81
347.535	412.81
347.763	397.81
347.99	408.81
348.218	398.81
348.445	382.81
348.673	407.81
348.9	386.81
349.128	386.81
349.355	380.81
349.583	397.81
349.81	391.81
350.037	385.81
350.265	379.81
350.492	390.81
350.72	389.81
350.947	377.81
351.174	385.81
351.402	390.81
351.629	399.81
351.856	385.81
352.083	390.81
352.311	392.81
352.538	373.81
352.765	398.81
352.992	360.81
353.22	378.81
353.447	390.81
353.674	382.81
353.901	375.81
354.128	391.81
354.355	387.81
354.583	366.81
354.81	373.81
355.037	366.81
355.264	372.81
355.491	378.81
355.718	383.81
355.945	380.81
356.172	370.81
356.399	382.81
356.626	391.81
356.853	376.81
357.08	395.81
357.307	378.81
357.534	378.81
357.761	383.81
357.988	386.81
358.215	373.81
358.441	383.81
358.668	371.81
358.895	371.81
359.122	381.81
359.349	375.81
359.576	394.81
359.802	417.81
360.029	400.81
360.256	402.81
360.483	389.81
360.709	390.81
360.936	386.81
361.163	403.81
361.39	392.81
361.616	397.81
361.843	373.81
362.07	398.81
362.296	379.81
362.523	396.81
362.749	367.81
362.976	384.81
363.203	387.81
363.429	378.81
363.656	390.81
363.882	382.81
364.109	378.81
364.335	378.81
364.562	384.81
364.788	394.81
365.015	388.81
365.241	380.81
365.468	364.81
365.694	382.81
365.92	390.81
366.147	357.81
366.373	396.81
366.599	373.81
366.826	397.81
367.052	400.81
367.278	379.81
367.505	387.81
367.731	374.81
367.957	378.81
368.184	384.81
368.41	383.81
368.636	383.81
368.862	400.81
369.089	381.81
369.315	380.81
369.541	383.81
369.767	391.81
369.993	400.81
370.219	387.81
370.445	392.81
370.672	404.81
370.898	373.81
371.124	402.81
371.35	411.81
371.576	395.81
371.802	383.81
372.028	396.81
372.254	402.81
372.48	386.81
372.706	404.81
372.932	398.81
373.158	412.81
373.384	399.81
373.61	406.81
373.835	410.81
374.061	407.81
374.287	414.81
374.513	405.81
374.739	410.81
374.965	415.81
375.191	434.81
375.416	426.81
375.642	410.81
375.868	407.81
376.094	398.81
376.319	410.81
376.545	388.81
376.771	420.81
376.997	377.81
377.222	394.81
377.448	373.81
377.674	395.81
377.899	394.81
378.125	380.81
378.35	410.81
378.576	414.81
378.802	386.81
379.027	388.81
379.253	393.81
379.478	377.81
379.704	396.81
379.929	390.81
380.155	397.81
380.38	391.81
380.606	408.81
380.831	406.81
381.057	400.81
381.282	407.81
381.507	407.81
381.733	395.81
381.958	421.81
382.184	394.81
382.409	412.81
382.634	377.81
382.86	422.81
383.085	413.81
383.31	428.81
383.535	422.81
383.761	428.81
383.986	417.81
384.211	436.81
384.436	430.81
384.662	434.81
384.887	422.81
385.112	454.81
385.337	446.81
385.562	449.81
385.787	439.81
386.013	457.81
386.238	456.81
386.463	442.81
386.688	439.81
386.913	448.81
387.138	460.81
387.363	442.81
387.588	450.81
387.813	449.81
388.038	447.81
388.263	434.81
388.488	461.81
388.713	453.81
388.938	459.81
389.163	438.81
389.387	461.81
389.612	453.81
389.837	459.81
390.062	422.81
390.287	444.81
390.512	452.81
390.736	436.81
390.961	447.81
391.186	434.81
391.411	469.81
391.636	479.81
391.86	479.81
392.085	465.81
392.31	486.81
392.534	470.81
392.759	458.81
392.984	451.81
393.208	469.81
393.433	478.81
393.658	464.81
393.882	457.81
394.107	456.81
394.331	470.81
394.556	477.81
394.78	454.81
395.005	468.81
395.229	463.81
395.454	476.81
395.678	504.81
395.903	487.81
396.127	496.81
396.352	491.81
396.576	455.81
396.801	465.81
397.025	481.81
397.249	469.81
397.474	503.81
397.698	491.81
397.922	470.81
398.147	518.81
398.371	516.81
398.595	511.81
398.82	524.81
399.044	529.81
399.268	583.81
399.492	624.81
399.717	647.81
399.941	670.81
400.165	650.81
400.389	669.81
400.613	597.81
400.837	592.81
401.062	554.81
401.286	531.81
401.51	546.81
401.734	534.81
401.958	536.81
402.182	535.81
402.406	551.81
402.63	539.81
402.854	546.81
403.078	554.81
403.302	566.81
403.526	544.81
403.75	550.81
403.974	538.81
404.198	554.81
404.422	591.81
404.645	573.81
404.869	552.81
405.093	582.81
405.317	614.81
405.541	645.81
405.765	593.81
405.988	572.81
406.212	578.81
406.436	584.81
406.66	579.81
406.883	586.81
407.107	606.81
407.331	636.81
407.555	695.81
407.778	679.81
408.002	659.81
408.226	628.81
408.449	629.81
408.673	602.81
408.896	620.81
409.12	641.81
409.344	613.81
409.567	575.81
409.791	553.81
410.014	542.81
410.238	566.81
410.461	555.81
410.685	516.81
410.908	560.81
411.132	576.81
411.355	593.81
411.578	590.81
411.802	540.81
412.025	527.81
412.249	543.81
412.472	556.81
412.695	578.81
412.919	563.81
413.142	551.81
413.365	542.81
413.589	546.81
413.812	527.81
414.035	524.81
414.258	548.81
414.482	548.81
414.705	525.81
414.928	526.81
415.151	514.81
415.374	516.81
415.597	515.81
415.821	530.81
416.044	489.81
416.267	524.81
416.49	500.81
416.713	514.81
416.936	503.81
417.159	508.81
417.382	518.81
417.605	522.81
417.828	518.81
418.051	520.81
418.274	515.81
418.497	517.81
418.72	508.81
418.943	534.81
419.166	555.81
419.389	603.81
419.611	555.81
419.834	572.81
420.057	549.81
420.28	526.81
420.503	523.81
420.726	543.81
420.948	540.81
421.171	571.81
421.394	565.81
421.617	551.81
421.839	520.81
422.062	523.81
422.285	514.81
422.507	570.81
422.73	604.81
422.953	599.81
423.175	557.81
423.398	551.81
423.621	547.81
423.843	552.81
424.066	556.81
424.288	549.81
424.511	542.81
424.733	573.81
424.956	638.81
425.178	637.81
425.401	620.81
425.623	634.81
425.846	550.81
426.068	559.81
426.291	549.81
426.513	537.81
426.735	556.81
426.958	552.81
427.18	604.81
427.402	698.81
427.625	769.81
427.847	663.81
428.069	578.81
428.292	540.81
428.514	536.81
428.736	504.81
428.958	521.81
429.181	453.81
429.403	503.81
429.625	489.81
429.847	526.81
430.069	554.81
430.292	551.81
430.514	507.81
430.736	485.81
430.958	495.81
431.18	488.81
431.402	485.81
431.624	470.81
431.846	484.81
432.068	507.81
432.29	497.81
432.512	477.81
432.734	506.81
432.956	494.81
433.178	494.81
433.4	492.81
433.622	465.81
433.844	499.81
434.066	480.81
434.287	519.81
434.509	505.81
434.731	517.81
434.953	508.81
435.175	510.81
435.397	533.81
435.618	538.81
435.84	544.81
436.062	604.81
436.284	638.81
436.505	570.81
436.727	550.81
436.949	504.81
437.17	498.81
437.392	502.81
437.614	504.81
437.835	515.81
438.057	590.81
438.278	624.81
438.5	638.81
438.721	676.81
438.943	668.81
439.165	594.81
439.386	529.81
439.608	516.81
439.829	534.81
440.05	528.81
440.272	552.81
440.493	541.81
440.715	500.81
440.936	514.81
441.158	512.81
441.379	505.81
441.6	527.81
441.822	520.81
442.043	567.81
442.264	618.81
442.486	630.81
442.707	579.81
442.928	522.81
443.149	543.81
443.371	542.81
443.592	593.81
443.813	635.81
444.034	706.81
444.255	619.81
444.476	584.81
444.698	580.81
444.919	563.81
445.14	687.81
445.361	645.81
445.582	575.81
445.803	601.81
446.024	657.81
446.245	621.81
446.466	579.81
446.687	548.81
446.908	518.81
447.129	506.81
447.35	493.81
447.571	478.81
447.792	481.81
448.013	486.81
448.234	495.81
448.455	516.81
448.675	589.81
448.896	676.81
449.117	570.81
449.338	545.81
449.559	641.81
449.779	700.81
450	598.81
450.221	514.81
450.442	481.81
450.662	467.81
450.883	479.81
451.104	474.81
451.324	471.81
451.545	467.81
451.766	449.81
451.986	451.81
452.207	450.81
452.428	454.81
452.648	454.81
452.869	443.81
453.089	445.81
453.31	426.81
453.53	453.81
453.751	438.81
453.971	446.81
454.192	444.81
454.412	431.81
454.633	421.81
454.853	429.81
455.073	446.81
455.294	438.81
455.514	477.81
455.734	487.81
455.955	472.81
456.175	430.81
456.395	424.81
456.616	430.81
456.836	422.81
457.056	415.81
457.276	408.81
457.497	415.81
457.717	436.81
457.937	430.81
458.157	445.81
458.377	428.81
458.598	462.81
458.818	474.81
459.038	500.81
459.258	547.81
459.478	495.81
459.698	483.81
459.918	489.81
460.138	494.81
460.358	507.81
460.578	506.81
460.798	516.81
461.018	524.81
461.238	541.81
461.458	522.81
461.678	529.81
461.898	527.81
462.118	529.81
462.338	552.81
462.558	582.81
462.777	591.81
462.997	606.81
463.217	633.81
463.437	604.81
463.657	608.81
463.876	582.81
464.096	587.81
464.316	585.81
464.536	554.81
464.755	581.81
464.975	566.81
465.195	548.81
465.414	567.81
465.634	517.81
465.854	512.81
466.073	499.81
466.293	467.81
466.512	485.81
466.732	459.81
466.951	463.81
467.171	457.81
467.391	483.81
467.61	484.81
467.829	477.81
468.049	457.81
468.268	447.81
468.488	475.81
468.707	465.81
468.927	447.81
469.146	473.81
469.365	461.81
469.585	465.81
469.804	462.81
470.023	446.81
470.243	470.81
470.462	464.81
470.681	510.81
470.901	483.81
471.12	476.81
471.339	479.81
471.558	463.81
471.777	457.81
471.997	463.81
472.216	452.81
472.435	508.81
472.654	479.81
472.873	467.81
473.092	440.81
473.311	458.81
473.53	470.81
473.749	470.81
473.968	481.81
474.187	516.81
474.406	546.81
474.625	494.81
474.844	480.81
475.063	477.81
475.282	489.81
475.501	461.81
475.72	471.81
475.939	468.81
476.158	471.81
476.377	467.81
476.596	486.81
476.814	485.81
477.033	484.81
477.252	483.81
477.471	511.81
477.69	509.81
477.908	525.81
478.127	526.81
478.346	528.81
478.564	549.81
478.783	536.81
479.002	555.81
479.22	549.81
479.439	548.81
479.658	543.81
479.876	551.81
480.095	590.81
480.313	588.81
480.532	583.81
480.751	608.81
480.969	558.81
481.188	596.81
481.406	602.81
481.624	583.81
481.843	570.81
482.061	553.81
482.28	553.81
482.498	532.81
482.717	544.81
482.935	551.81
483.153	544.81
483.372	536.81
483.59	536.81
483.808	526.81
484.027	535.81
484.245	553.81
484.463	551.81
484.681	557.81
484.9	535.81
485.118	559.81
485.336	576.81
485.554	566.81
485.772	582.81
485.99	576.81
486.209	574.81
486.427	552.81
486.645	559.81
486.863	584.81
487.081	566.81
487.299	574.81
487.517	584.81
487.735	579.81
487.953	595.81
488.171	576.81
488.389	599.81
488.607	573.81
488.825	569.81
489.043	581.81
489.261	576.81
489.479	589.81
489.696	572.81
489.914	579.81
490.132	594.81
490.35	589.81
490.568	598.81
490.786	587.81
491.003	584.81
491.221	602.81
491.439	612.81
491.657	591.81
491.874	617.81
492.092	604.81
492.31	599.81
492.527	622.81
492.745	628.81
492.963	630.81
493.18	624.81
493.398	622.81
493.615	622.81
493.833	630.81
494.05	637.81
494.268	631.81
494.485	626.81
494.703	626.81
494.92	655.81
495.138	652.81
495.355	655.81
495.573	670.81
495.79	674.81
496.008	660.81
496.225	644.81
496.442	675.81
496.66	654.81
496.877	663.81
497.094	676.81
497.312	692.81
497.529	683.81
497.746	687.81
497.963	720.81
498.181	742.81
498.398	726.81
498.615	791.81
498.832	830.81
499.049	822.81
499.267	894.81
499.484	938.81
499.701	961.81
499.918	1046.81
500.135	1088.81
500.352	1176.81
500.569	1197.81
500.786	1174.81
501.003	1152.81
501.22	1103.81
501.437	1055.81
501.654	982.81
501.871	921.81
502.088	900.81
