Data from 1962.PennyLincolnUp.Lamp.En5.5.200Scan.071719.P1._HRD10591_13-54-26-061.txt Node
Date: Thu Jul 18 13:54:26 EDT 2019
User: cochatt
Spectrometer: HR+D1059
Trigger mode: 1
Integration Time (sec): 1.000000E-1
Scans to average: 1
Electric dark correction enabled: true
Nonlinearity correction enabled: false
Boxcar width: 0
XAxis mode: Wavelengths
Number of Pixels in Spectrum: 2048
>>>>>Begin Spectral Data<<<<<
223.165	-19.81
223.4	-19.81
223.635	-19.81
223.869	-23.81
224.104	-4.81
224.338	-10.81
224.573	2.19
224.808	-12.81
225.042	-23.81
225.277	-6.81
225.511	-10.81
225.746	-0.81
225.98	12.19
226.215	-2.81
226.449	22.19
226.683	19.19
226.918	28.19
227.152	33.19
227.387	40.19
227.621	38.19
227.856	43.19
228.09	43.19
228.324	50.19
228.559	45.19
228.793	64.19
229.027	81.19
229.262	75.19
229.496	84.19
229.73	108.19
229.964	127.19
230.199	97.19
230.433	99.19
230.667	108.19
230.901	109.19
231.136	103.19
231.37	97.19
231.604	110.19
231.838	107.19
232.072	101.19
232.306	115.19
232.541	111.19
232.775	115.19
233.009	107.19
233.243	98.19
233.477	113.19
233.711	107.19
233.945	104.19
234.179	93.19
234.413	99.19
234.647	95.19
234.881	131.19
235.115	120.19
235.349	110.19
235.583	116.19
235.817	115.19
236.051	120.19
236.285	120.19
236.519	110.19
236.753	121.19
236.987	128.19
237.221	163.19
237.455	192.19
237.689	138.19
237.922	121.19
238.156	119.19
238.39	118.19
238.624	122.19
238.858	130.19
239.091	110.19
239.325	121.19
239.559	123.19
239.793	117.19
240.027	119.19
240.26	131.19
240.494	132.19
240.728	115.19
240.961	126.19
241.195	133.19
241.429	122.19
241.662	127.19
241.896	117.19
242.13	131.19
242.363	112.19
242.597	128.19
242.83	134.19
243.064	116.19
243.298	149.19
243.531	130.19
243.765	129.19
243.998	121.19
244.232	137.19
244.465	130.19
244.699	123.19
244.932	133.19
245.166	139.19
245.399	125.19
245.633	121.19
245.866	135.19
246.099	152.19
246.333	140.19
246.566	124.19
246.8	147.19
247.033	131.19
247.266	148.19
247.5	156.19
247.733	155.19
247.966	153.19
248.2	157.19
248.433	167.19
248.666	152.19
248.899	155.19
249.133	174.19
249.366	175.19
249.599	167.19
249.832	163.19
250.066	160.19
250.299	164.19
250.532	176.19
250.765	175.19
250.998	164.19
251.231	199.19
251.465	177.19
251.698	166.19
251.931	184.19
252.164	171.19
252.397	161.19
252.63	179.19
252.863	199.19
253.096	192.19
253.329	201.19
253.562	200.19
253.795	198.19
254.028	195.19
254.261	204.19
254.494	205.19
254.727	225.19
254.96	219.19
255.193	221.19
255.426	210.19
255.659	190.19
255.892	208.19
256.124	208.19
256.357	196.19
256.59	221.19
256.823	203.19
257.056	191.19
257.289	195.19
257.521	189.19
257.754	194.19
257.987	184.19
258.22	189.19
258.452	183.19
258.685	192.19
258.918	187.19
259.151	199.19
259.383	193.19
259.616	199.19
259.849	213.19
260.081	197.19
260.314	214.19
260.547	239.19
260.779	218.19
261.012	213.19
261.244	191.19
261.477	203.19
261.71	185.19
261.942	189.19
262.175	194.19
262.407	213.19
262.64	201.19
262.872	190.19
263.105	200.19
263.337	200.19
263.57	194.19
263.802	202.19
264.035	200.19
264.267	202.19
264.499	202.19
264.732	213.19
264.964	216.19
265.197	207.19
265.429	199.19
265.661	212.19
265.894	203.19
266.126	204.19
266.358	227.19
266.591	205.19
266.823	232.19
267.055	215.19
267.287	210.19
267.52	202.19
267.752	241.19
267.984	231.19
268.216	206.19
268.448	235.19
268.681	215.19
268.913	239.19
269.145	230.19
269.377	252.19
269.609	255.19
269.841	240.19
270.073	240.19
270.306	230.19
270.538	290.19
270.77	286.19
271.002	278.19
271.234	259.19
271.466	256.19
271.698	287.19
271.93	285.19
272.162	280.19
272.394	281.19
272.626	260.19
272.858	253.19
273.09	272.19
273.322	244.19
273.553	255.19
273.785	261.19
274.017	244.19
274.249	259.19
274.481	240.19
274.713	258.19
274.945	259.19
275.176	256.19
275.408	255.19
275.64	271.19
275.872	262.19
276.104	269.19
276.335	265.19
276.567	251.19
276.799	276.19
277.031	289.19
277.262	287.19
277.494	290.19
277.726	269.19
277.957	258.19
278.189	279.19
278.421	273.19
278.652	267.19
278.884	248.19
279.115	260.19
279.347	269.19
279.579	276.19
279.81	280.19
280.042	269.19
280.273	265.19
280.505	256.19
280.736	283.19
280.968	265.19
281.199	268.19
281.431	274.19
281.662	270.19
281.894	266.19
282.125	267.19
282.356	275.19
282.588	282.19
282.819	297.19
283.051	280.19
283.282	268.19
283.513	261.19
283.745	245.19
283.976	293.19
284.207	288.19
284.439	281.19
284.67	280.19
284.901	264.19
285.132	285.19
285.364	280.19
285.595	279.19
285.826	278.19
286.057	299.19
286.288	283.19
286.52	300.19
286.751	292.19
286.982	291.19
287.213	285.19
287.444	296.19
287.675	306.19
287.906	291.19
288.138	290.19
288.369	294.19
288.6	292.19
288.831	292.19
289.062	286.19
289.293	292.19
289.524	292.19
289.755	290.19
289.986	301.19
290.217	316.19
290.448	304.19
290.679	283.19
290.91	279.19
291.141	282.19
291.371	293.19
291.602	304.19
291.833	291.19
292.064	319.19
292.295	303.19
292.526	283.19
292.757	276.19
292.987	309.19
293.218	307.19
293.449	312.19
293.68	305.19
293.91	318.19
294.141	286.19
294.372	294.19
294.603	317.19
294.833	301.19
295.064	299.19
295.295	307.19
295.525	294.19
295.756	326.19
295.987	301.19
296.217	322.19
296.448	329.19
296.679	300.19
296.909	310.19
297.14	292.19
297.37	288.19
297.601	304.19
297.831	320.19
298.062	309.19
298.292	316.19
298.523	304.19
298.753	304.19
298.984	310.19
299.214	317.19
299.445	316.19
299.675	302.19
299.905	324.19
300.136	322.19
300.366	310.19
300.597	324.19
300.827	332.19
301.057	338.19
301.288	319.19
301.518	319.19
301.748	321.19
301.979	351.19
302.209	322.19
302.439	334.19
302.669	329.19
302.9	330.19
303.13	336.19
303.36	329.19
303.59	337.19
303.82	328.19
304.051	346.19
304.281	346.19
304.511	339.19
304.741	338.19
304.971	331.19
305.201	340.19
305.431	335.19
305.661	346.19
305.891	328.19
306.121	325.19
306.352	323.19
306.582	333.19
306.812	327.19
307.042	329.19
307.272	339.19
307.502	333.19
307.731	343.19
307.961	341.19
308.191	355.19
308.421	350.19
308.651	323.19
308.881	349.19
309.111	342.19
309.341	354.19
309.571	343.19
309.8	348.19
310.03	358.19
310.26	361.19
310.49	357.19
310.72	370.19
310.949	384.19
311.179	374.19
311.409	373.19
311.639	348.19
311.868	368.19
312.098	356.19
312.328	366.19
312.557	376.19
312.787	384.19
313.017	388.19
313.246	371.19
313.476	361.19
313.706	359.19
313.935	354.19
314.165	385.19
314.394	383.19
314.624	389.19
314.853	377.19
315.083	382.19
315.312	356.19
315.542	349.19
315.771	367.19
316.001	353.19
316.23	355.19
316.46	349.19
316.689	367.19
316.919	363.19
317.148	377.19
317.377	384.19
317.607	349.19
317.836	370.19
318.065	372.19
318.295	366.19
318.524	365.19
318.753	376.19
318.983	358.19
319.212	381.19
319.441	373.19
319.67	393.19
319.9	366.19
320.129	366.19
320.358	388.19
320.587	389.19
320.816	373.19
321.046	380.19
321.275	390.19
321.504	385.19
321.733	397.19
321.962	399.19
322.191	400.19
322.42	389.19
322.649	393.19
322.878	401.19
323.108	421.19
323.337	432.19
323.566	428.19
323.795	458.19
324.024	511.19
324.253	548.19
324.482	753.19
324.71	1043.19
324.939	1423.19
325.168	1281.19
325.397	717.19
325.626	540.19
325.855	457.19
326.084	445.19
326.313	442.19
326.542	437.19
326.77	494.19
326.999	547.19
327.228	649.19
327.457	943.19
327.686	1134.19
327.914	784.19
328.143	571.19
328.372	517.19
328.6	501.19
328.829	508.19
329.058	480.19
329.287	495.19
329.515	502.19
329.744	456.19
329.972	461.19
330.201	478.19
330.43	500.19
330.658	510.19
330.887	506.19
331.115	497.19
331.344	481.19
331.572	463.19
331.801	465.19
332.03	466.19
332.258	459.19
332.486	465.19
332.715	456.19
332.943	472.19
333.172	447.19
333.4	447.19
333.629	470.19
333.857	495.19
334.085	500.19
334.314	519.19
334.542	531.19
334.771	520.19
334.999	491.19
335.227	479.19
335.455	472.19
335.684	456.19
335.912	467.19
336.14	479.19
336.369	433.19
336.597	454.19
336.825	446.19
337.053	463.19
337.281	461.19
337.51	462.19
337.738	451.19
337.966	443.19
338.194	442.19
338.422	434.19
338.65	428.19
338.878	424.19
339.106	413.19
339.334	431.19
339.562	444.19
339.79	441.19
340.018	443.19
340.246	420.19
340.474	417.19
340.702	415.19
340.93	414.19
341.158	433.19
341.386	443.19
341.614	419.19
341.842	415.19
342.07	423.19
342.298	432.19
342.526	411.19
342.754	403.19
342.981	401.19
343.209	409.19
343.437	435.19
343.665	430.19
343.893	472.19
344.12	458.19
344.348	467.19
344.576	439.19
344.804	449.19
345.031	438.19
345.259	445.19
345.487	433.19
345.714	410.19
345.942	415.19
346.17	418.19
346.397	408.19
346.625	406.19
346.853	398.19
347.08	414.19
347.308	392.19
347.535	406.19
347.763	406.19
347.99	418.19
348.218	408.19
348.445	414.19
348.673	419.19
348.9	397.19
349.128	405.19
349.355	408.19
349.583	375.19
349.81	396.19
350.037	396.19
350.265	405.19
350.492	397.19
350.72	401.19
350.947	417.19
351.174	399.19
351.402	420.19
351.629	403.19
351.856	397.19
352.083	400.19
352.311	420.19
352.538	409.19
352.765	422.19
352.992	403.19
353.22	394.19
353.447	398.19
353.674	378.19
353.901	371.19
354.128	397.19
354.355	379.19
354.583	373.19
354.81	360.19
355.037	391.19
355.264	383.19
355.491	396.19
355.718	380.19
355.945	401.19
356.172	375.19
356.399	384.19
356.626	386.19
356.853	405.19
357.08	392.19
357.307	393.19
357.534	393.19
357.761	372.19
357.988	391.19
358.215	380.19
358.441	408.19
358.668	374.19
358.895	381.19
359.122	399.19
359.349	383.19
359.576	413.19
359.802	415.19
360.029	412.19
360.256	431.19
360.483	399.19
360.709	413.19
360.936	415.19
361.163	405.19
361.39	408.19
361.616	398.19
361.843	410.19
362.07	407.19
362.296	389.19
362.523	403.19
362.749	396.19
362.976	404.19
363.203	408.19
363.429	388.19
363.656	400.19
363.882	408.19
364.109	389.19
364.335	389.19
364.562	402.19
364.788	375.19
365.015	376.19
365.241	401.19
365.468	394.19
365.694	412.19
365.92	408.19
366.147	399.19
366.373	384.19
366.599	389.19
366.826	391.19
367.052	378.19
367.278	406.19
367.505	391.19
367.731	388.19
367.957	405.19
368.184	407.19
368.41	396.19
368.636	400.19
368.862	426.19
369.089	388.19
369.315	409.19
369.541	388.19
369.767	403.19
369.993	411.19
370.219	398.19
370.445	403.19
370.672	383.19
370.898	401.19
371.124	389.19
371.35	408.19
371.576	413.19
371.802	383.19
372.028	393.19
372.254	384.19
372.48	401.19
372.706	404.19
372.932	408.19
373.158	399.19
373.384	415.19
373.61	409.19
373.835	402.19
374.061	403.19
374.287	386.19
374.513	426.19
374.739	415.19
374.965	418.19
375.191	431.19
375.416	430.19
375.642	408.19
375.868	416.19
376.094	421.19
376.319	416.19
376.545	417.19
376.771	387.19
376.997	384.19
377.222	412.19
377.448	401.19
377.674	433.19
377.899	404.19
378.125	395.19
378.35	407.19
378.576	420.19
378.802	401.19
379.027	393.19
379.253	423.19
379.478	392.19
379.704	406.19
379.929	405.19
380.155	404.19
380.38	398.19
380.606	420.19
380.831	392.19
381.057	417.19
381.282	404.19
381.507	407.19
381.733	421.19
381.958	393.19
382.184	394.19
382.409	413.19
382.634	413.19
382.86	410.19
383.085	440.19
383.31	413.19
383.535	421.19
383.761	423.19
383.986	428.19
384.211	461.19
384.436	421.19
384.662	443.19
384.887	461.19
385.112	443.19
385.337	467.19
385.562	440.19
385.787	452.19
386.013	454.19
386.238	475.19
386.463	461.19
386.688	469.19
386.913	458.19
387.138	449.19
387.363	452.19
387.588	462.19
387.813	443.19
388.038	460.19
388.263	459.19
388.488	466.19
388.713	453.19
388.938	453.19
389.163	473.19
389.387	466.19
389.612	455.19
389.837	460.19
390.062	462.19
390.287	443.19
390.512	464.19
390.736	465.19
390.961	452.19
391.186	467.19
391.411	463.19
391.636	492.19
391.86	492.19
392.085	495.19
392.31	492.19
392.534	495.19
392.759	473.19
392.984	485.19
393.208	473.19
393.433	471.19
393.658	476.19
393.882	495.19
394.107	476.19
394.331	472.19
394.556	469.19
394.78	480.19
395.005	472.19
395.229	468.19
395.454	479.19
395.678	473.19
395.903	506.19
396.127	493.19
396.352	474.19
396.576	487.19
396.801	488.19
397.025	491.19
397.249	493.19
397.474	534.19
397.698	477.19
397.922	515.19
398.147	520.19
398.371	551.19
398.595	540.19
398.82	532.19
399.044	551.19
399.268	570.19
399.492	629.19
399.717	676.19
399.941	710.19
400.165	693.19
400.389	680.19
400.613	622.19
400.837	569.19
401.062	539.19
401.286	570.19
401.51	547.19
401.734	527.19
401.958	577.19
402.182	552.19
402.406	542.19
402.63	562.19
402.854	551.19
403.078	550.19
403.302	598.19
403.526	565.19
403.75	597.19
403.974	577.19
404.198	579.19
404.422	588.19
404.645	597.19
404.869	566.19
405.093	594.19
405.317	639.19
405.541	677.19
405.765	608.19
405.988	582.19
406.212	596.19
406.436	598.19
406.66	614.19
406.883	591.19
407.107	644.19
407.331	656.19
407.555	726.19
407.778	710.19
408.002	650.19
408.226	642.19
408.449	630.19
408.673	624.19
408.896	639.19
409.12	661.19
409.344	615.19
409.567	602.19
409.791	578.19
410.014	582.19
410.238	582.19
410.461	570.19
410.685	580.19
410.908	586.19
411.132	605.19
411.355	589.19
411.578	607.19
411.802	548.19
412.025	564.19
412.249	565.19
412.472	588.19
412.695	621.19
412.919	584.19
413.142	563.19
413.365	549.19
413.589	538.19
413.812	542.19
414.035	546.19
414.258	521.19
414.482	539.19
414.705	561.19
414.928	535.19
415.151	544.19
415.374	544.19
415.597	522.19
415.821	499.19
416.044	525.19
416.267	548.19
416.49	557.19
416.713	558.19
416.936	530.19
417.159	530.19
417.382	522.19
417.605	518.19
417.828	526.19
418.051	532.19
418.274	546.19
418.497	552.19
418.72	525.19
418.943	543.19
419.166	577.19
419.389	579.19
419.611	584.19
419.834	572.19
420.057	540.19
420.28	548.19
420.503	557.19
420.726	550.19
420.948	540.19
421.171	575.19
421.394	597.19
421.617	570.19
421.839	547.19
422.062	553.19
422.285	563.19
422.507	589.19
422.73	641.19
422.953	640.19
423.175	569.19
423.398	575.19
423.621	565.19
423.843	557.19
424.066	600.19
424.288	574.19
424.511	603.19
424.733	629.19
424.956	683.19
425.178	634.19
425.401	647.19
425.623	675.19
425.846	583.19
426.068	571.19
426.291	546.19
426.513	561.19
426.735	568.19
426.958	599.19
427.18	631.19
427.402	706.19
427.625	805.19
427.847	687.19
428.069	627.19
428.292	583.19
428.514	541.19
428.736	537.19
428.958	511.19
429.181	533.19
429.403	508.19
429.625	511.19
429.847	559.19
430.069	609.19
430.292	579.19
430.514	519.19
430.736	521.19
430.958	510.19
431.18	517.19
431.402	531.19
431.624	501.19
431.846	511.19
432.068	508.19
432.29	488.19
432.512	484.19
432.734	503.19
432.956	495.19
433.178	522.19
433.4	497.19
433.622	502.19
433.844	503.19
434.066	505.19
434.287	516.19
434.509	505.19
434.731	535.19
434.953	531.19
435.175	541.19
435.397	558.19
435.618	533.19
435.84	581.19
436.062	628.19
436.284	693.19
436.505	591.19
436.727	581.19
436.949	547.19
437.17	533.19
437.392	518.19
437.614	515.19
437.835	514.19
438.057	597.19
438.278	686.19
438.5	666.19
438.721	731.19
438.943	723.19
439.165	573.19
439.386	547.19
439.608	552.19
439.829	560.19
440.05	566.19
440.272	612.19
440.493	567.19
440.715	530.19
440.936	516.19
441.158	544.19
441.379	527.19
441.6	560.19
441.822	585.19
442.043	593.19
442.264	640.19
442.486	697.19
442.707	603.19
442.928	550.19
443.149	552.19
443.371	576.19
443.592	601.19
443.813	674.19
444.034	740.19
444.255	624.19
444.476	612.19
444.698	614.19
444.919	608.19
445.14	722.19
445.361	653.19
445.582	607.19
445.803	647.19
446.024	689.19
446.245	694.19
446.466	658.19
446.687	576.19
446.908	562.19
447.129	533.19
447.35	515.19
447.571	491.19
447.792	481.19
448.013	484.19
448.234	513.19
448.455	535.19
448.675	645.19
448.896	709.19
449.117	618.19
449.338	577.19
449.559	687.19
449.779	765.19
450	612.19
450.221	555.19
450.442	520.19
450.662	488.19
450.883	497.19
451.104	478.19
451.324	493.19
451.545	486.19
451.766	469.19
451.986	463.19
452.207	470.19
452.428	457.19
452.648	463.19
452.869	466.19
453.089	444.19
453.31	456.19
453.53	458.19
453.751	459.19
453.971	451.19
454.192	437.19
454.412	467.19
454.633	465.19
454.853	462.19
455.073	452.19
455.294	459.19
455.514	507.19
455.734	493.19
455.955	439.19
456.175	464.19
456.395	441.19
456.616	456.19
456.836	438.19
457.056	430.19
457.276	417.19
457.497	443.19
457.717	438.19
457.937	464.19
458.157	455.19
458.377	471.19
458.598	478.19
458.818	521.19
459.038	553.19
459.258	565.19
459.478	510.19
459.698	515.19
459.918	519.19
460.138	517.19
460.358	558.19
460.578	564.19
460.798	559.19
461.018	555.19
461.238	550.19
461.458	541.19
461.678	552.19
461.898	530.19
462.118	552.19
462.338	539.19
462.558	577.19
462.777	573.19
462.997	604.19
463.217	621.19
463.437	641.19
463.657	600.19
463.876	593.19
464.096	609.19
464.316	579.19
464.536	590.19
464.755	598.19
464.975	598.19
465.195	590.19
465.414	593.19
465.634	543.19
465.854	521.19
466.073	509.19
466.293	496.19
466.512	480.19
466.732	485.19
466.951	492.19
467.171	490.19
467.391	468.19
467.61	477.19
467.829	490.19
468.049	489.19
468.268	481.19
468.488	464.19
468.707	445.19
468.927	457.19
469.146	497.19
469.365	491.19
469.585	466.19
469.804	479.19
470.023	476.19
470.243	504.19
470.462	502.19
470.681	492.19
470.901	517.19
471.12	493.19
471.339	484.19
471.558	479.19
471.777	478.19
471.997	495.19
472.216	482.19
472.435	507.19
472.654	482.19
472.873	488.19
473.092	454.19
473.311	495.19
473.53	469.19
473.749	486.19
473.968	511.19
474.187	552.19
474.406	579.19
474.625	522.19
474.844	463.19
475.063	484.19
475.282	470.19
475.501	482.19
475.72	502.19
475.939	495.19
476.158	493.19
476.377	499.19
476.596	494.19
476.814	500.19
477.033	516.19
477.252	519.19
477.471	509.19
477.69	528.19
477.908	535.19
478.127	548.19
478.346	550.19
478.564	566.19
478.783	552.19
479.002	563.19
479.22	559.19
479.439	586.19
479.658	572.19
479.876	574.19
480.095	588.19
480.313	647.19
480.532	633.19
480.751	618.19
480.969	604.19
481.188	623.19
481.406	639.19
481.624	598.19
481.843	583.19
482.061	549.19
482.28	552.19
482.498	556.19
482.717	561.19
482.935	568.19
483.153	565.19
483.372	564.19
483.59	565.19
483.808	547.19
484.027	567.19
484.245	571.19
484.463	552.19
484.681	576.19
484.9	598.19
485.118	559.19
485.336	557.19
485.554	566.19
485.772	572.19
485.99	558.19
486.209	589.19
486.427	591.19
486.645	571.19
486.863	595.19
487.081	597.19
487.299	592.19
487.517	582.19
487.735	581.19
487.953	587.19
488.171	591.19
488.389	586.19
488.607	569.19
488.825	583.19
489.043	595.19
489.261	595.19
489.479	607.19
489.696	603.19
489.914	583.19
490.132	590.19
490.35	612.19
490.568	625.19
490.786	603.19
491.003	601.19
491.221	633.19
491.439	618.19
491.657	649.19
491.874	660.19
492.092	637.19
492.31	635.19
492.527	658.19
492.745	654.19
492.963	678.19
493.18	673.19
493.398	675.19
493.615	676.19
493.833	658.19
494.05	686.19
494.268	674.19
494.485	687.19
494.703	679.19
494.92	669.19
495.138	662.19
495.355	685.19
495.573	698.19
495.79	686.19
496.008	664.19
496.225	678.19
496.442	686.19
496.66	679.19
496.877	688.19
497.094	702.19
497.312	731.19
497.529	764.19
497.746	750.19
497.963	761.19
498.181	787.19
498.398	819.19
498.615	816.19
498.832	850.19
499.049	859.19
499.267	893.19
499.484	936.19
499.701	992.19
499.918	1068.19
500.135	1127.19
500.352	1173.19
500.569	1256.19
500.786	1224.19
501.003	1202.19
501.22	1145.19
501.437	1104.19
501.654	1036.19
501.871	991.19
