Data from 1962.PennyLincolnUp.Lamp.En5.5.200Scan.071719.P1._HRD10591_13-54-52-061.txt Node
Date: Thu Jul 18 13:54:52 EDT 2019
User: cochatt
Spectrometer: HR+D1059
Trigger mode: 1
Integration Time (sec): 1.000000E-1
Scans to average: 1
Electric dark correction enabled: true
Nonlinearity correction enabled: false
Boxcar width: 0
XAxis mode: Wavelengths
Number of Pixels in Spectrum: 2048
>>>>>Begin Spectral Data<<<<<
223.165	-11.38
223.4	-11.38
223.635	-11.38
223.869	-13.38
224.104	-25.38
224.338	-16.38
224.573	-25.38
224.808	-21.38
225.042	-12.38
225.277	8.62
225.511	-12.38
225.746	11.62
225.98	16.62
226.215	14.62
226.449	22.62
226.683	11.62
226.918	19.62
227.152	32.62
227.387	35.62
227.621	37.62
227.856	49.62
228.09	50.62
228.324	41.62
228.559	57.62
228.793	79.62
229.027	90.62
229.262	111.62
229.496	97.62
229.73	119.62
229.964	133.62
230.199	113.62
230.433	113.62
230.667	96.62
230.901	96.62
231.136	103.62
231.37	103.62
231.604	98.62
231.838	104.62
232.072	102.62
232.306	114.62
232.541	120.62
232.775	114.62
233.009	100.62
233.243	103.62
233.477	111.62
233.711	108.62
233.945	105.62
234.179	118.62
234.413	109.62
234.647	113.62
234.881	113.62
235.115	114.62
235.349	109.62
235.583	124.62
235.817	121.62
236.051	124.62
236.285	119.62
236.519	127.62
236.753	124.62
236.987	133.62
237.221	144.62
237.455	188.62
237.689	168.62
237.922	140.62
238.156	133.62
238.39	119.62
238.624	115.62
238.858	115.62
239.091	121.62
239.325	116.62
239.559	119.62
239.793	131.62
240.027	130.62
240.26	122.62
240.494	138.62
240.728	138.62
240.961	128.62
241.195	139.62
241.429	130.62
241.662	155.62
241.896	116.62
242.13	119.62
242.363	119.62
242.597	122.62
242.83	134.62
243.064	134.62
243.298	115.62
243.531	131.62
243.765	147.62
243.998	154.62
244.232	141.62
244.465	146.62
244.699	134.62
244.932	123.62
245.166	152.62
245.399	150.62
245.633	144.62
245.866	151.62
246.099	144.62
246.333	140.62
246.566	138.62
246.8	140.62
247.033	134.62
247.266	167.62
247.5	148.62
247.733	154.62
247.966	180.62
248.2	164.62
248.433	148.62
248.666	137.62
248.899	176.62
249.133	171.62
249.366	181.62
249.599	168.62
249.832	168.62
250.066	165.62
250.299	196.62
250.532	181.62
250.765	192.62
250.998	179.62
251.231	205.62
251.465	201.62
251.698	192.62
251.931	184.62
252.164	185.62
252.397	167.62
252.63	194.62
252.863	188.62
253.096	211.62
253.329	201.62
253.562	196.62
253.795	200.62
254.028	196.62
254.261	191.62
254.494	217.62
254.727	228.62
254.96	230.62
255.193	241.62
255.426	225.62
255.659	208.62
255.892	218.62
256.124	205.62
256.357	202.62
256.59	201.62
256.823	193.62
257.056	211.62
257.289	197.62
257.521	194.62
257.754	179.62
257.987	202.62
258.22	183.62
258.452	192.62
258.685	182.62
258.918	186.62
259.151	188.62
259.383	198.62
259.616	205.62
259.849	203.62
260.081	211.62
260.314	219.62
260.547	235.62
260.779	231.62
261.012	220.62
261.244	222.62
261.477	206.62
261.71	209.62
261.942	217.62
262.175	215.62
262.407	203.62
262.64	207.62
262.872	202.62
263.105	195.62
263.337	212.62
263.57	216.62
263.802	190.62
264.035	215.62
264.267	188.62
264.499	203.62
264.732	226.62
264.964	202.62
265.197	214.62
265.429	215.62
265.661	203.62
265.894	211.62
266.126	214.62
266.358	211.62
266.591	230.62
266.823	218.62
267.055	226.62
267.287	221.62
267.52	220.62
267.752	215.62
267.984	232.62
268.216	217.62
268.448	241.62
268.681	233.62
268.913	219.62
269.145	253.62
269.377	261.62
269.609	245.62
269.841	253.62
270.073	257.62
270.306	243.62
270.538	288.62
270.77	262.62
271.002	287.62
271.234	272.62
271.466	300.62
271.698	299.62
271.93	297.62
272.162	293.62
272.394	301.62
272.626	285.62
272.858	260.62
273.09	262.62
273.322	260.62
273.553	250.62
273.785	257.62
274.017	237.62
274.249	270.62
274.481	257.62
274.713	257.62
274.945	257.62
275.176	233.62
275.408	268.62
275.64	270.62
275.872	257.62
276.104	252.62
276.335	261.62
276.567	242.62
276.799	285.62
277.031	285.62
277.262	288.62
277.494	309.62
277.726	295.62
277.957	275.62
278.189	267.62
278.421	233.62
278.652	264.62
278.884	280.62
279.115	269.62
279.347	277.62
279.579	275.62
279.81	284.62
280.042	275.62
280.273	267.62
280.505	272.62
280.736	264.62
280.968	269.62
281.199	275.62
281.431	272.62
281.662	284.62
281.894	269.62
282.125	285.62
282.356	281.62
282.588	288.62
282.819	287.62
283.051	279.62
283.282	266.62
283.513	294.62
283.745	277.62
283.976	290.62
284.207	268.62
284.439	285.62
284.67	290.62
284.901	291.62
285.132	298.62
285.364	288.62
285.595	284.62
285.826	293.62
286.057	289.62
286.288	264.62
286.52	295.62
286.751	290.62
286.982	301.62
287.213	296.62
287.444	293.62
287.675	306.62
287.906	309.62
288.138	306.62
288.369	295.62
288.6	289.62
288.831	300.62
289.062	308.62
289.293	292.62
289.524	304.62
289.755	308.62
289.986	313.62
290.217	298.62
290.448	276.62
290.679	300.62
290.91	293.62
291.141	288.62
291.371	313.62
291.602	290.62
291.833	294.62
292.064	289.62
292.295	285.62
292.526	303.62
292.757	316.62
292.987	307.62
293.218	280.62
293.449	309.62
293.68	302.62
293.91	300.62
294.141	297.62
294.372	319.62
294.603	304.62
294.833	305.62
295.064	312.62
295.295	312.62
295.525	313.62
295.756	323.62
295.987	305.62
296.217	317.62
296.448	323.62
296.679	309.62
296.909	319.62
297.14	305.62
297.37	303.62
297.601	320.62
297.831	310.62
298.062	327.62
298.292	320.62
298.523	325.62
298.753	295.62
298.984	330.62
299.214	323.62
299.445	331.62
299.675	310.62
299.905	331.62
300.136	305.62
300.366	328.62
300.597	337.62
300.827	334.62
301.057	349.62
301.288	333.62
301.518	328.62
301.748	332.62
301.979	331.62
302.209	338.62
302.439	340.62
302.669	356.62
302.9	342.62
303.13	331.62
303.36	337.62
303.59	351.62
303.82	331.62
304.051	347.62
304.281	325.62
304.511	358.62
304.741	339.62
304.971	343.62
305.201	359.62
305.431	358.62
305.661	345.62
305.891	333.62
306.121	320.62
306.352	341.62
306.582	336.62
306.812	353.62
307.042	345.62
307.272	337.62
307.502	348.62
307.731	342.62
307.961	339.62
308.191	356.62
308.421	333.62
308.651	343.62
308.881	328.62
309.111	369.62
309.341	336.62
309.571	338.62
309.8	349.62
310.03	356.62
310.26	365.62
310.49	367.62
310.72	360.62
310.949	383.62
311.179	367.62
311.409	375.62
311.639	361.62
311.868	355.62
312.098	374.62
312.328	374.62
312.557	362.62
312.787	385.62
313.017	385.62
313.246	370.62
313.476	358.62
313.706	395.62
313.935	384.62
314.165	396.62
314.394	388.62
314.624	394.62
314.853	379.62
315.083	380.62
315.312	381.62
315.542	375.62
315.771	371.62
316.001	365.62
316.23	373.62
316.46	379.62
316.689	376.62
316.919	379.62
317.148	378.62
317.377	369.62
317.607	399.62
317.836	370.62
318.065	378.62
318.295	380.62
318.524	388.62
318.753	359.62
318.983	367.62
319.212	379.62
319.441	366.62
319.67	387.62
319.9	361.62
320.129	365.62
320.358	372.62
320.587	396.62
320.816	390.62
321.046	405.62
321.275	403.62
321.504	389.62
321.733	383.62
321.962	386.62
322.191	411.62
322.42	398.62
322.649	397.62
322.878	423.62
323.108	431.62
323.337	429.62
323.566	456.62
323.795	454.62
324.024	492.62
324.253	554.62
324.482	728.62
324.71	1059.62
324.939	1459.62
325.168	1347.62
325.397	744.62
325.626	529.62
325.855	482.62
326.084	462.62
326.313	452.62
326.542	464.62
326.77	480.62
326.999	544.62
327.228	690.62
327.457	988.62
327.686	1167.62
327.914	815.62
328.143	585.62
328.372	533.62
328.6	508.62
328.829	499.62
329.058	500.62
329.287	518.62
329.515	471.62
329.744	454.62
329.972	466.62
330.201	479.62
330.43	493.62
330.658	521.62
330.887	513.62
331.115	511.62
331.344	493.62
331.572	459.62
331.801	467.62
332.03	467.62
332.258	479.62
332.486	445.62
332.715	444.62
332.943	461.62
333.172	458.62
333.4	480.62
333.629	493.62
333.857	492.62
334.085	517.62
334.314	499.62
334.542	481.62
334.771	542.62
334.999	478.62
335.227	488.62
335.455	458.62
335.684	478.62
335.912	466.62
336.14	456.62
336.369	451.62
336.597	476.62
336.825	468.62
337.053	459.62
337.281	458.62
337.51	444.62
337.738	469.62
337.966	441.62
338.194	454.62
338.422	455.62
338.65	431.62
338.878	458.62
339.106	428.62
339.334	448.62
339.562	436.62
339.79	434.62
340.018	432.62
340.246	431.62
340.474	452.62
340.702	414.62
340.93	420.62
341.158	449.62
341.386	431.62
341.614	438.62
341.842	431.62
342.07	454.62
342.298	415.62
342.526	422.62
342.754	428.62
342.981	426.62
343.209	425.62
343.437	433.62
343.665	458.62
343.893	452.62
344.12	484.62
344.348	463.62
344.576	463.62
344.804	462.62
345.031	457.62
345.259	435.62
345.487	434.62
345.714	444.62
345.942	433.62
346.17	433.62
346.397	433.62
346.625	425.62
346.853	395.62
347.08	416.62
347.308	411.62
347.535	411.62
347.763	439.62
347.99	427.62
348.218	409.62
348.445	406.62
348.673	420.62
348.9	415.62
349.128	409.62
349.355	424.62
349.583	412.62
349.81	395.62
350.037	396.62
350.265	411.62
350.492	411.62
350.72	384.62
350.947	405.62
351.174	409.62
351.402	419.62
351.629	389.62
351.856	421.62
352.083	417.62
352.311	428.62
352.538	420.62
352.765	422.62
352.992	424.62
353.22	411.62
353.447	409.62
353.674	402.62
353.901	393.62
354.128	397.62
354.355	388.62
354.583	375.62
354.81	413.62
355.037	392.62
355.264	400.62
355.491	386.62
355.718	386.62
355.945	385.62
356.172	387.62
356.399	403.62
356.626	410.62
356.853	402.62
357.08	386.62
357.307	415.62
357.534	407.62
357.761	389.62
357.988	391.62
358.215	400.62
358.441	393.62
358.668	399.62
358.895	405.62
359.122	409.62
359.349	392.62
359.576	395.62
359.802	396.62
360.029	420.62
360.256	433.62
360.483	443.62
360.709	410.62
360.936	407.62
361.163	413.62
361.39	416.62
361.616	408.62
361.843	408.62
362.07	400.62
362.296	404.62
362.523	400.62
362.749	387.62
362.976	413.62
363.203	427.62
363.429	380.62
363.656	392.62
363.882	404.62
364.109	403.62
364.335	383.62
364.562	407.62
364.788	403.62
365.015	403.62
365.241	415.62
365.468	405.62
365.694	393.62
365.92	412.62
366.147	405.62
366.373	395.62
366.599	401.62
366.826	378.62
367.052	401.62
367.278	377.62
367.505	402.62
367.731	394.62
367.957	400.62
368.184	395.62
368.41	390.62
368.636	397.62
368.862	412.62
369.089	403.62
369.315	377.62
369.541	425.62
369.767	408.62
369.993	425.62
370.219	412.62
370.445	395.62
370.672	409.62
370.898	412.62
371.124	405.62
371.35	411.62
371.576	419.62
371.802	413.62
372.028	407.62
372.254	413.62
372.48	413.62
372.706	426.62
372.932	433.62
373.158	431.62
373.384	418.62
373.61	437.62
373.835	398.62
374.061	404.62
374.287	431.62
374.513	426.62
374.739	435.62
374.965	443.62
375.191	417.62
375.416	431.62
375.642	424.62
375.868	432.62
376.094	417.62
376.319	397.62
376.545	421.62
376.771	405.62
376.997	404.62
377.222	434.62
377.448	410.62
377.674	406.62
377.899	410.62
378.125	403.62
378.35	397.62
378.576	413.62
378.802	385.62
379.027	419.62
379.253	416.62
379.478	407.62
379.704	419.62
379.929	420.62
380.155	432.62
380.38	425.62
380.606	411.62
380.831	392.62
381.057	412.62
381.282	439.62
381.507	419.62
381.733	406.62
381.958	419.62
382.184	421.62
382.409	422.62
382.634	419.62
382.86	426.62
383.085	435.62
383.31	431.62
383.535	453.62
383.761	451.62
383.986	437.62
384.211	442.62
384.436	451.62
384.662	455.62
384.887	454.62
385.112	447.62
385.337	444.62
385.562	439.62
385.787	456.62
386.013	460.62
386.238	477.62
386.463	476.62
386.688	472.62
386.913	459.62
387.138	453.62
387.363	422.62
387.588	452.62
387.813	465.62
388.038	467.62
388.263	472.62
388.488	478.62
388.713	452.62
388.938	478.62
389.163	441.62
389.387	468.62
389.612	449.62
389.837	459.62
390.062	465.62
390.287	457.62
390.512	462.62
390.736	450.62
390.961	484.62
391.186	465.62
391.411	483.62
391.636	482.62
391.86	482.62
392.085	499.62
392.31	498.62
392.534	481.62
392.759	495.62
392.984	485.62
393.208	500.62
393.433	488.62
393.658	511.62
393.882	491.62
394.107	473.62
394.331	487.62
394.556	486.62
394.78	479.62
395.005	487.62
395.229	486.62
395.454	496.62
395.678	496.62
395.903	501.62
396.127	529.62
396.352	515.62
396.576	491.62
396.801	488.62
397.025	504.62
397.249	510.62
397.474	525.62
397.698	536.62
397.922	528.62
398.147	522.62
398.371	533.62
398.595	552.62
398.82	534.62
399.044	564.62
399.268	603.62
399.492	648.62
399.717	671.62
399.941	721.62
400.165	715.62
400.389	667.62
400.613	620.62
400.837	588.62
401.062	545.62
401.286	576.62
401.51	543.62
401.734	544.62
401.958	556.62
402.182	544.62
402.406	573.62
402.63	579.62
402.854	573.62
403.078	581.62
403.302	586.62
403.526	580.62
403.75	598.62
403.974	568.62
404.198	569.62
404.422	593.62
404.645	584.62
404.869	628.62
405.093	611.62
405.317	642.62
405.541	671.62
405.765	626.62
405.988	593.62
406.212	585.62
406.436	607.62
406.66	633.62
406.883	620.62
407.107	635.62
407.331	670.62
407.555	717.62
407.778	738.62
408.002	684.62
408.226	655.62
408.449	647.62
408.673	637.62
408.896	626.62
409.12	667.62
409.344	643.62
409.567	608.62
409.791	581.62
410.014	599.62
410.238	580.62
410.461	579.62
410.685	594.62
410.908	600.62
411.132	626.62
411.355	621.62
411.578	610.62
411.802	592.62
412.025	550.62
412.249	579.62
412.472	610.62
412.695	607.62
412.919	606.62
413.142	551.62
413.365	566.62
413.589	561.62
413.812	555.62
414.035	549.62
414.258	521.62
414.482	533.62
414.705	546.62
414.928	542.62
415.151	537.62
415.374	567.62
415.597	519.62
415.821	539.62
416.044	523.62
416.267	553.62
416.49	519.62
416.713	520.62
416.936	523.62
417.159	541.62
417.382	561.62
417.605	539.62
417.828	553.62
418.051	553.62
418.274	551.62
418.497	565.62
418.72	545.62
418.943	531.62
419.166	572.62
419.389	589.62
419.611	579.62
419.834	591.62
420.057	562.62
420.28	561.62
420.503	552.62
420.726	547.62
420.948	569.62
421.171	594.62
421.394	624.62
421.617	581.62
421.839	542.62
422.062	569.62
422.285	559.62
422.507	609.62
422.73	626.62
422.953	656.62
423.175	586.62
423.398	583.62
423.621	591.62
423.843	585.62
424.066	588.62
424.288	597.62
424.511	628.62
424.733	640.62
424.956	717.62
425.178	689.62
425.401	671.62
425.623	705.62
425.846	610.62
426.068	586.62
426.291	559.62
426.513	574.62
426.735	554.62
426.958	629.62
427.18	646.62
427.402	765.62
427.625	826.62
427.847	704.62
428.069	643.62
428.292	568.62
428.514	545.62
428.736	559.62
428.958	541.62
429.181	519.62
429.403	511.62
429.625	522.62
429.847	548.62
430.069	602.62
430.292	615.62
430.514	545.62
430.736	515.62
430.958	538.62
431.18	521.62
431.402	521.62
431.624	519.62
431.846	503.62
432.068	507.62
432.29	509.62
432.512	514.62
432.734	506.62
432.956	520.62
433.178	515.62
433.4	529.62
433.622	502.62
433.844	517.62
434.066	488.62
434.287	520.62
434.509	521.62
434.731	571.62
434.953	541.62
435.175	556.62
435.397	571.62
435.618	554.62
435.84	603.62
436.062	653.62
436.284	714.62
436.505	625.62
436.727	548.62
436.949	537.62
437.17	535.62
437.392	528.62
437.614	531.62
437.835	545.62
438.057	604.62
438.278	689.62
438.5	697.62
438.721	751.62
438.943	730.62
439.165	600.62
439.386	571.62
439.608	571.62
439.829	540.62
440.05	579.62
440.272	615.62
440.493	570.62
440.715	543.62
440.936	529.62
441.158	541.62
441.379	536.62
441.6	552.62
441.822	555.62
442.043	593.62
442.264	666.62
442.486	714.62
442.707	600.62
442.928	596.62
443.149	567.62
443.371	599.62
443.592	603.62
443.813	696.62
444.034	759.62
444.255	651.62
444.476	600.62
444.698	607.62
444.919	613.62
445.14	727.62
445.361	667.62
445.582	614.62
445.803	629.62
446.024	703.62
446.245	728.62
446.466	642.62
446.687	584.62
446.908	543.62
447.129	536.62
447.35	530.62
447.571	536.62
447.792	539.62
448.013	520.62
448.234	528.62
448.455	556.62
448.675	633.62
448.896	737.62
449.117	635.62
449.338	599.62
449.559	702.62
449.779	786.62
450	618.62
450.221	525.62
450.442	522.62
450.662	507.62
450.883	477.62
451.104	501.62
451.324	504.62
451.545	509.62
451.766	468.62
451.986	470.62
452.207	455.62
452.428	453.62
452.648	467.62
452.869	471.62
453.089	478.62
453.31	468.62
453.53	481.62
453.751	458.62
453.971	469.62
454.192	466.62
454.412	443.62
454.633	459.62
454.853	460.62
455.073	457.62
455.294	464.62
455.514	526.62
455.734	492.62
455.955	471.62
456.175	464.62
456.395	451.62
456.616	446.62
456.836	457.62
457.056	437.62
457.276	445.62
457.497	445.62
457.717	449.62
457.937	441.62
458.157	458.62
458.377	468.62
458.598	496.62
458.818	497.62
459.038	546.62
459.258	595.62
459.478	544.62
459.698	516.62
459.918	508.62
460.138	530.62
460.358	546.62
460.578	546.62
460.798	532.62
461.018	552.62
461.238	550.62
461.458	561.62
461.678	556.62
461.898	551.62
462.118	564.62
462.338	578.62
462.558	571.62
462.777	600.62
462.997	617.62
463.217	623.62
463.437	652.62
463.657	600.62
463.876	611.62
464.096	593.62
464.316	598.62
464.536	587.62
464.755	599.62
464.975	568.62
465.195	576.62
465.414	599.62
465.634	565.62
465.854	546.62
466.073	496.62
466.293	523.62
466.512	491.62
466.732	490.62
466.951	491.62
467.171	487.62
467.391	480.62
467.61	500.62
467.829	497.62
468.049	484.62
468.268	474.62
468.488	479.62
468.707	475.62
468.927	469.62
469.146	492.62
469.365	477.62
469.585	480.62
469.804	491.62
470.023	487.62
470.243	496.62
470.462	490.62
470.681	489.62
470.901	507.62
471.12	505.62
471.339	473.62
471.558	482.62
471.777	483.62
471.997	497.62
472.216	477.62
472.435	493.62
472.654	516.62
472.873	488.62
473.092	489.62
473.311	483.62
473.53	454.62
473.749	480.62
473.968	515.62
474.187	579.62
474.406	587.62
474.625	511.62
474.844	496.62
475.063	484.62
475.282	491.62
475.501	473.62
475.72	488.62
475.939	522.62
476.158	499.62
476.377	502.62
476.596	516.62
476.814	530.62
477.033	526.62
477.252	520.62
477.471	523.62
477.69	536.62
477.908	526.62
478.127	532.62
478.346	553.62
478.564	563.62
478.783	561.62
479.002	567.62
479.22	570.62
479.439	601.62
479.658	586.62
479.876	593.62
480.095	600.62
480.313	625.62
480.532	621.62
480.751	626.62
480.969	610.62
481.188	644.62
481.406	643.62
481.624	595.62
481.843	575.62
482.061	565.62
482.28	565.62
482.498	573.62
482.717	550.62
482.935	577.62
483.153	546.62
483.372	543.62
483.59	551.62
483.808	560.62
484.027	575.62
484.245	563.62
484.463	550.62
484.681	574.62
484.9	573.62
485.118	589.62
485.336	598.62
485.554	597.62
485.772	571.62
485.99	588.62
486.209	595.62
486.427	603.62
486.645	584.62
486.863	623.62
487.081	600.62
487.299	614.62
487.517	605.62
487.735	604.62
487.953	617.62
488.171	602.62
488.389	566.62
488.607	612.62
488.825	580.62
489.043	611.62
489.261	635.62
489.479	614.62
489.696	579.62
489.914	576.62
490.132	620.62
490.35	610.62
490.568	621.62
490.786	635.62
491.003	641.62
491.221	647.62
491.439	657.62
491.657	652.62
491.874	658.62
492.092	667.62
492.31	642.62
492.527	657.62
492.745	653.62
492.963	674.62
493.18	678.62
493.398	668.62
493.615	663.62
493.833	688.62
494.05	663.62
494.268	682.62
494.485	689.62
494.703	677.62
494.92	664.62
495.138	686.62
495.355	683.62
495.573	696.62
495.79	679.62
496.008	688.62
496.225	700.62
496.442	682.62
496.66	693.62
496.877	705.62
497.094	705.62
497.312	727.62
497.529	751.62
497.746	759.62
497.963	760.62
498.181	793.62
498.398	770.62
498.615	840.62
498.832	855.62
499.049	851.62
499.267	900.62
499.484	943.62
499.701	1031.62
499.918	1079.62
500.135	1151.62
500.352	1220.62
500.569	1242.62
500.786	1263.62
501.003	1209.62
501.22	1134.62
501.437	1072.62
501.654	1021.62
501.871	1007.62
