Data from 1962.PennyLincolnUp.Lamp.En5.5.200Scan.071719.P1._HRD10591_13-54-00-061.txt Node
Date: Thu Jul 18 13:54:00 EDT 2019
User: cochatt
Spectrometer: HR+D1059
Trigger mode: 1
Integration Time (sec): 1.000000E-1
Scans to average: 1
Electric dark correction enabled: true
Nonlinearity correction enabled: false
Boxcar width: 0
XAxis mode: Wavelengths
Number of Pixels in Spectrum: 2048
>>>>>Begin Spectral Data<<<<<
223.165	-15.5
223.4	-15.5
223.635	-15.5
223.869	-34.5
224.104	-6.5
224.338	-23.5
224.573	-20.5
224.808	-20.5
225.042	-4.5
225.277	-7.5
225.511	6.5
225.746	6.5
225.98	11.5
226.215	9.5
226.449	17.5
226.683	15.5
226.918	26.5
227.152	39.5
227.387	32.5
227.621	47.5
227.856	47.5
228.09	36.5
228.324	44.5
228.559	59.5
228.793	71.5
229.027	92.5
229.262	100.5
229.496	109.5
229.73	95.5
229.964	108.5
230.199	116.5
230.433	104.5
230.667	95.5
230.901	103.5
231.136	108.5
231.37	105.5
231.604	107.5
231.838	113.5
232.072	93.5
232.306	121.5
232.541	119.5
232.775	105.5
233.009	101.5
233.243	117.5
233.477	113.5
233.711	107.5
233.945	113.5
234.179	89.5
234.413	89.5
234.647	104.5
234.881	114.5
235.115	117.5
235.349	108.5
235.583	117.5
235.817	123.5
236.051	105.5
236.285	102.5
236.519	113.5
236.753	121.5
236.987	115.5
237.221	138.5
237.455	184.5
237.689	163.5
237.922	122.5
238.156	117.5
238.39	131.5
238.624	104.5
238.858	121.5
239.091	120.5
239.325	117.5
239.559	129.5
239.793	96.5
240.027	121.5
240.26	131.5
240.494	140.5
240.728	124.5
240.961	133.5
241.195	139.5
241.429	128.5
241.662	139.5
241.896	125.5
242.13	128.5
242.363	128.5
242.597	134.5
242.83	128.5
243.064	121.5
243.298	133.5
243.531	114.5
243.765	151.5
243.998	143.5
244.232	137.5
244.465	139.5
244.699	135.5
244.932	138.5
245.166	144.5
245.399	133.5
245.633	133.5
245.866	139.5
246.099	146.5
246.333	129.5
246.566	154.5
246.8	137.5
247.033	145.5
247.266	153.5
247.5	138.5
247.733	140.5
247.966	156.5
248.2	151.5
248.433	157.5
248.666	160.5
248.899	150.5
249.133	166.5
249.366	184.5
249.599	159.5
249.832	155.5
250.066	168.5
250.299	140.5
250.532	159.5
250.765	161.5
250.998	180.5
251.231	185.5
251.465	177.5
251.698	179.5
251.931	168.5
252.164	167.5
252.397	176.5
252.63	188.5
252.863	174.5
253.096	201.5
253.329	191.5
253.562	214.5
253.795	194.5
254.028	195.5
254.261	202.5
254.494	196.5
254.727	196.5
254.96	231.5
255.193	228.5
255.426	209.5
255.659	190.5
255.892	214.5
256.124	195.5
256.357	200.5
256.59	185.5
256.823	198.5
257.056	184.5
257.289	198.5
257.521	196.5
257.754	196.5
257.987	201.5
258.22	190.5
258.452	186.5
258.685	185.5
258.918	203.5
259.151	192.5
259.383	192.5
259.616	189.5
259.849	210.5
260.081	217.5
260.314	226.5
260.547	209.5
260.779	227.5
261.012	204.5
261.244	188.5
261.477	199.5
261.71	199.5
261.942	208.5
262.175	197.5
262.407	199.5
262.64	203.5
262.872	210.5
263.105	203.5
263.337	207.5
263.57	189.5
263.802	191.5
264.035	197.5
264.267	223.5
264.499	205.5
264.732	213.5
264.964	189.5
265.197	207.5
265.429	205.5
265.661	197.5
265.894	206.5
266.126	225.5
266.358	208.5
266.591	212.5
266.823	231.5
267.055	214.5
267.287	217.5
267.52	205.5
267.752	215.5
267.984	223.5
268.216	224.5
268.448	218.5
268.681	219.5
268.913	208.5
269.145	222.5
269.377	238.5
269.609	246.5
269.841	245.5
270.073	243.5
270.306	264.5
270.538	272.5
270.77	258.5
271.002	261.5
271.234	269.5
271.466	248.5
271.698	280.5
271.93	263.5
272.162	273.5
272.394	255.5
272.626	287.5
272.858	268.5
273.09	249.5
273.322	252.5
273.553	245.5
273.785	251.5
274.017	261.5
274.249	254.5
274.481	252.5
274.713	249.5
274.945	255.5
275.176	258.5
275.408	247.5
275.64	255.5
275.872	247.5
276.104	265.5
276.335	261.5
276.567	257.5
276.799	269.5
277.031	271.5
277.262	279.5
277.494	271.5
277.726	277.5
277.957	275.5
278.189	276.5
278.421	276.5
278.652	252.5
278.884	266.5
279.115	267.5
279.347	266.5
279.579	261.5
279.81	247.5
280.042	260.5
280.273	240.5
280.505	270.5
280.736	268.5
280.968	259.5
281.199	248.5
281.431	277.5
281.662	284.5
281.894	269.5
282.125	274.5
282.356	271.5
282.588	267.5
282.819	277.5
283.051	268.5
283.282	271.5
283.513	279.5
283.745	266.5
283.976	276.5
284.207	269.5
284.439	272.5
284.67	305.5
284.901	279.5
285.132	273.5
285.364	278.5
285.595	287.5
285.826	263.5
286.057	275.5
286.288	271.5
286.52	277.5
286.751	285.5
286.982	289.5
287.213	301.5
287.444	272.5
287.675	267.5
287.906	289.5
288.138	311.5
288.369	303.5
288.6	298.5
288.831	299.5
289.062	286.5
289.293	284.5
289.524	264.5
289.755	283.5
289.986	294.5
290.217	287.5
290.448	279.5
290.679	281.5
290.91	299.5
291.141	297.5
291.371	297.5
291.602	287.5
291.833	298.5
292.064	272.5
292.295	301.5
292.526	296.5
292.757	288.5
292.987	284.5
293.218	298.5
293.449	275.5
293.68	285.5
293.91	295.5
294.141	307.5
294.372	299.5
294.603	294.5
294.833	308.5
295.064	292.5
295.295	304.5
295.525	282.5
295.756	295.5
295.987	300.5
296.217	313.5
296.448	307.5
296.679	325.5
296.909	306.5
297.14	300.5
297.37	303.5
297.601	303.5
297.831	313.5
298.062	315.5
298.292	272.5
298.523	287.5
298.753	324.5
298.984	313.5
299.214	304.5
299.445	331.5
299.675	300.5
299.905	323.5
300.136	332.5
300.366	319.5
300.597	317.5
300.827	287.5
301.057	323.5
301.288	329.5
301.518	335.5
301.748	338.5
301.979	338.5
302.209	330.5
302.439	321.5
302.669	339.5
302.9	332.5
303.13	319.5
303.36	325.5
303.59	333.5
303.82	343.5
304.051	357.5
304.281	332.5
304.511	333.5
304.741	321.5
304.971	321.5
305.201	324.5
305.431	321.5
305.661	339.5
305.891	338.5
306.121	318.5
306.352	324.5
306.582	331.5
306.812	322.5
307.042	331.5
307.272	338.5
307.502	319.5
307.731	340.5
307.961	329.5
308.191	341.5
308.421	339.5
308.651	352.5
308.881	339.5
309.111	315.5
309.341	338.5
309.571	361.5
309.8	333.5
310.03	353.5
310.26	347.5
310.49	365.5
310.72	339.5
310.949	378.5
311.179	364.5
311.409	353.5
311.639	353.5
311.868	358.5
312.098	364.5
312.328	350.5
312.557	352.5
312.787	353.5
313.017	374.5
313.246	389.5
313.476	370.5
313.706	359.5
313.935	367.5
314.165	362.5
314.394	365.5
314.624	380.5
314.853	363.5
315.083	381.5
315.312	362.5
315.542	358.5
315.771	369.5
316.001	360.5
316.23	356.5
316.46	366.5
316.689	367.5
316.919	367.5
317.148	376.5
317.377	374.5
317.607	388.5
317.836	374.5
318.065	352.5
318.295	355.5
318.524	369.5
318.753	377.5
318.983	362.5
319.212	353.5
319.441	360.5
319.67	377.5
319.9	358.5
320.129	365.5
320.358	361.5
320.587	351.5
320.816	373.5
321.046	377.5
321.275	373.5
321.504	389.5
321.733	397.5
321.962	377.5
322.191	382.5
322.42	383.5
322.649	388.5
322.878	395.5
323.108	407.5
323.337	414.5
323.566	439.5
323.795	447.5
324.024	466.5
324.253	522.5
324.482	654.5
324.71	954.5
324.939	1327.5
325.168	1169.5
325.397	661.5
325.626	511.5
325.855	461.5
326.084	453.5
326.313	436.5
326.542	432.5
326.77	437.5
326.999	484.5
327.228	618.5
327.457	866.5
327.686	1005.5
327.914	740.5
328.143	548.5
328.372	497.5
328.6	490.5
328.829	477.5
329.058	489.5
329.287	479.5
329.515	457.5
329.744	442.5
329.972	421.5
330.201	445.5
330.43	464.5
330.658	516.5
330.887	486.5
331.115	457.5
331.344	460.5
331.572	467.5
331.801	443.5
332.03	443.5
332.258	453.5
332.486	454.5
332.715	450.5
332.943	448.5
333.172	451.5
333.4	457.5
333.629	467.5
333.857	483.5
334.085	483.5
334.314	488.5
334.542	499.5
334.771	503.5
334.999	487.5
335.227	480.5
335.455	473.5
335.684	447.5
335.912	453.5
336.14	459.5
336.369	441.5
336.597	433.5
336.825	442.5
337.053	426.5
337.281	426.5
337.51	444.5
337.738	423.5
337.966	416.5
338.194	420.5
338.422	441.5
338.65	437.5
338.878	426.5
339.106	437.5
339.334	431.5
339.562	435.5
339.79	413.5
340.018	422.5
340.246	433.5
340.474	419.5
340.702	410.5
340.93	391.5
341.158	399.5
341.386	446.5
341.614	421.5
341.842	405.5
342.07	417.5
342.298	400.5
342.526	400.5
342.754	387.5
342.981	403.5
343.209	398.5
343.437	418.5
343.665	415.5
343.893	446.5
344.12	465.5
344.348	445.5
344.576	427.5
344.804	424.5
345.031	434.5
345.259	415.5
345.487	431.5
345.714	438.5
345.942	399.5
346.17	395.5
346.397	416.5
346.625	395.5
346.853	402.5
347.08	380.5
347.308	390.5
347.535	401.5
347.763	389.5
347.99	418.5
348.218	397.5
348.445	396.5
348.673	381.5
348.9	402.5
349.128	424.5
349.355	384.5
349.583	392.5
349.81	394.5
350.037	408.5
350.265	370.5
350.492	373.5
350.72	386.5
350.947	387.5
351.174	409.5
351.402	387.5
351.629	402.5
351.856	415.5
352.083	399.5
352.311	379.5
352.538	405.5
352.765	397.5
352.992	400.5
353.22	387.5
353.447	397.5
353.674	404.5
353.901	381.5
354.128	403.5
354.355	395.5
354.583	384.5
354.81	382.5
355.037	387.5
355.264	377.5
355.491	402.5
355.718	378.5
355.945	374.5
356.172	374.5
356.399	379.5
356.626	366.5
356.853	387.5
357.08	385.5
357.307	380.5
357.534	375.5
357.761	379.5
357.988	369.5
358.215	384.5
358.441	387.5
358.668	371.5
358.895	377.5
359.122	391.5
359.349	397.5
359.576	397.5
359.802	402.5
360.029	387.5
360.256	413.5
360.483	404.5
360.709	385.5
360.936	407.5
361.163	375.5
361.39	380.5
361.616	391.5
361.843	397.5
362.07	410.5
362.296	405.5
362.523	386.5
362.749	388.5
362.976	402.5
363.203	393.5
363.429	367.5
363.656	394.5
363.882	401.5
364.109	395.5
364.335	385.5
364.562	391.5
364.788	389.5
365.015	395.5
365.241	381.5
365.468	396.5
365.694	392.5
365.92	391.5
366.147	391.5
366.373	400.5
366.599	377.5
366.826	374.5
367.052	404.5
367.278	372.5
367.505	386.5
367.731	416.5
367.957	381.5
368.184	408.5
368.41	387.5
368.636	394.5
368.862	392.5
369.089	384.5
369.315	385.5
369.541	400.5
369.767	390.5
369.993	381.5
370.219	392.5
370.445	386.5
370.672	385.5
370.898	378.5
371.124	385.5
371.35	385.5
371.576	386.5
371.802	396.5
372.028	390.5
372.254	403.5
372.48	404.5
372.706	405.5
372.932	422.5
373.158	401.5
373.384	399.5
373.61	396.5
373.835	405.5
374.061	404.5
374.287	397.5
374.513	397.5
374.739	405.5
374.965	416.5
375.191	402.5
375.416	399.5
375.642	395.5
375.868	392.5
376.094	408.5
376.319	397.5
376.545	409.5
376.771	386.5
376.997	395.5
377.222	389.5
377.448	402.5
377.674	390.5
377.899	388.5
378.125	380.5
378.35	386.5
378.576	416.5
378.802	391.5
379.027	413.5
379.253	395.5
379.478	398.5
379.704	403.5
379.929	394.5
380.155	384.5
380.38	396.5
380.606	395.5
380.831	417.5
381.057	388.5
381.282	410.5
381.507	406.5
381.733	401.5
381.958	405.5
382.184	411.5
382.409	408.5
382.634	406.5
382.86	417.5
383.085	412.5
383.31	421.5
383.535	428.5
383.761	426.5
383.986	422.5
384.211	425.5
384.436	444.5
384.662	449.5
384.887	435.5
385.112	449.5
385.337	446.5
385.562	442.5
385.787	464.5
386.013	450.5
386.238	450.5
386.463	444.5
386.688	449.5
386.913	470.5
387.138	472.5
387.363	443.5
387.588	448.5
387.813	443.5
388.038	443.5
388.263	454.5
388.488	440.5
388.713	477.5
388.938	449.5
389.163	444.5
389.387	453.5
389.612	459.5
389.837	455.5
390.062	458.5
390.287	450.5
390.512	443.5
390.736	457.5
390.961	457.5
391.186	464.5
391.411	445.5
391.636	450.5
391.86	459.5
392.085	499.5
392.31	460.5
392.534	454.5
392.759	479.5
392.984	478.5
393.208	451.5
393.433	464.5
393.658	469.5
393.882	460.5
394.107	454.5
394.331	453.5
394.556	457.5
394.78	445.5
395.005	458.5
395.229	443.5
395.454	466.5
395.678	478.5
395.903	497.5
396.127	503.5
396.352	499.5
396.576	474.5
396.801	487.5
397.025	482.5
397.249	471.5
397.474	495.5
397.698	504.5
397.922	511.5
398.147	520.5
398.371	523.5
398.595	537.5
398.82	539.5
399.044	563.5
399.268	586.5
399.492	618.5
399.717	676.5
399.941	679.5
400.165	695.5
400.389	630.5
400.613	603.5
400.837	583.5
401.062	552.5
401.286	543.5
401.51	502.5
401.734	542.5
401.958	546.5
402.182	532.5
402.406	531.5
402.63	527.5
402.854	542.5
403.078	560.5
403.302	555.5
403.526	557.5
403.75	566.5
403.974	579.5
404.198	569.5
404.422	565.5
404.645	568.5
404.869	588.5
405.093	592.5
405.317	616.5
405.541	647.5
405.765	617.5
405.988	584.5
406.212	586.5
406.436	588.5
406.66	618.5
406.883	603.5
407.107	628.5
407.331	663.5
407.555	673.5
407.778	710.5
408.002	629.5
408.226	614.5
408.449	629.5
408.673	597.5
408.896	599.5
409.12	631.5
409.344	616.5
409.567	559.5
409.791	570.5
410.014	568.5
410.238	577.5
410.461	548.5
410.685	544.5
410.908	532.5
411.132	572.5
411.355	595.5
411.578	601.5
411.802	544.5
412.025	551.5
412.249	544.5
412.472	591.5
412.695	581.5
412.919	587.5
413.142	544.5
413.365	541.5
413.589	522.5
413.812	540.5
414.035	530.5
414.258	517.5
414.482	539.5
414.705	516.5
414.928	503.5
415.151	521.5
415.374	533.5
415.597	522.5
415.821	533.5
416.044	521.5
416.267	529.5
416.49	511.5
416.713	489.5
416.936	516.5
417.159	525.5
417.382	532.5
417.605	522.5
417.828	492.5
418.051	523.5
418.274	515.5
418.497	505.5
418.72	528.5
418.943	507.5
419.166	556.5
419.389	575.5
419.611	565.5
419.834	552.5
420.057	524.5
420.28	535.5
420.503	537.5
420.726	533.5
420.948	547.5
421.171	552.5
421.394	579.5
421.617	551.5
421.839	543.5
422.062	531.5
422.285	554.5
422.507	606.5
422.73	639.5
422.953	611.5
423.175	570.5
423.398	553.5
423.621	560.5
423.843	563.5
424.066	566.5
424.288	558.5
424.511	556.5
424.733	590.5
424.956	657.5
425.178	636.5
425.401	633.5
425.623	630.5
425.846	581.5
426.068	543.5
426.291	531.5
426.513	557.5
426.735	553.5
426.958	568.5
427.18	607.5
427.402	704.5
427.625	777.5
427.847	674.5
428.069	623.5
428.292	563.5
428.514	528.5
428.736	514.5
428.958	523.5
429.181	511.5
429.403	484.5
429.625	492.5
429.847	521.5
430.069	565.5
430.292	579.5
430.514	520.5
430.736	513.5
430.958	495.5
431.18	473.5
431.402	492.5
431.624	482.5
431.846	473.5
432.068	480.5
432.29	489.5
432.512	489.5
432.734	488.5
432.956	483.5
433.178	482.5
433.4	489.5
433.622	512.5
433.844	489.5
434.066	487.5
434.287	497.5
434.509	511.5
434.731	505.5
434.953	526.5
435.175	516.5
435.397	541.5
435.618	547.5
435.84	581.5
436.062	607.5
436.284	688.5
436.505	566.5
436.727	519.5
436.949	510.5
437.17	520.5
437.392	496.5
437.614	524.5
437.835	523.5
438.057	570.5
438.278	647.5
438.5	661.5
438.721	725.5
438.943	682.5
439.165	573.5
439.386	553.5
439.608	541.5
439.829	533.5
440.05	557.5
440.272	570.5
440.493	554.5
440.715	517.5
440.936	523.5
441.158	547.5
441.379	512.5
441.6	550.5
441.822	551.5
442.043	580.5
442.264	645.5
442.486	636.5
442.707	585.5
442.928	564.5
443.149	557.5
443.371	541.5
443.592	601.5
443.813	679.5
444.034	694.5
444.255	604.5
444.476	580.5
444.698	592.5
444.919	596.5
445.14	707.5
445.361	627.5
445.582	586.5
445.803	620.5
446.024	660.5
446.245	658.5
446.466	601.5
446.687	547.5
446.908	543.5
447.129	503.5
447.35	488.5
447.571	491.5
447.792	477.5
448.013	492.5
448.234	518.5
448.455	541.5
448.675	614.5
448.896	706.5
449.117	639.5
449.338	563.5
449.559	636.5
449.779	697.5
450	614.5
450.221	507.5
450.442	473.5
450.662	483.5
450.883	471.5
451.104	466.5
451.324	468.5
451.545	470.5
451.766	455.5
451.986	456.5
452.207	429.5
452.428	462.5
452.648	450.5
452.869	437.5
453.089	467.5
453.31	443.5
453.53	449.5
453.751	423.5
453.971	435.5
454.192	431.5
454.412	460.5
454.633	465.5
454.853	458.5
455.073	434.5
455.294	451.5
455.514	471.5
455.734	495.5
455.955	441.5
456.175	428.5
456.395	435.5
456.616	412.5
456.836	448.5
457.056	428.5
457.276	420.5
457.497	423.5
457.717	421.5
457.937	446.5
458.157	456.5
458.377	447.5
458.598	467.5
458.818	470.5
459.038	528.5
459.258	556.5
459.478	529.5
459.698	475.5
459.918	503.5
460.138	523.5
460.358	522.5
460.578	525.5
460.798	532.5
461.018	535.5
461.238	526.5
461.458	553.5
461.678	530.5
461.898	544.5
462.118	525.5
462.338	547.5
462.558	546.5
462.777	556.5
462.997	582.5
463.217	614.5
463.437	627.5
463.657	600.5
463.876	592.5
464.096	583.5
464.316	575.5
464.536	583.5
464.755	572.5
464.975	543.5
465.195	569.5
465.414	587.5
465.634	548.5
465.854	516.5
466.073	515.5
466.293	477.5
466.512	474.5
466.732	492.5
466.951	470.5
467.171	460.5
467.391	474.5
467.61	449.5
467.829	455.5
468.049	465.5
468.268	456.5
468.488	459.5
468.707	468.5
468.927	457.5
469.146	449.5
469.365	469.5
469.585	465.5
469.804	482.5
470.023	477.5
470.243	478.5
470.462	485.5
470.681	498.5
470.901	481.5
471.12	480.5
471.339	477.5
471.558	469.5
471.777	450.5
471.997	485.5
472.216	494.5
472.435	483.5
472.654	472.5
472.873	468.5
473.092	476.5
473.311	474.5
473.53	480.5
473.749	467.5
473.968	483.5
474.187	543.5
474.406	566.5
474.625	501.5
474.844	499.5
475.063	465.5
475.282	479.5
475.501	484.5
475.72	461.5
475.939	474.5
476.158	487.5
476.377	483.5
476.596	469.5
476.814	496.5
477.033	486.5
477.252	497.5
477.471	467.5
477.69	523.5
477.908	511.5
478.127	531.5
478.346	523.5
478.564	550.5
478.783	554.5
479.002	541.5
479.22	563.5
479.439	551.5
479.658	567.5
479.876	576.5
480.095	601.5
480.313	611.5
480.532	592.5
480.751	594.5
480.969	581.5
481.188	618.5
481.406	630.5
481.624	581.5
481.843	539.5
482.061	546.5
482.28	572.5
482.498	556.5
482.717	548.5
482.935	552.5
483.153	533.5
483.372	521.5
483.59	541.5
483.808	545.5
484.027	552.5
484.245	535.5
484.463	554.5
484.681	561.5
484.9	543.5
485.118	576.5
485.336	561.5
485.554	564.5
485.772	550.5
485.99	555.5
486.209	573.5
486.427	571.5
486.645	564.5
486.863	566.5
487.081	603.5
487.299	588.5
487.517	581.5
487.735	569.5
487.953	583.5
488.171	556.5
488.389	575.5
488.607	559.5
488.825	577.5
489.043	573.5
489.261	568.5
489.479	584.5
489.696	598.5
489.914	596.5
490.132	596.5
490.35	584.5
490.568	582.5
490.786	587.5
491.003	595.5
491.221	631.5
491.439	643.5
491.657	606.5
491.874	618.5
492.092	630.5
492.31	651.5
492.527	641.5
492.745	665.5
492.963	642.5
493.18	633.5
493.398	657.5
493.615	640.5
493.833	652.5
494.05	663.5
494.268	636.5
494.485	651.5
494.703	634.5
494.92	649.5
495.138	669.5
495.355	654.5
495.573	678.5
495.79	647.5
496.008	664.5
496.225	662.5
496.442	665.5
496.66	676.5
496.877	707.5
497.094	690.5
497.312	696.5
497.529	732.5
497.746	731.5
497.963	729.5
498.181	746.5
498.398	758.5
498.615	804.5
498.832	818.5
499.049	841.5
499.267	873.5
499.484	924.5
499.701	975.5
499.918	1014.5
500.135	1094.5
500.352	1156.5
500.569	1211.5
500.786	1209.5
501.003	1156.5
501.22	1083.5
501.437	1064.5
501.654	975.5
501.871	947.5
502.088	883.5
502.305	852.5
502.522	809.5
502.739	796.5
502.956	774.5
503.172	741.5
503.389	752.5
503.606	717.5
503.823	726.5
504.04	723.5
504.256	741.5
504.473	704.5
504.69	713.5
504.907	717.5
505.123	678.5
505.34	665.5
505.557	633.5
505.773	636.5
505.99	625.5
506.207	642.5
506.423	619.5
506.64	610.5
506.856	588.5
507.073	613.5
507.289	611.5
507.506	619.5
507.722	602.5
507.939	590.5
508.155	573.5
508.372	579.5
508.588	579.5
508.805	593.5
509.021	598.5
509.238	605.5
509.454	583.5
509.67	591.5
509.887	577.5
510.103	567.5
510.319	585.5
510.536	613.5
510.752	855.5
510.968	729.5
511.184	584.5
511.401	561.5
511.617	561.5
511.833	565.5
512.049	562.5
512.265	548.5
512.481	548.5
512.698	551.5
512.914	534.5
513.13	557.5
513.346	560.5
513.562	552.5
513.778	563.5
513.994	572.5
514.21	559.5
514.426	535.5
514.642	591.5
514.858	595.5
515.074	610.5
515.29	655.5
515.506	826.5
515.721	721.5
515.937	606.5
516.153	597.5
516.369	586.5
516.585	603.5
516.801	608.5
517.016	604.5
517.232	628.5
517.448	637.5
517.664	630.5
517.879	648.5
518.095	674.5
518.311	617.5
518.527	611.5
518.742	602.5
518.958	603.5
519.173	596.5
519.389	576.5
519.605	594.5
519.82	569.5
