Data from 1962.PennyLincolnUp.Lamp.En5.5.200Scan.071719.P1._HRD10591_13-54-39-061.txt Node
Date: Thu Jul 18 13:54:39 EDT 2019
User: cochatt
Spectrometer: HR+D1059
Trigger mode: 1
Integration Time (sec): 1.000000E-1
Scans to average: 1
Electric dark correction enabled: true
Nonlinearity correction enabled: false
Boxcar width: 0
XAxis mode: Wavelengths
Number of Pixels in Spectrum: 2048
>>>>>Begin Spectral Data<<<<<
223.165	-8.75
223.4	-8.75
223.635	-8.75
223.869	-21.75
224.104	-19.75
224.338	-16.75
224.573	-14.75
224.808	-3.75
225.042	-12.75
225.277	3.25
225.511	5.25
225.746	6.25
225.98	0.25
226.215	-0.75
226.449	18.25
226.683	25.25
226.918	18.25
227.152	22.25
227.387	34.25
227.621	30.25
227.856	41.25
228.09	38.25
228.324	40.25
228.559	52.25
228.793	63.25
229.027	73.25
229.262	101.25
229.496	90.25
229.73	104.25
229.964	122.25
230.199	112.25
230.433	119.25
230.667	96.25
230.901	113.25
231.136	111.25
231.37	95.25
231.604	107.25
231.838	108.25
232.072	102.25
232.306	111.25
232.541	127.25
232.775	115.25
233.009	119.25
233.243	104.25
233.477	105.25
233.711	102.25
233.945	118.25
234.179	120.25
234.413	120.25
234.647	112.25
234.881	123.25
235.115	104.25
235.349	131.25
235.583	113.25
235.817	114.25
236.051	113.25
236.285	128.25
236.519	117.25
236.753	123.25
236.987	133.25
237.221	143.25
237.455	189.25
237.689	169.25
237.922	137.25
238.156	126.25
238.39	108.25
238.624	119.25
238.858	115.25
239.091	125.25
239.325	128.25
239.559	119.25
239.793	125.25
240.027	133.25
240.26	136.25
240.494	140.25
240.728	131.25
240.961	142.25
241.195	123.25
241.429	139.25
241.662	140.25
241.896	137.25
242.13	132.25
242.363	131.25
242.597	133.25
242.83	145.25
243.064	131.25
243.298	135.25
243.531	123.25
243.765	130.25
243.998	127.25
244.232	129.25
244.465	148.25
244.699	147.25
244.932	147.25
245.166	151.25
245.399	156.25
245.633	141.25
245.866	137.25
246.099	149.25
246.333	141.25
246.566	147.25
246.8	132.25
247.033	147.25
247.266	144.25
247.5	158.25
247.733	154.25
247.966	159.25
248.2	155.25
248.433	156.25
248.666	166.25
248.899	170.25
249.133	179.25
249.366	189.25
249.599	180.25
249.832	172.25
250.066	192.25
250.299	171.25
250.532	163.25
250.765	188.25
250.998	182.25
251.231	220.25
251.465	191.25
251.698	187.25
251.931	189.25
252.164	183.25
252.397	178.25
252.63	192.25
252.863	199.25
253.096	204.25
253.329	203.25
253.562	209.25
253.795	190.25
254.028	184.25
254.261	182.25
254.494	177.25
254.727	204.25
254.96	224.25
255.193	221.25
255.426	220.25
255.659	191.25
255.892	211.25
256.124	214.25
256.357	215.25
256.59	203.25
256.823	195.25
257.056	196.25
257.289	194.25
257.521	199.25
257.754	202.25
257.987	201.25
258.22	198.25
258.452	202.25
258.685	201.25
258.918	202.25
259.151	202.25
259.383	212.25
259.616	200.25
259.849	199.25
260.081	210.25
260.314	208.25
260.547	221.25
260.779	223.25
261.012	224.25
261.244	211.25
261.477	208.25
261.71	208.25
261.942	199.25
262.175	201.25
262.407	216.25
262.64	204.25
262.872	196.25
263.105	204.25
263.337	217.25
263.57	207.25
263.802	207.25
264.035	216.25
264.267	203.25
264.499	204.25
264.732	228.25
264.964	205.25
265.197	213.25
265.429	205.25
265.661	219.25
265.894	207.25
266.126	211.25
266.358	203.25
266.591	220.25
266.823	205.25
267.055	219.25
267.287	205.25
267.52	228.25
267.752	221.25
267.984	226.25
268.216	228.25
268.448	221.25
268.681	232.25
268.913	232.25
269.145	247.25
269.377	260.25
269.609	268.25
269.841	251.25
270.073	243.25
270.306	268.25
270.538	290.25
270.77	271.25
271.002	273.25
271.234	270.25
271.466	273.25
271.698	280.25
271.93	286.25
272.162	278.25
272.394	281.25
272.626	281.25
272.858	271.25
273.09	279.25
273.322	262.25
273.553	241.25
273.785	266.25
274.017	273.25
274.249	269.25
274.481	277.25
274.713	262.25
274.945	263.25
275.176	251.25
275.408	257.25
275.64	264.25
275.872	252.25
276.104	263.25
276.335	265.25
276.567	267.25
276.799	265.25
277.031	265.25
277.262	294.25
277.494	311.25
277.726	292.25
277.957	303.25
278.189	272.25
278.421	257.25
278.652	274.25
278.884	279.25
279.115	264.25
279.347	284.25
279.579	256.25
279.81	263.25
280.042	281.25
280.273	277.25
280.505	267.25
280.736	273.25
280.968	256.25
281.199	264.25
281.431	272.25
281.662	277.25
281.894	268.25
282.125	280.25
282.356	285.25
282.588	292.25
282.819	284.25
283.051	288.25
283.282	282.25
283.513	301.25
283.745	289.25
283.976	292.25
284.207	292.25
284.439	281.25
284.67	309.25
284.901	291.25
285.132	304.25
285.364	282.25
285.595	281.25
285.826	301.25
286.057	286.25
286.288	290.25
286.52	301.25
286.751	283.25
286.982	283.25
287.213	287.25
287.444	300.25
287.675	297.25
287.906	289.25
288.138	317.25
288.369	311.25
288.6	292.25
288.831	307.25
289.062	311.25
289.293	293.25
289.524	288.25
289.755	296.25
289.986	309.25
290.217	305.25
290.448	284.25
290.679	311.25
290.91	296.25
291.141	284.25
291.371	313.25
291.602	307.25
291.833	293.25
292.064	291.25
292.295	280.25
292.526	297.25
292.757	307.25
292.987	290.25
293.218	309.25
293.449	311.25
293.68	309.25
293.91	308.25
294.141	309.25
294.372	283.25
294.603	288.25
294.833	293.25
295.064	285.25
295.295	304.25
295.525	297.25
295.756	292.25
295.987	297.25
296.217	303.25
296.448	336.25
296.679	306.25
296.909	321.25
297.14	312.25
297.37	295.25
297.601	327.25
297.831	306.25
298.062	331.25
298.292	312.25
298.523	316.25
298.753	307.25
298.984	304.25
299.214	310.25
299.445	323.25
299.675	325.25
299.905	323.25
300.136	333.25
300.366	314.25
300.597	324.25
300.827	333.25
301.057	336.25
301.288	341.25
301.518	340.25
301.748	349.25
301.979	337.25
302.209	343.25
302.439	329.25
302.669	335.25
302.9	337.25
303.13	344.25
303.36	345.25
303.59	343.25
303.82	341.25
304.051	332.25
304.281	345.25
304.511	342.25
304.741	331.25
304.971	348.25
305.201	334.25
305.431	334.25
305.661	367.25
305.891	342.25
306.121	353.25
306.352	331.25
306.582	364.25
306.812	346.25
307.042	325.25
307.272	340.25
307.502	335.25
307.731	353.25
307.961	345.25
308.191	339.25
308.421	331.25
308.651	346.25
308.881	333.25
309.111	333.25
309.341	340.25
309.571	353.25
309.8	375.25
310.03	375.25
310.26	377.25
310.49	356.25
310.72	386.25
310.949	364.25
311.179	360.25
311.409	384.25
311.639	359.25
311.868	349.25
312.098	372.25
312.328	377.25
312.557	367.25
312.787	384.25
313.017	383.25
313.246	379.25
313.476	368.25
313.706	377.25
313.935	381.25
314.165	381.25
314.394	383.25
314.624	398.25
314.853	386.25
315.083	375.25
315.312	369.25
315.542	370.25
315.771	377.25
316.001	385.25
316.23	353.25
316.46	380.25
316.689	394.25
316.919	395.25
317.148	377.25
317.377	372.25
317.607	379.25
317.836	389.25
318.065	364.25
318.295	362.25
318.524	367.25
318.753	367.25
318.983	383.25
319.212	357.25
319.441	369.25
319.67	380.25
319.9	375.25
320.129	382.25
320.358	382.25
320.587	376.25
320.816	373.25
321.046	384.25
321.275	385.25
321.504	391.25
321.733	386.25
321.962	399.25
322.191	391.25
322.42	402.25
322.649	409.25
322.878	419.25
323.108	424.25
323.337	411.25
323.566	445.25
323.795	467.25
324.024	482.25
324.253	561.25
324.482	687.25
324.71	1025.25
324.939	1459.25
325.168	1264.25
325.397	710.25
325.626	556.25
325.855	482.25
326.084	445.25
326.313	443.25
326.542	443.25
326.77	481.25
326.999	529.25
327.228	677.25
327.457	905.25
327.686	1113.25
327.914	792.25
328.143	575.25
328.372	523.25
328.6	499.25
328.829	473.25
329.058	508.25
329.287	488.25
329.515	485.25
329.744	456.25
329.972	453.25
330.201	479.25
330.43	499.25
330.658	500.25
330.887	504.25
331.115	483.25
331.344	472.25
331.572	453.25
331.801	452.25
332.03	459.25
332.258	474.25
332.486	467.25
332.715	454.25
332.943	467.25
333.172	467.25
333.4	483.25
333.629	479.25
333.857	484.25
334.085	492.25
334.314	513.25
334.542	520.25
334.771	522.25
334.999	497.25
335.227	480.25
335.455	491.25
335.684	462.25
335.912	479.25
336.14	459.25
336.369	454.25
336.597	451.25
336.825	476.25
337.053	439.25
337.281	452.25
337.51	453.25
337.738	453.25
337.966	420.25
338.194	437.25
338.422	450.25
338.65	438.25
338.878	409.25
339.106	428.25
339.334	442.25
339.562	429.25
339.79	410.25
340.018	436.25
340.246	421.25
340.474	437.25
340.702	437.25
340.93	430.25
341.158	447.25
341.386	416.25
341.614	439.25
341.842	443.25
342.07	432.25
342.298	416.25
342.526	413.25
342.754	435.25
342.981	422.25
343.209	409.25
343.437	436.25
343.665	443.25
343.893	450.25
344.12	475.25
344.348	459.25
344.576	455.25
344.804	438.25
345.031	459.25
345.259	447.25
345.487	449.25
345.714	424.25
345.942	422.25
346.17	416.25
346.397	417.25
346.625	407.25
346.853	398.25
347.08	392.25
347.308	423.25
347.535	412.25
347.763	411.25
347.99	423.25
348.218	435.25
348.445	421.25
348.673	415.25
348.9	393.25
349.128	409.25
349.355	408.25
349.583	394.25
349.81	390.25
350.037	393.25
350.265	399.25
350.492	406.25
350.72	409.25
350.947	412.25
351.174	411.25
351.402	405.25
351.629	409.25
351.856	405.25
352.083	407.25
352.311	413.25
352.538	419.25
352.765	391.25
352.992	393.25
353.22	412.25
353.447	407.25
353.674	404.25
353.901	415.25
354.128	415.25
354.355	388.25
354.583	400.25
354.81	382.25
355.037	420.25
355.264	400.25
355.491	409.25
355.718	409.25
355.945	391.25
356.172	395.25
356.399	392.25
356.626	386.25
356.853	404.25
357.08	399.25
357.307	406.25
357.534	407.25
357.761	417.25
357.988	386.25
358.215	391.25
358.441	406.25
358.668	400.25
358.895	357.25
359.122	386.25
359.349	392.25
359.576	413.25
359.802	414.25
360.029	411.25
360.256	423.25
360.483	431.25
360.709	418.25
360.936	404.25
361.163	410.25
361.39	384.25
361.616	391.25
361.843	389.25
362.07	395.25
362.296	393.25
362.523	406.25
362.749	418.25
362.976	389.25
363.203	383.25
363.429	374.25
363.656	403.25
363.882	397.25
364.109	377.25
364.335	373.25
364.562	403.25
364.788	399.25
365.015	410.25
365.241	377.25
365.468	409.25
365.694	408.25
365.92	384.25
366.147	397.25
366.373	403.25
366.599	395.25
366.826	403.25
367.052	389.25
367.278	411.25
367.505	416.25
367.731	402.25
367.957	404.25
368.184	387.25
368.41	410.25
368.636	405.25
368.862	394.25
369.089	401.25
369.315	377.25
369.541	419.25
369.767	425.25
369.993	412.25
370.219	408.25
370.445	403.25
370.672	415.25
370.898	391.25
371.124	409.25
371.35	414.25
371.576	403.25
371.802	397.25
372.028	393.25
372.254	392.25
372.48	407.25
372.706	397.25
372.932	418.25
373.158	427.25
373.384	413.25
373.61	412.25
373.835	423.25
374.061	410.25
374.287	431.25
374.513	408.25
374.739	409.25
374.965	397.25
375.191	424.25
375.416	420.25
375.642	422.25
375.868	404.25
376.094	428.25
376.319	408.25
376.545	405.25
376.771	413.25
376.997	385.25
377.222	419.25
377.448	418.25
377.674	410.25
377.899	408.25
378.125	398.25
378.35	408.25
378.576	412.25
378.802	402.25
379.027	420.25
379.253	412.25
379.478	397.25
379.704	396.25
379.929	391.25
380.155	415.25
380.38	424.25
380.606	437.25
380.831	407.25
381.057	406.25
381.282	418.25
381.507	431.25
381.733	401.25
381.958	415.25
382.184	395.25
382.409	424.25
382.634	451.25
382.86	414.25
383.085	425.25
383.31	418.25
383.535	441.25
383.761	432.25
383.986	451.25
384.211	429.25
384.436	441.25
384.662	452.25
384.887	452.25
385.112	455.25
385.337	453.25
385.562	458.25
385.787	461.25
386.013	480.25
386.238	479.25
386.463	466.25
386.688	458.25
386.913	477.25
387.138	464.25
387.363	460.25
387.588	464.25
387.813	471.25
388.038	468.25
388.263	459.25
388.488	489.25
388.713	481.25
388.938	468.25
389.163	447.25
389.387	460.25
389.612	461.25
389.837	470.25
390.062	455.25
390.287	448.25
390.512	447.25
390.736	475.25
390.961	462.25
391.186	466.25
391.411	462.25
391.636	481.25
391.86	486.25
392.085	486.25
392.31	485.25
392.534	470.25
392.759	493.25
392.984	501.25
393.208	461.25
393.433	489.25
393.658	487.25
393.882	485.25
394.107	486.25
394.331	469.25
394.556	486.25
394.78	488.25
395.005	473.25
395.229	479.25
395.454	503.25
395.678	513.25
395.903	512.25
396.127	546.25
396.352	525.25
396.576	492.25
396.801	482.25
397.025	479.25
397.249	477.25
397.474	518.25
397.698	494.25
397.922	521.25
398.147	523.25
398.371	542.25
398.595	535.25
398.82	553.25
399.044	553.25
399.268	592.25
399.492	649.25
399.717	690.25
399.941	697.25
400.165	697.25
400.389	680.25
400.613	634.25
400.837	583.25
401.062	578.25
401.286	571.25
401.51	554.25
401.734	551.25
401.958	562.25
402.182	569.25
402.406	566.25
402.63	577.25
402.854	543.25
403.078	563.25
403.302	575.25
403.526	595.25
403.75	586.25
403.974	563.25
404.198	580.25
404.422	572.25
404.645	583.25
404.869	590.25
405.093	626.25
405.317	629.25
405.541	654.25
405.765	597.25
405.988	593.25
406.212	604.25
406.436	607.25
406.66	649.25
406.883	595.25
407.107	623.25
407.331	687.25
407.555	740.25
407.778	714.25
408.002	681.25
408.226	626.25
408.449	609.25
408.673	616.25
408.896	645.25
409.12	643.25
409.344	630.25
409.567	613.25
409.791	571.25
410.014	569.25
410.238	569.25
410.461	567.25
410.685	587.25
410.908	565.25
411.132	600.25
411.355	616.25
411.578	607.25
411.802	589.25
412.025	568.25
412.249	566.25
412.472	598.25
412.695	605.25
412.919	598.25
413.142	579.25
413.365	547.25
413.589	568.25
413.812	551.25
414.035	533.25
414.258	546.25
414.482	548.25
414.705	544.25
414.928	515.25
415.151	544.25
415.374	537.25
415.597	554.25
415.821	522.25
416.044	543.25
416.267	526.25
416.49	522.25
416.713	540.25
416.936	540.25
417.159	531.25
417.382	546.25
417.605	532.25
417.828	562.25
418.051	564.25
418.274	552.25
418.497	540.25
418.72	540.25
418.943	534.25
419.166	556.25
419.389	592.25
419.611	588.25
419.834	545.25
420.057	569.25
420.28	592.25
420.503	547.25
420.726	524.25
420.948	580.25
421.171	583.25
421.394	601.25
421.617	555.25
421.839	527.25
422.062	560.25
422.285	585.25
422.507	590.25
422.73	643.25
422.953	633.25
423.175	581.25
423.398	567.25
423.621	586.25
423.843	596.25
424.066	587.25
424.288	585.25
424.511	592.25
424.733	651.25
424.956	707.25
425.178	668.25
425.401	664.25
425.623	691.25
425.846	636.25
426.068	590.25
426.291	567.25
426.513	574.25
426.735	561.25
426.958	588.25
427.18	637.25
427.402	761.25
427.625	815.25
427.847	707.25
428.069	653.25
428.292	582.25
428.514	546.25
428.736	536.25
428.958	535.25
429.181	521.25
429.403	546.25
429.625	522.25
429.847	522.25
430.069	590.25
430.292	594.25
430.514	539.25
430.736	507.25
430.958	509.25
431.18	513.25
431.402	508.25
431.624	514.25
431.846	494.25
432.068	523.25
432.29	528.25
432.512	499.25
432.734	499.25
432.956	497.25
433.178	524.25
433.4	534.25
433.622	519.25
433.844	525.25
434.066	514.25
434.287	508.25
434.509	519.25
434.731	514.25
434.953	557.25
435.175	545.25
435.397	547.25
435.618	562.25
435.84	608.25
436.062	665.25
436.284	706.25
436.505	627.25
436.727	554.25
436.949	540.25
437.17	523.25
437.392	486.25
437.614	542.25
437.835	547.25
438.057	616.25
438.278	702.25
438.5	665.25
438.721	784.25
438.943	739.25
439.165	605.25
439.386	550.25
439.608	553.25
439.829	548.25
440.05	577.25
440.272	600.25
440.493	548.25
440.715	545.25
440.936	529.25
441.158	537.25
441.379	560.25
441.6	566.25
441.822	566.25
442.043	583.25
442.264	652.25
442.486	681.25
442.707	603.25
442.928	582.25
443.149	589.25
443.371	603.25
443.592	632.25
443.813	699.25
444.034	763.25
444.255	660.25
444.476	631.25
444.698	613.25
444.919	625.25
445.14	716.25
445.361	628.25
445.582	589.25
445.803	647.25
446.024	710.25
446.245	672.25
446.466	645.25
446.687	598.25
446.908	572.25
447.129	533.25
447.35	510.25
447.571	486.25
447.792	509.25
448.013	503.25
448.234	514.25
448.455	543.25
448.675	663.25
448.896	745.25
449.117	637.25
449.338	592.25
449.559	679.25
449.779	774.25
450	610.25
450.221	532.25
450.442	512.25
450.662	498.25
450.883	478.25
451.104	503.25
451.324	479.25
451.545	463.25
451.766	468.25
451.986	473.25
452.207	452.25
452.428	456.25
452.648	457.25
452.869	445.25
453.089	489.25
453.31	479.25
453.53	465.25
453.751	459.25
453.971	464.25
454.192	452.25
454.412	445.25
454.633	463.25
454.853	479.25
455.073	463.25
455.294	487.25
455.514	532.25
455.734	518.25
455.955	455.25
456.175	453.25
456.395	444.25
456.616	440.25
456.836	433.25
457.056	459.25
457.276	405.25
457.497	433.25
457.717	448.25
457.937	447.25
458.157	449.25
458.377	454.25
458.598	455.25
458.818	514.25
459.038	558.25
459.258	602.25
459.478	516.25
459.698	519.25
459.918	535.25
460.138	523.25
460.358	539.25
460.578	554.25
460.798	538.25
461.018	562.25
461.238	514.25
461.458	534.25
461.678	511.25
461.898	548.25
462.118	545.25
462.338	575.25
462.558	580.25
462.777	599.25
462.997	623.25
463.217	614.25
463.437	639.25
463.657	611.25
463.876	627.25
464.096	573.25
464.316	587.25
464.536	598.25
464.755	601.25
464.975	582.25
465.195	569.25
465.414	585.25
465.634	567.25
465.854	512.25
466.073	497.25
466.293	488.25
466.512	492.25
466.732	479.25
466.951	502.25
467.171	486.25
467.391	496.25
467.61	476.25
467.829	489.25
468.049	498.25
468.268	475.25
468.488	499.25
468.707	482.25
468.927	465.25
469.146	469.25
469.365	481.25
469.585	479.25
469.804	479.25
470.023	504.25
470.243	477.25
470.462	509.25
470.681	519.25
470.901	511.25
471.12	468.25
471.339	507.25
471.558	497.25
471.777	478.25
471.997	456.25
472.216	477.25
472.435	497.25
472.654	495.25
472.873	483.25
473.092	481.25
473.311	479.25
473.53	476.25
473.749	473.25
473.968	505.25
474.187	554.25
474.406	608.25
474.625	515.25
474.844	492.25
475.063	492.25
475.282	480.25
475.501	493.25
475.72	468.25
475.939	505.25
476.158	481.25
476.377	525.25
476.596	488.25
476.814	495.25
477.033	515.25
477.252	530.25
477.471	517.25
477.69	531.25
477.908	525.25
478.127	555.25
478.346	537.25
478.564	561.25
478.783	563.25
479.002	567.25
479.22	546.25
479.439	570.25
479.658	562.25
479.876	581.25
480.095	596.25
480.313	611.25
480.532	632.25
480.751	587.25
480.969	612.25
481.188	629.25
481.406	647.25
481.624	619.25
481.843	570.25
482.061	583.25
482.28	571.25
482.498	562.25
482.717	572.25
482.935	548.25
483.153	559.25
483.372	547.25
483.59	576.25
483.808	590.25
484.027	567.25
484.245	560.25
484.463	573.25
484.681	588.25
484.9	574.25
485.118	591.25
485.336	587.25
485.554	592.25
485.772	597.25
485.99	559.25
486.209	580.25
486.427	568.25
486.645	585.25
486.863	587.25
487.081	591.25
487.299	592.25
487.517	587.25
487.735	559.25
487.953	601.25
488.171	587.25
488.389	607.25
488.607	602.25
488.825	594.25
489.043	605.25
489.261	587.25
489.479	626.25
489.696	609.25
489.914	600.25
490.132	619.25
490.35	592.25
490.568	605.25
490.786	616.25
491.003	619.25
491.221	627.25
491.439	648.25
491.657	638.25
491.874	645.25
492.092	664.25
492.31	659.25
492.527	659.25
492.745	665.25
492.963	683.25
493.18	666.25
493.398	670.25
493.615	672.25
493.833	680.25
494.05	659.25
494.268	703.25
494.485	671.25
494.703	673.25
494.92	687.25
495.138	659.25
495.355	667.25
495.573	677.25
495.79	679.25
496.008	690.25
496.225	701.25
496.442	675.25
496.66	699.25
496.877	712.25
497.094	697.25
497.312	696.25
497.529	731.25
497.746	721.25
497.963	779.25
498.181	799.25
498.398	796.25
498.615	809.25
498.832	854.25
499.049	855.25
499.267	898.25
499.484	972.25
499.701	1017.25
499.918	1072.25
500.135	1130.25
500.352	1221.25
500.569	1252.25
500.786	1215.25
501.003	1161.25
501.22	1149.25
501.437	1097.25
501.654	1035.25
501.871	974.25
