Data from 1962.PennyLincolnUp.Lamp.En5.5.200Scan.071719.P1._HRD10591_13-53-00-060.txt Node
Date: Thu Jul 18 13:53:00 EDT 2019
User: cochatt
Spectrometer: HR+D1059
Trigger mode: 1
Integration Time (sec): 1.000000E-1
Scans to average: 1
Electric dark correction enabled: true
Nonlinearity correction enabled: false
Boxcar width: 0
XAxis mode: Wavelengths
Number of Pixels in Spectrum: 2048
>>>>>Begin Spectral Data<<<<<
223.165	-29.38
223.4	-29.38
223.635	-29.38
223.869	-12.38
224.104	-16.38
224.338	-22.38
224.573	-10.38
224.808	0.62
225.042	-2.38
225.277	-12.38
225.511	-6.38
225.746	7.62
225.98	9.62
226.215	7.62
226.449	0.62
226.683	22.62
226.918	27.62
227.152	35.62
227.387	32.62
227.621	38.62
227.856	42.62
228.09	44.62
228.324	46.62
228.559	63.62
228.793	68.62
229.027	93.62
229.262	86.62
229.496	100.62
229.73	114.62
229.964	119.62
230.199	105.62
230.433	99.62
230.667	106.62
230.901	107.62
231.136	109.62
231.37	110.62
231.604	108.62
231.838	122.62
232.072	100.62
232.306	110.62
232.541	116.62
232.775	118.62
233.009	110.62
233.243	128.62
233.477	104.62
233.711	116.62
233.945	110.62
234.179	133.62
234.413	124.62
234.647	104.62
234.881	121.62
235.115	112.62
235.349	124.62
235.583	122.62
235.817	114.62
236.051	126.62
236.285	127.62
236.519	111.62
236.753	112.62
236.987	125.62
237.221	150.62
237.455	146.62
237.689	154.62
237.922	119.62
238.156	137.62
238.39	116.62
238.624	130.62
238.858	119.62
239.091	109.62
239.325	109.62
239.559	115.62
239.793	116.62
240.027	127.62
240.26	129.62
240.494	143.62
240.728	137.62
240.961	132.62
241.195	132.62
241.429	139.62
241.662	120.62
241.896	122.62
242.13	118.62
242.363	122.62
242.597	139.62
242.83	130.62
243.064	138.62
243.298	133.62
243.531	130.62
243.765	147.62
243.998	142.62
244.232	128.62
244.465	139.62
244.699	142.62
244.932	141.62
245.166	138.62
245.399	136.62
245.633	143.62
245.866	136.62
246.099	149.62
246.333	129.62
246.566	141.62
246.8	139.62
247.033	152.62
247.266	141.62
247.5	169.62
247.733	134.62
247.966	142.62
248.2	161.62
248.433	161.62
248.666	151.62
248.899	151.62
249.133	174.62
249.366	163.62
249.599	166.62
249.832	169.62
250.066	159.62
250.299	163.62
250.532	149.62
250.765	174.62
250.998	175.62
251.231	185.62
251.465	181.62
251.698	181.62
251.931	166.62
252.164	169.62
252.397	182.62
252.63	178.62
252.863	173.62
253.096	190.62
253.329	183.62
253.562	176.62
253.795	192.62
254.028	186.62
254.261	190.62
254.494	193.62
254.727	195.62
254.96	210.62
255.193	216.62
255.426	202.62
255.659	191.62
255.892	205.62
256.124	200.62
256.357	193.62
256.59	194.62
256.823	198.62
257.056	200.62
257.289	209.62
257.521	182.62
257.754	182.62
257.987	175.62
258.22	172.62
258.452	190.62
258.685	198.62
258.918	175.62
259.151	175.62
259.383	196.62
259.616	189.62
259.849	213.62
260.081	203.62
260.314	209.62
260.547	219.62
260.779	217.62
261.012	203.62
261.244	206.62
261.477	204.62
261.71	205.62
261.942	195.62
262.175	203.62
262.407	229.62
262.64	204.62
262.872	188.62
263.105	182.62
263.337	216.62
263.57	196.62
263.802	198.62
264.035	210.62
264.267	200.62
264.499	194.62
264.732	206.62
264.964	180.62
265.197	212.62
265.429	198.62
265.661	205.62
265.894	190.62
266.126	195.62
266.358	202.62
266.591	223.62
266.823	204.62
267.055	207.62
267.287	205.62
267.52	208.62
267.752	222.62
267.984	217.62
268.216	222.62
268.448	228.62
268.681	214.62
268.913	220.62
269.145	241.62
269.377	226.62
269.609	244.62
269.841	223.62
270.073	240.62
270.306	258.62
270.538	258.62
270.77	245.62
271.002	248.62
271.234	262.62
271.466	246.62
271.698	256.62
271.93	268.62
272.162	262.62
272.394	268.62
272.626	266.62
272.858	241.62
273.09	231.62
273.322	251.62
273.553	235.62
273.785	258.62
274.017	236.62
274.249	246.62
274.481	256.62
274.713	239.62
274.945	239.62
275.176	246.62
275.408	248.62
275.64	243.62
275.872	236.62
276.104	249.62
276.335	234.62
276.567	267.62
276.799	250.62
277.031	279.62
277.262	268.62
277.494	281.62
277.726	270.62
277.957	248.62
278.189	250.62
278.421	247.62
278.652	277.62
278.884	261.62
279.115	262.62
279.347	262.62
279.579	280.62
279.81	258.62
280.042	246.62
280.273	252.62
280.505	271.62
280.736	259.62
280.968	252.62
281.199	252.62
281.431	262.62
281.662	250.62
281.894	271.62
282.125	250.62
282.356	266.62
282.588	298.62
282.819	255.62
283.051	254.62
283.282	287.62
283.513	272.62
283.745	284.62
283.976	277.62
284.207	264.62
284.439	252.62
284.67	271.62
284.901	252.62
285.132	267.62
285.364	262.62
285.595	274.62
285.826	291.62
286.057	268.62
286.288	284.62
286.52	264.62
286.751	271.62
286.982	272.62
287.213	295.62
287.444	293.62
287.675	276.62
287.906	297.62
288.138	293.62
288.369	287.62
288.6	297.62
288.831	285.62
289.062	286.62
289.293	282.62
289.524	273.62
289.755	292.62
289.986	283.62
290.217	285.62
290.448	286.62
290.679	292.62
290.91	278.62
291.141	286.62
291.371	301.62
291.602	300.62
291.833	270.62
292.064	298.62
292.295	272.62
292.526	272.62
292.757	279.62
292.987	272.62
293.218	308.62
293.449	286.62
293.68	321.62
293.91	285.62
294.141	287.62
294.372	290.62
294.603	276.62
294.833	279.62
295.064	276.62
295.295	278.62
295.525	295.62
295.756	302.62
295.987	303.62
296.217	295.62
296.448	294.62
296.679	301.62
296.909	322.62
297.14	299.62
297.37	310.62
297.601	308.62
297.831	303.62
298.062	310.62
298.292	292.62
298.523	314.62
298.753	303.62
298.984	318.62
299.214	311.62
299.445	310.62
299.675	294.62
299.905	328.62
300.136	310.62
300.366	311.62
300.597	311.62
300.827	334.62
301.057	325.62
301.288	327.62
301.518	334.62
301.748	300.62
301.979	319.62
302.209	320.62
302.439	318.62
302.669	350.62
302.9	325.62
303.13	322.62
303.36	324.62
303.59	337.62
303.82	306.62
304.051	332.62
304.281	307.62
304.511	323.62
304.741	338.62
304.971	316.62
305.201	332.62
305.431	326.62
305.661	318.62
305.891	324.62
306.121	324.62
306.352	350.62
306.582	320.62
306.812	308.62
307.042	323.62
307.272	331.62
307.502	341.62
307.731	314.62
307.961	354.62
308.191	323.62
308.421	317.62
308.651	322.62
308.881	327.62
309.111	323.62
309.341	329.62
309.571	315.62
309.8	339.62
310.03	343.62
310.26	349.62
310.49	334.62
310.72	343.62
310.949	364.62
311.179	341.62
311.409	342.62
311.639	344.62
311.868	357.62
312.098	351.62
312.328	322.62
312.557	360.62
312.787	354.62
313.017	375.62
313.246	349.62
313.476	342.62
313.706	342.62
313.935	355.62
314.165	361.62
314.394	360.62
314.624	353.62
314.853	336.62
315.083	354.62
315.312	370.62
315.542	343.62
315.771	347.62
316.001	347.62
316.23	331.62
316.46	345.62
316.689	364.62
316.919	342.62
317.148	336.62
317.377	351.62
317.607	367.62
317.836	345.62
318.065	355.62
318.295	342.62
318.524	350.62
318.753	344.62
318.983	352.62
319.212	367.62
319.441	344.62
319.67	346.62
319.9	339.62
320.129	372.62
320.358	358.62
320.587	356.62
320.816	371.62
321.046	370.62
321.275	356.62
321.504	363.62
321.733	358.62
321.962	364.62
322.191	381.62
322.42	376.62
322.649	360.62
322.878	374.62
323.108	412.62
323.337	389.62
323.566	392.62
323.795	401.62
324.024	408.62
324.253	472.62
324.482	591.62
324.71	807.62
324.939	1122.62
325.168	958.62
325.397	580.62
325.626	454.62
325.855	420.62
326.084	402.62
326.313	413.62
326.542	410.62
326.77	427.62
326.999	467.62
327.228	573.62
327.457	757.62
327.686	895.62
327.914	642.62
328.143	511.62
328.372	459.62
328.6	433.62
328.829	435.62
329.058	413.62
329.287	450.62
329.515	412.62
329.744	436.62
329.972	429.62
330.201	422.62
330.43	427.62
330.658	448.62
330.887	427.62
331.115	422.62
331.344	424.62
331.572	410.62
331.801	430.62
332.03	431.62
332.258	423.62
332.486	439.62
332.715	425.62
332.943	418.62
333.172	453.62
333.4	464.62
333.629	469.62
333.857	452.62
334.085	458.62
334.314	475.62
334.542	466.62
334.771	486.62
334.999	467.62
335.227	452.62
335.455	450.62
335.684	435.62
335.912	425.62
336.14	453.62
336.369	429.62
336.597	414.62
336.825	452.62
337.053	408.62
337.281	425.62
337.51	412.62
337.738	420.62
337.966	421.62
338.194	424.62
338.422	408.62
338.65	421.62
338.878	410.62
339.106	428.62
339.334	402.62
339.562	392.62
339.79	398.62
340.018	399.62
340.246	392.62
340.474	404.62
340.702	380.62
340.93	390.62
341.158	410.62
341.386	399.62
341.614	392.62
341.842	396.62
342.07	405.62
342.298	404.62
342.526	416.62
342.754	381.62
342.981	406.62
343.209	416.62
343.437	431.62
343.665	420.62
343.893	430.62
344.12	444.62
344.348	444.62
344.576	422.62
344.804	406.62
345.031	412.62
345.259	419.62
345.487	402.62
345.714	406.62
345.942	400.62
346.17	394.62
346.397	382.62
346.625	404.62
346.853	382.62
347.08	379.62
347.308	397.62
347.535	385.62
347.763	395.62
347.99	389.62
348.218	394.62
348.445	371.62
348.673	370.62
348.9	383.62
349.128	374.62
349.355	365.62
349.583	395.62
349.81	370.62
350.037	368.62
350.265	377.62
350.492	376.62
350.72	359.62
350.947	380.62
351.174	392.62
351.402	377.62
351.629	378.62
351.856	375.62
352.083	380.62
352.311	377.62
352.538	389.62
352.765	386.62
352.992	379.62
353.22	383.62
353.447	370.62
353.674	374.62
353.901	386.62
354.128	378.62
354.355	352.62
354.583	376.62
354.81	374.62
355.037	381.62
355.264	355.62
355.491	356.62
355.718	366.62
355.945	372.62
356.172	366.62
356.399	382.62
356.626	387.62
356.853	388.62
357.08	367.62
357.307	382.62
357.534	376.62
357.761	388.62
357.988	368.62
358.215	358.62
358.441	353.62
358.668	364.62
358.895	381.62
359.122	381.62
359.349	362.62
359.576	380.62
359.802	379.62
360.029	380.62
360.256	390.62
360.483	386.62
360.709	387.62
360.936	390.62
361.163	368.62
361.39	395.62
361.616	386.62
361.843	383.62
362.07	380.62
362.296	383.62
362.523	381.62
362.749	376.62
362.976	400.62
363.203	380.62
363.429	389.62
363.656	352.62
363.882	384.62
364.109	386.62
364.335	358.62
364.562	379.62
364.788	381.62
365.015	377.62
365.241	380.62
365.468	371.62
365.694	363.62
365.92	378.62
366.147	374.62
366.373	387.62
366.599	358.62
366.826	367.62
367.052	370.62
367.278	378.62
367.505	367.62
367.731	380.62
367.957	386.62
368.184	394.62
368.41	376.62
368.636	367.62
368.862	406.62
369.089	390.62
369.315	399.62
369.541	374.62
369.767	374.62
369.993	384.62
370.219	377.62
370.445	381.62
370.672	382.62
370.898	381.62
371.124	382.62
371.35	419.62
371.576	402.62
371.802	382.62
372.028	388.62
372.254	396.62
372.48	391.62
372.706	407.62
372.932	415.62
373.158	390.62
373.384	390.62
373.61	399.62
373.835	398.62
374.061	391.62
374.287	394.62
374.513	392.62
374.739	404.62
374.965	393.62
375.191	420.62
375.416	434.62
375.642	398.62
375.868	399.62
376.094	404.62
376.319	397.62
376.545	400.62
376.771	415.62
376.997	384.62
377.222	377.62
377.448	390.62
377.674	390.62
377.899	387.62
378.125	377.62
378.35	388.62
378.576	382.62
378.802	375.62
379.027	397.62
379.253	392.62
379.478	387.62
379.704	392.62
379.929	390.62
380.155	385.62
380.38	387.62
380.606	376.62
380.831	404.62
381.057	415.62
381.282	400.62
381.507	388.62
381.733	396.62
381.958	392.62
382.184	393.62
382.409	388.62
382.634	408.62
382.86	392.62
383.085	399.62
383.31	406.62
383.535	412.62
383.761	422.62
383.986	404.62
384.211	447.62
384.436	457.62
384.662	436.62
384.887	432.62
385.112	424.62
385.337	445.62
385.562	429.62
385.787	442.62
386.013	478.62
386.238	456.62
386.463	468.62
386.688	433.62
386.913	441.62
387.138	448.62
387.363	446.62
387.588	425.62
387.813	450.62
388.038	434.62
388.263	434.62
388.488	442.62
388.713	445.62
388.938	448.62
389.163	451.62
389.387	452.62
389.612	432.62
389.837	443.62
390.062	424.62
390.287	435.62
390.512	456.62
390.736	440.62
390.961	474.62
391.186	430.62
391.411	460.62
391.636	479.62
391.86	466.62
392.085	466.62
392.31	473.62
392.534	475.62
392.759	457.62
392.984	460.62
393.208	456.62
393.433	480.62
393.658	463.62
393.882	443.62
394.107	465.62
394.331	457.62
394.556	472.62
394.78	452.62
395.005	447.62
395.229	494.62
395.454	463.62
395.678	474.62
395.903	465.62
396.127	490.62
396.352	469.62
396.576	482.62
396.801	461.62
397.025	464.62
397.249	485.62
397.474	487.62
397.698	470.62
397.922	481.62
398.147	501.62
398.371	534.62
398.595	540.62
398.82	505.62
399.044	568.62
399.268	578.62
399.492	600.62
399.717	652.62
399.941	643.62
400.165	669.62
400.389	642.62
400.613	578.62
400.837	557.62
401.062	546.62
401.286	553.62
401.51	517.62
401.734	534.62
401.958	526.62
402.182	517.62
402.406	544.62
402.63	518.62
402.854	522.62
403.078	520.62
403.302	540.62
403.526	546.62
403.75	554.62
403.974	563.62
404.198	542.62
404.422	551.62
404.645	532.62
404.869	566.62
405.093	581.62
405.317	589.62
405.541	624.62
405.765	603.62
405.988	562.62
406.212	565.62
406.436	575.62
406.66	588.62
406.883	563.62
407.107	604.62
407.331	643.62
407.555	678.62
407.778	644.62
408.002	636.62
408.226	595.62
408.449	578.62
408.673	569.62
408.896	589.62
409.12	611.62
409.344	586.62
409.567	573.62
409.791	558.62
410.014	541.62
410.238	536.62
410.461	548.62
410.685	549.62
410.908	551.62
411.132	564.62
411.355	582.62
411.578	566.62
411.802	548.62
412.025	533.62
412.249	546.62
412.472	532.62
412.695	565.62
412.919	576.62
413.142	528.62
413.365	538.62
413.589	538.62
413.812	536.62
414.035	525.62
414.258	521.62
414.482	508.62
414.705	511.62
414.928	517.62
415.151	528.62
415.374	519.62
415.597	514.62
415.821	503.62
416.044	490.62
416.267	503.62
416.49	500.62
416.713	509.62
416.936	514.62
417.159	492.62
417.382	495.62
417.605	500.62
417.828	512.62
418.051	523.62
418.274	500.62
418.497	531.62
418.72	523.62
418.943	495.62
419.166	546.62
419.389	565.62
419.611	566.62
419.834	535.62
420.057	528.62
420.28	524.62
420.503	502.62
420.726	510.62
420.948	520.62
421.171	542.62
421.394	554.62
421.617	510.62
421.839	517.62
422.062	500.62
422.285	520.62
422.507	559.62
422.73	594.62
422.953	577.62
423.175	534.62
423.398	506.62
423.621	515.62
423.843	555.62
424.066	524.62
424.288	512.62
424.511	544.62
424.733	588.62
424.956	656.62
425.178	599.62
425.401	574.62
425.623	596.62
425.846	566.62
426.068	534.62
426.291	524.62
426.513	515.62
426.735	531.62
426.958	536.62
427.18	613.62
427.402	684.62
427.625	734.62
427.847	620.62
428.069	581.62
428.292	539.62
428.514	514.62
428.736	498.62
428.958	511.62
429.181	492.62
429.403	498.62
429.625	492.62
429.847	502.62
430.069	545.62
430.292	544.62
430.514	501.62
430.736	482.62
430.958	490.62
431.18	476.62
431.402	485.62
431.624	473.62
431.846	494.62
432.068	497.62
432.29	479.62
432.512	466.62
432.734	474.62
432.956	480.62
433.178	485.62
433.4	501.62
433.622	506.62
433.844	494.62
434.066	498.62
434.287	473.62
434.509	490.62
434.731	501.62
434.953	520.62
435.175	537.62
435.397	543.62
435.618	529.62
435.84	538.62
436.062	600.62
436.284	636.62
436.505	566.62
436.727	526.62
436.949	491.62
437.17	506.62
437.392	471.62
437.614	498.62
437.835	491.62
438.057	524.62
438.278	621.62
438.5	634.62
438.721	671.62
438.943	667.62
439.165	563.62
439.386	518.62
439.608	525.62
439.829	525.62
440.05	522.62
440.272	563.62
440.493	519.62
440.715	510.62
440.936	487.62
441.158	502.62
441.379	497.62
441.6	503.62
441.822	518.62
442.043	529.62
442.264	579.62
442.486	598.62
442.707	567.62
442.928	523.62
443.149	551.62
443.371	543.62
443.592	585.62
443.813	648.62
444.034	654.62
444.255	591.62
444.476	570.62
444.698	573.62
444.919	559.62
445.14	672.62
445.361	617.62
445.582	552.62
445.803	555.62
446.024	636.62
446.245	613.62
446.466	580.62
446.687	540.62
446.908	497.62
447.129	472.62
447.35	486.62
447.571	491.62
447.792	483.62
448.013	472.62
448.234	472.62
448.455	510.62
448.675	592.62
448.896	648.62
449.117	559.62
449.338	524.62
449.559	619.62
449.779	708.62
450	596.62
450.221	502.62
450.442	466.62
450.662	469.62
450.883	462.62
451.104	479.62
451.324	466.62
451.545	455.62
451.766	456.62
451.986	443.62
452.207	415.62
452.428	430.62
452.648	428.62
452.869	439.62
453.089	427.62
453.31	453.62
453.53	430.62
453.751	427.62
453.971	433.62
454.192	421.62
454.412	438.62
454.633	397.62
454.853	416.62
455.073	426.62
455.294	442.62
455.514	466.62
455.734	458.62
455.955	424.62
456.175	421.62
456.395	425.62
456.616	400.62
456.836	430.62
457.056	424.62
457.276	407.62
457.497	424.62
457.717	429.62
457.937	445.62
458.157	445.62
458.377	439.62
458.598	442.62
458.818	466.62
459.038	501.62
459.258	515.62
459.478	487.62
459.698	463.62
459.918	470.62
460.138	500.62
460.358	520.62
460.578	524.62
460.798	518.62
461.018	536.62
461.238	532.62
461.458	512.62
461.678	517.62
461.898	508.62
462.118	508.62
462.338	541.62
462.558	561.62
462.777	562.62
462.997	564.62
463.217	589.62
463.437	596.62
463.657	585.62
463.876	582.62
464.096	553.62
464.316	555.62
464.536	568.62
464.755	556.62
464.975	547.62
465.195	527.62
465.414	540.62
465.634	501.62
465.854	516.62
466.073	468.62
466.293	474.62
466.512	489.62
466.732	466.62
466.951	477.62
467.171	439.62
467.391	464.62
467.61	434.62
467.829	459.62
468.049	476.62
468.268	463.62
468.488	410.62
468.707	426.62
468.927	463.62
469.146	461.62
469.365	461.62
469.585	435.62
469.804	462.62
470.023	470.62
470.243	462.62
470.462	482.62
470.681	479.62
470.901	497.62
471.12	469.62
471.339	484.62
471.558	471.62
471.777	442.62
471.997	465.62
472.216	453.62
472.435	482.62
472.654	453.62
472.873	444.62
473.092	463.62
473.311	457.62
473.53	438.62
473.749	464.62
473.968	477.62
474.187	531.62
474.406	518.62
474.625	482.62
474.844	468.62
475.063	468.62
475.282	470.62
475.501	475.62
475.72	480.62
475.939	475.62
476.158	444.62
476.377	479.62
476.596	477.62
476.814	470.62
477.033	491.62
477.252	502.62
477.471	515.62
477.69	525.62
477.908	508.62
478.127	521.62
478.346	510.62
478.564	502.62
478.783	531.62
479.002	545.62
479.22	540.62
479.439	545.62
479.658	533.62
479.876	556.62
480.095	549.62
480.313	577.62
480.532	570.62
480.751	597.62
480.969	567.62
481.188	590.62
481.406	608.62
481.624	582.62
481.843	551.62
482.061	546.62
482.28	541.62
482.498	544.62
482.717	526.62
482.935	530.62
483.153	540.62
483.372	527.62
483.59	536.62
483.808	534.62
484.027	538.62
484.245	573.62
484.463	535.62
484.681	558.62
484.9	538.62
485.118	532.62
485.336	559.62
485.554	552.62
485.772	553.62
485.99	541.62
486.209	565.62
486.427	562.62
486.645	571.62
486.863	579.62
487.081	590.62
487.299	602.62
487.517	575.62
487.735	553.62
487.953	580.62
488.171	558.62
488.389	553.62
488.607	582.62
488.825	575.62
489.043	568.62
489.261	583.62
489.479	569.62
489.696	576.62
489.914	586.62
490.132	583.62
490.35	554.62
490.568	587.62
490.786	606.62
491.003	591.62
491.221	578.62
491.439	594.62
491.657	583.62
491.874	609.62
492.092	610.62
492.31	592.62
492.527	611.62
492.745	612.62
492.963	632.62
493.18	632.62
493.398	618.62
493.615	600.62
493.833	631.62
494.05	637.62
494.268	639.62
494.485	644.62
494.703	616.62
494.92	619.62
495.138	662.62
495.355	617.62
495.573	653.62
495.79	630.62
496.008	636.62
496.225	613.62
496.442	644.62
496.66	661.62
496.877	652.62
497.094	660.62
497.312	692.62
497.529	670.62
497.746	684.62
497.963	674.62
498.181	719.62
498.398	757.62
498.615	782.62
498.832	798.62
499.049	806.62
499.267	807.62
499.484	885.62
499.701	937.62
499.918	1016.62
500.135	1081.62
500.352	1166.62
500.569	1208.62
500.786	1179.62
501.003	1153.62
501.22	1070.62
501.437	1030.62
501.654	973.62
501.871	924.62
