Data from 1962.PennyLincolnUp.Lamp.En5.5.200Scan.071719.P1._HRD10591_13-55-30-061.txt Node
Date: Thu Jul 18 13:55:30 EDT 2019
User: cochatt
Spectrometer: HR+D1059
Trigger mode: 1
Integration Time (sec): 1.000000E-1
Scans to average: 1
Electric dark correction enabled: true
Nonlinearity correction enabled: false
Boxcar width: 0
XAxis mode: Wavelengths
Number of Pixels in Spectrum: 2048
>>>>>Begin Spectral Data<<<<<
223.165	-15.56
223.4	-15.56
223.635	-15.56
223.869	-20.56
224.104	-13.56
224.338	-9.56
224.573	-10.56
224.808	-17.56
225.042	-11.56
225.277	-1.56
225.511	-8.56
225.746	2.44
225.98	5.44
226.215	7.44
226.449	20.44
226.683	22.44
226.918	27.44
227.152	23.44
227.387	25.44
227.621	26.44
227.856	28.44
228.09	27.44
228.324	59.44
228.559	52.44
228.793	54.44
229.027	92.44
229.262	87.44
229.496	102.44
229.73	116.44
229.964	133.44
230.199	99.44
230.433	102.44
230.667	105.44
230.901	103.44
231.136	115.44
231.37	112.44
231.604	108.44
231.838	106.44
232.072	111.44
232.306	112.44
232.541	106.44
232.775	126.44
233.009	112.44
233.243	110.44
233.477	116.44
233.711	116.44
233.945	112.44
234.179	114.44
234.413	110.44
234.647	113.44
234.881	116.44
235.115	127.44
235.349	95.44
235.583	108.44
235.817	121.44
236.051	128.44
236.285	102.44
236.519	131.44
236.753	107.44
236.987	118.44
237.221	137.44
237.455	185.44
237.689	162.44
237.922	128.44
238.156	114.44
238.39	128.44
238.624	118.44
238.858	116.44
239.091	140.44
239.325	115.44
239.559	117.44
239.793	122.44
240.027	137.44
240.26	128.44
240.494	136.44
240.728	139.44
240.961	148.44
241.195	141.44
241.429	137.44
241.662	128.44
241.896	122.44
242.13	131.44
242.363	139.44
242.597	134.44
242.83	139.44
243.064	126.44
243.298	123.44
243.531	131.44
243.765	139.44
243.998	137.44
244.232	122.44
244.465	132.44
244.699	139.44
244.932	146.44
245.166	144.44
245.399	139.44
245.633	137.44
245.866	139.44
246.099	150.44
246.333	141.44
246.566	141.44
246.8	148.44
247.033	155.44
247.266	138.44
247.5	152.44
247.733	154.44
247.966	166.44
248.2	147.44
248.433	153.44
248.666	155.44
248.899	166.44
249.133	170.44
249.366	175.44
249.599	178.44
249.832	162.44
250.066	165.44
250.299	163.44
250.532	175.44
250.765	197.44
250.998	196.44
251.231	208.44
251.465	201.44
251.698	179.44
251.931	182.44
252.164	196.44
252.397	186.44
252.63	181.44
252.863	178.44
253.096	184.44
253.329	207.44
253.562	184.44
253.795	180.44
254.028	194.44
254.261	207.44
254.494	194.44
254.727	205.44
254.96	231.44
255.193	240.44
255.426	224.44
255.659	218.44
255.892	201.44
256.124	210.44
256.357	200.44
256.59	201.44
256.823	209.44
257.056	197.44
257.289	190.44
257.521	179.44
257.754	202.44
257.987	197.44
258.22	191.44
258.452	186.44
258.685	209.44
258.918	188.44
259.151	192.44
259.383	204.44
259.616	195.44
259.849	211.44
260.081	233.44
260.314	221.44
260.547	225.44
260.779	226.44
261.012	195.44
261.244	198.44
261.477	222.44
261.71	214.44
261.942	202.44
262.175	213.44
262.407	208.44
262.64	213.44
262.872	212.44
263.105	193.44
263.337	206.44
263.57	191.44
263.802	212.44
264.035	220.44
264.267	203.44
264.499	202.44
264.732	210.44
264.964	216.44
265.197	216.44
265.429	204.44
265.661	225.44
265.894	203.44
266.126	224.44
266.358	192.44
266.591	209.44
266.823	227.44
267.055	224.44
267.287	222.44
267.52	215.44
267.752	223.44
267.984	215.44
268.216	201.44
268.448	231.44
268.681	217.44
268.913	239.44
269.145	244.44
269.377	246.44
269.609	253.44
269.841	260.44
270.073	262.44
270.306	282.44
270.538	278.44
270.77	284.44
271.002	308.44
271.234	267.44
271.466	288.44
271.698	288.44
271.93	305.44
272.162	302.44
272.394	284.44
272.626	283.44
272.858	260.44
273.09	287.44
273.322	259.44
273.553	248.44
273.785	252.44
274.017	255.44
274.249	282.44
274.481	247.44
274.713	258.44
274.945	254.44
275.176	265.44
275.408	251.44
275.64	255.44
275.872	236.44
276.104	256.44
276.335	268.44
276.567	263.44
276.799	266.44
277.031	280.44
277.262	295.44
277.494	288.44
277.726	265.44
277.957	283.44
278.189	283.44
278.421	272.44
278.652	262.44
278.884	273.44
279.115	254.44
279.347	243.44
279.579	265.44
279.81	272.44
280.042	286.44
280.273	261.44
280.505	274.44
280.736	280.44
280.968	265.44
281.199	276.44
281.431	282.44
281.662	263.44
281.894	256.44
282.125	266.44
282.356	288.44
282.588	296.44
282.819	293.44
283.051	265.44
283.282	273.44
283.513	293.44
283.745	285.44
283.976	286.44
284.207	278.44
284.439	272.44
284.67	280.44
284.901	280.44
285.132	293.44
285.364	284.44
285.595	273.44
285.826	284.44
286.057	272.44
286.288	292.44
286.52	303.44
286.751	281.44
286.982	294.44
287.213	275.44
287.444	306.44
287.675	292.44
287.906	300.44
288.138	294.44
288.369	302.44
288.6	306.44
288.831	311.44
289.062	317.44
289.293	280.44
289.524	302.44
289.755	297.44
289.986	300.44
290.217	298.44
290.448	294.44
290.679	291.44
290.91	302.44
291.141	294.44
291.371	295.44
291.602	274.44
291.833	293.44
292.064	298.44
292.295	289.44
292.526	309.44
292.757	306.44
292.987	282.44
293.218	296.44
293.449	306.44
293.68	312.44
293.91	302.44
294.141	321.44
294.372	305.44
294.603	284.44
294.833	308.44
295.064	293.44
295.295	306.44
295.525	304.44
295.756	315.44
295.987	315.44
296.217	331.44
296.448	307.44
296.679	318.44
296.909	302.44
297.14	312.44
297.37	294.44
297.601	311.44
297.831	318.44
298.062	301.44
298.292	305.44
298.523	315.44
298.753	318.44
298.984	317.44
299.214	308.44
299.445	318.44
299.675	329.44
299.905	314.44
300.136	317.44
300.366	300.44
300.597	321.44
300.827	320.44
301.057	317.44
301.288	320.44
301.518	332.44
301.748	329.44
301.979	315.44
302.209	322.44
302.439	330.44
302.669	339.44
302.9	339.44
303.13	324.44
303.36	345.44
303.59	337.44
303.82	331.44
304.051	343.44
304.281	348.44
304.511	321.44
304.741	334.44
304.971	326.44
305.201	358.44
305.431	347.44
305.661	328.44
305.891	339.44
306.121	347.44
306.352	328.44
306.582	360.44
306.812	315.44
307.042	329.44
307.272	331.44
307.502	318.44
307.731	332.44
307.961	343.44
308.191	322.44
308.421	330.44
308.651	335.44
308.881	344.44
309.111	332.44
309.341	339.44
309.571	339.44
309.8	358.44
310.03	347.44
310.26	373.44
310.49	366.44
310.72	355.44
310.949	386.44
311.179	374.44
311.409	350.44
311.639	356.44
311.868	360.44
312.098	369.44
312.328	360.44
312.557	380.44
312.787	400.44
313.017	373.44
313.246	379.44
313.476	348.44
313.706	366.44
313.935	386.44
314.165	380.44
314.394	388.44
314.624	395.44
314.853	368.44
315.083	369.44
315.312	379.44
315.542	361.44
315.771	374.44
316.001	384.44
316.23	376.44
316.46	374.44
316.689	378.44
316.919	388.44
317.148	377.44
317.377	390.44
317.607	387.44
317.836	386.44
318.065	392.44
318.295	374.44
318.524	357.44
318.753	371.44
318.983	386.44
319.212	368.44
319.441	378.44
319.67	388.44
319.9	373.44
320.129	397.44
320.358	383.44
320.587	388.44
320.816	371.44
321.046	380.44
321.275	396.44
321.504	380.44
321.733	397.44
321.962	402.44
322.191	412.44
322.42	406.44
322.649	427.44
322.878	402.44
323.108	431.44
323.337	428.44
323.566	462.44
323.795	462.44
324.024	481.44
324.253	555.44
324.482	719.44
324.71	1071.44
324.939	1524.44
325.168	1330.44
325.397	712.44
325.626	548.44
325.855	474.44
326.084	467.44
326.313	434.44
326.542	439.44
326.77	481.44
326.999	544.44
327.228	694.44
327.457	999.44
327.686	1165.44
327.914	818.44
328.143	593.44
328.372	533.44
328.6	530.44
328.829	474.44
329.058	510.44
329.287	504.44
329.515	479.44
329.744	464.44
329.972	455.44
330.201	484.44
330.43	512.44
330.658	524.44
330.887	520.44
331.115	501.44
331.344	473.44
331.572	472.44
331.801	481.44
332.03	454.44
332.258	430.44
332.486	456.44
332.715	440.44
332.943	451.44
333.172	478.44
333.4	463.44
333.629	476.44
333.857	494.44
334.085	514.44
334.314	520.44
334.542	503.44
334.771	500.44
334.999	482.44
335.227	480.44
335.455	483.44
335.684	455.44
335.912	472.44
336.14	449.44
336.369	454.44
336.597	463.44
336.825	453.44
337.053	457.44
337.281	447.44
337.51	438.44
337.738	458.44
337.966	453.44
338.194	451.44
338.422	432.44
338.65	460.44
338.878	450.44
339.106	423.44
339.334	422.44
339.562	419.44
339.79	436.44
340.018	434.44
340.246	419.44
340.474	430.44
340.702	411.44
340.93	442.44
341.158	421.44
341.386	420.44
341.614	419.44
341.842	439.44
342.07	408.44
342.298	425.44
342.526	406.44
342.754	411.44
342.981	397.44
343.209	413.44
343.437	419.44
343.665	444.44
343.893	432.44
344.12	460.44
344.348	456.44
344.576	436.44
344.804	436.44
345.031	426.44
345.259	451.44
345.487	452.44
345.714	436.44
345.942	430.44
346.17	424.44
346.397	402.44
346.625	425.44
346.853	403.44
347.08	432.44
347.308	409.44
347.535	419.44
347.763	388.44
347.99	399.44
348.218	418.44
348.445	407.44
348.673	412.44
348.9	435.44
349.128	400.44
349.355	380.44
349.583	397.44
349.81	382.44
350.037	407.44
350.265	403.44
350.492	410.44
350.72	410.44
350.947	405.44
351.174	419.44
351.402	422.44
351.629	399.44
351.856	425.44
352.083	408.44
352.311	413.44
352.538	414.44
352.765	434.44
352.992	414.44
353.22	409.44
353.447	404.44
353.674	384.44
353.901	403.44
354.128	406.44
354.355	379.44
354.583	391.44
354.81	386.44
355.037	402.44
355.264	394.44
355.491	382.44
355.718	400.44
355.945	404.44
356.172	396.44
356.399	391.44
356.626	377.44
356.853	409.44
357.08	395.44
357.307	403.44
357.534	389.44
357.761	406.44
357.988	418.44
358.215	379.44
358.441	402.44
358.668	382.44
358.895	401.44
359.122	409.44
359.349	396.44
359.576	388.44
359.802	394.44
360.029	419.44
360.256	423.44
360.483	413.44
360.709	398.44
360.936	403.44
361.163	401.44
361.39	403.44
361.616	407.44
361.843	395.44
362.07	416.44
362.296	402.44
362.523	402.44
362.749	395.44
362.976	418.44
363.203	408.44
363.429	393.44
363.656	397.44
363.882	390.44
364.109	408.44
364.335	398.44
364.562	395.44
364.788	406.44
365.015	377.44
365.241	385.44
365.468	394.44
365.694	390.44
365.92	426.44
366.147	393.44
366.373	395.44
366.599	414.44
366.826	391.44
367.052	390.44
367.278	391.44
367.505	395.44
367.731	395.44
367.957	377.44
368.184	375.44
368.41	418.44
368.636	388.44
368.862	413.44
369.089	418.44
369.315	386.44
369.541	389.44
369.767	396.44
369.993	408.44
370.219	392.44
370.445	401.44
370.672	412.44
370.898	378.44
371.124	392.44
371.35	410.44
371.576	395.44
371.802	387.44
372.028	394.44
372.254	389.44
372.48	414.44
372.706	406.44
372.932	400.44
373.158	411.44
373.384	417.44
373.61	415.44
373.835	414.44
374.061	404.44
374.287	402.44
374.513	405.44
374.739	419.44
374.965	440.44
375.191	402.44
375.416	415.44
375.642	414.44
375.868	430.44
376.094	406.44
376.319	396.44
376.545	410.44
376.771	394.44
376.997	395.44
377.222	399.44
377.448	395.44
377.674	396.44
377.899	396.44
378.125	396.44
378.35	382.44
378.576	389.44
378.802	404.44
379.027	396.44
379.253	391.44
379.478	405.44
379.704	412.44
379.929	409.44
380.155	395.44
380.38	417.44
380.606	396.44
380.831	397.44
381.057	402.44
381.282	409.44
381.507	431.44
381.733	418.44
381.958	432.44
382.184	430.44
382.409	426.44
382.634	422.44
382.86	422.44
383.085	413.44
383.31	448.44
383.535	450.44
383.761	438.44
383.986	424.44
384.211	438.44
384.436	419.44
384.662	450.44
384.887	457.44
385.112	447.44
385.337	430.44
385.562	437.44
385.787	447.44
386.013	460.44
386.238	471.44
386.463	448.44
386.688	466.44
386.913	462.44
387.138	454.44
387.363	455.44
387.588	456.44
387.813	498.44
388.038	431.44
388.263	460.44
388.488	467.44
388.713	453.44
388.938	460.44
389.163	455.44
389.387	475.44
389.612	443.44
389.837	458.44
390.062	455.44
390.287	455.44
390.512	456.44
390.736	453.44
390.961	464.44
391.186	472.44
391.411	479.44
391.636	464.44
391.86	458.44
392.085	495.44
392.31	473.44
392.534	476.44
392.759	498.44
392.984	486.44
393.208	451.44
393.433	475.44
393.658	486.44
393.882	454.44
394.107	454.44
394.331	480.44
394.556	463.44
394.78	447.44
395.005	484.44
395.229	485.44
395.454	494.44
395.678	497.44
395.903	483.44
396.127	512.44
396.352	496.44
396.576	495.44
396.801	474.44
397.025	483.44
397.249	508.44
397.474	495.44
397.698	514.44
397.922	508.44
398.147	540.44
398.371	546.44
398.595	526.44
398.82	530.44
399.044	575.44
399.268	587.44
399.492	631.44
399.717	674.44
399.941	710.44
400.165	711.44
400.389	683.44
400.613	610.44
400.837	602.44
401.062	557.44
401.286	564.44
401.51	517.44
401.734	547.44
401.958	550.44
402.182	553.44
402.406	573.44
402.63	558.44
402.854	568.44
403.078	570.44
403.302	578.44
403.526	544.44
403.75	572.44
403.974	574.44
404.198	576.44
404.422	591.44
404.645	568.44
404.869	570.44
405.093	602.44
405.317	615.44
405.541	666.44
405.765	602.44
405.988	598.44
406.212	567.44
406.436	597.44
406.66	615.44
406.883	600.44
407.107	628.44
407.331	666.44
407.555	721.44
407.778	723.44
408.002	665.44
408.226	624.44
408.449	612.44
408.673	619.44
408.896	611.44
409.12	636.44
409.344	625.44
409.567	595.44
409.791	592.44
410.014	578.44
410.238	568.44
410.461	565.44
410.685	560.44
410.908	572.44
411.132	589.44
411.355	635.44
411.578	596.44
411.802	581.44
412.025	542.44
412.249	571.44
412.472	588.44
412.695	624.44
412.919	597.44
413.142	571.44
413.365	566.44
413.589	538.44
413.812	533.44
414.035	536.44
414.258	517.44
414.482	528.44
414.705	552.44
414.928	522.44
415.151	526.44
415.374	535.44
415.597	531.44
415.821	530.44
416.044	531.44
416.267	529.44
416.49	504.44
416.713	510.44
416.936	530.44
417.159	530.44
417.382	528.44
417.605	507.44
417.828	554.44
418.051	532.44
418.274	553.44
418.497	526.44
418.72	516.44
418.943	533.44
419.166	561.44
419.389	584.44
419.611	599.44
419.834	556.44
420.057	594.44
420.28	592.44
420.503	546.44
420.726	547.44
420.948	569.44
421.171	575.44
421.394	603.44
421.617	552.44
421.839	566.44
422.062	574.44
422.285	558.44
422.507	608.44
422.73	679.44
422.953	619.44
423.175	580.44
423.398	550.44
423.621	554.44
423.843	575.44
424.066	579.44
424.288	585.44
424.511	620.44
424.733	626.44
424.956	699.44
425.178	646.44
425.401	683.44
425.623	676.44
425.846	596.44
426.068	598.44
426.291	552.44
426.513	565.44
426.735	569.44
426.958	593.44
427.18	666.44
427.402	743.44
427.625	816.44
427.847	712.44
428.069	642.44
428.292	586.44
428.514	560.44
428.736	546.44
428.958	541.44
429.181	515.44
429.403	509.44
429.625	518.44
429.847	518.44
430.069	598.44
430.292	599.44
430.514	520.44
430.736	523.44
430.958	491.44
431.18	508.44
431.402	505.44
431.624	478.44
431.846	487.44
432.068	483.44
432.29	494.44
432.512	494.44
432.734	511.44
432.956	516.44
433.178	480.44
433.4	499.44
433.622	520.44
433.844	499.44
434.066	508.44
434.287	492.44
434.509	514.44
434.731	549.44
434.953	545.44
435.175	566.44
435.397	568.44
435.618	559.44
435.84	583.44
436.062	645.44
436.284	721.44
436.505	616.44
436.727	562.44
436.949	540.44
437.17	537.44
437.392	513.44
437.614	507.44
437.835	552.44
438.057	588.44
438.278	686.44
438.5	679.44
438.721	739.44
438.943	744.44
439.165	610.44
439.386	562.44
439.608	559.44
439.829	551.44
440.05	564.44
440.272	591.44
440.493	575.44
440.715	555.44
440.936	546.44
441.158	528.44
441.379	543.44
441.6	535.44
441.822	565.44
442.043	590.44
442.264	657.44
442.486	670.44
442.707	588.44
442.928	576.44
443.149	585.44
443.371	576.44
443.592	626.44
443.813	689.44
444.034	744.44
444.255	656.44
444.476	592.44
444.698	615.44
444.919	608.44
445.14	686.44
445.361	632.44
445.582	607.44
445.803	632.44
446.024	688.44
446.245	736.44
446.466	662.44
446.687	588.44
446.908	562.44
447.129	524.44
447.35	514.44
447.571	534.44
447.792	517.44
448.013	496.44
448.234	527.44
448.455	545.44
448.675	645.44
448.896	731.44
449.117	630.44
449.338	626.44
449.559	672.44
449.779	753.44
450	623.44
450.221	542.44
450.442	538.44
450.662	479.44
450.883	510.44
451.104	488.44
451.324	496.44
451.545	470.44
451.766	464.44
451.986	451.44
452.207	473.44
452.428	457.44
452.648	454.44
452.869	466.44
453.089	483.44
453.31	467.44
453.53	464.44
453.751	453.44
453.971	446.44
454.192	462.44
454.412	458.44
454.633	463.44
454.853	441.44
455.073	444.44
455.294	467.44
455.514	521.44
455.734	502.44
455.955	470.44
456.175	445.44
456.395	448.44
456.616	429.44
456.836	443.44
457.056	433.44
457.276	440.44
457.497	449.44
457.717	429.44
457.937	445.44
458.157	445.44
458.377	444.44
458.598	459.44
458.818	502.44
459.038	556.44
459.258	585.44
459.478	547.44
459.698	502.44
459.918	518.44
460.138	514.44
460.358	523.44
460.578	544.44
460.798	533.44
461.018	553.44
461.238	543.44
461.458	538.44
461.678	516.44
461.898	520.44
462.118	555.44
462.338	548.44
462.558	588.44
462.777	564.44
462.997	603.44
463.217	635.44
463.437	630.44
463.657	609.44
463.876	571.44
464.096	599.44
464.316	576.44
464.536	591.44
464.755	598.44
464.975	596.44
465.195	586.44
465.414	595.44
465.634	524.44
465.854	525.44
466.073	496.44
466.293	507.44
466.512	504.44
466.732	484.44
466.951	494.44
467.171	494.44
467.391	484.44
467.61	475.44
467.829	487.44
468.049	475.44
468.268	495.44
468.488	491.44
468.707	459.44
468.927	475.44
469.146	463.44
469.365	460.44
469.585	461.44
469.804	476.44
470.023	492.44
470.243	500.44
470.462	470.44
470.681	505.44
470.901	524.44
471.12	487.44
471.339	472.44
471.558	490.44
471.777	499.44
471.997	478.44
472.216	466.44
472.435	488.44
472.654	500.44
472.873	469.44
473.092	473.44
473.311	497.44
473.53	487.44
473.749	462.44
473.968	512.44
474.187	564.44
474.406	606.44
474.625	524.44
474.844	512.44
475.063	483.44
475.282	494.44
475.501	460.44
475.72	474.44
475.939	510.44
476.158	453.44
476.377	508.44
476.596	518.44
476.814	508.44
477.033	493.44
477.252	517.44
477.471	501.44
477.69	530.44
477.908	525.44
478.127	532.44
478.346	539.44
478.564	562.44
478.783	546.44
479.002	572.44
479.22	543.44
479.439	553.44
479.658	573.44
479.876	576.44
480.095	622.44
480.313	612.44
480.532	600.44
480.751	599.44
480.969	616.44
481.188	662.44
481.406	653.44
481.624	604.44
481.843	576.44
482.061	556.44
482.28	555.44
482.498	553.44
482.717	556.44
482.935	575.44
483.153	571.44
483.372	553.44
483.59	545.44
483.808	563.44
484.027	578.44
484.245	556.44
484.463	562.44
484.681	568.44
484.9	548.44
485.118	569.44
485.336	545.44
485.554	581.44
485.772	579.44
485.99	595.44
486.209	593.44
486.427	592.44
486.645	569.44
486.863	607.44
487.081	600.44
487.299	567.44
487.517	580.44
487.735	593.44
487.953	594.44
488.171	583.44
488.389	590.44
488.607	596.44
488.825	593.44
489.043	589.44
489.261	594.44
489.479	584.44
489.696	634.44
489.914	598.44
490.132	636.44
490.35	624.44
490.568	582.44
490.786	624.44
491.003	625.44
491.221	627.44
491.439	637.44
491.657	632.44
491.874	647.44
492.092	643.44
492.31	651.44
492.527	655.44
492.745	662.44
492.963	672.44
493.18	682.44
493.398	675.44
493.615	668.44
493.833	685.44
494.05	702.44
494.268	686.44
494.485	682.44
494.703	672.44
494.92	678.44
495.138	670.44
495.355	681.44
495.573	690.44
495.79	706.44
496.008	687.44
496.225	699.44
496.442	684.44
496.66	698.44
496.877	674.44
497.094	699.44
497.312	736.44
497.529	723.44
497.746	745.44
497.963	754.44
498.181	764.44
498.398	777.44
498.615	822.44
498.832	851.44
499.049	860.44
499.267	902.44
499.484	930.44
499.701	986.44
499.918	1052.44
500.135	1124.44
500.352	1200.44
500.569	1237.44
500.786	1237.44
501.003	1219.44
501.22	1123.44
501.437	1074.44
501.654	1001.44
501.871	983.44
