Data from 1962.PennyLincolnUp.Lamp.En5.5.200Scan.071719.P1._HRD10591_13-54-46-060.txt Node
Date: Thu Jul 18 13:54:46 EDT 2019
User: cochatt
Spectrometer: HR+D1059
Trigger mode: 1
Integration Time (sec): 1.000000E-1
Scans to average: 1
Electric dark correction enabled: true
Nonlinearity correction enabled: false
Boxcar width: 0
XAxis mode: Wavelengths
Number of Pixels in Spectrum: 2048
>>>>>Begin Spectral Data<<<<<
223.165	-16.81
223.4	-16.81
223.635	-16.81
223.869	-20.81
224.104	-20.81
224.338	3.19
224.573	-13.81
224.808	-24.81
225.042	-17.81
225.277	-13.81
225.511	13.19
225.746	15.19
225.98	2.19
226.215	10.19
226.449	17.19
226.683	12.19
226.918	24.19
227.152	31.19
227.387	38.19
227.621	31.19
227.856	42.19
228.09	37.19
228.324	49.19
228.559	53.19
228.793	84.19
229.027	75.19
229.262	97.19
229.496	111.19
229.73	110.19
229.964	138.19
230.199	106.19
230.433	110.19
230.667	113.19
230.901	102.19
231.136	120.19
231.37	101.19
231.604	106.19
231.838	119.19
232.072	99.19
232.306	99.19
232.541	106.19
232.775	102.19
233.009	104.19
233.243	111.19
233.477	95.19
233.711	108.19
233.945	112.19
234.179	116.19
234.413	124.19
234.647	119.19
234.881	110.19
235.115	106.19
235.349	95.19
235.583	118.19
235.817	107.19
236.051	104.19
236.285	120.19
236.519	116.19
236.753	132.19
236.987	121.19
237.221	168.19
237.455	190.19
237.689	157.19
237.922	112.19
238.156	131.19
238.39	116.19
238.624	113.19
238.858	118.19
239.091	114.19
239.325	122.19
239.559	116.19
239.793	118.19
240.027	120.19
240.26	151.19
240.494	136.19
240.728	141.19
240.961	140.19
241.195	140.19
241.429	120.19
241.662	130.19
241.896	134.19
242.13	129.19
242.363	127.19
242.597	135.19
242.83	122.19
243.064	144.19
243.298	130.19
243.531	118.19
243.765	130.19
243.998	132.19
244.232	130.19
244.465	125.19
244.699	139.19
244.932	135.19
245.166	121.19
245.399	147.19
245.633	156.19
245.866	135.19
246.099	131.19
246.333	126.19
246.566	138.19
246.8	147.19
247.033	144.19
247.266	147.19
247.5	150.19
247.733	153.19
247.966	168.19
248.2	149.19
248.433	157.19
248.666	156.19
248.899	156.19
249.133	175.19
249.366	174.19
249.599	177.19
249.832	158.19
250.066	167.19
250.299	164.19
250.532	176.19
250.765	178.19
250.998	201.19
251.231	203.19
251.465	199.19
251.698	176.19
251.931	167.19
252.164	179.19
252.397	172.19
252.63	185.19
252.863	186.19
253.096	170.19
253.329	215.19
253.562	211.19
253.795	215.19
254.028	196.19
254.261	209.19
254.494	198.19
254.727	205.19
254.96	230.19
255.193	223.19
255.426	220.19
255.659	203.19
255.892	202.19
256.124	190.19
256.357	205.19
256.59	201.19
256.823	192.19
257.056	195.19
257.289	191.19
257.521	186.19
257.754	191.19
257.987	196.19
258.22	191.19
258.452	196.19
258.685	199.19
258.918	186.19
259.151	204.19
259.383	211.19
259.616	190.19
259.849	197.19
260.081	207.19
260.314	230.19
260.547	235.19
260.779	216.19
261.012	207.19
261.244	214.19
261.477	213.19
261.71	211.19
261.942	209.19
262.175	203.19
262.407	217.19
262.64	207.19
262.872	191.19
263.105	192.19
263.337	211.19
263.57	200.19
263.802	204.19
264.035	223.19
264.267	211.19
264.499	207.19
264.732	215.19
264.964	211.19
265.197	214.19
265.429	221.19
265.661	206.19
265.894	191.19
266.126	206.19
266.358	213.19
266.591	214.19
266.823	218.19
267.055	223.19
267.287	223.19
267.52	230.19
267.752	214.19
267.984	212.19
268.216	233.19
268.448	230.19
268.681	234.19
268.913	248.19
269.145	235.19
269.377	265.19
269.609	252.19
269.841	244.19
270.073	268.19
270.306	279.19
270.538	275.19
270.77	280.19
271.002	275.19
271.234	273.19
271.466	280.19
271.698	272.19
271.93	268.19
272.162	275.19
272.394	293.19
272.626	295.19
272.858	265.19
273.09	252.19
273.322	266.19
273.553	266.19
273.785	261.19
274.017	239.19
274.249	263.19
274.481	239.19
274.713	266.19
274.945	276.19
275.176	257.19
275.408	248.19
275.64	242.19
275.872	266.19
276.104	269.19
276.335	271.19
276.567	257.19
276.799	272.19
277.031	275.19
277.262	308.19
277.494	308.19
277.726	295.19
277.957	282.19
278.189	279.19
278.421	268.19
278.652	256.19
278.884	269.19
279.115	266.19
279.347	262.19
279.579	265.19
279.81	256.19
280.042	284.19
280.273	262.19
280.505	264.19
280.736	258.19
280.968	275.19
281.199	278.19
281.431	272.19
281.662	273.19
281.894	267.19
282.125	287.19
282.356	302.19
282.588	298.19
282.819	288.19
283.051	262.19
283.282	283.19
283.513	278.19
283.745	256.19
283.976	304.19
284.207	289.19
284.439	276.19
284.67	282.19
284.901	282.19
285.132	282.19
285.364	291.19
285.595	301.19
285.826	283.19
286.057	296.19
286.288	289.19
286.52	282.19
286.751	256.19
286.982	271.19
287.213	282.19
287.444	291.19
287.675	298.19
287.906	302.19
288.138	292.19
288.369	274.19
288.6	292.19
288.831	302.19
289.062	288.19
289.293	302.19
289.524	293.19
289.755	298.19
289.986	303.19
290.217	293.19
290.448	294.19
290.679	288.19
290.91	286.19
291.141	294.19
291.371	308.19
291.602	299.19
291.833	286.19
292.064	303.19
292.295	292.19
292.526	296.19
292.757	292.19
292.987	275.19
293.218	297.19
293.449	317.19
293.68	293.19
293.91	307.19
294.141	311.19
294.372	288.19
294.603	294.19
294.833	314.19
295.064	296.19
295.295	296.19
295.525	297.19
295.756	311.19
295.987	320.19
296.217	315.19
296.448	319.19
296.679	339.19
296.909	303.19
297.14	307.19
297.37	314.19
297.601	326.19
297.831	298.19
298.062	312.19
298.292	322.19
298.523	316.19
298.753	322.19
298.984	324.19
299.214	330.19
299.445	317.19
299.675	299.19
299.905	309.19
300.136	326.19
300.366	334.19
300.597	319.19
300.827	313.19
301.057	329.19
301.288	326.19
301.518	340.19
301.748	336.19
301.979	348.19
302.209	322.19
302.439	316.19
302.669	337.19
302.9	340.19
303.13	331.19
303.36	336.19
303.59	345.19
303.82	362.19
304.051	339.19
304.281	351.19
304.511	321.19
304.741	347.19
304.971	348.19
305.201	330.19
305.431	331.19
305.661	315.19
305.891	331.19
306.121	339.19
306.352	315.19
306.582	327.19
306.812	337.19
307.042	358.19
307.272	355.19
307.502	338.19
307.731	343.19
307.961	335.19
308.191	326.19
308.421	321.19
308.651	351.19
308.881	324.19
309.111	337.19
309.341	340.19
309.571	362.19
309.8	359.19
310.03	350.19
310.26	340.19
310.49	369.19
310.72	378.19
310.949	359.19
311.179	363.19
311.409	354.19
311.639	370.19
311.868	380.19
312.098	385.19
312.328	376.19
312.557	361.19
312.787	368.19
313.017	396.19
313.246	369.19
313.476	366.19
313.706	375.19
313.935	380.19
314.165	379.19
314.394	389.19
314.624	380.19
314.853	383.19
315.083	386.19
315.312	376.19
315.542	376.19
315.771	367.19
316.001	336.19
316.23	374.19
316.46	379.19
316.689	362.19
316.919	371.19
317.148	372.19
317.377	389.19
317.607	388.19
317.836	369.19
318.065	382.19
318.295	374.19
318.524	367.19
318.753	389.19
318.983	362.19
319.212	384.19
319.441	371.19
319.67	362.19
319.9	378.19
320.129	388.19
320.358	372.19
320.587	376.19
320.816	382.19
321.046	395.19
321.275	379.19
321.504	403.19
321.733	370.19
321.962	394.19
322.191	396.19
322.42	377.19
322.649	418.19
322.878	394.19
323.108	422.19
323.337	443.19
323.566	434.19
323.795	466.19
324.024	466.19
324.253	559.19
324.482	723.19
324.71	1068.19
324.939	1464.19
325.168	1284.19
325.397	720.19
325.626	528.19
325.855	498.19
326.084	454.19
326.313	456.19
326.542	453.19
326.77	465.19
326.999	531.19
327.228	694.19
327.457	988.19
327.686	1189.19
327.914	804.19
328.143	592.19
328.372	514.19
328.6	490.19
328.829	476.19
329.058	490.19
329.287	492.19
329.515	484.19
329.744	471.19
329.972	483.19
330.201	454.19
330.43	496.19
330.658	489.19
330.887	507.19
331.115	505.19
331.344	460.19
331.572	456.19
331.801	464.19
332.03	474.19
332.258	453.19
332.486	447.19
332.715	434.19
332.943	451.19
333.172	446.19
333.4	481.19
333.629	473.19
333.857	493.19
334.085	494.19
334.314	508.19
334.542	510.19
334.771	525.19
334.999	476.19
335.227	474.19
335.455	467.19
335.684	480.19
335.912	449.19
336.14	454.19
336.369	440.19
336.597	440.19
336.825	473.19
337.053	434.19
337.281	446.19
337.51	420.19
337.738	459.19
337.966	442.19
338.194	432.19
338.422	458.19
338.65	439.19
338.878	460.19
339.106	426.19
339.334	424.19
339.562	432.19
339.79	416.19
340.018	414.19
340.246	427.19
340.474	436.19
340.702	428.19
340.93	412.19
341.158	404.19
341.386	417.19
341.614	414.19
341.842	405.19
342.07	404.19
342.298	424.19
342.526	417.19
342.754	422.19
342.981	419.19
343.209	422.19
343.437	441.19
343.665	446.19
343.893	435.19
344.12	470.19
344.348	459.19
344.576	468.19
344.804	449.19
345.031	422.19
345.259	462.19
345.487	438.19
345.714	420.19
345.942	428.19
346.17	427.19
346.397	415.19
346.625	416.19
346.853	404.19
347.08	406.19
347.308	406.19
347.535	415.19
347.763	421.19
347.99	419.19
348.218	392.19
348.445	416.19
348.673	402.19
348.9	409.19
349.128	408.19
349.355	401.19
349.583	400.19
349.81	403.19
350.037	415.19
350.265	409.19
350.492	414.19
350.72	420.19
350.947	416.19
351.174	412.19
351.402	389.19
351.629	388.19
351.856	400.19
352.083	425.19
352.311	408.19
352.538	426.19
352.765	419.19
352.992	397.19
353.22	395.19
353.447	401.19
353.674	414.19
353.901	400.19
354.128	401.19
354.355	372.19
354.583	406.19
354.81	395.19
355.037	395.19
355.264	383.19
355.491	383.19
355.718	390.19
355.945	389.19
356.172	379.19
356.399	404.19
356.626	402.19
356.853	408.19
357.08	377.19
357.307	401.19
357.534	379.19
357.761	386.19
357.988	395.19
358.215	391.19
358.441	406.19
358.668	387.19
358.895	388.19
359.122	376.19
359.349	400.19
359.576	406.19
359.802	404.19
360.029	425.19
360.256	422.19
360.483	410.19
360.709	416.19
360.936	416.19
361.163	403.19
361.39	410.19
361.616	404.19
361.843	405.19
362.07	398.19
362.296	414.19
362.523	393.19
362.749	404.19
362.976	408.19
363.203	391.19
363.429	401.19
363.656	372.19
363.882	412.19
364.109	403.19
364.335	413.19
364.562	402.19
364.788	397.19
365.015	408.19
365.241	378.19
365.468	390.19
365.694	387.19
365.92	395.19
366.147	382.19
366.373	419.19
366.599	389.19
366.826	411.19
367.052	404.19
367.278	383.19
367.505	405.19
367.731	396.19
367.957	398.19
368.184	408.19
368.41	386.19
368.636	396.19
368.862	407.19
369.089	395.19
369.315	397.19
369.541	419.19
369.767	413.19
369.993	389.19
370.219	416.19
370.445	408.19
370.672	397.19
370.898	410.19
371.124	393.19
371.35	410.19
371.576	408.19
371.802	414.19
372.028	402.19
372.254	407.19
372.48	427.19
372.706	411.19
372.932	411.19
373.158	411.19
373.384	411.19
373.61	420.19
373.835	401.19
374.061	398.19
374.287	400.19
374.513	408.19
374.739	419.19
374.965	432.19
375.191	427.19
375.416	425.19
375.642	409.19
375.868	406.19
376.094	395.19
376.319	388.19
376.545	421.19
376.771	409.19
376.997	393.19
377.222	401.19
377.448	393.19
377.674	397.19
377.899	396.19
378.125	418.19
378.35	381.19
378.576	406.19
378.802	379.19
379.027	425.19
379.253	410.19
379.478	415.19
379.704	385.19
379.929	398.19
380.155	400.19
380.38	406.19
380.606	389.19
380.831	393.19
381.057	401.19
381.282	399.19
381.507	428.19
381.733	400.19
381.958	425.19
382.184	414.19
382.409	432.19
382.634	407.19
382.86	430.19
383.085	427.19
383.31	432.19
383.535	424.19
383.761	447.19
383.986	436.19
384.211	450.19
384.436	425.19
384.662	447.19
384.887	435.19
385.112	448.19
385.337	447.19
385.562	463.19
385.787	469.19
386.013	459.19
386.238	448.19
386.463	444.19
386.688	458.19
386.913	465.19
387.138	453.19
387.363	469.19
387.588	463.19
387.813	444.19
388.038	454.19
388.263	467.19
388.488	467.19
388.713	460.19
388.938	464.19
389.163	479.19
389.387	455.19
389.612	458.19
389.837	458.19
390.062	458.19
390.287	472.19
390.512	453.19
390.736	462.19
390.961	473.19
391.186	449.19
391.411	471.19
391.636	473.19
391.86	468.19
392.085	505.19
392.31	497.19
392.534	483.19
392.759	474.19
392.984	483.19
393.208	481.19
393.433	467.19
393.658	479.19
393.882	456.19
394.107	459.19
394.331	460.19
394.556	456.19
394.78	480.19
395.005	455.19
395.229	487.19
395.454	495.19
395.678	494.19
395.903	519.19
396.127	506.19
396.352	509.19
396.576	496.19
396.801	485.19
397.025	485.19
397.249	504.19
397.474	495.19
397.698	511.19
397.922	516.19
398.147	515.19
398.371	532.19
398.595	542.19
398.82	535.19
399.044	558.19
399.268	574.19
399.492	638.19
399.717	706.19
399.941	697.19
400.165	700.19
400.389	678.19
400.613	620.19
400.837	599.19
401.062	570.19
401.286	527.19
401.51	556.19
401.734	567.19
401.958	574.19
402.182	551.19
402.406	552.19
402.63	553.19
402.854	568.19
403.078	564.19
403.302	570.19
403.526	585.19
403.75	594.19
403.974	588.19
404.198	584.19
404.422	591.19
404.645	583.19
404.869	591.19
405.093	618.19
405.317	626.19
405.541	628.19
405.765	613.19
405.988	595.19
406.212	605.19
406.436	604.19
406.66	600.19
406.883	619.19
407.107	625.19
407.331	669.19
407.555	725.19
407.778	719.19
408.002	692.19
408.226	631.19
408.449	626.19
408.673	594.19
408.896	623.19
409.12	659.19
409.344	642.19
409.567	588.19
409.791	572.19
410.014	565.19
410.238	568.19
410.461	559.19
410.685	555.19
410.908	577.19
411.132	593.19
411.355	617.19
411.578	576.19
411.802	572.19
412.025	562.19
412.249	567.19
412.472	585.19
412.695	615.19
412.919	594.19
413.142	578.19
413.365	541.19
413.589	535.19
413.812	525.19
414.035	546.19
414.258	536.19
414.482	520.19
414.705	531.19
414.928	542.19
415.151	507.19
415.374	531.19
415.597	521.19
415.821	516.19
416.044	520.19
416.267	543.19
416.49	540.19
416.713	519.19
416.936	524.19
417.159	551.19
417.382	536.19
417.605	525.19
417.828	530.19
418.051	556.19
418.274	559.19
418.497	527.19
418.72	536.19
418.943	527.19
419.166	572.19
419.389	594.19
419.611	577.19
419.834	572.19
420.057	564.19
420.28	559.19
420.503	546.19
420.726	545.19
420.948	559.19
421.171	572.19
421.394	595.19
421.617	574.19
421.839	566.19
422.062	565.19
422.285	542.19
422.507	585.19
422.73	657.19
422.953	664.19
423.175	585.19
423.398	583.19
423.621	580.19
423.843	599.19
424.066	594.19
424.288	579.19
424.511	603.19
424.733	634.19
424.956	673.19
425.178	676.19
425.401	676.19
425.623	687.19
425.846	598.19
426.068	556.19
426.291	578.19
426.513	579.19
426.735	576.19
426.958	594.19
427.18	661.19
427.402	757.19
427.625	814.19
427.847	708.19
428.069	632.19
428.292	576.19
428.514	545.19
428.736	540.19
428.958	519.19
429.181	508.19
429.403	532.19
429.625	510.19
429.847	550.19
430.069	580.19
430.292	583.19
430.514	529.19
430.736	510.19
430.958	510.19
431.18	510.19
431.402	503.19
431.624	510.19
431.846	530.19
432.068	516.19
432.29	521.19
432.512	514.19
432.734	533.19
432.956	518.19
433.178	514.19
433.4	514.19
433.622	513.19
433.844	498.19
434.066	504.19
434.287	494.19
434.509	506.19
434.731	524.19
434.953	555.19
435.175	562.19
435.397	572.19
435.618	539.19
435.84	580.19
436.062	638.19
436.284	700.19
436.505	596.19
436.727	569.19
436.949	550.19
437.17	517.19
437.392	523.19
437.614	537.19
437.835	546.19
438.057	616.19
438.278	686.19
438.5	698.19
438.721	739.19
438.943	711.19
439.165	587.19
439.386	574.19
439.608	556.19
439.829	561.19
440.05	547.19
440.272	591.19
440.493	550.19
440.715	562.19
440.936	540.19
441.158	535.19
441.379	552.19
441.6	552.19
441.822	546.19
442.043	570.19
442.264	658.19
442.486	680.19
442.707	600.19
442.928	593.19
443.149	551.19
443.371	602.19
443.592	609.19
443.813	671.19
444.034	764.19
444.255	646.19
444.476	620.19
444.698	628.19
444.919	607.19
445.14	708.19
445.361	660.19
445.582	599.19
445.803	644.19
446.024	718.19
446.245	702.19
446.466	628.19
446.687	580.19
446.908	581.19
447.129	528.19
447.35	507.19
447.571	518.19
447.792	496.19
448.013	501.19
448.234	506.19
448.455	550.19
448.675	631.19
448.896	692.19
449.117	634.19
449.338	608.19
449.559	665.19
449.779	763.19
450	633.19
450.221	544.19
450.442	510.19
450.662	498.19
450.883	490.19
451.104	515.19
451.324	480.19
451.545	461.19
451.766	464.19
451.986	444.19
452.207	460.19
452.428	465.19
452.648	456.19
452.869	465.19
453.089	457.19
453.31	454.19
453.53	462.19
453.751	466.19
453.971	472.19
454.192	447.19
454.412	470.19
454.633	446.19
454.853	456.19
455.073	434.19
455.294	457.19
455.514	508.19
455.734	509.19
455.955	443.19
456.175	424.19
456.395	435.19
456.616	426.19
456.836	437.19
457.056	437.19
457.276	436.19
457.497	459.19
457.717	445.19
457.937	440.19
458.157	463.19
458.377	450.19
458.598	467.19
458.818	514.19
459.038	536.19
459.258	581.19
459.478	542.19
459.698	518.19
459.918	512.19
460.138	531.19
460.358	543.19
460.578	538.19
460.798	553.19
461.018	537.19
461.238	545.19
461.458	537.19
461.678	543.19
461.898	555.19
462.118	560.19
462.338	576.19
462.558	587.19
462.777	598.19
462.997	602.19
463.217	625.19
463.437	648.19
463.657	622.19
463.876	598.19
464.096	603.19
464.316	579.19
464.536	599.19
464.755	582.19
464.975	594.19
465.195	579.19
465.414	585.19
465.634	559.19
465.854	548.19
466.073	516.19
466.293	492.19
466.512	480.19
466.732	470.19
466.951	469.19
467.171	496.19
467.391	501.19
467.61	485.19
467.829	491.19
468.049	496.19
468.268	476.19
468.488	472.19
468.707	496.19
468.927	469.19
469.146	453.19
469.365	489.19
469.585	461.19
469.804	458.19
470.023	488.19
470.243	485.19
470.462	500.19
470.681	514.19
470.901	499.19
471.12	472.19
471.339	463.19
471.558	481.19
471.777	475.19
471.997	489.19
472.216	511.19
472.435	506.19
472.654	501.19
472.873	479.19
473.092	478.19
473.311	500.19
473.53	472.19
473.749	494.19
473.968	491.19
474.187	555.19
474.406	574.19
474.625	540.19
474.844	500.19
475.063	491.19
475.282	479.19
475.501	470.19
475.72	480.19
475.939	480.19
476.158	478.19
476.377	488.19
476.596	491.19
476.814	489.19
477.033	517.19
477.252	510.19
477.471	524.19
477.69	518.19
477.908	531.19
478.127	565.19
478.346	570.19
478.564	538.19
478.783	561.19
479.002	542.19
479.22	569.19
479.439	579.19
479.658	571.19
479.876	580.19
480.095	583.19
480.313	622.19
480.532	592.19
480.751	612.19
480.969	602.19
481.188	619.19
481.406	638.19
481.624	587.19
481.843	568.19
482.061	540.19
482.28	555.19
482.498	563.19
482.717	563.19
482.935	575.19
483.153	552.19
483.372	545.19
483.59	564.19
483.808	548.19
484.027	577.19
484.245	584.19
484.463	545.19
484.681	592.19
484.9	573.19
485.118	586.19
485.336	571.19
485.554	576.19
485.772	598.19
485.99	592.19
486.209	596.19
486.427	598.19
486.645	593.19
486.863	586.19
487.081	587.19
487.299	611.19
487.517	593.19
487.735	580.19
487.953	609.19
488.171	583.19
488.389	587.19
488.607	599.19
488.825	606.19
489.043	611.19
489.261	610.19
489.479	582.19
489.696	608.19
489.914	597.19
490.132	599.19
490.35	610.19
490.568	623.19
490.786	631.19
491.003	614.19
491.221	640.19
491.439	629.19
491.657	637.19
491.874	651.19
492.092	652.19
492.31	654.19
492.527	643.19
492.745	678.19
492.963	675.19
493.18	671.19
493.398	658.19
493.615	673.19
493.833	690.19
494.05	669.19
494.268	686.19
494.485	679.19
494.703	668.19
494.92	674.19
495.138	690.19
495.355	694.19
495.573	711.19
495.79	690.19
496.008	684.19
496.225	718.19
496.442	710.19
496.66	673.19
496.877	701.19
497.094	722.19
497.312	695.19
497.529	708.19
497.746	734.19
497.963	739.19
498.181	807.19
498.398	786.19
498.615	818.19
498.832	840.19
499.049	888.19
499.267	884.19
499.484	955.19
499.701	1012.19
499.918	1040.19
500.135	1107.19
500.352	1177.19
500.569	1234.19
500.786	1228.19
501.003	1186.19
501.22	1145.19
501.437	1059.19
501.654	1027.19
501.871	971.19
