Data from 1962.PennyLincolnUp.Lamp.En5.5.200Scan.071719.P1._HRD10591_13-53-54-061.txt Node
Date: Thu Jul 18 13:53:54 EDT 2019
User: cochatt
Spectrometer: HR+D1059
Trigger mode: 1
Integration Time (sec): 1.000000E-1
Scans to average: 1
Electric dark correction enabled: true
Nonlinearity correction enabled: false
Boxcar width: 0
XAxis mode: Wavelengths
Number of Pixels in Spectrum: 2048
>>>>>Begin Spectral Data<<<<<
223.165	-10.75
223.4	-10.75
223.635	-10.75
223.869	-7.75
224.104	-6.75
224.338	-11.75
224.573	-20.75
224.808	-13.75
225.042	12.25
225.277	-25.75
225.511	1.25
225.746	3.25
225.98	1.25
226.215	19.25
226.449	19.25
226.683	18.25
226.918	5.25
227.152	17.25
227.387	18.25
227.621	46.25
227.856	41.25
228.09	65.25
228.324	49.25
228.559	46.25
228.793	56.25
229.027	88.25
229.262	92.25
229.496	103.25
229.73	104.25
229.964	120.25
230.199	103.25
230.433	111.25
230.667	107.25
230.901	115.25
231.136	93.25
231.37	128.25
231.604	107.25
231.838	127.25
232.072	114.25
232.306	104.25
232.541	96.25
232.775	109.25
233.009	111.25
233.243	110.25
233.477	134.25
233.711	111.25
233.945	121.25
234.179	119.25
234.413	126.25
234.647	134.25
234.881	125.25
235.115	117.25
235.349	114.25
235.583	119.25
235.817	117.25
236.051	122.25
236.285	117.25
236.519	121.25
236.753	124.25
236.987	129.25
237.221	162.25
237.455	183.25
237.689	157.25
237.922	125.25
238.156	144.25
238.39	123.25
238.624	129.25
238.858	117.25
239.091	125.25
239.325	113.25
239.559	127.25
239.793	125.25
240.027	123.25
240.26	135.25
240.494	139.25
240.728	138.25
240.961	127.25
241.195	123.25
241.429	140.25
241.662	133.25
241.896	129.25
242.13	125.25
242.363	127.25
242.597	129.25
242.83	140.25
243.064	127.25
243.298	133.25
243.531	134.25
243.765	137.25
243.998	154.25
244.232	131.25
244.465	129.25
244.699	123.25
244.932	137.25
245.166	153.25
245.399	137.25
245.633	152.25
245.866	147.25
246.099	139.25
246.333	144.25
246.566	141.25
246.8	142.25
247.033	141.25
247.266	136.25
247.5	134.25
247.733	164.25
247.966	162.25
248.2	154.25
248.433	171.25
248.666	178.25
248.899	178.25
249.133	173.25
249.366	182.25
249.599	165.25
249.832	163.25
250.066	171.25
250.299	174.25
250.532	173.25
250.765	163.25
250.998	186.25
251.231	200.25
251.465	173.25
251.698	168.25
251.931	177.25
252.164	171.25
252.397	157.25
252.63	187.25
252.863	192.25
253.096	197.25
253.329	213.25
253.562	191.25
253.795	185.25
254.028	182.25
254.261	200.25
254.494	192.25
254.727	198.25
254.96	221.25
255.193	227.25
255.426	198.25
255.659	202.25
255.892	198.25
256.124	189.25
256.357	198.25
256.59	193.25
256.823	195.25
257.056	189.25
257.289	187.25
257.521	183.25
257.754	201.25
257.987	199.25
258.22	197.25
258.452	204.25
258.685	196.25
258.918	203.25
259.151	196.25
259.383	205.25
259.616	198.25
259.849	202.25
260.081	202.25
260.314	228.25
260.547	233.25
260.779	217.25
261.012	204.25
261.244	204.25
261.477	221.25
261.71	210.25
261.942	198.25
262.175	215.25
262.407	207.25
262.64	205.25
262.872	209.25
263.105	201.25
263.337	197.25
263.57	206.25
263.802	202.25
264.035	193.25
264.267	204.25
264.499	185.25
264.732	201.25
264.964	225.25
265.197	216.25
265.429	206.25
265.661	208.25
265.894	205.25
266.126	217.25
266.358	209.25
266.591	213.25
266.823	225.25
267.055	219.25
267.287	219.25
267.52	218.25
267.752	226.25
267.984	223.25
268.216	211.25
268.448	211.25
268.681	224.25
268.913	227.25
269.145	236.25
269.377	246.25
269.609	262.25
269.841	248.25
270.073	247.25
270.306	255.25
270.538	270.25
270.77	263.25
271.002	265.25
271.234	283.25
271.466	248.25
271.698	267.25
271.93	268.25
272.162	266.25
272.394	297.25
272.626	271.25
272.858	250.25
273.09	257.25
273.322	245.25
273.553	254.25
273.785	256.25
274.017	246.25
274.249	252.25
274.481	251.25
274.713	263.25
274.945	251.25
275.176	242.25
275.408	236.25
275.64	259.25
275.872	261.25
276.104	256.25
276.335	268.25
276.567	271.25
276.799	271.25
277.031	284.25
277.262	296.25
277.494	296.25
277.726	264.25
277.957	275.25
278.189	251.25
278.421	283.25
278.652	248.25
278.884	266.25
279.115	274.25
279.347	239.25
279.579	272.25
279.81	267.25
280.042	253.25
280.273	242.25
280.505	246.25
280.736	272.25
280.968	271.25
281.199	265.25
281.431	271.25
281.662	270.25
281.894	261.25
282.125	262.25
282.356	269.25
282.588	269.25
282.819	272.25
283.051	270.25
283.282	268.25
283.513	281.25
283.745	279.25
283.976	283.25
284.207	285.25
284.439	287.25
284.67	287.25
284.901	274.25
285.132	271.25
285.364	272.25
285.595	293.25
285.826	277.25
286.057	277.25
286.288	291.25
286.52	283.25
286.751	267.25
286.982	280.25
287.213	293.25
287.444	297.25
287.675	277.25
287.906	296.25
288.138	293.25
288.369	291.25
288.6	281.25
288.831	293.25
289.062	298.25
289.293	292.25
289.524	277.25
289.755	285.25
289.986	298.25
290.217	293.25
290.448	284.25
290.679	301.25
290.91	295.25
291.141	299.25
291.371	289.25
291.602	295.25
291.833	286.25
292.064	291.25
292.295	302.25
292.526	300.25
292.757	297.25
292.987	271.25
293.218	292.25
293.449	292.25
293.68	301.25
293.91	307.25
294.141	294.25
294.372	303.25
294.603	295.25
294.833	293.25
295.064	296.25
295.295	292.25
295.525	306.25
295.756	298.25
295.987	298.25
296.217	327.25
296.448	318.25
296.679	305.25
296.909	306.25
297.14	309.25
297.37	291.25
297.601	317.25
297.831	305.25
298.062	310.25
298.292	310.25
298.523	323.25
298.753	315.25
298.984	328.25
299.214	313.25
299.445	317.25
299.675	316.25
299.905	313.25
300.136	323.25
300.366	303.25
300.597	317.25
300.827	334.25
301.057	314.25
301.288	339.25
301.518	331.25
301.748	327.25
301.979	313.25
302.209	319.25
302.439	320.25
302.669	337.25
302.9	341.25
303.13	342.25
303.36	343.25
303.59	322.25
303.82	340.25
304.051	352.25
304.281	328.25
304.511	332.25
304.741	324.25
304.971	331.25
305.201	325.25
305.431	329.25
305.661	326.25
305.891	327.25
306.121	345.25
306.352	335.25
306.582	328.25
306.812	329.25
307.042	354.25
307.272	311.25
307.502	332.25
307.731	334.25
307.961	325.25
308.191	341.25
308.421	339.25
308.651	334.25
308.881	339.25
309.111	327.25
309.341	329.25
309.571	336.25
309.8	344.25
310.03	332.25
310.26	343.25
310.49	339.25
310.72	378.25
310.949	376.25
311.179	366.25
311.409	353.25
311.639	349.25
311.868	370.25
312.098	349.25
312.328	367.25
312.557	389.25
312.787	381.25
313.017	356.25
313.246	379.25
313.476	361.25
313.706	342.25
313.935	382.25
314.165	366.25
314.394	373.25
314.624	370.25
314.853	370.25
315.083	373.25
315.312	357.25
315.542	353.25
315.771	365.25
316.001	342.25
316.23	347.25
316.46	365.25
316.689	354.25
316.919	380.25
317.148	375.25
317.377	373.25
317.607	365.25
317.836	358.25
318.065	372.25
318.295	362.25
318.524	366.25
318.753	382.25
318.983	373.25
319.212	376.25
319.441	373.25
319.67	372.25
319.9	375.25
320.129	382.25
320.358	391.25
320.587	365.25
320.816	391.25
321.046	381.25
321.275	380.25
321.504	392.25
321.733	383.25
321.962	381.25
322.191	380.25
322.42	394.25
322.649	398.25
322.878	411.25
323.108	421.25
323.337	421.25
323.566	415.25
323.795	431.25
324.024	458.25
324.253	520.25
324.482	665.25
324.71	963.25
324.939	1351.25
325.168	1216.25
325.397	695.25
325.626	494.25
325.855	458.25
326.084	438.25
326.313	439.25
326.542	438.25
326.77	475.25
326.999	491.25
327.228	628.25
327.457	866.25
327.686	1059.25
327.914	767.25
328.143	549.25
328.372	480.25
328.6	458.25
328.829	454.25
329.058	474.25
329.287	476.25
329.515	493.25
329.744	443.25
329.972	450.25
330.201	444.25
330.43	489.25
330.658	489.25
330.887	501.25
331.115	490.25
331.344	445.25
331.572	445.25
331.801	454.25
332.03	446.25
332.258	429.25
332.486	460.25
332.715	441.25
332.943	443.25
333.172	444.25
333.4	497.25
333.629	465.25
333.857	479.25
334.085	494.25
334.314	488.25
334.542	500.25
334.771	510.25
334.999	498.25
335.227	494.25
335.455	456.25
335.684	465.25
335.912	454.25
336.14	458.25
336.369	438.25
336.597	452.25
336.825	442.25
337.053	445.25
337.281	451.25
337.51	427.25
337.738	423.25
337.966	414.25
338.194	416.25
338.422	414.25
338.65	435.25
338.878	410.25
339.106	434.25
339.334	436.25
339.562	434.25
339.79	426.25
340.018	427.25
340.246	420.25
340.474	414.25
340.702	403.25
340.93	422.25
341.158	423.25
341.386	404.25
341.614	433.25
341.842	418.25
342.07	424.25
342.298	412.25
342.526	408.25
342.754	422.25
342.981	421.25
343.209	407.25
343.437	435.25
343.665	438.25
343.893	445.25
344.12	457.25
344.348	446.25
344.576	457.25
344.804	445.25
345.031	434.25
345.259	415.25
345.487	421.25
345.714	412.25
345.942	404.25
346.17	405.25
346.397	400.25
346.625	402.25
346.853	404.25
347.08	392.25
347.308	398.25
347.535	406.25
347.763	385.25
347.99	392.25
348.218	411.25
348.445	393.25
348.673	409.25
348.9	406.25
349.128	407.25
349.355	391.25
349.583	405.25
349.81	405.25
350.037	404.25
350.265	378.25
350.492	378.25
350.72	382.25
350.947	391.25
351.174	389.25
351.402	417.25
351.629	411.25
351.856	385.25
352.083	389.25
352.311	397.25
352.538	400.25
352.765	409.25
352.992	396.25
353.22	415.25
353.447	382.25
353.674	393.25
353.901	385.25
354.128	390.25
354.355	377.25
354.583	392.25
354.81	402.25
355.037	375.25
355.264	381.25
355.491	406.25
355.718	359.25
355.945	374.25
356.172	377.25
356.399	396.25
356.626	365.25
356.853	383.25
357.08	407.25
357.307	382.25
357.534	378.25
357.761	373.25
357.988	387.25
358.215	407.25
358.441	398.25
358.668	385.25
358.895	418.25
359.122	399.25
359.349	406.25
359.576	392.25
359.802	405.25
360.029	409.25
360.256	416.25
360.483	422.25
360.709	388.25
360.936	400.25
361.163	396.25
361.39	391.25
361.616	422.25
361.843	398.25
362.07	402.25
362.296	380.25
362.523	396.25
362.749	402.25
362.976	424.25
363.203	382.25
363.429	400.25
363.656	377.25
363.882	375.25
364.109	382.25
364.335	377.25
364.562	384.25
364.788	397.25
365.015	397.25
365.241	405.25
365.468	390.25
365.694	399.25
365.92	381.25
366.147	390.25
366.373	392.25
366.599	384.25
366.826	399.25
367.052	384.25
367.278	391.25
367.505	395.25
367.731	379.25
367.957	399.25
368.184	387.25
368.41	411.25
368.636	394.25
368.862	398.25
369.089	379.25
369.315	399.25
369.541	388.25
369.767	399.25
369.993	407.25
370.219	388.25
370.445	389.25
370.672	393.25
370.898	394.25
371.124	413.25
371.35	401.25
371.576	402.25
371.802	399.25
372.028	405.25
372.254	405.25
372.48	398.25
372.706	389.25
372.932	401.25
373.158	399.25
373.384	405.25
373.61	407.25
373.835	411.25
374.061	396.25
374.287	419.25
374.513	430.25
374.739	441.25
374.965	415.25
375.191	426.25
375.416	430.25
375.642	402.25
375.868	412.25
376.094	391.25
376.319	397.25
376.545	415.25
376.771	399.25
376.997	394.25
377.222	395.25
377.448	392.25
377.674	399.25
377.899	398.25
378.125	410.25
378.35	369.25
378.576	394.25
378.802	374.25
379.027	385.25
379.253	390.25
379.478	406.25
379.704	396.25
379.929	389.25
380.155	401.25
380.38	390.25
380.606	397.25
380.831	406.25
381.057	389.25
381.282	392.25
381.507	395.25
381.733	407.25
381.958	407.25
382.184	422.25
382.409	409.25
382.634	423.25
382.86	423.25
383.085	439.25
383.31	422.25
383.535	434.25
383.761	422.25
383.986	440.25
384.211	437.25
384.436	437.25
384.662	440.25
384.887	443.25
385.112	451.25
385.337	456.25
385.562	448.25
385.787	453.25
386.013	468.25
386.238	463.25
386.463	467.25
386.688	453.25
386.913	439.25
387.138	466.25
387.363	458.25
387.588	456.25
387.813	466.25
388.038	464.25
388.263	449.25
388.488	455.25
388.713	445.25
388.938	466.25
389.163	459.25
389.387	475.25
389.612	442.25
389.837	453.25
390.062	433.25
390.287	460.25
390.512	457.25
390.736	459.25
390.961	439.25
391.186	463.25
391.411	469.25
391.636	473.25
391.86	489.25
392.085	495.25
392.31	487.25
392.534	473.25
392.759	482.25
392.984	472.25
393.208	480.25
393.433	476.25
393.658	488.25
393.882	453.25
394.107	450.25
394.331	472.25
394.556	470.25
394.78	464.25
395.005	485.25
395.229	472.25
395.454	475.25
395.678	485.25
395.903	501.25
396.127	484.25
396.352	514.25
396.576	464.25
396.801	467.25
397.025	495.25
397.249	495.25
397.474	506.25
397.698	515.25
397.922	510.25
398.147	526.25
398.371	535.25
398.595	510.25
398.82	534.25
399.044	555.25
399.268	578.25
399.492	643.25
399.717	679.25
399.941	685.25
400.165	685.25
400.389	651.25
400.613	597.25
400.837	581.25
401.062	552.25
401.286	542.25
401.51	522.25
401.734	537.25
401.958	556.25
402.182	543.25
402.406	561.25
402.63	527.25
402.854	556.25
403.078	553.25
403.302	555.25
403.526	573.25
403.75	566.25
403.974	569.25
404.198	569.25
404.422	599.25
404.645	565.25
404.869	595.25
405.093	587.25
405.317	626.25
405.541	645.25
405.765	595.25
405.988	563.25
406.212	582.25
406.436	591.25
406.66	610.25
406.883	610.25
407.107	639.25
407.331	669.25
407.555	716.25
407.778	693.25
408.002	663.25
408.226	636.25
408.449	636.25
408.673	610.25
408.896	621.25
409.12	643.25
409.344	623.25
409.567	575.25
409.791	591.25
410.014	558.25
410.238	554.25
410.461	565.25
410.685	577.25
410.908	562.25
411.132	581.25
411.355	621.25
411.578	597.25
411.802	575.25
412.025	555.25
412.249	552.25
412.472	557.25
412.695	595.25
412.919	587.25
413.142	570.25
413.365	531.25
413.589	526.25
413.812	548.25
414.035	534.25
414.258	540.25
414.482	525.25
414.705	535.25
414.928	535.25
415.151	512.25
415.374	521.25
415.597	513.25
415.821	515.25
416.044	520.25
416.267	537.25
416.49	531.25
416.713	494.25
416.936	523.25
417.159	529.25
417.382	526.25
417.605	530.25
417.828	537.25
418.051	535.25
418.274	535.25
418.497	554.25
418.72	545.25
418.943	510.25
419.166	549.25
419.389	589.25
419.611	567.25
419.834	545.25
420.057	565.25
420.28	549.25
420.503	499.25
420.726	546.25
420.948	533.25
421.171	568.25
421.394	586.25
421.617	571.25
421.839	556.25
422.062	543.25
422.285	551.25
422.507	575.25
422.73	633.25
422.953	621.25
423.175	591.25
423.398	555.25
423.621	551.25
423.843	578.25
424.066	600.25
424.288	559.25
424.511	590.25
424.733	623.25
424.956	666.25
425.178	645.25
425.401	645.25
425.623	614.25
425.846	572.25
426.068	566.25
426.291	550.25
426.513	549.25
426.735	540.25
426.958	592.25
427.18	640.25
427.402	727.25
427.625	773.25
427.847	659.25
428.069	616.25
428.292	563.25
428.514	548.25
428.736	522.25
428.958	512.25
429.181	522.25
429.403	515.25
429.625	490.25
429.847	538.25
430.069	595.25
430.292	561.25
430.514	538.25
430.736	523.25
430.958	499.25
431.18	497.25
431.402	501.25
431.624	500.25
431.846	494.25
432.068	497.25
432.29	477.25
432.512	531.25
432.734	491.25
432.956	498.25
433.178	499.25
433.4	507.25
433.622	513.25
433.844	513.25
434.066	502.25
434.287	516.25
434.509	512.25
434.731	505.25
434.953	527.25
435.175	529.25
435.397	589.25
435.618	562.25
435.84	580.25
436.062	633.25
436.284	669.25
436.505	595.25
436.727	538.25
436.949	518.25
437.17	513.25
437.392	525.25
437.614	506.25
437.835	516.25
438.057	589.25
438.278	648.25
438.5	646.25
438.721	738.25
438.943	684.25
439.165	575.25
439.386	546.25
439.608	542.25
439.829	549.25
440.05	558.25
440.272	556.25
440.493	540.25
440.715	533.25
440.936	506.25
441.158	513.25
441.379	535.25
441.6	551.25
441.822	551.25
442.043	574.25
442.264	623.25
442.486	637.25
442.707	589.25
442.928	538.25
443.149	553.25
443.371	569.25
443.592	595.25
443.813	656.25
444.034	733.25
444.255	619.25
444.476	583.25
444.698	585.25
444.919	607.25
445.14	712.25
445.361	649.25
445.582	574.25
445.803	621.25
446.024	680.25
446.245	683.25
446.466	623.25
446.687	546.25
446.908	542.25
447.129	519.25
447.35	514.25
447.571	499.25
447.792	521.25
448.013	483.25
448.234	485.25
448.455	555.25
448.675	615.25
448.896	684.25
449.117	605.25
449.338	567.25
449.559	661.25
449.779	734.25
450	610.25
450.221	505.25
450.442	483.25
450.662	473.25
450.883	470.25
451.104	497.25
451.324	472.25
451.545	463.25
451.766	478.25
451.986	455.25
452.207	462.25
452.428	458.25
452.648	481.25
452.869	455.25
453.089	443.25
453.31	452.25
453.53	455.25
453.751	445.25
453.971	455.25
454.192	452.25
454.412	446.25
454.633	433.25
454.853	439.25
455.073	454.25
455.294	473.25
455.514	487.25
455.734	499.25
455.955	459.25
456.175	443.25
456.395	453.25
456.616	413.25
456.836	449.25
457.056	423.25
457.276	430.25
457.497	433.25
457.717	426.25
457.937	435.25
458.157	446.25
458.377	469.25
458.598	462.25
458.818	507.25
459.038	540.25
459.258	568.25
459.478	537.25
459.698	528.25
459.918	487.25
460.138	515.25
460.358	529.25
460.578	518.25
460.798	527.25
461.018	535.25
461.238	509.25
461.458	527.25
461.678	550.25
461.898	557.25
462.118	539.25
462.338	552.25
462.558	567.25
462.777	589.25
462.997	600.25
463.217	623.25
463.437	639.25
463.657	609.25
463.876	595.25
464.096	603.25
464.316	581.25
464.536	583.25
464.755	581.25
464.975	565.25
465.195	567.25
465.414	578.25
465.634	537.25
465.854	529.25
466.073	514.25
466.293	511.25
466.512	476.25
466.732	490.25
466.951	472.25
467.171	465.25
467.391	468.25
467.61	491.25
467.829	500.25
468.049	521.25
468.268	480.25
468.488	484.25
468.707	485.25
468.927	483.25
469.146	468.25
469.365	464.25
469.585	454.25
469.804	474.25
470.023	479.25
470.243	480.25
470.462	492.25
470.681	486.25
470.901	481.25
471.12	491.25
471.339	481.25
471.558	486.25
471.777	495.25
471.997	459.25
472.216	483.25
472.435	472.25
472.654	467.25
472.873	494.25
473.092	478.25
473.311	442.25
473.53	484.25
473.749	461.25
473.968	478.25
474.187	546.25
474.406	587.25
474.625	516.25
474.844	473.25
475.063	479.25
475.282	482.25
475.501	471.25
475.72	483.25
475.939	491.25
476.158	485.25
476.377	492.25
476.596	474.25
476.814	467.25
477.033	499.25
477.252	502.25
477.471	514.25
477.69	529.25
477.908	523.25
478.127	531.25
478.346	540.25
478.564	549.25
478.783	550.25
479.002	538.25
479.22	532.25
479.439	574.25
479.658	574.25
479.876	557.25
480.095	591.25
480.313	605.25
480.532	615.25
480.751	594.25
480.969	600.25
481.188	601.25
481.406	604.25
481.624	560.25
481.843	571.25
482.061	571.25
482.28	543.25
482.498	548.25
482.717	543.25
482.935	563.25
483.153	562.25
483.372	545.25
483.59	567.25
483.808	559.25
484.027	550.25
484.245	543.25
484.463	556.25
484.681	569.25
484.9	555.25
485.118	572.25
485.336	557.25
485.554	564.25
485.772	574.25
485.99	580.25
486.209	560.25
486.427	572.25
486.645	565.25
486.863	582.25
487.081	599.25
487.299	602.25
487.517	592.25
487.735	599.25
487.953	582.25
488.171	579.25
488.389	588.25
488.607	579.25
488.825	556.25
489.043	575.25
489.261	595.25
489.479	582.25
489.696	609.25
489.914	589.25
490.132	591.25
490.35	597.25
490.568	611.25
490.786	621.25
491.003	610.25
491.221	626.25
491.439	616.25
491.657	634.25
491.874	645.25
492.092	636.25
492.31	644.25
492.527	653.25
492.745	643.25
492.963	636.25
493.18	663.25
493.398	675.25
493.615	681.25
493.833	663.25
494.05	659.25
494.268	649.25
494.485	639.25
494.703	656.25
494.92	651.25
495.138	663.25
495.355	653.25
495.573	665.25
495.79	657.25
496.008	684.25
496.225	677.25
496.442	667.25
496.66	689.25
496.877	711.25
497.094	676.25
497.312	699.25
497.529	707.25
497.746	730.25
497.963	730.25
498.181	794.25
498.398	776.25
498.615	779.25
498.832	829.25
499.049	845.25
499.267	897.25
499.484	946.25
499.701	968.25
499.918	1001.25
500.135	1116.25
500.352	1192.25
500.569	1228.25
500.786	1209.25
501.003	1176.25
501.22	1136.25
501.437	1049.25
501.654	990.25
501.871	941.25
