Data from 1962.PennyLincolnUp.Lamp.En5.5.200Scan.071719.P1._HRD10591_13-55-51-062.txt Node
Date: Thu Jul 18 13:55:51 EDT 2019
User: cochatt
Spectrometer: HR+D1059
Trigger mode: 1
Integration Time (sec): 1.000000E-1
Scans to average: 1
Electric dark correction enabled: true
Nonlinearity correction enabled: false
Boxcar width: 0
XAxis mode: Wavelengths
Number of Pixels in Spectrum: 2048
>>>>>Begin Spectral Data<<<<<
223.165	-17.62
223.4	-17.62
223.635	-17.62
223.869	-12.62
224.104	-8.62
224.338	-11.62
224.573	-12.62
224.808	-16.62
225.042	-17.62
225.277	6.38
225.511	-5.62
225.746	-12.62
225.98	7.38
226.215	14.38
226.449	12.38
226.683	31.38
226.918	14.38
227.152	29.38
227.387	30.38
227.621	38.38
227.856	30.38
228.09	32.38
228.324	58.38
228.559	67.38
228.793	84.38
229.027	81.38
229.262	95.38
229.496	93.38
229.73	112.38
229.964	136.38
230.199	132.38
230.433	108.38
230.667	107.38
230.901	113.38
231.136	104.38
231.37	117.38
231.604	119.38
231.838	113.38
232.072	109.38
232.306	123.38
232.541	104.38
232.775	118.38
233.009	113.38
233.243	119.38
233.477	99.38
233.711	123.38
233.945	126.38
234.179	123.38
234.413	116.38
234.647	98.38
234.881	109.38
235.115	108.38
235.349	105.38
235.583	128.38
235.817	111.38
236.051	110.38
236.285	133.38
236.519	123.38
236.753	125.38
236.987	135.38
237.221	164.38
237.455	167.38
237.689	149.38
237.922	131.38
238.156	126.38
238.39	122.38
238.624	121.38
238.858	125.38
239.091	117.38
239.325	134.38
239.559	124.38
239.793	116.38
240.027	125.38
240.26	134.38
240.494	145.38
240.728	133.38
240.961	136.38
241.195	149.38
241.429	133.38
241.662	130.38
241.896	138.38
242.13	120.38
242.363	140.38
242.597	121.38
242.83	133.38
243.064	138.38
243.298	121.38
243.531	121.38
243.765	133.38
243.998	136.38
244.232	140.38
244.465	141.38
244.699	129.38
244.932	159.38
245.166	142.38
245.399	152.38
245.633	130.38
245.866	139.38
246.099	152.38
246.333	140.38
246.566	150.38
246.8	164.38
247.033	146.38
247.266	143.38
247.5	157.38
247.733	159.38
247.966	164.38
248.2	173.38
248.433	166.38
248.666	163.38
248.899	167.38
249.133	178.38
249.366	177.38
249.599	178.38
249.832	164.38
250.066	162.38
250.299	156.38
250.532	167.38
250.765	183.38
250.998	194.38
251.231	203.38
251.465	189.38
251.698	195.38
251.931	175.38
252.164	181.38
252.397	197.38
252.63	197.38
252.863	185.38
253.096	191.38
253.329	210.38
253.562	212.38
253.795	190.38
254.028	188.38
254.261	187.38
254.494	217.38
254.727	231.38
254.96	243.38
255.193	235.38
255.426	213.38
255.659	217.38
255.892	203.38
256.124	210.38
256.357	216.38
256.59	211.38
256.823	213.38
257.056	198.38
257.289	218.38
257.521	199.38
257.754	207.38
257.987	198.38
258.22	199.38
258.452	194.38
258.685	202.38
258.918	186.38
259.151	197.38
259.383	194.38
259.616	196.38
259.849	207.38
260.081	214.38
260.314	226.38
260.547	238.38
260.779	218.38
261.012	214.38
261.244	212.38
261.477	207.38
261.71	219.38
261.942	208.38
262.175	223.38
262.407	214.38
262.64	233.38
262.872	207.38
263.105	197.38
263.337	234.38
263.57	203.38
263.802	205.38
264.035	203.38
264.267	205.38
264.499	196.38
264.732	222.38
264.964	206.38
265.197	206.38
265.429	229.38
265.661	214.38
265.894	220.38
266.126	211.38
266.358	210.38
266.591	219.38
266.823	207.38
267.055	202.38
267.287	228.38
267.52	212.38
267.752	219.38
267.984	214.38
268.216	222.38
268.448	229.38
268.681	235.38
268.913	227.38
269.145	254.38
269.377	281.38
269.609	257.38
269.841	267.38
270.073	248.38
270.306	265.38
270.538	271.38
270.77	302.38
271.002	306.38
271.234	267.38
271.466	276.38
271.698	286.38
271.93	275.38
272.162	284.38
272.394	286.38
272.626	279.38
272.858	256.38
273.09	267.38
273.322	270.38
273.553	278.38
273.785	248.38
274.017	257.38
274.249	255.38
274.481	254.38
274.713	257.38
274.945	263.38
275.176	258.38
275.408	250.38
275.64	262.38
275.872	249.38
276.104	236.38
276.335	245.38
276.567	256.38
276.799	270.38
277.031	281.38
277.262	290.38
277.494	298.38
277.726	289.38
277.957	268.38
278.189	265.38
278.421	285.38
278.652	274.38
278.884	273.38
279.115	261.38
279.347	265.38
279.579	272.38
279.81	275.38
280.042	274.38
280.273	281.38
280.505	279.38
280.736	267.38
280.968	270.38
281.199	273.38
281.431	268.38
281.662	281.38
281.894	281.38
282.125	275.38
282.356	290.38
282.588	298.38
282.819	283.38
283.051	275.38
283.282	270.38
283.513	291.38
283.745	286.38
283.976	286.38
284.207	283.38
284.439	298.38
284.67	267.38
284.901	283.38
285.132	298.38
285.364	264.38
285.595	277.38
285.826	283.38
286.057	283.38
286.288	276.38
286.52	278.38
286.751	292.38
286.982	295.38
287.213	294.38
287.444	293.38
287.675	301.38
287.906	296.38
288.138	299.38
288.369	306.38
288.6	304.38
288.831	295.38
289.062	311.38
289.293	298.38
289.524	293.38
289.755	302.38
289.986	285.38
290.217	297.38
290.448	293.38
290.679	270.38
290.91	316.38
291.141	293.38
291.371	305.38
291.602	314.38
291.833	294.38
292.064	280.38
292.295	321.38
292.526	308.38
292.757	309.38
292.987	293.38
293.218	310.38
293.449	284.38
293.68	297.38
293.91	282.38
294.141	298.38
294.372	281.38
294.603	282.38
294.833	286.38
295.064	297.38
295.295	309.38
295.525	280.38
295.756	310.38
295.987	313.38
296.217	327.38
296.448	311.38
296.679	300.38
296.909	305.38
297.14	291.38
297.37	339.38
297.601	315.38
297.831	318.38
298.062	307.38
298.292	309.38
298.523	311.38
298.753	308.38
298.984	315.38
299.214	303.38
299.445	315.38
299.675	306.38
299.905	326.38
300.136	313.38
300.366	315.38
300.597	321.38
300.827	325.38
301.057	322.38
301.288	342.38
301.518	338.38
301.748	328.38
301.979	322.38
302.209	352.38
302.439	343.38
302.669	348.38
302.9	342.38
303.13	335.38
303.36	342.38
303.59	329.38
303.82	336.38
304.051	343.38
304.281	333.38
304.511	326.38
304.741	318.38
304.971	332.38
305.201	354.38
305.431	341.38
305.661	362.38
305.891	325.38
306.121	334.38
306.352	338.38
306.582	332.38
306.812	345.38
307.042	326.38
307.272	319.38
307.502	342.38
307.731	333.38
307.961	317.38
308.191	340.38
308.421	350.38
308.651	340.38
308.881	335.38
309.111	363.38
309.341	329.38
309.571	345.38
309.8	371.38
310.03	359.38
310.26	356.38
310.49	345.38
310.72	350.38
310.949	370.38
311.179	379.38
311.409	389.38
311.639	374.38
311.868	386.38
312.098	365.38
312.328	358.38
312.557	365.38
312.787	382.38
313.017	385.38
313.246	369.38
313.476	351.38
313.706	362.38
313.935	371.38
314.165	389.38
314.394	393.38
314.624	390.38
314.853	380.38
315.083	361.38
315.312	402.38
315.542	370.38
315.771	367.38
316.001	370.38
316.23	368.38
316.46	347.38
316.689	360.38
316.919	365.38
317.148	377.38
317.377	372.38
317.607	386.38
317.836	374.38
318.065	397.38
318.295	381.38
318.524	380.38
318.753	357.38
318.983	366.38
319.212	369.38
319.441	359.38
319.67	383.38
319.9	394.38
320.129	380.38
320.358	363.38
320.587	371.38
320.816	385.38
321.046	377.38
321.275	405.38
321.504	353.38
321.733	387.38
321.962	383.38
322.191	398.38
322.42	405.38
322.649	419.38
322.878	423.38
323.108	405.38
323.337	448.38
323.566	453.38
323.795	468.38
324.024	482.38
324.253	565.38
324.482	745.38
324.71	1083.38
324.939	1555.38
325.168	1365.38
325.397	762.38
325.626	553.38
325.855	483.38
326.084	467.38
326.313	452.38
326.542	467.38
326.77	490.38
326.999	537.38
327.228	687.38
327.457	979.38
327.686	1189.38
327.914	817.38
328.143	589.38
328.372	522.38
328.6	491.38
328.829	492.38
329.058	525.38
329.287	483.38
329.515	479.38
329.744	465.38
329.972	469.38
330.201	495.38
330.43	508.38
330.658	505.38
330.887	519.38
331.115	523.38
331.344	487.38
331.572	440.38
331.801	451.38
332.03	471.38
332.258	445.38
332.486	435.38
332.715	457.38
332.943	464.38
333.172	469.38
333.4	463.38
333.629	466.38
333.857	487.38
334.085	514.38
334.314	516.38
334.542	504.38
334.771	518.38
334.999	483.38
335.227	470.38
335.455	452.38
335.684	492.38
335.912	463.38
336.14	465.38
336.369	453.38
336.597	439.38
336.825	449.38
337.053	451.38
337.281	457.38
337.51	434.38
337.738	446.38
337.966	436.38
338.194	433.38
338.422	440.38
338.65	437.38
338.878	446.38
339.106	433.38
339.334	434.38
339.562	441.38
339.79	438.38
340.018	418.38
340.246	417.38
340.474	417.38
340.702	428.38
340.93	449.38
341.158	434.38
341.386	430.38
341.614	421.38
341.842	443.38
342.07	416.38
342.298	425.38
342.526	422.38
342.754	407.38
342.981	420.38
343.209	407.38
343.437	414.38
343.665	440.38
343.893	435.38
344.12	458.38
344.348	449.38
344.576	430.38
344.804	448.38
345.031	438.38
345.259	426.38
345.487	431.38
345.714	429.38
345.942	426.38
346.17	432.38
346.397	409.38
346.625	404.38
346.853	386.38
347.08	396.38
347.308	395.38
347.535	422.38
347.763	417.38
347.99	405.38
348.218	406.38
348.445	419.38
348.673	434.38
348.9	398.38
349.128	425.38
349.355	411.38
349.583	402.38
349.81	411.38
350.037	402.38
350.265	388.38
350.492	403.38
350.72	398.38
350.947	386.38
351.174	395.38
351.402	413.38
351.629	396.38
351.856	413.38
352.083	405.38
352.311	415.38
352.538	398.38
352.765	426.38
352.992	395.38
353.22	389.38
353.447	406.38
353.674	395.38
353.901	392.38
354.128	395.38
354.355	381.38
354.583	381.38
354.81	391.38
355.037	384.38
355.264	384.38
355.491	389.38
355.718	383.38
355.945	381.38
356.172	381.38
356.399	405.38
356.626	389.38
356.853	393.38
357.08	385.38
357.307	396.38
357.534	403.38
357.761	386.38
357.988	410.38
358.215	381.38
358.441	394.38
358.668	398.38
358.895	402.38
359.122	387.38
359.349	416.38
359.576	415.38
359.802	411.38
360.029	428.38
360.256	449.38
360.483	426.38
360.709	401.38
360.936	421.38
361.163	407.38
361.39	387.38
361.616	413.38
361.843	397.38
362.07	392.38
362.296	415.38
362.523	409.38
362.749	395.38
362.976	396.38
363.203	412.38
363.429	397.38
363.656	406.38
363.882	399.38
364.109	398.38
364.335	393.38
364.562	396.38
364.788	379.38
365.015	403.38
365.241	393.38
365.468	409.38
365.694	410.38
365.92	400.38
366.147	403.38
366.373	402.38
366.599	395.38
366.826	387.38
367.052	391.38
367.278	414.38
367.505	407.38
367.731	383.38
367.957	410.38
368.184	394.38
368.41	396.38
368.636	402.38
368.862	402.38
369.089	406.38
369.315	400.38
369.541	382.38
369.767	389.38
369.993	397.38
370.219	390.38
370.445	406.38
370.672	407.38
370.898	411.38
371.124	398.38
371.35	403.38
371.576	419.38
371.802	402.38
372.028	412.38
372.254	400.38
372.48	410.38
372.706	407.38
372.932	425.38
373.158	428.38
373.384	416.38
373.61	410.38
373.835	425.38
374.061	424.38
374.287	414.38
374.513	424.38
374.739	427.38
374.965	447.38
375.191	412.38
375.416	433.38
375.642	403.38
375.868	422.38
376.094	441.38
376.319	415.38
376.545	408.38
376.771	397.38
376.997	399.38
377.222	396.38
377.448	397.38
377.674	401.38
377.899	394.38
378.125	403.38
378.35	389.38
378.576	407.38
378.802	399.38
379.027	399.38
379.253	398.38
379.478	406.38
379.704	400.38
379.929	408.38
380.155	411.38
380.38	398.38
380.606	403.38
380.831	381.38
381.057	411.38
381.282	400.38
381.507	411.38
381.733	395.38
381.958	407.38
382.184	406.38
382.409	426.38
382.634	407.38
382.86	405.38
383.085	420.38
383.31	437.38
383.535	429.38
383.761	407.38
383.986	430.38
384.211	437.38
384.436	443.38
384.662	438.38
384.887	462.38
385.112	460.38
385.337	452.38
385.562	469.38
385.787	467.38
386.013	441.38
386.238	467.38
386.463	459.38
386.688	474.38
386.913	461.38
387.138	451.38
387.363	454.38
387.588	446.38
387.813	468.38
388.038	466.38
388.263	435.38
388.488	437.38
388.713	456.38
388.938	458.38
389.163	452.38
389.387	465.38
389.612	447.38
389.837	444.38
390.062	448.38
390.287	466.38
390.512	460.38
390.736	483.38
390.961	457.38
391.186	486.38
391.411	461.38
391.636	461.38
391.86	471.38
392.085	487.38
392.31	489.38
392.534	482.38
392.759	485.38
392.984	484.38
393.208	473.38
393.433	462.38
393.658	472.38
393.882	477.38
394.107	460.38
394.331	471.38
394.556	503.38
394.78	473.38
395.005	482.38
395.229	476.38
395.454	480.38
395.678	499.38
395.903	482.38
396.127	494.38
396.352	515.38
396.576	490.38
396.801	485.38
397.025	490.38
397.249	491.38
397.474	498.38
397.698	503.38
397.922	493.38
398.147	526.38
398.371	503.38
398.595	532.38
398.82	532.38
399.044	554.38
399.268	585.38
399.492	619.38
399.717	683.38
399.941	702.38
400.165	687.38
400.389	681.38
400.613	616.38
400.837	593.38
401.062	545.38
401.286	534.38
401.51	556.38
401.734	528.38
401.958	548.38
402.182	570.38
402.406	547.38
402.63	554.38
402.854	547.38
403.078	555.38
403.302	567.38
403.526	589.38
403.75	561.38
403.974	582.38
404.198	578.38
404.422	576.38
404.645	606.38
404.869	574.38
405.093	602.38
405.317	649.38
405.541	639.38
405.765	618.38
405.988	603.38
406.212	603.38
406.436	588.38
406.66	601.38
406.883	586.38
407.107	628.38
407.331	659.38
407.555	730.38
407.778	717.38
408.002	666.38
408.226	643.38
408.449	635.38
408.673	629.38
408.896	643.38
409.12	643.38
409.344	647.38
409.567	578.38
409.791	567.38
410.014	559.38
410.238	562.38
410.461	558.38
410.685	573.38
410.908	577.38
411.132	614.38
411.355	633.38
411.578	611.38
411.802	557.38
412.025	562.38
412.249	559.38
412.472	596.38
412.695	596.38
412.919	600.38
413.142	559.38
413.365	533.38
413.589	569.38
413.812	550.38
414.035	542.38
414.258	539.38
414.482	531.38
414.705	551.38
414.928	548.38
415.151	532.38
415.374	546.38
415.597	555.38
415.821	531.38
416.044	521.38
416.267	527.38
416.49	534.38
416.713	523.38
416.936	520.38
417.159	516.38
417.382	528.38
417.605	522.38
417.828	519.38
418.051	549.38
418.274	545.38
418.497	561.38
418.72	528.38
418.943	560.38
419.166	563.38
419.389	591.38
419.611	586.38
419.834	552.38
420.057	541.38
420.28	564.38
420.503	547.38
420.726	557.38
420.948	581.38
421.171	571.38
421.394	599.38
421.617	572.38
421.839	534.38
422.062	546.38
422.285	554.38
422.507	603.38
422.73	674.38
422.953	627.38
423.175	582.38
423.398	579.38
423.621	557.38
423.843	591.38
424.066	577.38
424.288	578.38
424.511	593.38
424.733	609.38
424.956	687.38
425.178	665.38
425.401	639.38
425.623	681.38
425.846	622.38
426.068	592.38
426.291	574.38
426.513	578.38
426.735	565.38
426.958	596.38
427.18	667.38
427.402	755.38
427.625	853.38
427.847	717.38
428.069	638.38
428.292	605.38
428.514	550.38
428.736	533.38
428.958	539.38
429.181	527.38
429.403	499.38
429.625	518.38
429.847	561.38
430.069	597.38
430.292	577.38
430.514	551.38
430.736	508.38
430.958	499.38
431.18	508.38
431.402	493.38
431.624	501.38
431.846	492.38
432.068	499.38
432.29	513.38
432.512	519.38
432.734	530.38
432.956	506.38
433.178	516.38
433.4	537.38
433.622	519.38
433.844	507.38
434.066	522.38
434.287	513.38
434.509	498.38
434.731	549.38
434.953	543.38
435.175	558.38
435.397	572.38
435.618	574.38
435.84	599.38
436.062	648.38
436.284	705.38
436.505	616.38
436.727	566.38
436.949	520.38
437.17	517.38
437.392	510.38
437.614	518.38
437.835	538.38
438.057	609.38
438.278	695.38
438.5	709.38
438.721	764.38
438.943	731.38
439.165	606.38
439.386	553.38
439.608	567.38
439.829	561.38
440.05	563.38
440.272	574.38
440.493	566.38
440.715	556.38
440.936	543.38
441.158	545.38
441.379	547.38
441.6	556.38
441.822	581.38
442.043	587.38
442.264	637.38
442.486	688.38
442.707	597.38
442.928	585.38
443.149	562.38
443.371	578.38
443.592	626.38
443.813	701.38
444.034	762.38
444.255	641.38
444.476	603.38
444.698	606.38
444.919	593.38
445.14	723.38
445.361	676.38
445.582	616.38
445.803	635.38
446.024	719.38
446.245	711.38
446.466	662.38
446.687	583.38
446.908	549.38
447.129	539.38
447.35	491.38
447.571	525.38
447.792	497.38
448.013	500.38
448.234	518.38
448.455	552.38
448.675	669.38
448.896	733.38
449.117	632.38
449.338	607.38
449.559	697.38
449.779	753.38
450	644.38
450.221	532.38
450.442	508.38
450.662	493.38
450.883	502.38
451.104	491.38
451.324	515.38
451.545	503.38
451.766	473.38
451.986	476.38
452.207	465.38
452.428	456.38
452.648	458.38
452.869	443.38
453.089	478.38
453.31	449.38
453.53	471.38
453.751	464.38
453.971	461.38
454.192	471.38
454.412	466.38
454.633	439.38
454.853	463.38
455.073	443.38
455.294	477.38
455.514	533.38
455.734	527.38
455.955	453.38
456.175	431.38
456.395	447.38
456.616	455.38
456.836	446.38
457.056	433.38
457.276	399.38
457.497	446.38
457.717	443.38
457.937	438.38
458.157	446.38
458.377	464.38
458.598	467.38
458.818	510.38
459.038	578.38
459.258	587.38
459.478	548.38
459.698	521.38
459.918	532.38
460.138	515.38
460.358	541.38
460.578	541.38
460.798	539.38
461.018	547.38
461.238	557.38
461.458	540.38
461.678	538.38
461.898	550.38
462.118	539.38
462.338	557.38
462.558	595.38
462.777	555.38
462.997	592.38
463.217	628.38
463.437	641.38
463.657	597.38
463.876	590.38
464.096	587.38
464.316	595.38
464.536	599.38
464.755	605.38
464.975	577.38
465.195	609.38
465.414	613.38
465.634	565.38
465.854	526.38
466.073	519.38
466.293	493.38
466.512	497.38
466.732	476.38
466.951	463.38
467.171	473.38
467.391	489.38
467.61	488.38
467.829	477.38
468.049	484.38
468.268	480.38
468.488	463.38
468.707	456.38
468.927	491.38
469.146	474.38
469.365	471.38
469.585	463.38
469.804	506.38
470.023	517.38
470.243	499.38
470.462	502.38
470.681	510.38
470.901	506.38
471.12	483.38
471.339	492.38
471.558	476.38
471.777	497.38
471.997	471.38
472.216	478.38
472.435	505.38
472.654	473.38
472.873	480.38
473.092	481.38
473.311	458.38
473.53	489.38
473.749	470.38
473.968	493.38
474.187	585.38
474.406	611.38
474.625	523.38
474.844	479.38
475.063	490.38
475.282	510.38
475.501	468.38
475.72	485.38
475.939	490.38
476.158	485.38
476.377	480.38
476.596	470.38
476.814	520.38
477.033	514.38
477.252	522.38
477.471	517.38
477.69	517.38
477.908	539.38
478.127	534.38
478.346	539.38
478.564	539.38
478.783	550.38
479.002	558.38
479.22	566.38
479.439	574.38
479.658	569.38
479.876	567.38
480.095	586.38
480.313	621.38
480.532	630.38
480.751	615.38
480.969	602.38
481.188	615.38
481.406	633.38
481.624	601.38
481.843	573.38
482.061	572.38
482.28	546.38
482.498	543.38
482.717	541.38
482.935	568.38
483.153	565.38
483.372	540.38
483.59	544.38
483.808	541.38
484.027	541.38
484.245	557.38
484.463	570.38
484.681	561.38
484.9	578.38
485.118	577.38
485.336	605.38
485.554	564.38
485.772	604.38
485.99	574.38
486.209	597.38
486.427	604.38
486.645	574.38
486.863	597.38
487.081	581.38
487.299	584.38
487.517	596.38
487.735	592.38
487.953	579.38
488.171	584.38
488.389	564.38
488.607	600.38
488.825	581.38
489.043	585.38
489.261	611.38
489.479	595.38
489.696	613.38
489.914	604.38
490.132	611.38
490.35	633.38
490.568	616.38
490.786	617.38
491.003	622.38
491.221	612.38
491.439	650.38
491.657	639.38
491.874	644.38
492.092	641.38
492.31	673.38
492.527	658.38
492.745	667.38
492.963	674.38
493.18	663.38
493.398	653.38
493.615	683.38
493.833	654.38
494.05	661.38
494.268	665.38
494.485	681.38
494.703	680.38
494.92	677.38
495.138	692.38
495.355	681.38
495.573	701.38
495.79	675.38
496.008	707.38
496.225	693.38
496.442	686.38
496.66	691.38
496.877	701.38
497.094	691.38
497.312	689.38
497.529	719.38
497.746	759.38
497.963	775.38
498.181	779.38
498.398	799.38
498.615	795.38
498.832	841.38
499.049	866.38
499.267	918.38
499.484	921.38
499.701	1001.38
499.918	1059.38
500.135	1088.38
500.352	1219.38
500.569	1233.38
500.786	1247.38
501.003	1186.38
501.22	1108.38
501.437	1075.38
501.654	1003.38
501.871	991.38
