Data from 1962.PennyLincolnUp.Lamp.En5.5.200Scan.071719.P1._HRD10591_13-55-29-062.txt Node
Date: Thu Jul 18 13:55:29 EDT 2019
User: cochatt
Spectrometer: HR+D1059
Trigger mode: 1
Integration Time (sec): 1.000000E-1
Scans to average: 1
Electric dark correction enabled: true
Nonlinearity correction enabled: false
Boxcar width: 0
XAxis mode: Wavelengths
Number of Pixels in Spectrum: 2048
>>>>>Begin Spectral Data<<<<<
223.165	-8.19
223.4	-8.19
223.635	-8.19
223.869	-13.19
224.104	-19.19
224.338	-9.19
224.573	-20.19
224.808	-12.19
225.042	-5.19
225.277	-8.19
225.511	0.81
225.746	-12.19
225.98	-4.19
226.215	11.81
226.449	17.81
226.683	24.81
226.918	24.81
227.152	31.81
227.387	27.81
227.621	34.81
227.856	48.81
228.09	36.81
228.324	53.81
228.559	54.81
228.793	76.81
229.027	86.81
229.262	93.81
229.496	92.81
229.73	113.81
229.964	131.81
230.199	111.81
230.433	97.81
230.667	106.81
230.901	118.81
231.136	118.81
231.37	104.81
231.604	110.81
231.838	113.81
232.072	115.81
232.306	89.81
232.541	117.81
232.775	116.81
233.009	114.81
233.243	113.81
233.477	105.81
233.711	115.81
233.945	125.81
234.179	119.81
234.413	106.81
234.647	96.81
234.881	106.81
235.115	122.81
235.349	122.81
235.583	119.81
235.817	110.81
236.051	112.81
236.285	109.81
236.519	114.81
236.753	134.81
236.987	124.81
237.221	155.81
237.455	196.81
237.689	158.81
237.922	102.81
238.156	119.81
238.39	126.81
238.624	118.81
238.858	123.81
239.091	128.81
239.325	119.81
239.559	119.81
239.793	136.81
240.027	117.81
240.26	114.81
240.494	146.81
240.728	151.81
240.961	152.81
241.195	128.81
241.429	117.81
241.662	122.81
241.896	114.81
242.13	117.81
242.363	130.81
242.597	137.81
242.83	140.81
243.064	121.81
243.298	118.81
243.531	118.81
243.765	127.81
243.998	136.81
244.232	138.81
244.465	134.81
244.699	130.81
244.932	143.81
245.166	135.81
245.399	158.81
245.633	142.81
245.866	157.81
246.099	144.81
246.333	141.81
246.566	141.81
246.8	160.81
247.033	143.81
247.266	133.81
247.5	146.81
247.733	141.81
247.966	144.81
248.2	157.81
248.433	145.81
248.666	165.81
248.899	159.81
249.133	175.81
249.366	169.81
249.599	196.81
249.832	159.81
250.066	185.81
250.299	168.81
250.532	162.81
250.765	162.81
250.998	174.81
251.231	191.81
251.465	191.81
251.698	178.81
251.931	174.81
252.164	169.81
252.397	178.81
252.63	168.81
252.863	178.81
253.096	186.81
253.329	179.81
253.562	190.81
253.795	202.81
254.028	191.81
254.261	212.81
254.494	208.81
254.727	213.81
254.96	234.81
255.193	205.81
255.426	231.81
255.659	200.81
255.892	192.81
256.124	198.81
256.357	218.81
256.59	196.81
256.823	210.81
257.056	203.81
257.289	184.81
257.521	182.81
257.754	198.81
257.987	191.81
258.22	201.81
258.452	180.81
258.685	195.81
258.918	198.81
259.151	205.81
259.383	190.81
259.616	204.81
259.849	197.81
260.081	190.81
260.314	223.81
260.547	214.81
260.779	206.81
261.012	207.81
261.244	198.81
261.477	207.81
261.71	210.81
261.942	200.81
262.175	207.81
262.407	202.81
262.64	189.81
262.872	190.81
263.105	204.81
263.337	203.81
263.57	214.81
263.802	198.81
264.035	205.81
264.267	204.81
264.499	205.81
264.732	210.81
264.964	195.81
265.197	212.81
265.429	208.81
265.661	209.81
265.894	206.81
266.126	222.81
266.358	230.81
266.591	209.81
266.823	213.81
267.055	244.81
267.287	224.81
267.52	224.81
267.752	218.81
267.984	212.81
268.216	213.81
268.448	231.81
268.681	238.81
268.913	233.81
269.145	252.81
269.377	238.81
269.609	257.81
269.841	247.81
270.073	264.81
270.306	271.81
270.538	268.81
270.77	295.81
271.002	273.81
271.234	262.81
271.466	257.81
271.698	273.81
271.93	270.81
272.162	283.81
272.394	272.81
272.626	286.81
272.858	275.81
273.09	282.81
273.322	257.81
273.553	253.81
273.785	266.81
274.017	240.81
274.249	234.81
274.481	248.81
274.713	254.81
274.945	250.81
275.176	272.81
275.408	236.81
275.64	266.81
275.872	258.81
276.104	266.81
276.335	267.81
276.567	256.81
276.799	247.81
277.031	293.81
277.262	298.81
277.494	294.81
277.726	279.81
277.957	271.81
278.189	238.81
278.421	260.81
278.652	270.81
278.884	274.81
279.115	282.81
279.347	257.81
279.579	267.81
279.81	240.81
280.042	245.81
280.273	275.81
280.505	265.81
280.736	248.81
280.968	257.81
281.199	260.81
281.431	259.81
281.662	296.81
281.894	272.81
282.125	270.81
282.356	300.81
282.588	289.81
282.819	303.81
283.051	274.81
283.282	267.81
283.513	268.81
283.745	279.81
283.976	283.81
284.207	276.81
284.439	281.81
284.67	281.81
284.901	272.81
285.132	302.81
285.364	278.81
285.595	281.81
285.826	278.81
286.057	290.81
286.288	283.81
286.52	300.81
286.751	303.81
286.982	289.81
287.213	298.81
287.444	290.81
287.675	286.81
287.906	282.81
288.138	290.81
288.369	303.81
288.6	300.81
288.831	311.81
289.062	304.81
289.293	290.81
289.524	294.81
289.755	287.81
289.986	302.81
290.217	296.81
290.448	299.81
290.679	293.81
290.91	286.81
291.141	288.81
291.371	290.81
291.602	292.81
291.833	296.81
292.064	274.81
292.295	292.81
292.526	281.81
292.757	291.81
292.987	296.81
293.218	275.81
293.449	284.81
293.68	289.81
293.91	296.81
294.141	314.81
294.372	296.81
294.603	306.81
294.833	292.81
295.064	306.81
295.295	307.81
295.525	294.81
295.756	299.81
295.987	304.81
296.217	315.81
296.448	335.81
296.679	304.81
296.909	308.81
297.14	288.81
297.37	308.81
297.601	325.81
297.831	303.81
298.062	291.81
298.292	310.81
298.523	300.81
298.753	317.81
298.984	318.81
299.214	324.81
299.445	312.81
299.675	316.81
299.905	307.81
300.136	338.81
300.366	303.81
300.597	325.81
300.827	330.81
301.057	356.81
301.288	322.81
301.518	338.81
301.748	322.81
301.979	345.81
302.209	329.81
302.439	326.81
302.669	331.81
302.9	332.81
303.13	322.81
303.36	309.81
303.59	324.81
303.82	329.81
304.051	326.81
304.281	327.81
304.511	332.81
304.741	333.81
304.971	311.81
305.201	319.81
305.431	335.81
305.661	316.81
305.891	325.81
306.121	324.81
306.352	342.81
306.582	348.81
306.812	330.81
307.042	337.81
307.272	314.81
307.502	340.81
307.731	325.81
307.961	326.81
308.191	324.81
308.421	322.81
308.651	314.81
308.881	339.81
309.111	340.81
309.341	343.81
309.571	352.81
309.8	352.81
310.03	355.81
310.26	372.81
310.49	334.81
310.72	362.81
310.949	366.81
311.179	363.81
311.409	354.81
311.639	359.81
311.868	358.81
312.098	355.81
312.328	355.81
312.557	359.81
312.787	389.81
313.017	387.81
313.246	392.81
313.476	361.81
313.706	362.81
313.935	386.81
314.165	376.81
314.394	369.81
314.624	407.81
314.853	384.81
315.083	372.81
315.312	361.81
315.542	374.81
315.771	374.81
316.001	369.81
316.23	380.81
316.46	356.81
316.689	370.81
316.919	358.81
317.148	374.81
317.377	372.81
317.607	360.81
317.836	368.81
318.065	397.81
318.295	379.81
318.524	375.81
318.753	366.81
318.983	378.81
319.212	360.81
319.441	359.81
319.67	371.81
319.9	378.81
320.129	388.81
320.358	366.81
320.587	392.81
320.816	378.81
321.046	380.81
321.275	387.81
321.504	370.81
321.733	394.81
321.962	385.81
322.191	383.81
322.42	405.81
322.649	409.81
322.878	424.81
323.108	426.81
323.337	455.81
323.566	419.81
323.795	458.81
324.024	466.81
324.253	560.81
324.482	747.81
324.71	1089.81
324.939	1533.81
325.168	1336.81
325.397	750.81
325.626	545.81
325.855	474.81
326.084	453.81
326.313	455.81
326.542	458.81
326.77	478.81
326.999	534.81
327.228	682.81
327.457	998.81
327.686	1146.81
327.914	829.81
328.143	606.81
328.372	530.81
328.6	506.81
328.829	491.81
329.058	500.81
329.287	497.81
329.515	469.81
329.744	456.81
329.972	452.81
330.201	475.81
330.43	514.81
330.658	507.81
330.887	518.81
331.115	504.81
331.344	464.81
331.572	457.81
331.801	463.81
332.03	470.81
332.258	452.81
332.486	434.81
332.715	471.81
332.943	454.81
333.172	462.81
333.4	464.81
333.629	466.81
333.857	507.81
334.085	500.81
334.314	496.81
334.542	501.81
334.771	521.81
334.999	485.81
335.227	440.81
335.455	471.81
335.684	460.81
335.912	470.81
336.14	464.81
336.369	449.81
336.597	450.81
336.825	456.81
337.053	446.81
337.281	441.81
337.51	420.81
337.738	464.81
337.966	440.81
338.194	442.81
338.422	451.81
338.65	446.81
338.878	440.81
339.106	427.81
339.334	432.81
339.562	407.81
339.79	406.81
340.018	436.81
340.246	438.81
340.474	425.81
340.702	420.81
340.93	411.81
341.158	430.81
341.386	431.81
341.614	422.81
341.842	430.81
342.07	438.81
342.298	406.81
342.526	407.81
342.754	401.81
342.981	418.81
343.209	425.81
343.437	428.81
343.665	434.81
343.893	435.81
344.12	451.81
344.348	463.81
344.576	416.81
344.804	424.81
345.031	456.81
345.259	455.81
345.487	448.81
345.714	431.81
345.942	414.81
346.17	436.81
346.397	414.81
346.625	398.81
346.853	400.81
347.08	402.81
347.308	405.81
347.535	419.81
347.763	396.81
347.99	422.81
348.218	418.81
348.445	419.81
348.673	392.81
348.9	406.81
349.128	427.81
349.355	393.81
349.583	397.81
349.81	397.81
350.037	407.81
350.265	390.81
350.492	403.81
350.72	385.81
350.947	417.81
351.174	407.81
351.402	405.81
351.629	388.81
351.856	392.81
352.083	402.81
352.311	417.81
352.538	409.81
352.765	420.81
352.992	420.81
353.22	416.81
353.447	395.81
353.674	402.81
353.901	386.81
354.128	396.81
354.355	377.81
354.583	390.81
354.81	396.81
355.037	394.81
355.264	380.81
355.491	373.81
355.718	391.81
355.945	392.81
356.172	391.81
356.399	393.81
356.626	384.81
356.853	408.81
357.08	378.81
357.307	392.81
357.534	402.81
357.761	382.81
357.988	409.81
358.215	378.81
358.441	387.81
358.668	411.81
358.895	392.81
359.122	392.81
359.349	383.81
359.576	395.81
359.802	422.81
360.029	435.81
360.256	449.81
360.483	419.81
360.709	397.81
360.936	400.81
361.163	406.81
361.39	412.81
361.616	405.81
361.843	396.81
362.07	402.81
362.296	416.81
362.523	408.81
362.749	403.81
362.976	385.81
363.203	427.81
363.429	399.81
363.656	383.81
363.882	397.81
364.109	394.81
364.335	372.81
364.562	395.81
364.788	392.81
365.015	414.81
365.241	380.81
365.468	384.81
365.694	386.81
365.92	390.81
366.147	380.81
366.373	388.81
366.599	389.81
366.826	393.81
367.052	358.81
367.278	394.81
367.505	386.81
367.731	396.81
367.957	402.81
368.184	387.81
368.41	390.81
368.636	396.81
368.862	380.81
369.089	411.81
369.315	388.81
369.541	380.81
369.767	401.81
369.993	388.81
370.219	384.81
370.445	401.81
370.672	410.81
370.898	386.81
371.124	395.81
371.35	412.81
371.576	394.81
371.802	406.81
372.028	388.81
372.254	378.81
372.48	410.81
372.706	402.81
372.932	409.81
373.158	395.81
373.384	413.81
373.61	399.81
373.835	416.81
374.061	395.81
374.287	408.81
374.513	405.81
374.739	425.81
374.965	411.81
375.191	424.81
375.416	424.81
375.642	427.81
375.868	422.81
376.094	403.81
376.319	398.81
376.545	401.81
376.771	393.81
376.997	402.81
377.222	410.81
377.448	398.81
377.674	393.81
377.899	390.81
378.125	398.81
378.35	382.81
378.576	403.81
378.802	404.81
379.027	414.81
379.253	415.81
379.478	381.81
379.704	402.81
379.929	418.81
380.155	396.81
380.38	386.81
380.606	389.81
380.831	401.81
381.057	400.81
381.282	409.81
381.507	389.81
381.733	411.81
381.958	402.81
382.184	410.81
382.409	415.81
382.634	416.81
382.86	411.81
383.085	413.81
383.31	413.81
383.535	423.81
383.761	410.81
383.986	438.81
384.211	424.81
384.436	411.81
384.662	434.81
384.887	435.81
385.112	454.81
385.337	446.81
385.562	434.81
385.787	442.81
386.013	465.81
386.238	479.81
386.463	460.81
386.688	445.81
386.913	435.81
387.138	433.81
387.363	450.81
387.588	467.81
387.813	459.81
388.038	448.81
388.263	440.81
388.488	460.81
388.713	441.81
388.938	468.81
389.163	458.81
389.387	450.81
389.612	438.81
389.837	460.81
390.062	455.81
390.287	461.81
390.512	446.81
390.736	451.81
390.961	461.81
391.186	454.81
391.411	462.81
391.636	451.81
391.86	477.81
392.085	484.81
392.31	486.81
392.534	485.81
392.759	471.81
392.984	465.81
393.208	468.81
393.433	450.81
393.658	456.81
393.882	471.81
394.107	461.81
394.331	470.81
394.556	480.81
394.78	492.81
395.005	483.81
395.229	476.81
395.454	490.81
395.678	501.81
395.903	523.81
396.127	507.81
396.352	492.81
396.576	477.81
396.801	484.81
397.025	475.81
397.249	490.81
397.474	474.81
397.698	501.81
397.922	514.81
398.147	523.81
398.371	505.81
398.595	536.81
398.82	534.81
399.044	553.81
399.268	592.81
399.492	629.81
399.717	654.81
399.941	678.81
400.165	674.81
400.389	686.81
400.613	610.81
400.837	579.81
401.062	560.81
401.286	557.81
401.51	542.81
401.734	550.81
401.958	543.81
402.182	554.81
402.406	554.81
402.63	574.81
402.854	560.81
403.078	563.81
403.302	578.81
403.526	584.81
403.75	577.81
403.974	558.81
404.198	569.81
404.422	547.81
404.645	580.81
404.869	562.81
405.093	585.81
405.317	623.81
405.541	607.81
405.765	592.81
405.988	554.81
406.212	578.81
406.436	617.81
406.66	606.81
406.883	580.81
407.107	631.81
407.331	642.81
407.555	724.81
407.778	729.81
408.002	686.81
408.226	639.81
408.449	614.81
408.673	605.81
408.896	626.81
409.12	672.81
409.344	637.81
409.567	587.81
409.791	599.81
410.014	568.81
410.238	588.81
410.461	562.81
410.685	560.81
410.908	564.81
411.132	597.81
411.355	616.81
411.578	586.81
411.802	571.81
412.025	551.81
412.249	546.81
412.472	584.81
412.695	618.81
412.919	590.81
413.142	578.81
413.365	534.81
413.589	532.81
413.812	543.81
414.035	536.81
414.258	536.81
414.482	531.81
414.705	531.81
414.928	543.81
415.151	525.81
415.374	510.81
415.597	526.81
415.821	542.81
416.044	534.81
416.267	526.81
416.49	514.81
416.713	527.81
416.936	525.81
417.159	504.81
417.382	531.81
417.605	526.81
417.828	530.81
418.051	535.81
418.274	532.81
418.497	535.81
418.72	512.81
418.943	540.81
419.166	525.81
419.389	609.81
419.611	583.81
419.834	564.81
420.057	579.81
420.28	552.81
420.503	560.81
420.726	547.81
420.948	570.81
421.171	564.81
421.394	628.81
421.617	555.81
421.839	546.81
422.062	545.81
422.285	578.81
422.507	592.81
422.73	674.81
422.953	650.81
423.175	582.81
423.398	567.81
423.621	560.81
423.843	563.81
424.066	584.81
424.288	581.81
424.511	594.81
424.733	627.81
424.956	663.81
425.178	657.81
425.401	653.81
425.623	659.81
425.846	601.81
426.068	579.81
426.291	548.81
426.513	553.81
426.735	567.81
426.958	602.81
427.18	645.81
427.402	762.81
427.625	814.81
427.847	695.81
428.069	635.81
428.292	570.81
428.514	552.81
428.736	540.81
428.958	509.81
429.181	504.81
429.403	501.81
429.625	526.81
429.847	548.81
430.069	598.81
430.292	583.81
430.514	519.81
430.736	512.81
430.958	540.81
431.18	520.81
431.402	490.81
431.624	498.81
431.846	487.81
432.068	505.81
432.29	500.81
432.512	492.81
432.734	487.81
432.956	491.81
433.178	492.81
433.4	498.81
433.622	517.81
433.844	523.81
434.066	485.81
434.287	477.81
434.509	518.81
434.731	519.81
434.953	516.81
435.175	544.81
435.397	543.81
435.618	548.81
435.84	583.81
436.062	651.81
436.284	703.81
436.505	599.81
436.727	558.81
436.949	537.81
437.17	524.81
437.392	513.81
437.614	524.81
437.835	551.81
438.057	578.81
438.278	662.81
438.5	662.81
438.721	757.81
438.943	711.81
439.165	581.81
439.386	550.81
439.608	532.81
439.829	552.81
440.05	569.81
440.272	582.81
440.493	577.81
440.715	545.81
440.936	535.81
441.158	535.81
441.379	523.81
441.6	547.81
441.822	529.81
442.043	584.81
442.264	662.81
442.486	678.81
442.707	607.81
442.928	574.81
443.149	576.81
443.371	588.81
443.592	630.81
443.813	712.81
444.034	761.81
444.255	660.81
444.476	598.81
444.698	603.81
444.919	586.81
445.14	704.81
445.361	659.81
445.582	610.81
445.803	622.81
446.024	679.81
446.245	710.81
446.466	633.81
446.687	548.81
446.908	568.81
447.129	520.81
447.35	519.81
447.571	508.81
447.792	508.81
448.013	490.81
448.234	502.81
448.455	558.81
448.675	646.81
448.896	755.81
449.117	633.81
449.338	589.81
449.559	686.81
449.779	745.81
450	638.81
450.221	532.81
450.442	503.81
450.662	494.81
450.883	506.81
451.104	502.81
451.324	492.81
451.545	491.81
451.766	453.81
451.986	450.81
452.207	439.81
452.428	461.81
452.648	459.81
452.869	457.81
453.089	447.81
453.31	466.81
453.53	449.81
453.751	446.81
453.971	451.81
454.192	456.81
454.412	451.81
454.633	437.81
454.853	458.81
455.073	448.81
455.294	482.81
455.514	523.81
455.734	513.81
455.955	468.81
456.175	470.81
456.395	452.81
456.616	444.81
456.836	450.81
457.056	447.81
457.276	408.81
457.497	451.81
457.717	443.81
457.937	430.81
458.157	436.81
458.377	458.81
458.598	464.81
458.818	497.81
459.038	549.81
459.258	541.81
459.478	522.81
459.698	494.81
459.918	508.81
460.138	520.81
460.358	517.81
460.578	520.81
460.798	537.81
461.018	542.81
461.238	532.81
461.458	523.81
461.678	529.81
461.898	530.81
462.118	549.81
462.338	568.81
462.558	562.81
462.777	580.81
462.997	594.81
463.217	626.81
463.437	633.81
463.657	601.81
463.876	587.81
464.096	580.81
464.316	556.81
464.536	601.81
464.755	596.81
464.975	583.81
465.195	579.81
465.414	599.81
465.634	533.81
465.854	529.81
466.073	497.81
466.293	484.81
466.512	489.81
466.732	473.81
466.951	462.81
467.171	459.81
467.391	472.81
467.61	478.81
467.829	495.81
468.049	480.81
468.268	446.81
468.488	463.81
468.707	454.81
468.927	469.81
469.146	455.81
469.365	481.81
469.585	457.81
469.804	470.81
470.023	485.81
470.243	486.81
470.462	508.81
470.681	496.81
470.901	490.81
471.12	480.81
471.339	495.81
471.558	491.81
471.777	472.81
471.997	461.81
472.216	465.81
472.435	491.81
472.654	479.81
472.873	461.81
473.092	457.81
473.311	482.81
473.53	487.81
473.749	472.81
473.968	524.81
474.187	587.81
474.406	593.81
474.625	514.81
474.844	481.81
475.063	464.81
475.282	484.81
475.501	456.81
475.72	484.81
475.939	499.81
476.158	495.81
476.377	479.81
476.596	494.81
476.814	486.81
477.033	524.81
477.252	503.81
477.471	499.81
477.69	551.81
477.908	534.81
478.127	539.81
478.346	538.81
478.564	514.81
478.783	551.81
479.002	549.81
479.22	560.81
479.439	570.81
479.658	575.81
479.876	580.81
480.095	586.81
480.313	598.81
480.532	603.81
480.751	581.81
480.969	601.81
481.188	648.81
481.406	626.81
481.624	595.81
481.843	594.81
482.061	576.81
482.28	564.81
482.498	570.81
482.717	543.81
482.935	541.81
483.153	552.81
483.372	546.81
483.59	564.81
483.808	535.81
484.027	549.81
484.245	543.81
484.463	556.81
484.681	562.81
484.9	564.81
485.118	549.81
485.336	578.81
485.554	588.81
485.772	572.81
485.99	583.81
486.209	592.81
486.427	588.81
486.645	579.81
486.863	576.81
487.081	596.81
487.299	599.81
487.517	592.81
487.735	584.81
487.953	583.81
488.171	591.81
488.389	582.81
488.607	596.81
488.825	587.81
489.043	594.81
489.261	581.81
489.479	586.81
489.696	591.81
489.914	571.81
490.132	584.81
490.35	608.81
490.568	589.81
490.786	638.81
491.003	630.81
491.221	613.81
491.439	634.81
491.657	660.81
491.874	650.81
492.092	646.81
492.31	657.81
492.527	638.81
492.745	658.81
492.963	673.81
493.18	651.81
493.398	650.81
493.615	661.81
493.833	640.81
494.05	688.81
494.268	667.81
494.485	640.81
494.703	675.81
494.92	676.81
495.138	669.81
495.355	683.81
495.573	679.81
495.79	664.81
496.008	682.81
496.225	681.81
496.442	675.81
496.66	694.81
496.877	681.81
497.094	692.81
497.312	736.81
497.529	719.81
497.746	730.81
497.963	748.81
498.181	767.81
498.398	775.81
498.615	841.81
498.832	845.81
499.049	848.81
499.267	867.81
499.484	939.81
499.701	991.81
499.918	1045.81
500.135	1121.81
500.352	1165.81
500.569	1237.81
500.786	1200.81
501.003	1160.81
501.22	1137.81
501.437	1042.81
501.654	1012.81
501.871	966.81
