Data from 1962.PennyLincolnUp.Lamp.En5.5.200Scan.071719.P1._HRD10591_13-52-57-059.txt Node
Date: Thu Jul 18 13:52:57 EDT 2019
User: cochatt
Spectrometer: HR+D1059
Trigger mode: 1
Integration Time (sec): 1.000000E-1
Scans to average: 1
Electric dark correction enabled: true
Nonlinearity correction enabled: false
Boxcar width: 0
XAxis mode: Wavelengths
Number of Pixels in Spectrum: 2048
>>>>>Begin Spectral Data<<<<<
223.165	-26.19
223.4	-26.19
223.635	-26.19
223.869	-15.19
224.104	-14.19
224.338	-23.19
224.573	-5.19
224.808	-13.19
225.042	-22.19
225.277	9.81
225.511	2.81
225.746	-6.19
225.98	16.81
226.215	6.81
226.449	7.81
226.683	19.81
226.918	31.81
227.152	29.81
227.387	27.81
227.621	37.81
227.856	37.81
228.09	38.81
228.324	43.81
228.559	47.81
228.793	52.81
229.027	89.81
229.262	90.81
229.496	103.81
229.73	109.81
229.964	106.81
230.199	111.81
230.433	93.81
230.667	98.81
230.901	100.81
231.136	110.81
231.37	102.81
231.604	111.81
231.838	99.81
232.072	113.81
232.306	107.81
232.541	122.81
232.775	112.81
233.009	105.81
233.243	97.81
233.477	118.81
233.711	111.81
233.945	100.81
234.179	117.81
234.413	96.81
234.647	105.81
234.881	110.81
235.115	97.81
235.349	109.81
235.583	92.81
235.817	113.81
236.051	104.81
236.285	106.81
236.519	113.81
236.753	104.81
236.987	113.81
237.221	136.81
237.455	150.81
237.689	135.81
237.922	105.81
238.156	123.81
238.39	113.81
238.624	102.81
238.858	120.81
239.091	121.81
239.325	125.81
239.559	125.81
239.793	121.81
240.027	109.81
240.26	122.81
240.494	130.81
240.728	114.81
240.961	131.81
241.195	139.81
241.429	129.81
241.662	140.81
241.896	118.81
242.13	117.81
242.363	118.81
242.597	113.81
242.83	121.81
243.064	135.81
243.298	127.81
243.531	125.81
243.765	145.81
243.998	126.81
244.232	122.81
244.465	133.81
244.699	138.81
244.932	139.81
245.166	144.81
245.399	133.81
245.633	133.81
245.866	124.81
246.099	137.81
246.333	151.81
246.566	126.81
246.8	145.81
247.033	130.81
247.266	149.81
247.5	147.81
247.733	148.81
247.966	158.81
248.2	162.81
248.433	136.81
248.666	140.81
248.899	144.81
249.133	164.81
249.366	158.81
249.599	162.81
249.832	156.81
250.066	162.81
250.299	154.81
250.532	152.81
250.765	160.81
250.998	181.81
251.231	185.81
251.465	167.81
251.698	170.81
251.931	165.81
252.164	162.81
252.397	175.81
252.63	168.81
252.863	180.81
253.096	191.81
253.329	176.81
253.562	167.81
253.795	189.81
254.028	173.81
254.261	185.81
254.494	198.81
254.727	196.81
254.96	199.81
255.193	214.81
255.426	199.81
255.659	185.81
255.892	199.81
256.124	192.81
256.357	196.81
256.59	189.81
256.823	184.81
257.056	177.81
257.289	191.81
257.521	187.81
257.754	182.81
257.987	162.81
258.22	181.81
258.452	169.81
258.685	185.81
258.918	186.81
259.151	198.81
259.383	198.81
259.616	188.81
259.849	206.81
260.081	196.81
260.314	213.81
260.547	218.81
260.779	201.81
261.012	191.81
261.244	189.81
261.477	200.81
261.71	195.81
261.942	197.81
262.175	194.81
262.407	189.81
262.64	181.81
262.872	189.81
263.105	193.81
263.337	186.81
263.57	222.81
263.802	184.81
264.035	198.81
264.267	205.81
264.499	198.81
264.732	194.81
264.964	202.81
265.197	194.81
265.429	188.81
265.661	203.81
265.894	195.81
266.126	220.81
266.358	201.81
266.591	214.81
266.823	215.81
267.055	217.81
267.287	226.81
267.52	203.81
267.752	205.81
267.984	210.81
268.216	217.81
268.448	206.81
268.681	222.81
268.913	204.81
269.145	221.81
269.377	244.81
269.609	245.81
269.841	237.81
270.073	215.81
270.306	241.81
270.538	244.81
270.77	256.81
271.002	253.81
271.234	239.81
271.466	258.81
271.698	251.81
271.93	238.81
272.162	262.81
272.394	251.81
272.626	231.81
272.858	230.81
273.09	233.81
273.322	237.81
273.553	237.81
273.785	235.81
274.017	234.81
274.249	225.81
274.481	214.81
274.713	233.81
274.945	230.81
275.176	243.81
275.408	245.81
275.64	229.81
275.872	255.81
276.104	238.81
276.335	249.81
276.567	239.81
276.799	237.81
277.031	243.81
277.262	261.81
277.494	257.81
277.726	276.81
277.957	270.81
278.189	234.81
278.421	263.81
278.652	262.81
278.884	244.81
279.115	253.81
279.347	234.81
279.579	239.81
279.81	255.81
280.042	256.81
280.273	267.81
280.505	282.81
280.736	242.81
280.968	259.81
281.199	261.81
281.431	251.81
281.662	256.81
281.894	254.81
282.125	239.81
282.356	252.81
282.588	277.81
282.819	278.81
283.051	271.81
283.282	255.81
283.513	279.81
283.745	279.81
283.976	267.81
284.207	259.81
284.439	258.81
284.67	267.81
284.901	276.81
285.132	256.81
285.364	275.81
285.595	262.81
285.826	258.81
286.057	265.81
286.288	269.81
286.52	265.81
286.751	259.81
286.982	267.81
287.213	267.81
287.444	275.81
287.675	277.81
287.906	285.81
288.138	278.81
288.369	283.81
288.6	282.81
288.831	275.81
289.062	278.81
289.293	286.81
289.524	302.81
289.755	299.81
289.986	269.81
290.217	294.81
290.448	264.81
290.679	278.81
290.91	282.81
291.141	262.81
291.371	286.81
291.602	280.81
291.833	269.81
292.064	302.81
292.295	287.81
292.526	291.81
292.757	302.81
292.987	273.81
293.218	275.81
293.449	278.81
293.68	281.81
293.91	291.81
294.141	274.81
294.372	280.81
294.603	284.81
294.833	277.81
295.064	286.81
295.295	280.81
295.525	274.81
295.756	295.81
295.987	306.81
296.217	307.81
296.448	292.81
296.679	289.81
296.909	301.81
297.14	297.81
297.37	291.81
297.601	298.81
297.831	315.81
298.062	310.81
298.292	294.81
298.523	294.81
298.753	289.81
298.984	297.81
299.214	312.81
299.445	299.81
299.675	299.81
299.905	297.81
300.136	303.81
300.366	296.81
300.597	301.81
300.827	308.81
301.057	336.81
301.288	315.81
301.518	301.81
301.748	324.81
301.979	293.81
302.209	318.81
302.439	328.81
302.669	306.81
302.9	301.81
303.13	324.81
303.36	331.81
303.59	330.81
303.82	332.81
304.051	327.81
304.281	328.81
304.511	330.81
304.741	325.81
304.971	336.81
305.201	323.81
305.431	309.81
305.661	311.81
305.891	326.81
306.121	320.81
306.352	310.81
306.582	317.81
306.812	337.81
307.042	311.81
307.272	333.81
307.502	323.81
307.731	307.81
307.961	315.81
308.191	323.81
308.421	324.81
308.651	310.81
308.881	307.81
309.111	309.81
309.341	313.81
309.571	323.81
309.8	323.81
310.03	306.81
310.26	336.81
310.49	328.81
310.72	330.81
310.949	331.81
311.179	346.81
311.409	330.81
311.639	332.81
311.868	332.81
312.098	333.81
312.328	347.81
312.557	330.81
312.787	337.81
313.017	360.81
313.246	346.81
313.476	343.81
313.706	338.81
313.935	345.81
314.165	369.81
314.394	356.81
314.624	362.81
314.853	350.81
315.083	335.81
315.312	337.81
315.542	351.81
315.771	325.81
316.001	360.81
316.23	357.81
316.46	354.81
316.689	377.81
316.919	339.81
317.148	350.81
317.377	370.81
317.607	369.81
317.836	342.81
318.065	344.81
318.295	343.81
318.524	366.81
318.753	351.81
318.983	341.81
319.212	338.81
319.441	352.81
319.67	357.81
319.9	351.81
320.129	356.81
320.358	335.81
320.587	339.81
320.816	355.81
321.046	347.81
321.275	371.81
321.504	365.81
321.733	346.81
321.962	356.81
322.191	377.81
322.42	354.81
322.649	385.81
322.878	365.81
323.108	379.81
323.337	409.81
323.566	389.81
323.795	406.81
324.024	421.81
324.253	436.81
324.482	557.81
324.71	810.81
324.939	1084.81
325.168	958.81
325.397	576.81
325.626	452.81
325.855	391.81
326.084	399.81
326.313	411.81
326.542	411.81
326.77	430.81
326.999	467.81
327.228	548.81
327.457	757.81
327.686	871.81
327.914	631.81
328.143	470.81
328.372	443.81
328.6	433.81
328.829	414.81
329.058	431.81
329.287	422.81
329.515	411.81
329.744	412.81
329.972	406.81
330.201	413.81
330.43	440.81
330.658	422.81
330.887	452.81
331.115	451.81
331.344	409.81
331.572	403.81
331.801	428.81
332.03	432.81
332.258	420.81
332.486	416.81
332.715	419.81
332.943	421.81
333.172	435.81
333.4	450.81
333.629	444.81
333.857	471.81
334.085	457.81
334.314	486.81
334.542	473.81
334.771	445.81
334.999	465.81
335.227	455.81
335.455	433.81
335.684	446.81
335.912	431.81
336.14	434.81
336.369	436.81
336.597	414.81
336.825	431.81
337.053	420.81
337.281	425.81
337.51	427.81
337.738	409.81
337.966	423.81
338.194	407.81
338.422	402.81
338.65	427.81
338.878	406.81
339.106	404.81
339.334	422.81
339.562	432.81
339.79	392.81
340.018	392.81
340.246	398.81
340.474	394.81
340.702	414.81
340.93	390.81
341.158	381.81
341.386	407.81
341.614	371.81
341.842	404.81
342.07	385.81
342.298	393.81
342.526	398.81
342.754	410.81
342.981	389.81
343.209	396.81
343.437	409.81
343.665	417.81
343.893	422.81
344.12	442.81
344.348	443.81
344.576	434.81
344.804	406.81
345.031	418.81
345.259	405.81
345.487	393.81
345.714	420.81
345.942	390.81
346.17	393.81
346.397	406.81
346.625	410.81
346.853	368.81
347.08	385.81
347.308	387.81
347.535	398.81
347.763	397.81
347.99	369.81
348.218	405.81
348.445	381.81
348.673	391.81
348.9	369.81
349.128	376.81
349.355	367.81
349.583	378.81
349.81	373.81
350.037	390.81
350.265	374.81
350.492	373.81
350.72	391.81
350.947	372.81
351.174	377.81
351.402	389.81
351.629	377.81
351.856	386.81
352.083	385.81
352.311	390.81
352.538	362.81
352.765	377.81
352.992	371.81
353.22	374.81
353.447	381.81
353.674	386.81
353.901	380.81
354.128	370.81
354.355	382.81
354.583	389.81
354.81	373.81
355.037	378.81
355.264	368.81
355.491	361.81
355.718	389.81
355.945	367.81
356.172	369.81
356.399	370.81
356.626	380.81
356.853	383.81
357.08	366.81
357.307	355.81
357.534	365.81
357.761	356.81
357.988	381.81
358.215	373.81
358.441	357.81
358.668	370.81
358.895	387.81
359.122	375.81
359.349	363.81
359.576	372.81
359.802	391.81
360.029	393.81
360.256	384.81
360.483	383.81
360.709	391.81
360.936	378.81
361.163	371.81
361.39	374.81
361.616	388.81
361.843	383.81
362.07	377.81
362.296	383.81
362.523	387.81
362.749	375.81
362.976	366.81
363.203	372.81
363.429	367.81
363.656	380.81
363.882	365.81
364.109	392.81
364.335	374.81
364.562	374.81
364.788	370.81
365.015	368.81
365.241	371.81
365.468	389.81
365.694	369.81
365.92	374.81
366.147	352.81
366.373	387.81
366.599	397.81
366.826	367.81
367.052	366.81
367.278	377.81
367.505	388.81
367.731	391.81
367.957	390.81
368.184	368.81
368.41	355.81
368.636	371.81
368.862	395.81
369.089	381.81
369.315	391.81
369.541	374.81
369.767	371.81
369.993	385.81
370.219	379.81
370.445	357.81
370.672	367.81
370.898	370.81
371.124	380.81
371.35	390.81
371.576	386.81
371.802	379.81
372.028	382.81
372.254	385.81
372.48	377.81
372.706	377.81
372.932	384.81
373.158	371.81
373.384	393.81
373.61	381.81
373.835	412.81
374.061	386.81
374.287	415.81
374.513	390.81
374.739	387.81
374.965	384.81
375.191	414.81
375.416	413.81
375.642	386.81
375.868	404.81
376.094	407.81
376.319	414.81
376.545	379.81
376.771	388.81
376.997	389.81
377.222	398.81
377.448	396.81
377.674	376.81
377.899	381.81
378.125	404.81
378.35	381.81
378.576	378.81
378.802	405.81
379.027	394.81
379.253	381.81
379.478	393.81
379.704	386.81
379.929	396.81
380.155	380.81
380.38	386.81
380.606	388.81
380.831	374.81
381.057	390.81
381.282	391.81
381.507	393.81
381.733	378.81
381.958	389.81
382.184	402.81
382.409	406.81
382.634	407.81
382.86	389.81
383.085	419.81
383.31	411.81
383.535	418.81
383.761	413.81
383.986	433.81
384.211	430.81
384.436	417.81
384.662	421.81
384.887	403.81
385.112	433.81
385.337	441.81
385.562	429.81
385.787	443.81
386.013	456.81
386.238	465.81
386.463	458.81
386.688	435.81
386.913	441.81
387.138	414.81
387.363	407.81
387.588	451.81
387.813	427.81
388.038	421.81
388.263	453.81
388.488	453.81
388.713	439.81
388.938	426.81
389.163	440.81
389.387	432.81
389.612	427.81
389.837	447.81
390.062	443.81
390.287	436.81
390.512	446.81
390.736	440.81
390.961	445.81
391.186	452.81
391.411	438.81
391.636	445.81
391.86	487.81
392.085	468.81
392.31	453.81
392.534	473.81
392.759	457.81
392.984	445.81
393.208	460.81
393.433	458.81
393.658	453.81
393.882	446.81
394.107	443.81
394.331	447.81
394.556	467.81
394.78	454.81
395.005	452.81
395.229	460.81
395.454	457.81
395.678	468.81
395.903	488.81
396.127	483.81
396.352	467.81
396.576	471.81
396.801	495.81
397.025	466.81
397.249	466.81
397.474	469.81
397.698	481.81
397.922	501.81
398.147	498.81
398.371	500.81
398.595	494.81
398.82	515.81
399.044	548.81
399.268	581.81
399.492	591.81
399.717	632.81
399.941	641.81
400.165	641.81
400.389	638.81
400.613	575.81
400.837	553.81
401.062	540.81
401.286	536.81
401.51	538.81
401.734	522.81
401.958	527.81
402.182	507.81
402.406	518.81
402.63	525.81
402.854	522.81
403.078	537.81
403.302	551.81
403.526	521.81
403.75	544.81
403.974	548.81
404.198	554.81
404.422	538.81
404.645	538.81
404.869	557.81
405.093	584.81
405.317	578.81
405.541	619.81
405.765	584.81
405.988	575.81
406.212	555.81
406.436	581.81
406.66	561.81
406.883	580.81
407.107	568.81
407.331	621.81
407.555	676.81
407.778	655.81
408.002	625.81
408.226	579.81
408.449	595.81
408.673	595.81
408.896	600.81
409.12	628.81
409.344	587.81
409.567	557.81
409.791	546.81
410.014	535.81
410.238	533.81
410.461	539.81
410.685	531.81
410.908	549.81
411.132	558.81
411.355	567.81
411.578	555.81
411.802	546.81
412.025	531.81
412.249	548.81
412.472	561.81
412.695	573.81
412.919	545.81
413.142	529.81
413.365	529.81
413.589	508.81
413.812	491.81
414.035	513.81
414.258	492.81
414.482	492.81
414.705	499.81
414.928	500.81
415.151	502.81
415.374	518.81
415.597	477.81
415.821	500.81
416.044	488.81
416.267	527.81
416.49	512.81
416.713	516.81
416.936	505.81
417.159	481.81
417.382	501.81
417.605	488.81
417.828	496.81
418.051	515.81
418.274	521.81
418.497	511.81
418.72	507.81
418.943	496.81
419.166	514.81
419.389	536.81
419.611	533.81
419.834	517.81
420.057	526.81
420.28	529.81
420.503	513.81
420.726	494.81
420.948	506.81
421.171	536.81
421.394	551.81
421.617	517.81
421.839	526.81
422.062	525.81
422.285	525.81
422.507	546.81
422.73	581.81
422.953	600.81
423.175	553.81
423.398	526.81
423.621	523.81
423.843	524.81
424.066	541.81
424.288	542.81
424.511	538.81
424.733	571.81
424.956	638.81
425.178	611.81
425.401	605.81
425.623	609.81
425.846	558.81
426.068	536.81
426.291	514.81
426.513	512.81
426.735	524.81
426.958	547.81
427.18	571.81
427.402	672.81
427.625	727.81
427.847	619.81
428.069	580.81
428.292	527.81
428.514	505.81
428.736	500.81
428.958	501.81
429.181	475.81
429.403	493.81
429.625	474.81
429.847	519.81
430.069	567.81
430.292	538.81
430.514	484.81
430.736	474.81
430.958	488.81
431.18	467.81
431.402	479.81
431.624	462.81
431.846	461.81
432.068	470.81
432.29	480.81
432.512	455.81
432.734	473.81
432.956	498.81
433.178	488.81
433.4	466.81
433.622	467.81
433.844	482.81
434.066	467.81
434.287	478.81
434.509	495.81
434.731	503.81
434.953	502.81
435.175	539.81
435.397	536.81
435.618	527.81
435.84	551.81
436.062	600.81
436.284	621.81
436.505	560.81
436.727	495.81
436.949	508.81
437.17	488.81
437.392	479.81
437.614	467.81
437.835	512.81
438.057	533.81
438.278	609.81
438.5	621.81
438.721	678.81
438.943	659.81
439.165	532.81
439.386	482.81
439.608	516.81
439.829	512.81
440.05	503.81
440.272	531.81
440.493	504.81
440.715	507.81
440.936	496.81
441.158	522.81
441.379	485.81
441.6	502.81
441.822	521.81
442.043	549.81
442.264	594.81
442.486	617.81
442.707	561.81
442.928	544.81
443.149	535.81
443.371	547.81
443.592	558.81
443.813	610.81
444.034	691.81
444.255	588.81
444.476	542.81
444.698	578.81
444.919	573.81
445.14	671.81
445.361	610.81
445.582	554.81
445.803	573.81
446.024	633.81
446.245	617.81
446.466	586.81
446.687	529.81
446.908	501.81
447.129	510.81
447.35	463.81
447.571	469.81
447.792	483.81
448.013	469.81
448.234	457.81
448.455	511.81
448.675	552.81
448.896	637.81
449.117	562.81
449.338	559.81
449.559	636.81
449.779	674.81
450	551.81
450.221	474.81
450.442	444.81
450.662	447.81
450.883	461.81
451.104	455.81
451.324	426.81
451.545	441.81
451.766	463.81
451.986	442.81
452.207	404.81
452.428	445.81
452.648	445.81
452.869	437.81
453.089	438.81
453.31	445.81
453.53	431.81
453.751	439.81
453.971	434.81
454.192	424.81
454.412	421.81
454.633	443.81
454.853	418.81
455.073	412.81
455.294	434.81
455.514	459.81
455.734	462.81
455.955	431.81
456.175	431.81
456.395	423.81
456.616	416.81
456.836	419.81
457.056	427.81
457.276	410.81
457.497	434.81
457.717	417.81
457.937	431.81
458.157	421.81
458.377	440.81
458.598	460.81
458.818	458.81
459.038	514.81
459.258	535.81
459.478	486.81
459.698	493.81
459.918	502.81
460.138	466.81
460.358	473.81
460.578	498.81
460.798	499.81
461.018	515.81
461.238	482.81
461.458	494.81
461.678	515.81
461.898	521.81
462.118	524.81
462.338	543.81
462.558	554.81
462.777	563.81
462.997	582.81
463.217	595.81
463.437	621.81
463.657	608.81
463.876	561.81
464.096	564.81
464.316	574.81
464.536	569.81
464.755	541.81
464.975	543.81
465.195	537.81
465.414	546.81
465.634	497.81
465.854	503.81
466.073	468.81
466.293	477.81
466.512	466.81
466.732	441.81
466.951	465.81
467.171	466.81
467.391	448.81
467.61	452.81
467.829	433.81
468.049	469.81
468.268	458.81
468.488	444.81
468.707	429.81
468.927	423.81
469.146	435.81
469.365	426.81
469.585	459.81
469.804	432.81
470.023	469.81
470.243	467.81
470.462	468.81
470.681	449.81
470.901	486.81
471.12	458.81
471.339	474.81
471.558	441.81
471.777	441.81
471.997	460.81
472.216	444.81
472.435	443.81
472.654	438.81
472.873	466.81
473.092	451.81
473.311	437.81
473.53	437.81
473.749	453.81
473.968	463.81
474.187	520.81
474.406	539.81
474.625	483.81
474.844	459.81
475.063	448.81
475.282	451.81
475.501	458.81
475.72	462.81
475.939	468.81
476.158	478.81
476.377	480.81
476.596	468.81
476.814	479.81
477.033	463.81
477.252	482.81
477.471	494.81
477.69	489.81
477.908	496.81
478.127	517.81
478.346	507.81
478.564	519.81
478.783	510.81
479.002	520.81
479.22	539.81
479.439	538.81
479.658	552.81
479.876	535.81
480.095	548.81
480.313	579.81
480.532	570.81
480.751	580.81
480.969	574.81
481.188	559.81
481.406	592.81
481.624	560.81
481.843	545.81
482.061	515.81
482.28	538.81
482.498	514.81
482.717	515.81
482.935	535.81
483.153	541.81
483.372	530.81
483.59	530.81
483.808	531.81
484.027	531.81
484.245	522.81
484.463	550.81
484.681	549.81
484.9	544.81
485.118	545.81
485.336	530.81
485.554	537.81
485.772	542.81
485.99	564.81
486.209	563.81
486.427	550.81
486.645	531.81
486.863	560.81
487.081	567.81
487.299	569.81
487.517	579.81
487.735	551.81
487.953	547.81
488.171	553.81
488.389	580.81
488.607	551.81
488.825	545.81
489.043	554.81
489.261	551.81
489.479	553.81
489.696	553.81
489.914	565.81
490.132	570.81
490.35	570.81
490.568	573.81
490.786	578.81
491.003	596.81
491.221	597.81
491.439	584.81
491.657	591.81
491.874	606.81
492.092	605.81
492.31	603.81
492.527	613.81
492.745	615.81
492.963	610.81
493.18	619.81
493.398	602.81
493.615	630.81
493.833	613.81
494.05	614.81
494.268	634.81
494.485	627.81
494.703	622.81
494.92	633.81
495.138	630.81
495.355	619.81
495.573	632.81
495.79	643.81
496.008	629.81
496.225	614.81
496.442	637.81
496.66	639.81
496.877	635.81
497.094	648.81
497.312	668.81
497.529	667.81
497.746	677.81
497.963	670.81
498.181	724.81
498.398	719.81
498.615	734.81
498.832	789.81
499.049	811.81
499.267	842.81
499.484	893.81
499.701	935.81
499.918	1012.81
500.135	1089.81
500.352	1131.81
500.569	1157.81
500.786	1181.81
501.003	1129.81
501.22	1059.81
501.437	1001.81
501.654	974.81
501.871	936.81
502.088	850.81
