Data from 1962.PennyLincolnUp.Lamp.En5.5.200Scan.071719.P1._HRD10591_13-55-10-060.txt Node
Date: Thu Jul 18 13:55:10 EDT 2019
User: cochatt
Spectrometer: HR+D1059
Trigger mode: 1
Integration Time (sec): 1.000000E-1
Scans to average: 1
Electric dark correction enabled: true
Nonlinearity correction enabled: false
Boxcar width: 0
XAxis mode: Wavelengths
Number of Pixels in Spectrum: 2048
>>>>>Begin Spectral Data<<<<<
223.165	-5
223.4	-5
223.635	-5
223.869	-16
224.104	-13
224.338	-12
224.573	-17
224.808	-13
225.042	-20
225.277	-4
225.511	3
225.746	-1
225.98	8
226.215	23
226.449	20
226.683	11
226.918	8
227.152	28
227.387	26
227.621	28
227.856	39
228.09	23
228.324	56
228.559	63
228.793	78
229.027	87
229.262	92
229.496	106
229.73	106
229.964	138
230.199	111
230.433	114
230.667	96
230.901	102
231.136	109
231.37	109
231.604	105
231.838	115
232.072	107
232.306	100
232.541	91
232.775	113
233.009	119
233.243	101
233.477	129
233.711	113
233.945	123
234.179	114
234.413	108
234.647	121
234.881	111
235.115	113
235.349	114
235.583	108
235.817	124
236.051	103
236.285	112
236.519	113
236.753	129
236.987	130
237.221	152
237.455	180
237.689	166
237.922	141
238.156	133
238.39	113
238.624	127
238.858	123
239.091	118
239.325	107
239.559	118
239.793	123
240.027	130
240.26	129
240.494	146
240.728	137
240.961	140
241.195	148
241.429	131
241.662	123
241.896	107
242.13	120
242.363	116
242.597	121
242.83	128
243.064	128
243.298	132
243.531	141
243.765	138
243.998	125
244.232	116
244.465	135
244.699	151
244.932	133
245.166	134
245.399	135
245.633	147
245.866	146
246.099	138
246.333	137
246.566	148
246.8	137
247.033	145
247.266	144
247.5	165
247.733	155
247.966	167
248.2	167
248.433	163
248.666	150
248.899	165
249.133	183
249.366	189
249.599	172
249.832	177
250.066	156
250.299	185
250.532	181
250.765	194
250.998	188
251.231	213
251.465	161
251.698	200
251.931	192
252.164	178
252.397	172
252.63	177
252.863	187
253.096	208
253.329	200
253.562	200
253.795	180
254.028	195
254.261	209
254.494	209
254.727	227
254.96	233
255.193	232
255.426	224
255.659	204
255.892	202
256.124	205
256.357	212
256.59	219
256.823	190
257.056	202
257.289	203
257.521	199
257.754	193
257.987	196
258.22	180
258.452	179
258.685	184
258.918	195
259.151	203
259.383	216
259.616	196
259.849	208
260.081	212
260.314	220
260.547	224
260.779	215
261.012	205
261.244	218
261.477	206
261.71	211
261.942	217
262.175	218
262.407	239
262.64	209
262.872	213
263.105	210
263.337	187
263.57	192
263.802	216
264.035	215
264.267	215
264.499	208
264.732	208
264.964	201
265.197	203
265.429	203
265.661	208
265.894	211
266.126	203
266.358	208
266.591	220
266.823	209
267.055	226
267.287	231
267.52	216
267.752	214
267.984	230
268.216	228
268.448	224
268.681	230
268.913	243
269.145	255
269.377	256
269.609	248
269.841	267
270.073	247
270.306	266
270.538	282
270.77	294
271.002	293
271.234	273
271.466	265
271.698	307
271.93	292
272.162	295
272.394	283
272.626	278
272.858	282
273.09	257
273.322	261
273.553	263
273.785	269
274.017	258
274.249	260
274.481	256
274.713	245
274.945	269
275.176	254
275.408	255
275.64	255
275.872	267
276.104	261
276.335	253
276.567	279
276.799	272
277.031	287
277.262	291
277.494	292
277.726	297
277.957	285
278.189	284
278.421	261
278.652	260
278.884	274
279.115	277
279.347	267
279.579	261
279.81	256
280.042	261
280.273	269
280.505	271
280.736	271
280.968	264
281.199	253
281.431	268
281.662	264
281.894	289
282.125	266
282.356	293
282.588	299
282.819	307
283.051	269
283.282	287
283.513	291
283.745	277
283.976	274
284.207	303
284.439	272
284.67	291
284.901	279
285.132	304
285.364	288
285.595	264
285.826	282
286.057	281
286.288	257
286.52	283
286.751	292
286.982	275
287.213	284
287.444	301
287.675	296
287.906	307
288.138	307
288.369	297
288.6	301
288.831	303
289.062	306
289.293	319
289.524	308
289.755	285
289.986	302
290.217	291
290.448	308
290.679	287
290.91	280
291.141	305
291.371	287
291.602	293
291.833	296
292.064	305
292.295	274
292.526	294
292.757	284
292.987	307
293.218	307
293.449	300
293.68	305
293.91	303
294.141	307
294.372	292
294.603	297
294.833	304
295.064	330
295.295	307
295.525	317
295.756	291
295.987	294
296.217	323
296.448	338
296.679	309
296.909	291
297.14	313
297.37	309
297.601	332
297.831	308
298.062	316
298.292	305
298.523	328
298.753	318
298.984	293
299.214	333
299.445	325
299.675	320
299.905	324
300.136	333
300.366	311
300.597	331
300.827	343
301.057	310
301.288	342
301.518	331
301.748	352
301.979	342
302.209	339
302.439	354
302.669	355
302.9	351
303.13	339
303.36	326
303.59	334
303.82	329
304.051	353
304.281	356
304.511	343
304.741	326
304.971	329
305.201	346
305.431	336
305.661	354
305.891	339
306.121	336
306.352	344
306.582	343
306.812	346
307.042	332
307.272	333
307.502	346
307.731	330
307.961	335
308.191	324
308.421	353
308.651	351
308.881	352
309.111	359
309.341	346
309.571	344
309.8	367
310.03	353
310.26	376
310.49	361
310.72	383
310.949	385
311.179	383
311.409	371
311.639	372
311.868	367
312.098	394
312.328	396
312.557	375
312.787	396
313.017	389
313.246	363
313.476	389
313.706	391
313.935	383
314.165	367
314.394	380
314.624	376
314.853	364
315.083	373
315.312	362
315.542	376
315.771	390
316.001	375
316.23	375
316.46	364
316.689	382
316.919	373
317.148	401
317.377	360
317.607	370
317.836	375
318.065	383
318.295	377
318.524	385
318.753	359
318.983	367
319.212	367
319.441	397
319.67	391
319.9	389
320.129	373
320.358	391
320.587	383
320.816	381
321.046	406
321.275	391
321.504	388
321.733	365
321.962	401
322.191	411
322.42	392
322.649	413
322.878	440
323.108	421
323.337	433
323.566	444
323.795	453
324.024	503
324.253	557
324.482	754
324.71	1084
324.939	1535
325.168	1307
325.397	739
325.626	557
325.855	473
326.084	467
326.313	469
326.542	472
326.77	474
326.999	543
327.228	705
327.457	965
327.686	1189
327.914	844
328.143	582
328.372	537
328.6	526
328.829	497
329.058	517
329.287	495
329.515	491
329.744	493
329.972	458
330.201	464
330.43	504
330.658	496
330.887	506
331.115	502
331.344	483
331.572	475
331.801	467
332.03	473
332.258	466
332.486	453
332.715	462
332.943	490
333.172	466
333.4	471
333.629	506
333.857	499
334.085	496
334.314	516
334.542	515
334.771	556
334.999	505
335.227	477
335.455	459
335.684	465
335.912	476
336.14	453
336.369	433
336.597	460
336.825	470
337.053	450
337.281	471
337.51	443
337.738	452
337.966	437
338.194	456
338.422	460
338.65	448
338.878	454
339.106	437
339.334	440
339.562	432
339.79	412
340.018	427
340.246	422
340.474	436
340.702	420
340.93	444
341.158	406
341.386	444
341.614	437
341.842	427
342.07	445
342.298	437
342.526	411
342.754	392
342.981	414
343.209	416
343.437	438
343.665	439
343.893	457
344.12	470
344.348	470
344.576	453
344.804	454
345.031	459
345.259	456
345.487	448
345.714	436
345.942	426
346.17	410
346.397	440
346.625	423
346.853	418
347.08	405
347.308	419
347.535	413
347.763	408
347.99	423
348.218	422
348.445	432
348.673	421
348.9	419
349.128	419
349.355	416
349.583	380
349.81	403
350.037	387
350.265	407
350.492	399
350.72	391
350.947	397
351.174	406
351.402	404
351.629	403
351.856	420
352.083	398
352.311	439
352.538	404
352.765	431
352.992	401
353.22	407
353.447	403
353.674	404
353.901	399
354.128	379
354.355	383
354.583	405
354.81	416
355.037	401
355.264	386
355.491	391
355.718	396
355.945	407
356.172	393
356.399	400
356.626	399
356.853	395
357.08	391
357.307	401
357.534	406
357.761	395
357.988	378
358.215	391
358.441	396
358.668	415
358.895	405
359.122	394
359.349	409
359.576	422
359.802	422
360.029	426
360.256	460
360.483	426
360.709	405
360.936	418
361.163	409
361.39	405
361.616	414
361.843	392
362.07	402
362.296	412
362.523	409
362.749	403
362.976	402
363.203	414
363.429	388
363.656	387
363.882	407
364.109	391
364.335	392
364.562	391
364.788	396
365.015	423
365.241	409
365.468	401
365.694	391
365.92	415
366.147	403
366.373	394
366.599	400
366.826	389
367.052	381
367.278	408
367.505	393
367.731	393
367.957	408
368.184	403
368.41	400
368.636	415
368.862	419
369.089	403
369.315	409
369.541	411
369.767	401
369.993	381
370.219	404
370.445	421
370.672	422
370.898	386
371.124	371
371.35	405
371.576	391
371.802	387
372.028	405
372.254	407
372.48	408
372.706	420
372.932	425
373.158	419
373.384	420
373.61	425
373.835	405
374.061	423
374.287	432
374.513	414
374.739	415
374.965	423
375.191	423
375.416	437
375.642	419
375.868	407
376.094	407
376.319	403
376.545	405
376.771	386
376.997	421
377.222	415
377.448	402
377.674	413
377.899	396
378.125	422
378.35	419
378.576	425
378.802	403
379.027	409
379.253	389
379.478	405
379.704	417
379.929	404
380.155	400
380.38	402
380.606	423
380.831	402
381.057	423
381.282	420
381.507	437
381.733	413
381.958	401
382.184	431
382.409	411
382.634	432
382.86	412
383.085	458
383.31	427
383.535	440
383.761	442
383.986	434
384.211	427
384.436	454
384.662	452
384.887	461
385.112	461
385.337	471
385.562	465
385.787	459
386.013	462
386.238	467
386.463	469
386.688	477
386.913	468
387.138	461
387.363	464
387.588	470
387.813	439
388.038	456
388.263	462
388.488	479
388.713	451
388.938	460
389.163	488
389.387	469
389.612	454
389.837	461
390.062	458
390.287	443
390.512	462
390.736	463
390.961	464
391.186	483
391.411	492
391.636	471
391.86	479
392.085	477
392.31	472
392.534	495
392.759	482
392.984	453
393.208	463
393.433	490
393.658	476
393.882	494
394.107	461
394.331	495
394.556	463
394.78	491
395.005	482
395.229	475
395.454	484
395.678	495
395.903	499
396.127	518
396.352	503
396.576	502
396.801	489
397.025	487
397.249	477
397.474	508
397.698	503
397.922	528
398.147	515
398.371	519
398.595	532
398.82	537
399.044	559
399.268	579
399.492	613
399.717	681
399.941	724
400.165	684
400.389	673
400.613	635
400.837	591
401.062	575
401.286	589
401.51	540
401.734	549
401.958	543
402.182	556
402.406	560
402.63	568
402.854	554
403.078	579
403.302	563
403.526	572
403.75	563
403.974	582
404.198	571
404.422	611
404.645	591
404.869	617
405.093	621
405.317	652
405.541	667
405.765	610
405.988	596
406.212	594
406.436	607
406.66	630
406.883	636
407.107	649
407.331	653
407.555	731
407.778	727
408.002	661
408.226	651
408.449	633
408.673	628
408.896	642
409.12	659
409.344	661
409.567	615
409.791	565
410.014	590
410.238	577
410.461	593
410.685	584
410.908	562
411.132	598
411.355	625
411.578	620
411.802	561
412.025	565
412.249	552
412.472	585
412.695	611
412.919	598
413.142	565
413.365	537
413.589	548
413.812	550
414.035	542
414.258	549
414.482	544
414.705	556
414.928	530
415.151	540
415.374	549
415.597	535
415.821	536
416.044	538
416.267	528
416.49	532
416.713	529
416.936	541
417.159	536
417.382	521
417.605	537
417.828	528
418.051	544
418.274	566
418.497	541
418.72	560
418.943	529
419.166	573
419.389	610
419.611	586
419.834	571
420.057	563
420.28	531
420.503	568
420.726	541
420.948	564
421.171	589
421.394	602
421.617	555
421.839	544
422.062	541
422.285	575
422.507	616
422.73	647
422.953	649
423.175	584
423.398	572
423.621	585
423.843	614
424.066	594
424.288	590
424.511	603
424.733	656
424.956	704
425.178	661
425.401	651
425.623	687
425.846	608
426.068	589
426.291	587
426.513	538
426.735	565
426.958	608
427.18	650
427.402	767
427.625	837
427.847	713
428.069	636
428.292	582
428.514	572
428.736	514
428.958	547
429.181	514
429.403	536
429.625	523
429.847	559
430.069	587
430.292	602
430.514	534
430.736	524
430.958	528
431.18	506
431.402	493
431.624	508
431.846	483
432.068	510
432.29	537
432.512	507
432.734	530
432.956	503
433.178	539
433.4	515
433.622	492
433.844	492
434.066	507
434.287	500
434.509	507
434.731	534
434.953	553
435.175	548
435.397	574
435.618	573
435.84	593
436.062	677
436.284	695
436.505	616
436.727	550
436.949	531
437.17	537
437.392	521
437.614	528
437.835	537
438.057	593
438.278	678
438.5	682
438.721	761
438.943	723
439.165	585
439.386	561
439.608	563
439.829	565
440.05	563
440.272	588
440.493	593
440.715	543
440.936	531
441.158	555
441.379	546
441.6	566
441.822	571
442.043	604
442.264	652
442.486	691
442.707	641
442.928	577
443.149	595
443.371	609
443.592	654
443.813	704
444.034	753
444.255	650
444.476	623
444.698	614
444.919	636
445.14	736
445.361	652
445.582	603
445.803	633
446.024	718
446.245	693
446.466	659
446.687	588
446.908	556
447.129	526
447.35	513
447.571	523
447.792	503
448.013	528
448.234	515
448.455	551
448.675	656
448.896	712
449.117	647
449.338	606
449.559	689
449.779	781
450	639
450.221	537
450.442	515
450.662	492
450.883	485
451.104	497
451.324	493
451.545	490
451.766	475
451.986	456
452.207	463
452.428	461
452.648	457
452.869	456
453.089	477
453.31	469
453.53	464
453.751	469
453.971	457
454.192	475
454.412	461
454.633	456
454.853	458
455.073	452
455.294	488
455.514	501
455.734	516
455.955	465
456.175	444
456.395	433
456.616	441
456.836	456
457.056	458
457.276	432
457.497	435
457.717	449
457.937	458
458.157	447
458.377	441
458.598	471
458.818	514
459.038	564
459.258	594
459.478	548
459.698	532
459.918	552
460.138	537
460.358	548
460.578	556
460.798	551
461.018	562
461.238	556
461.458	535
461.678	545
461.898	561
462.118	545
462.338	575
462.558	560
462.777	592
462.997	599
463.217	635
463.437	630
463.657	620
463.876	605
464.096	603
464.316	583
464.536	602
464.755	601
464.975	581
465.195	593
465.414	609
465.634	551
465.854	519
466.073	505
466.293	500
466.512	530
466.732	497
466.951	487
467.171	465
467.391	485
467.61	502
467.829	493
468.049	505
468.268	490
468.488	472
468.707	477
468.927	468
469.146	476
469.365	466
469.585	472
469.804	477
470.023	487
470.243	484
470.462	512
470.681	498
470.901	516
471.12	509
471.339	512
471.558	497
471.777	499
471.997	472
472.216	481
472.435	514
472.654	526
472.873	500
473.092	500
473.311	480
473.53	492
473.749	483
473.968	547
474.187	602
474.406	611
474.625	514
474.844	495
475.063	478
475.282	473
475.501	510
475.72	508
475.939	489
476.158	519
476.377	477
476.596	496
476.814	500
477.033	501
477.252	517
477.471	524
477.69	537
477.908	516
478.127	547
478.346	551
478.564	581
478.783	577
479.002	583
479.22	568
479.439	584
479.658	585
479.876	589
480.095	615
480.313	626
480.532	636
480.751	636
480.969	596
481.188	615
481.406	609
481.624	615
481.843	571
482.061	549
482.28	561
482.498	562
482.717	563
482.935	569
483.153	566
483.372	555
483.59	523
483.808	569
484.027	574
484.245	573
484.463	566
484.681	604
484.9	567
485.118	600
485.336	593
485.554	607
485.772	594
485.99	575
486.209	572
486.427	575
486.645	583
486.863	601
487.081	596
487.299	607
487.517	607
487.735	602
487.953	591
488.171	623
488.389	622
488.607	611
488.825	583
489.043	571
489.261	603
489.479	598
489.696	583
489.914	596
490.132	603
490.35	633
490.568	605
490.786	631
491.003	630
491.221	644
491.439	649
491.657	660
491.874	652
492.092	647
492.31	663
492.527	673
492.745	682
492.963	689
493.18	675
493.398	691
493.615	707
493.833	680
494.05	672
494.268	686
494.485	693
494.703	681
494.92	702
495.138	683
495.355	681
495.573	690
495.79	673
496.008	668
496.225	703
496.442	701
496.66	706
496.877	700
497.094	700
497.312	711
497.529	711
497.746	758
497.963	743
498.181	775
498.398	788
498.615	840
498.832	858
499.049	868
499.267	918
499.484	946
499.701	1000
499.918	1079
500.135	1122
500.352	1183
500.569	1237
500.786	1269
501.003	1240
501.22	1157
501.437	1093
501.654	1016
501.871	987
502.088	920
502.305	890
502.522	866
502.739	844
502.956	784
503.172	776
503.389	763
503.606	745
503.823	738
504.04	737
504.256	767
504.473	762
504.69	765
504.907	739
505.123	705
505.34	704
505.557	692
505.773	684
505.99	659
506.207	679
506.423	661
506.64	630
506.856	623
507.073	635
507.289	636
507.506	616
507.722	652
507.939	606
508.155	621
508.372	600
508.588	589
508.805	607
509.021	626
509.238	610
509.454	626
509.67	611
509.887	612
510.103	597
510.319	603
510.536	669
510.752	903
510.968	792
511.184	607
511.401	591
511.617	587
511.833	579
512.049	576
512.265	572
512.481	581
512.698	571
512.914	585
513.13	590
513.346	584
513.562	554
513.778	575
513.994	590
514.21	582
514.426	610
514.642	609
514.858	628
515.074	625
515.29	701
515.506	891
515.721	803
515.937	648
516.153	609
516.369	614
516.585	626
516.801	639
517.016	614
517.232	645
517.448	631
517.664	647
517.879	642
518.095	663
518.311	663
518.527	635
518.742	625
518.958	606
519.173	610
519.389	597
519.605	595
519.82	574
520.036	597
520.251	595
520.467	588
520.682	600
520.898	603
521.113	595
521.329	625
521.544	641
521.76	720
521.975	1004
522.19	1026
522.406	705
522.621	589
522.836	552
523.052	549
523.267	546
523.482	551
523.698	528
523.913	514
524.128	521
524.343	532
524.559	521
524.774	519
524.989	526
525.204	518
525.419	489
525.634	513
525.849	485
526.064	499
526.28	503
526.495	495
526.71	499
526.925	511
527.14	494
527.355	495
527.57	519
527.785	524
527.999	486
528.214	480
528.429	473
528.644	476
528.859	501
529.074	511
529.289	499
529.503	528
529.718	523
529.933	495
530.148	490
530.363	477
530.577	483
530.792	484
531.007	491
531.221	493
531.436	500
531.651	491
531.865	508
532.08	486
532.295	473
532.509	473
532.724	486
532.938	498
533.153	475
533.367	477
533.582	488
533.796	470
534.011	473
534.225	483
534.44	463
534.654	484
534.868	453
535.083	467
535.297	484
535.511	483
535.726	473
535.94	480
536.154	482
536.369	471
536.583	463
536.797	461
537.011	480
537.225	451
537.44	456
537.654	462
537.868	459
538.082	446
538.296	452
538.51	456
538.724	467
538.938	441
539.153	418
539.367	467
539.581	438
539.795	449
540.009	445
540.222	435
540.436	451
540.65	445
540.864	456
541.078	455
541.292	464
541.506	453
541.72	448
541.934	451
542.147	443
542.361	458
542.575	437
542.789	429
543.002	435
543.216	451
543.43	457
543.644	465
543.857	451
544.071	438
544.285	455
544.498	445
544.712	448
544.925	457
545.139	456
545.352	427
545.566	436
545.779	462
545.993	433
546.206	459
546.42	441
546.633	468
546.847	447
547.06	435
547.274	439
547.487	439
547.7	444
547.914	431
548.127	460
548.34	446
548.554	451
548.767	433
548.98	426
549.193	429
549.407	431
549.62	440
549.833	428
550.046	440
550.259	431
550.473	432
550.686	455
550.899	458
551.112	439
551.325	427
551.538	443
551.751	443
551.964	440
552.177	457
552.39	443
552.603	451
552.816	443
553.029	450
553.242	474
553.455	470
553.667	471
553.88	471
554.093	435
554.306	430
554.519	434
554.732	444
554.944	449
555.157	424
555.37	441
555.583	427
555.795	406
556.008	402
556.221	412
556.433	411
556.646	401
556.859	410
557.071	403
557.284	408
557.496	392
557.709	400
557.921	397
558.134	375
558.346	381
558.559	400
558.771	367
558.984	381
559.196	393
559.409	370
559.621	405
559.833	401
560.046	382
560.258	376
560.47	369
560.683	379
560.895	380
561.107	392
561.32	410
561.532	390
561.744	392
561.956	373
562.168	407
562.381	391
562.593	405
562.805	394
563.017	421
563.229	398
563.441	396
