Data from 1962.PennyLincolnUp.Lamp.En5.5.200Scan.071719.P1._HRD10591_13-52-42-060.txt Node
Date: Thu Jul 18 13:52:42 EDT 2019
User: cochatt
Spectrometer: HR+D1059
Trigger mode: 1
Integration Time (sec): 1.000000E-1
Scans to average: 1
Electric dark correction enabled: true
Nonlinearity correction enabled: false
Boxcar width: 0
XAxis mode: Wavelengths
Number of Pixels in Spectrum: 2048
>>>>>Begin Spectral Data<<<<<
223.165	1.06
223.4	1.06
223.635	1.06
223.869	-15.94
224.104	-23.94
224.338	-24.94
224.573	-1.94
224.808	-21.94
225.042	-13.94
225.277	-11.94
225.511	-5.94
225.746	0.06
225.98	12.06
226.215	15.06
226.449	21.06
226.683	16.06
226.918	23.06
227.152	32.06
227.387	40.06
227.621	38.06
227.856	47.06
228.09	32.06
228.324	51.06
228.559	59.06
228.793	69.06
229.027	66.06
229.262	66.06
229.496	106.06
229.73	104.06
229.964	115.06
230.199	102.06
230.433	84.06
230.667	98.06
230.901	83.06
231.136	102.06
231.37	103.06
231.604	103.06
231.838	114.06
232.072	95.06
232.306	103.06
232.541	104.06
232.775	99.06
233.009	104.06
233.243	105.06
233.477	102.06
233.711	100.06
233.945	112.06
234.179	89.06
234.413	99.06
234.647	91.06
234.881	97.06
235.115	105.06
235.349	112.06
235.583	115.06
235.817	97.06
236.051	110.06
236.285	102.06
236.519	109.06
236.753	115.06
236.987	123.06
237.221	135.06
237.455	154.06
237.689	149.06
237.922	131.06
238.156	106.06
238.39	125.06
238.624	99.06
238.858	110.06
239.091	113.06
239.325	129.06
239.559	118.06
239.793	120.06
240.027	114.06
240.26	113.06
240.494	124.06
240.728	126.06
240.961	121.06
241.195	116.06
241.429	118.06
241.662	137.06
241.896	122.06
242.13	134.06
242.363	113.06
242.597	99.06
242.83	125.06
243.064	135.06
243.298	138.06
243.531	124.06
243.765	125.06
243.998	134.06
244.232	121.06
244.465	130.06
244.699	126.06
244.932	131.06
245.166	123.06
245.399	133.06
245.633	127.06
245.866	121.06
246.099	135.06
246.333	139.06
246.566	130.06
246.8	143.06
247.033	135.06
247.266	141.06
247.5	135.06
247.733	135.06
247.966	161.06
248.2	156.06
248.433	160.06
248.666	154.06
248.899	145.06
249.133	145.06
249.366	153.06
249.599	150.06
249.832	137.06
250.066	166.06
250.299	157.06
250.532	143.06
250.765	160.06
250.998	154.06
251.231	177.06
251.465	159.06
251.698	162.06
251.931	153.06
252.164	157.06
252.397	178.06
252.63	179.06
252.863	169.06
253.096	160.06
253.329	179.06
253.562	168.06
253.795	157.06
254.028	165.06
254.261	181.06
254.494	168.06
254.727	191.06
254.96	213.06
255.193	185.06
255.426	179.06
255.659	191.06
255.892	187.06
256.124	194.06
256.357	183.06
256.59	186.06
256.823	168.06
257.056	179.06
257.289	184.06
257.521	182.06
257.754	170.06
257.987	175.06
258.22	175.06
258.452	186.06
258.685	170.06
258.918	162.06
259.151	183.06
259.383	186.06
259.616	168.06
259.849	185.06
260.081	190.06
260.314	184.06
260.547	192.06
260.779	198.06
261.012	218.06
261.244	210.06
261.477	190.06
261.71	191.06
261.942	192.06
262.175	195.06
262.407	184.06
262.64	181.06
262.872	185.06
263.105	172.06
263.337	189.06
263.57	176.06
263.802	195.06
264.035	183.06
264.267	210.06
264.499	206.06
264.732	183.06
264.964	176.06
265.197	199.06
265.429	178.06
265.661	191.06
265.894	195.06
266.126	194.06
266.358	190.06
266.591	192.06
266.823	195.06
267.055	189.06
267.287	189.06
267.52	206.06
267.752	192.06
267.984	211.06
268.216	215.06
268.448	207.06
268.681	203.06
268.913	223.06
269.145	229.06
269.377	208.06
269.609	203.06
269.841	219.06
270.073	221.06
270.306	226.06
270.538	246.06
270.77	249.06
271.002	224.06
271.234	231.06
271.466	228.06
271.698	250.06
271.93	232.06
272.162	241.06
272.394	243.06
272.626	232.06
272.858	239.06
273.09	219.06
273.322	241.06
273.553	253.06
273.785	226.06
274.017	223.06
274.249	217.06
274.481	231.06
274.713	223.06
274.945	242.06
275.176	237.06
275.408	229.06
275.64	224.06
275.872	237.06
276.104	253.06
276.335	226.06
276.567	244.06
276.799	250.06
277.031	255.06
277.262	270.06
277.494	257.06
277.726	248.06
277.957	243.06
278.189	240.06
278.421	244.06
278.652	244.06
278.884	245.06
279.115	236.06
279.347	250.06
279.579	253.06
279.81	243.06
280.042	257.06
280.273	243.06
280.505	247.06
280.736	250.06
280.968	268.06
281.199	240.06
281.431	238.06
281.662	265.06
281.894	255.06
282.125	246.06
282.356	242.06
282.588	261.06
282.819	259.06
283.051	237.06
283.282	233.06
283.513	251.06
283.745	248.06
283.976	267.06
284.207	250.06
284.439	258.06
284.67	277.06
284.901	263.06
285.132	281.06
285.364	265.06
285.595	264.06
285.826	265.06
286.057	258.06
286.288	264.06
286.52	265.06
286.751	267.06
286.982	275.06
287.213	260.06
287.444	271.06
287.675	247.06
287.906	271.06
288.138	293.06
288.369	273.06
288.6	289.06
288.831	273.06
289.062	274.06
289.293	268.06
289.524	283.06
289.755	273.06
289.986	264.06
290.217	276.06
290.448	295.06
290.679	266.06
290.91	290.06
291.141	274.06
291.371	264.06
291.602	264.06
291.833	279.06
292.064	257.06
292.295	273.06
292.526	268.06
292.757	281.06
292.987	275.06
293.218	262.06
293.449	288.06
293.68	280.06
293.91	278.06
294.141	282.06
294.372	291.06
294.603	269.06
294.833	277.06
295.064	271.06
295.295	270.06
295.525	288.06
295.756	296.06
295.987	287.06
296.217	296.06
296.448	298.06
296.679	285.06
296.909	289.06
297.14	277.06
297.37	277.06
297.601	295.06
297.831	264.06
298.062	275.06
298.292	286.06
298.523	290.06
298.753	304.06
298.984	303.06
299.214	291.06
299.445	290.06
299.675	292.06
299.905	296.06
300.136	281.06
300.366	293.06
300.597	284.06
300.827	303.06
301.057	303.06
301.288	307.06
301.518	298.06
301.748	292.06
301.979	304.06
302.209	303.06
302.439	303.06
302.669	298.06
302.9	310.06
303.13	326.06
303.36	304.06
303.59	312.06
303.82	291.06
304.051	319.06
304.281	304.06
304.511	302.06
304.741	307.06
304.971	301.06
305.201	326.06
305.431	318.06
305.661	320.06
305.891	307.06
306.121	321.06
306.352	309.06
306.582	311.06
306.812	330.06
307.042	341.06
307.272	330.06
307.502	327.06
307.731	312.06
307.961	311.06
308.191	275.06
308.421	305.06
308.651	317.06
308.881	306.06
309.111	305.06
309.341	293.06
309.571	321.06
309.8	321.06
310.03	322.06
310.26	335.06
310.49	329.06
310.72	318.06
310.949	326.06
311.179	315.06
311.409	328.06
311.639	303.06
311.868	325.06
312.098	328.06
312.328	346.06
312.557	321.06
312.787	335.06
313.017	310.06
313.246	325.06
313.476	339.06
313.706	312.06
313.935	320.06
314.165	339.06
314.394	338.06
314.624	356.06
314.853	348.06
315.083	324.06
315.312	331.06
315.542	344.06
315.771	326.06
316.001	333.06
316.23	347.06
316.46	338.06
316.689	330.06
316.919	343.06
317.148	343.06
317.377	336.06
317.607	342.06
317.836	339.06
318.065	344.06
318.295	341.06
318.524	337.06
318.753	329.06
318.983	336.06
319.212	339.06
319.441	336.06
319.67	340.06
319.9	318.06
320.129	332.06
320.358	340.06
320.587	342.06
320.816	345.06
321.046	349.06
321.275	358.06
321.504	339.06
321.733	359.06
321.962	355.06
322.191	351.06
322.42	363.06
322.649	359.06
322.878	365.06
323.108	355.06
323.337	385.06
323.566	384.06
323.795	379.06
324.024	388.06
324.253	426.06
324.482	544.06
324.71	704.06
324.939	1009.06
325.168	927.06
325.397	544.06
325.626	443.06
325.855	397.06
326.084	389.06
326.313	377.06
326.542	392.06
326.77	409.06
326.999	423.06
327.228	529.06
327.457	694.06
327.686	835.06
327.914	568.06
328.143	472.06
328.372	410.06
328.6	409.06
328.829	414.06
329.058	383.06
329.287	414.06
329.515	405.06
329.744	391.06
329.972	399.06
330.201	397.06
330.43	410.06
330.658	399.06
330.887	426.06
331.115	414.06
331.344	399.06
331.572	402.06
331.801	419.06
332.03	404.06
332.258	396.06
332.486	404.06
332.715	391.06
332.943	420.06
333.172	416.06
333.4	417.06
333.629	434.06
333.857	438.06
334.085	434.06
334.314	432.06
334.542	453.06
334.771	422.06
334.999	414.06
335.227	435.06
335.455	408.06
335.684	409.06
335.912	454.06
336.14	421.06
336.369	408.06
336.597	415.06
336.825	410.06
337.053	398.06
337.281	404.06
337.51	398.06
337.738	400.06
337.966	388.06
338.194	386.06
338.422	400.06
338.65	391.06
338.878	387.06
339.106	396.06
339.334	392.06
339.562	391.06
339.79	376.06
340.018	374.06
340.246	393.06
340.474	401.06
340.702	375.06
340.93	379.06
341.158	381.06
341.386	373.06
341.614	380.06
341.842	370.06
342.07	361.06
342.298	385.06
342.526	379.06
342.754	379.06
342.981	389.06
343.209	402.06
343.437	403.06
343.665	403.06
343.893	408.06
344.12	416.06
344.348	445.06
344.576	406.06
344.804	408.06
345.031	390.06
345.259	396.06
345.487	400.06
345.714	383.06
345.942	357.06
346.17	381.06
346.397	370.06
346.625	389.06
346.853	377.06
347.08	374.06
347.308	365.06
347.535	375.06
347.763	358.06
347.99	359.06
348.218	355.06
348.445	373.06
348.673	351.06
348.9	365.06
349.128	365.06
349.355	346.06
349.583	350.06
349.81	358.06
350.037	368.06
350.265	360.06
350.492	371.06
350.72	354.06
350.947	367.06
351.174	361.06
351.402	373.06
351.629	362.06
351.856	355.06
352.083	357.06
352.311	362.06
352.538	388.06
352.765	366.06
352.992	388.06
353.22	369.06
353.447	366.06
353.674	347.06
353.901	369.06
354.128	362.06
354.355	360.06
354.583	345.06
354.81	363.06
355.037	374.06
355.264	358.06
355.491	387.06
355.718	365.06
355.945	371.06
356.172	367.06
356.399	358.06
356.626	353.06
356.853	356.06
357.08	370.06
357.307	361.06
357.534	375.06
357.761	353.06
357.988	356.06
358.215	349.06
358.441	353.06
358.668	366.06
358.895	360.06
359.122	375.06
359.349	354.06
359.576	352.06
359.802	371.06
360.029	368.06
360.256	378.06
360.483	383.06
360.709	354.06
360.936	369.06
361.163	377.06
361.39	350.06
361.616	358.06
361.843	373.06
362.07	375.06
362.296	349.06
362.523	363.06
362.749	387.06
362.976	368.06
363.203	372.06
363.429	359.06
363.656	337.06
363.882	361.06
364.109	347.06
364.335	352.06
364.562	350.06
364.788	357.06
365.015	384.06
365.241	359.06
365.468	367.06
365.694	373.06
365.92	377.06
366.147	353.06
366.373	365.06
366.599	342.06
366.826	361.06
367.052	348.06
367.278	366.06
367.505	359.06
367.731	369.06
367.957	345.06
368.184	359.06
368.41	367.06
368.636	377.06
368.862	370.06
369.089	372.06
369.315	376.06
369.541	377.06
369.767	372.06
369.993	355.06
370.219	358.06
370.445	367.06
370.672	386.06
370.898	377.06
371.124	369.06
371.35	390.06
371.576	385.06
371.802	373.06
372.028	382.06
372.254	373.06
372.48	361.06
372.706	362.06
372.932	382.06
373.158	359.06
373.384	377.06
373.61	385.06
373.835	392.06
374.061	374.06
374.287	382.06
374.513	382.06
374.739	401.06
374.965	401.06
375.191	398.06
375.416	419.06
375.642	381.06
375.868	378.06
376.094	393.06
376.319	372.06
376.545	363.06
376.771	377.06
376.997	379.06
377.222	373.06
377.448	351.06
377.674	372.06
377.899	367.06
378.125	370.06
378.35	383.06
378.576	394.06
378.802	389.06
379.027	392.06
379.253	396.06
379.478	372.06
379.704	380.06
379.929	357.06
380.155	375.06
380.38	378.06
380.606	378.06
380.831	402.06
381.057	391.06
381.282	371.06
381.507	419.06
381.733	377.06
381.958	374.06
382.184	386.06
382.409	354.06
382.634	389.06
382.86	369.06
383.085	403.06
383.31	413.06
383.535	407.06
383.761	398.06
383.986	395.06
384.211	403.06
384.436	401.06
384.662	447.06
384.887	416.06
385.112	406.06
385.337	434.06
385.562	423.06
385.787	446.06
386.013	438.06
386.238	419.06
386.463	423.06
386.688	436.06
386.913	436.06
387.138	426.06
387.363	418.06
387.588	421.06
387.813	425.06
388.038	441.06
388.263	422.06
388.488	439.06
388.713	422.06
388.938	405.06
389.163	409.06
389.387	433.06
389.612	399.06
389.837	450.06
390.062	417.06
390.287	429.06
390.512	432.06
390.736	425.06
390.961	426.06
391.186	446.06
391.411	442.06
391.636	423.06
391.86	447.06
392.085	454.06
392.31	463.06
392.534	445.06
392.759	464.06
392.984	439.06
393.208	446.06
393.433	440.06
393.658	445.06
393.882	426.06
394.107	457.06
394.331	447.06
394.556	433.06
394.78	435.06
395.005	448.06
395.229	446.06
395.454	461.06
395.678	448.06
395.903	443.06
396.127	470.06
396.352	459.06
396.576	453.06
396.801	455.06
397.025	430.06
397.249	464.06
397.474	498.06
397.698	470.06
397.922	460.06
398.147	476.06
398.371	481.06
398.595	485.06
398.82	517.06
399.044	525.06
399.268	547.06
399.492	606.06
399.717	637.06
399.941	657.06
400.165	651.06
400.389	615.06
400.613	546.06
400.837	536.06
401.062	530.06
401.286	510.06
401.51	502.06
401.734	484.06
401.958	488.06
402.182	507.06
402.406	516.06
402.63	496.06
402.854	518.06
403.078	512.06
403.302	508.06
403.526	526.06
403.75	519.06
403.974	550.06
404.198	545.06
404.422	520.06
404.645	535.06
404.869	543.06
405.093	558.06
405.317	574.06
405.541	606.06
405.765	544.06
405.988	552.06
406.212	536.06
406.436	530.06
406.66	546.06
406.883	546.06
407.107	561.06
407.331	601.06
407.555	644.06
407.778	643.06
408.002	607.06
408.226	586.06
408.449	582.06
408.673	543.06
408.896	571.06
409.12	610.06
409.344	561.06
409.567	548.06
409.791	543.06
410.014	526.06
410.238	551.06
410.461	539.06
410.685	519.06
410.908	539.06
411.132	531.06
411.355	536.06
411.578	528.06
411.802	512.06
412.025	489.06
412.249	527.06
412.472	534.06
412.695	565.06
412.919	521.06
413.142	525.06
413.365	498.06
413.589	482.06
413.812	495.06
414.035	505.06
414.258	494.06
414.482	493.06
414.705	495.06
414.928	486.06
415.151	490.06
415.374	499.06
415.597	507.06
415.821	489.06
416.044	479.06
416.267	487.06
416.49	471.06
416.713	484.06
416.936	483.06
417.159	474.06
417.382	483.06
417.605	474.06
417.828	465.06
418.051	485.06
418.274	492.06
418.497	499.06
418.72	515.06
418.943	501.06
419.166	502.06
419.389	535.06
419.611	550.06
419.834	507.06
420.057	489.06
420.28	486.06
420.503	499.06
420.726	506.06
420.948	510.06
421.171	515.06
421.394	550.06
421.617	507.06
421.839	490.06
422.062	507.06
422.285	513.06
422.507	524.06
422.73	560.06
422.953	573.06
423.175	521.06
423.398	522.06
423.621	510.06
423.843	492.06
424.066	517.06
424.288	524.06
424.511	515.06
424.733	550.06
424.956	598.06
425.178	593.06
425.401	563.06
425.623	587.06
425.846	520.06
426.068	495.06
426.291	480.06
426.513	497.06
426.735	527.06
426.958	519.06
427.18	550.06
427.402	641.06
427.625	691.06
427.847	603.06
428.069	534.06
428.292	505.06
428.514	478.06
428.736	475.06
428.958	496.06
429.181	439.06
429.403	457.06
429.625	495.06
429.847	480.06
430.069	521.06
430.292	529.06
430.514	475.06
430.736	482.06
430.958	487.06
431.18	469.06
431.402	471.06
431.624	453.06
431.846	443.06
432.068	450.06
432.29	465.06
432.512	442.06
432.734	475.06
432.956	455.06
433.178	457.06
433.4	467.06
433.622	462.06
433.844	471.06
434.066	480.06
434.287	471.06
434.509	474.06
434.731	497.06
434.953	481.06
435.175	471.06
435.397	490.06
435.618	522.06
435.84	542.06
436.062	574.06
436.284	609.06
436.505	533.06
436.727	514.06
436.949	485.06
437.17	470.06
437.392	454.06
437.614	485.06
437.835	470.06
438.057	547.06
438.278	574.06
438.5	591.06
438.721	650.06
438.943	631.06
439.165	490.06
439.386	473.06
439.608	473.06
439.829	474.06
440.05	507.06
440.272	505.06
440.493	491.06
440.715	488.06
440.936	481.06
441.158	477.06
441.379	475.06
441.6	489.06
441.822	509.06
442.043	524.06
442.264	569.06
442.486	599.06
442.707	534.06
442.928	513.06
443.149	505.06
443.371	534.06
443.592	548.06
443.813	598.06
444.034	641.06
444.255	581.06
444.476	525.06
444.698	548.06
444.919	559.06
445.14	641.06
445.361	575.06
445.582	542.06
445.803	561.06
446.024	609.06
446.245	601.06
446.466	590.06
446.687	489.06
446.908	500.06
447.129	462.06
447.35	457.06
447.571	468.06
447.792	439.06
448.013	470.06
448.234	463.06
448.455	479.06
448.675	524.06
448.896	618.06
449.117	553.06
449.338	512.06
449.559	589.06
449.779	660.06
450	527.06
450.221	483.06
450.442	446.06
450.662	431.06
450.883	446.06
451.104	457.06
451.324	432.06
451.545	433.06
451.766	445.06
451.986	404.06
452.207	395.06
452.428	395.06
452.648	417.06
452.869	415.06
453.089	437.06
453.31	419.06
453.53	428.06
453.751	436.06
453.971	425.06
454.192	397.06
454.412	406.06
454.633	417.06
454.853	404.06
455.073	399.06
455.294	425.06
455.514	452.06
455.734	449.06
455.955	427.06
456.175	388.06
456.395	418.06
456.616	408.06
456.836	404.06
457.056	409.06
457.276	391.06
457.497	408.06
457.717	419.06
457.937	403.06
458.157	416.06
458.377	419.06
458.598	427.06
458.818	467.06
459.038	479.06
459.258	488.06
459.478	485.06
459.698	470.06
459.918	477.06
460.138	485.06
460.358	484.06
460.578	510.06
460.798	498.06
461.018	490.06
461.238	499.06
461.458	485.06
461.678	496.06
461.898	509.06
462.118	495.06
462.338	531.06
462.558	521.06
462.777	563.06
462.997	559.06
463.217	564.06
463.437	573.06
463.657	576.06
463.876	543.06
464.096	560.06
464.316	541.06
464.536	531.06
464.755	542.06
464.975	531.06
465.195	516.06
465.414	557.06
465.634	486.06
465.854	480.06
466.073	449.06
466.293	444.06
466.512	438.06
466.732	449.06
466.951	445.06
467.171	450.06
467.391	449.06
467.61	438.06
467.829	443.06
468.049	456.06
468.268	420.06
468.488	419.06
468.707	444.06
468.927	440.06
469.146	447.06
469.365	438.06
469.585	426.06
469.804	437.06
470.023	444.06
470.243	450.06
470.462	444.06
470.681	464.06
470.901	452.06
471.12	461.06
471.339	449.06
471.558	457.06
471.777	436.06
471.997	449.06
472.216	455.06
472.435	459.06
472.654	462.06
472.873	432.06
473.092	437.06
473.311	442.06
473.53	455.06
473.749	441.06
473.968	446.06
474.187	503.06
474.406	490.06
474.625	471.06
474.844	430.06
475.063	434.06
475.282	446.06
475.501	445.06
475.72	431.06
475.939	452.06
476.158	454.06
476.377	445.06
476.596	468.06
476.814	473.06
477.033	456.06
477.252	491.06
477.471	482.06
477.69	502.06
477.908	495.06
478.127	491.06
478.346	486.06
478.564	487.06
478.783	518.06
479.002	532.06
479.22	530.06
479.439	522.06
479.658	535.06
479.876	562.06
480.095	541.06
480.313	567.06
480.532	562.06
480.751	577.06
480.969	544.06
481.188	570.06
481.406	543.06
481.624	538.06
481.843	523.06
482.061	516.06
482.28	553.06
482.498	513.06
482.717	516.06
482.935	526.06
483.153	514.06
483.372	529.06
483.59	532.06
483.808	538.06
484.027	535.06
484.245	543.06
484.463	545.06
484.681	537.06
484.9	539.06
485.118	542.06
485.336	525.06
485.554	554.06
485.772	549.06
485.99	555.06
486.209	554.06
486.427	534.06
486.645	545.06
486.863	541.06
487.081	558.06
487.299	533.06
487.517	544.06
487.735	547.06
487.953	542.06
488.171	534.06
488.389	544.06
488.607	538.06
488.825	553.06
489.043	534.06
489.261	576.06
489.479	573.06
489.696	550.06
489.914	534.06
490.132	564.06
490.35	563.06
490.568	569.06
490.786	542.06
491.003	563.06
491.221	573.06
491.439	577.06
491.657	568.06
491.874	587.06
492.092	575.06
492.31	595.06
492.527	586.06
492.745	574.06
492.963	591.06
493.18	591.06
493.398	609.06
493.615	609.06
493.833	586.06
494.05	599.06
494.268	585.06
494.485	605.06
494.703	591.06
494.92	611.06
495.138	599.06
495.355	618.06
495.573	625.06
495.79	614.06
496.008	614.06
496.225	606.06
496.442	628.06
496.66	623.06
496.877	622.06
497.094	622.06
497.312	625.06
497.529	657.06
497.746	663.06
497.963	675.06
498.181	695.06
498.398	703.06
498.615	733.06
498.832	773.06
499.049	789.06
499.267	840.06
499.484	870.06
499.701	921.06
499.918	988.06
500.135	1023.06
500.352	1112.06
500.569	1149.06
500.786	1140.06
501.003	1104.06
501.22	1010.06
501.437	1003.06
501.654	934.06
501.871	853.06
502.088	843.06
