Data from 1962.PennyLincolnUp.Lamp.En5.5.200Scan.071719.P1._HRD10591_13-54-41-061.txt Node
Date: Thu Jul 18 13:54:41 EDT 2019
User: cochatt
Spectrometer: HR+D1059
Trigger mode: 1
Integration Time (sec): 1.000000E-1
Scans to average: 1
Electric dark correction enabled: true
Nonlinearity correction enabled: false
Boxcar width: 0
XAxis mode: Wavelengths
Number of Pixels in Spectrum: 2048
>>>>>Begin Spectral Data<<<<<
223.165	-6.94
223.4	-6.94
223.635	-6.94
223.869	-14.94
224.104	-23.94
224.338	-16.94
224.573	-13.94
224.808	-14.94
225.042	-11.94
225.277	0.06
225.511	-2.94
225.746	6.06
225.98	-2.94
226.215	9.06
226.449	19.06
226.683	20.06
226.918	18.06
227.152	37.06
227.387	40.06
227.621	33.06
227.856	49.06
228.09	38.06
228.324	51.06
228.559	56.06
228.793	68.06
229.027	95.06
229.262	92.06
229.496	99.06
229.73	111.06
229.964	128.06
230.199	121.06
230.433	116.06
230.667	108.06
230.901	99.06
231.136	104.06
231.37	109.06
231.604	108.06
231.838	113.06
232.072	99.06
232.306	119.06
232.541	102.06
232.775	103.06
233.009	91.06
233.243	107.06
233.477	97.06
233.711	100.06
233.945	112.06
234.179	107.06
234.413	129.06
234.647	113.06
234.881	122.06
235.115	121.06
235.349	120.06
235.583	119.06
235.817	123.06
236.051	113.06
236.285	120.06
236.519	131.06
236.753	112.06
236.987	142.06
237.221	150.06
237.455	183.06
237.689	156.06
237.922	132.06
238.156	122.06
238.39	129.06
238.624	113.06
238.858	111.06
239.091	108.06
239.325	122.06
239.559	117.06
239.793	122.06
240.027	126.06
240.26	135.06
240.494	120.06
240.728	136.06
240.961	145.06
241.195	136.06
241.429	141.06
241.662	124.06
241.896	123.06
242.13	128.06
242.363	133.06
242.597	122.06
242.83	116.06
243.064	124.06
243.298	126.06
243.531	131.06
243.765	138.06
243.998	132.06
244.232	141.06
244.465	134.06
244.699	130.06
244.932	124.06
245.166	136.06
245.399	129.06
245.633	132.06
245.866	141.06
246.099	130.06
246.333	140.06
246.566	148.06
246.8	130.06
247.033	144.06
247.266	151.06
247.5	142.06
247.733	144.06
247.966	176.06
248.2	167.06
248.433	165.06
248.666	153.06
248.899	159.06
249.133	167.06
249.366	182.06
249.599	167.06
249.832	186.06
250.066	176.06
250.299	175.06
250.532	172.06
250.765	184.06
250.998	189.06
251.231	195.06
251.465	196.06
251.698	188.06
251.931	184.06
252.164	181.06
252.397	190.06
252.63	191.06
252.863	183.06
253.096	186.06
253.329	197.06
253.562	203.06
253.795	185.06
254.028	182.06
254.261	205.06
254.494	195.06
254.727	228.06
254.96	237.06
255.193	236.06
255.426	202.06
255.659	211.06
255.892	197.06
256.124	208.06
256.357	199.06
256.59	208.06
256.823	192.06
257.056	192.06
257.289	210.06
257.521	186.06
257.754	194.06
257.987	196.06
258.22	190.06
258.452	188.06
258.685	201.06
258.918	209.06
259.151	197.06
259.383	190.06
259.616	201.06
259.849	220.06
260.081	229.06
260.314	240.06
260.547	254.06
260.779	222.06
261.012	211.06
261.244	203.06
261.477	209.06
261.71	222.06
261.942	209.06
262.175	233.06
262.407	210.06
262.64	200.06
262.872	198.06
263.105	198.06
263.337	204.06
263.57	202.06
263.802	209.06
264.035	206.06
264.267	206.06
264.499	211.06
264.732	218.06
264.964	225.06
265.197	208.06
265.429	209.06
265.661	207.06
265.894	211.06
266.126	204.06
266.358	226.06
266.591	227.06
266.823	214.06
267.055	218.06
267.287	219.06
267.52	230.06
267.752	211.06
267.984	226.06
268.216	220.06
268.448	223.06
268.681	219.06
268.913	224.06
269.145	263.06
269.377	261.06
269.609	248.06
269.841	241.06
270.073	255.06
270.306	275.06
270.538	298.06
270.77	293.06
271.002	267.06
271.234	268.06
271.466	279.06
271.698	284.06
271.93	293.06
272.162	290.06
272.394	269.06
272.626	274.06
272.858	279.06
273.09	260.06
273.322	242.06
273.553	260.06
273.785	252.06
274.017	257.06
274.249	255.06
274.481	253.06
274.713	267.06
274.945	246.06
275.176	245.06
275.408	251.06
275.64	259.06
275.872	263.06
276.104	266.06
276.335	258.06
276.567	262.06
276.799	289.06
277.031	282.06
277.262	294.06
277.494	299.06
277.726	277.06
277.957	267.06
278.189	261.06
278.421	246.06
278.652	235.06
278.884	253.06
279.115	269.06
279.347	267.06
279.579	274.06
279.81	269.06
280.042	283.06
280.273	260.06
280.505	259.06
280.736	263.06
280.968	258.06
281.199	268.06
281.431	292.06
281.662	274.06
281.894	279.06
282.125	283.06
282.356	267.06
282.588	299.06
282.819	303.06
283.051	297.06
283.282	282.06
283.513	300.06
283.745	280.06
283.976	290.06
284.207	288.06
284.439	285.06
284.67	287.06
284.901	289.06
285.132	299.06
285.364	285.06
285.595	293.06
285.826	290.06
286.057	292.06
286.288	296.06
286.52	295.06
286.751	293.06
286.982	280.06
287.213	277.06
287.444	281.06
287.675	295.06
287.906	287.06
288.138	306.06
288.369	298.06
288.6	319.06
288.831	305.06
289.062	308.06
289.293	296.06
289.524	294.06
289.755	303.06
289.986	293.06
290.217	311.06
290.448	293.06
290.679	311.06
290.91	289.06
291.141	304.06
291.371	309.06
291.602	301.06
291.833	291.06
292.064	322.06
292.295	300.06
292.526	300.06
292.757	287.06
292.987	307.06
293.218	297.06
293.449	300.06
293.68	296.06
293.91	305.06
294.141	305.06
294.372	320.06
294.603	315.06
294.833	319.06
295.064	289.06
295.295	316.06
295.525	315.06
295.756	311.06
295.987	314.06
296.217	311.06
296.448	337.06
296.679	322.06
296.909	307.06
297.14	307.06
297.37	312.06
297.601	319.06
297.831	309.06
298.062	297.06
298.292	307.06
298.523	324.06
298.753	310.06
298.984	320.06
299.214	321.06
299.445	317.06
299.675	310.06
299.905	320.06
300.136	318.06
300.366	344.06
300.597	322.06
300.827	319.06
301.057	333.06
301.288	329.06
301.518	342.06
301.748	317.06
301.979	331.06
302.209	358.06
302.439	332.06
302.669	350.06
302.9	334.06
303.13	331.06
303.36	335.06
303.59	348.06
303.82	313.06
304.051	332.06
304.281	327.06
304.511	333.06
304.741	356.06
304.971	361.06
305.201	336.06
305.431	329.06
305.661	317.06
305.891	314.06
306.121	329.06
306.352	328.06
306.582	348.06
306.812	344.06
307.042	354.06
307.272	356.06
307.502	339.06
307.731	351.06
307.961	349.06
308.191	352.06
308.421	350.06
308.651	337.06
308.881	347.06
309.111	343.06
309.341	346.06
309.571	351.06
309.8	351.06
310.03	362.06
310.26	360.06
310.49	373.06
310.72	364.06
310.949	365.06
311.179	376.06
311.409	373.06
311.639	349.06
311.868	369.06
312.098	354.06
312.328	373.06
312.557	375.06
312.787	362.06
313.017	375.06
313.246	374.06
313.476	375.06
313.706	348.06
313.935	380.06
314.165	363.06
314.394	380.06
314.624	395.06
314.853	371.06
315.083	356.06
315.312	379.06
315.542	362.06
315.771	367.06
316.001	375.06
316.23	361.06
316.46	374.06
316.689	363.06
316.919	383.06
317.148	390.06
317.377	372.06
317.607	385.06
317.836	365.06
318.065	364.06
318.295	375.06
318.524	365.06
318.753	359.06
318.983	379.06
319.212	375.06
319.441	388.06
319.67	382.06
319.9	378.06
320.129	388.06
320.358	374.06
320.587	382.06
320.816	354.06
321.046	383.06
321.275	384.06
321.504	381.06
321.733	405.06
321.962	399.06
322.191	397.06
322.42	399.06
322.649	391.06
322.878	418.06
323.108	426.06
323.337	424.06
323.566	459.06
323.795	443.06
324.024	465.06
324.253	552.06
324.482	720.06
324.71	1069.06
324.939	1534.06
325.168	1313.06
325.397	721.06
325.626	548.06
325.855	489.06
326.084	453.06
326.313	451.06
326.542	461.06
326.77	488.06
326.999	566.06
327.228	687.06
327.457	959.06
327.686	1184.06
327.914	808.06
328.143	584.06
328.372	529.06
328.6	525.06
328.829	491.06
329.058	490.06
329.287	503.06
329.515	478.06
329.744	462.06
329.972	466.06
330.201	456.06
330.43	495.06
330.658	499.06
330.887	502.06
331.115	523.06
331.344	482.06
331.572	480.06
331.801	492.06
332.03	469.06
332.258	451.06
332.486	455.06
332.715	448.06
332.943	475.06
333.172	456.06
333.4	490.06
333.629	489.06
333.857	499.06
334.085	487.06
334.314	525.06
334.542	509.06
334.771	539.06
334.999	487.06
335.227	500.06
335.455	485.06
335.684	456.06
335.912	482.06
336.14	468.06
336.369	457.06
336.597	452.06
336.825	456.06
337.053	459.06
337.281	449.06
337.51	452.06
337.738	462.06
337.966	457.06
338.194	437.06
338.422	431.06
338.65	447.06
338.878	440.06
339.106	433.06
339.334	442.06
339.562	450.06
339.79	451.06
340.018	423.06
340.246	423.06
340.474	426.06
340.702	445.06
340.93	433.06
341.158	442.06
341.386	411.06
341.614	428.06
341.842	428.06
342.07	438.06
342.298	424.06
342.526	428.06
342.754	428.06
342.981	411.06
343.209	413.06
343.437	438.06
343.665	438.06
343.893	443.06
344.12	464.06
344.348	460.06
344.576	450.06
344.804	447.06
345.031	445.06
345.259	437.06
345.487	418.06
345.714	443.06
345.942	416.06
346.17	413.06
346.397	422.06
346.625	398.06
346.853	412.06
347.08	401.06
347.308	395.06
347.535	425.06
347.763	425.06
347.99	406.06
348.218	416.06
348.445	412.06
348.673	413.06
348.9	427.06
349.128	402.06
349.355	385.06
349.583	394.06
349.81	424.06
350.037	398.06
350.265	408.06
350.492	381.06
350.72	400.06
350.947	403.06
351.174	409.06
351.402	410.06
351.629	413.06
351.856	391.06
352.083	403.06
352.311	391.06
352.538	400.06
352.765	415.06
352.992	405.06
353.22	380.06
353.447	399.06
353.674	384.06
353.901	393.06
354.128	378.06
354.355	389.06
354.583	405.06
354.81	371.06
355.037	392.06
355.264	384.06
355.491	381.06
355.718	381.06
355.945	392.06
356.172	396.06
356.399	385.06
356.626	393.06
356.853	392.06
357.08	395.06
357.307	380.06
357.534	395.06
357.761	395.06
357.988	367.06
358.215	396.06
358.441	405.06
358.668	387.06
358.895	409.06
359.122	394.06
359.349	411.06
359.576	412.06
359.802	425.06
360.029	424.06
360.256	441.06
360.483	413.06
360.709	410.06
360.936	398.06
361.163	396.06
361.39	398.06
361.616	398.06
361.843	386.06
362.07	427.06
362.296	395.06
362.523	393.06
362.749	411.06
362.976	402.06
363.203	387.06
363.429	394.06
363.656	388.06
363.882	394.06
364.109	388.06
364.335	384.06
364.562	411.06
364.788	395.06
365.015	397.06
365.241	389.06
365.468	405.06
365.694	386.06
365.92	401.06
366.147	407.06
366.373	402.06
366.599	384.06
366.826	398.06
367.052	384.06
367.278	407.06
367.505	388.06
367.731	389.06
367.957	407.06
368.184	394.06
368.41	385.06
368.636	404.06
368.862	411.06
369.089	422.06
369.315	400.06
369.541	402.06
369.767	413.06
369.993	396.06
370.219	403.06
370.445	415.06
370.672	408.06
370.898	413.06
371.124	397.06
371.35	411.06
371.576	408.06
371.802	412.06
372.028	408.06
372.254	379.06
372.48	409.06
372.706	415.06
372.932	424.06
373.158	397.06
373.384	420.06
373.61	409.06
373.835	395.06
374.061	397.06
374.287	416.06
374.513	387.06
374.739	426.06
374.965	417.06
375.191	425.06
375.416	405.06
375.642	411.06
375.868	417.06
376.094	429.06
376.319	415.06
376.545	414.06
376.771	395.06
376.997	409.06
377.222	420.06
377.448	406.06
377.674	386.06
377.899	401.06
378.125	397.06
378.35	425.06
378.576	410.06
378.802	391.06
379.027	379.06
379.253	410.06
379.478	402.06
379.704	422.06
379.929	405.06
380.155	407.06
380.38	411.06
380.606	431.06
380.831	405.06
381.057	422.06
381.282	394.06
381.507	397.06
381.733	401.06
381.958	387.06
382.184	400.06
382.409	417.06
382.634	419.06
382.86	409.06
383.085	417.06
383.31	440.06
383.535	422.06
383.761	420.06
383.986	408.06
384.211	442.06
384.436	455.06
384.662	436.06
384.887	459.06
385.112	464.06
385.337	460.06
385.562	461.06
385.787	466.06
386.013	433.06
386.238	450.06
386.463	464.06
386.688	471.06
386.913	465.06
387.138	449.06
387.363	476.06
387.588	471.06
387.813	459.06
388.038	432.06
388.263	450.06
388.488	470.06
388.713	464.06
388.938	436.06
389.163	427.06
389.387	458.06
389.612	444.06
389.837	440.06
390.062	471.06
390.287	435.06
390.512	422.06
390.736	454.06
390.961	467.06
391.186	457.06
391.411	470.06
391.636	468.06
391.86	489.06
392.085	497.06
392.31	510.06
392.534	483.06
392.759	477.06
392.984	470.06
393.208	472.06
393.433	487.06
393.658	498.06
393.882	481.06
394.107	482.06
394.331	457.06
394.556	463.06
394.78	456.06
395.005	486.06
395.229	492.06
395.454	470.06
395.678	493.06
395.903	520.06
396.127	511.06
396.352	502.06
396.576	481.06
396.801	482.06
397.025	480.06
397.249	505.06
397.474	497.06
397.698	515.06
397.922	522.06
398.147	514.06
398.371	514.06
398.595	535.06
398.82	537.06
399.044	559.06
399.268	589.06
399.492	643.06
399.717	665.06
399.941	703.06
400.165	691.06
400.389	681.06
400.613	625.06
400.837	581.06
401.062	559.06
401.286	561.06
401.51	551.06
401.734	546.06
401.958	560.06
402.182	577.06
402.406	561.06
402.63	577.06
402.854	566.06
403.078	567.06
403.302	552.06
403.526	572.06
403.75	586.06
403.974	579.06
404.198	553.06
404.422	581.06
404.645	577.06
404.869	590.06
405.093	618.06
405.317	653.06
405.541	663.06
405.765	600.06
405.988	606.06
406.212	604.06
406.436	598.06
406.66	614.06
406.883	608.06
407.107	635.06
407.331	679.06
407.555	740.06
407.778	734.06
408.002	698.06
408.226	639.06
408.449	632.06
408.673	626.06
408.896	637.06
409.12	664.06
409.344	649.06
409.567	605.06
409.791	563.06
410.014	569.06
410.238	596.06
410.461	597.06
410.685	586.06
410.908	594.06
411.132	602.06
411.355	609.06
411.578	605.06
411.802	583.06
412.025	573.06
412.249	575.06
412.472	584.06
412.695	635.06
412.919	602.06
413.142	577.06
413.365	558.06
413.589	539.06
413.812	525.06
414.035	549.06
414.258	563.06
414.482	529.06
414.705	546.06
414.928	530.06
415.151	535.06
415.374	537.06
415.597	527.06
415.821	537.06
416.044	529.06
416.267	512.06
416.49	529.06
416.713	535.06
416.936	531.06
417.159	543.06
417.382	552.06
417.605	525.06
417.828	525.06
418.051	562.06
418.274	527.06
418.497	521.06
418.72	536.06
418.943	555.06
419.166	567.06
419.389	617.06
419.611	575.06
419.834	561.06
420.057	540.06
420.28	550.06
420.503	563.06
420.726	557.06
420.948	573.06
421.171	588.06
421.394	584.06
421.617	595.06
421.839	552.06
422.062	547.06
422.285	565.06
422.507	617.06
422.73	646.06
422.953	647.06
423.175	593.06
423.398	583.06
423.621	561.06
423.843	575.06
424.066	610.06
424.288	595.06
424.511	580.06
424.733	631.06
424.956	677.06
425.178	666.06
425.401	643.06
425.623	675.06
425.846	585.06
426.068	573.06
426.291	581.06
426.513	559.06
426.735	569.06
426.958	561.06
427.18	657.06
427.402	754.06
427.625	819.06
427.847	693.06
428.069	628.06
428.292	570.06
428.514	552.06
428.736	537.06
428.958	526.06
429.181	514.06
429.403	513.06
429.625	535.06
429.847	553.06
430.069	615.06
430.292	574.06
430.514	536.06
430.736	536.06
430.958	506.06
431.18	488.06
431.402	505.06
431.624	483.06
431.846	493.06
432.068	517.06
432.29	525.06
432.512	524.06
432.734	497.06
432.956	515.06
433.178	528.06
433.4	529.06
433.622	499.06
433.844	524.06
434.066	521.06
434.287	513.06
434.509	531.06
434.731	517.06
434.953	521.06
435.175	535.06
435.397	581.06
435.618	563.06
435.84	579.06
436.062	677.06
436.284	696.06
436.505	608.06
436.727	541.06
436.949	549.06
437.17	529.06
437.392	526.06
437.614	517.06
437.835	557.06
438.057	616.06
438.278	691.06
438.5	697.06
438.721	754.06
438.943	729.06
439.165	577.06
439.386	539.06
439.608	537.06
439.829	546.06
440.05	556.06
440.272	609.06
440.493	577.06
440.715	555.06
440.936	554.06
441.158	541.06
441.379	544.06
441.6	535.06
441.822	555.06
442.043	615.06
442.264	668.06
442.486	699.06
442.707	594.06
442.928	571.06
443.149	562.06
443.371	578.06
443.592	614.06
443.813	684.06
444.034	741.06
444.255	629.06
444.476	609.06
444.698	628.06
444.919	617.06
445.14	719.06
445.361	639.06
445.582	613.06
445.803	648.06
446.024	710.06
446.245	711.06
446.466	646.06
446.687	595.06
446.908	556.06
447.129	533.06
447.35	517.06
447.571	527.06
447.792	503.06
448.013	523.06
448.234	505.06
448.455	562.06
448.675	617.06
448.896	733.06
449.117	629.06
449.338	592.06
449.559	676.06
449.779	768.06
450	635.06
450.221	555.06
450.442	524.06
450.662	509.06
450.883	489.06
451.104	521.06
451.324	513.06
451.545	481.06
451.766	485.06
451.986	423.06
452.207	460.06
452.428	461.06
452.648	469.06
452.869	456.06
453.089	449.06
453.31	478.06
453.53	475.06
453.751	479.06
453.971	461.06
454.192	467.06
454.412	454.06
454.633	449.06
454.853	456.06
455.073	441.06
455.294	469.06
455.514	510.06
455.734	512.06
455.955	452.06
456.175	457.06
456.395	451.06
456.616	428.06
456.836	447.06
457.056	421.06
457.276	435.06
457.497	443.06
457.717	451.06
457.937	447.06
458.157	457.06
458.377	457.06
458.598	475.06
458.818	530.06
459.038	585.06
459.258	586.06
459.478	529.06
459.698	519.06
459.918	531.06
460.138	527.06
460.358	526.06
460.578	514.06
460.798	519.06
461.018	551.06
461.238	544.06
461.458	555.06
461.678	553.06
461.898	553.06
462.118	557.06
462.338	577.06
462.558	559.06
462.777	587.06
462.997	601.06
463.217	626.06
463.437	635.06
463.657	625.06
463.876	594.06
464.096	597.06
464.316	627.06
464.536	584.06
464.755	578.06
464.975	570.06
465.195	579.06
465.414	578.06
465.634	572.06
465.854	507.06
466.073	520.06
466.293	497.06
466.512	492.06
466.732	471.06
466.951	471.06
467.171	482.06
467.391	490.06
467.61	477.06
467.829	499.06
468.049	485.06
468.268	493.06
468.488	478.06
468.707	458.06
468.927	495.06
469.146	467.06
469.365	475.06
469.585	483.06
469.804	487.06
470.023	500.06
470.243	481.06
470.462	481.06
470.681	494.06
470.901	495.06
471.12	494.06
471.339	498.06
471.558	492.06
471.777	484.06
471.997	472.06
472.216	480.06
472.435	515.06
472.654	496.06
472.873	476.06
473.092	499.06
473.311	460.06
473.53	459.06
473.749	481.06
473.968	525.06
474.187	569.06
474.406	607.06
474.625	521.06
474.844	492.06
475.063	493.06
475.282	496.06
475.501	495.06
475.72	516.06
475.939	492.06
476.158	496.06
476.377	510.06
476.596	490.06
476.814	518.06
477.033	511.06
477.252	516.06
477.471	514.06
477.69	517.06
477.908	525.06
478.127	547.06
478.346	537.06
478.564	545.06
478.783	541.06
479.002	569.06
479.22	578.06
479.439	569.06
479.658	567.06
479.876	592.06
480.095	618.06
480.313	635.06
480.532	629.06
480.751	623.06
480.969	586.06
481.188	635.06
481.406	629.06
481.624	576.06
481.843	589.06
482.061	587.06
482.28	568.06
482.498	546.06
482.717	553.06
482.935	593.06
483.153	569.06
483.372	571.06
483.59	553.06
483.808	566.06
484.027	561.06
484.245	560.06
484.463	570.06
484.681	575.06
484.9	588.06
485.118	576.06
485.336	578.06
485.554	586.06
485.772	587.06
485.99	577.06
486.209	575.06
486.427	583.06
486.645	590.06
486.863	608.06
487.081	593.06
487.299	600.06
487.517	601.06
487.735	596.06
487.953	587.06
488.171	609.06
488.389	587.06
488.607	602.06
488.825	589.06
489.043	593.06
489.261	588.06
489.479	603.06
489.696	588.06
489.914	594.06
490.132	624.06
490.35	635.06
490.568	617.06
490.786	645.06
491.003	638.06
491.221	623.06
491.439	678.06
491.657	640.06
491.874	641.06
492.092	658.06
492.31	641.06
492.527	647.06
492.745	661.06
492.963	655.06
493.18	675.06
493.398	674.06
493.615	682.06
493.833	673.06
494.05	672.06
494.268	683.06
494.485	677.06
494.703	656.06
494.92	680.06
495.138	689.06
495.355	688.06
495.573	690.06
495.79	684.06
496.008	687.06
496.225	688.06
496.442	700.06
496.66	715.06
496.877	705.06
497.094	701.06
497.312	725.06
497.529	746.06
497.746	747.06
497.963	732.06
498.181	785.06
498.398	783.06
498.615	815.06
498.832	852.06
499.049	877.06
499.267	900.06
499.484	956.06
499.701	984.06
499.918	1046.06
500.135	1124.06
500.352	1195.06
500.569	1236.06
500.786	1236.06
501.003	1214.06
501.22	1139.06
501.437	1074.06
501.654	1033.06
501.871	995.06
