Data from 1962.PennyLincolnUp.Lamp.En5.5.200Scan.071719.P1._HRD10591_13-55-38-061.txt Node
Date: Thu Jul 18 13:55:38 EDT 2019
User: cochatt
Spectrometer: HR+D1059
Trigger mode: 1
Integration Time (sec): 1.000000E-1
Scans to average: 1
Electric dark correction enabled: true
Nonlinearity correction enabled: false
Boxcar width: 0
XAxis mode: Wavelengths
Number of Pixels in Spectrum: 2048
>>>>>Begin Spectral Data<<<<<
223.165	-20.19
223.4	-20.19
223.635	-20.19
223.869	-14.19
224.104	-27.19
224.338	-11.19
224.573	-10.19
224.808	-24.19
225.042	-8.19
225.277	0.81
225.511	-5.19
225.746	3.81
225.98	-7.19
226.215	3.81
226.449	34.81
226.683	26.81
226.918	20.81
227.152	36.81
227.387	44.81
227.621	37.81
227.856	37.81
228.09	49.81
228.324	36.81
228.559	42.81
228.793	69.81
229.027	90.81
229.262	97.81
229.496	103.81
229.73	130.81
229.964	141.81
230.199	109.81
230.433	111.81
230.667	116.81
230.901	113.81
231.136	100.81
231.37	107.81
231.604	119.81
231.838	96.81
232.072	104.81
232.306	107.81
232.541	121.81
232.775	110.81
233.009	102.81
233.243	127.81
233.477	122.81
233.711	114.81
233.945	105.81
234.179	123.81
234.413	95.81
234.647	108.81
234.881	122.81
235.115	113.81
235.349	119.81
235.583	131.81
235.817	124.81
236.051	122.81
236.285	126.81
236.519	119.81
236.753	120.81
236.987	121.81
237.221	150.81
237.455	194.81
237.689	150.81
237.922	129.81
238.156	133.81
238.39	140.81
238.624	121.81
238.858	124.81
239.091	136.81
239.325	128.81
239.559	132.81
239.793	122.81
240.027	127.81
240.26	119.81
240.494	158.81
240.728	151.81
240.961	137.81
241.195	155.81
241.429	138.81
241.662	125.81
241.896	123.81
242.13	142.81
242.363	115.81
242.597	132.81
242.83	139.81
243.064	140.81
243.298	137.81
243.531	142.81
243.765	135.81
243.998	136.81
244.232	136.81
244.465	143.81
244.699	125.81
244.932	136.81
245.166	151.81
245.399	148.81
245.633	148.81
245.866	130.81
246.099	147.81
246.333	141.81
246.566	138.81
246.8	141.81
247.033	142.81
247.266	155.81
247.5	162.81
247.733	160.81
247.966	156.81
248.2	167.81
248.433	153.81
248.666	160.81
248.899	179.81
249.133	184.81
249.366	180.81
249.599	196.81
249.832	182.81
250.066	180.81
250.299	176.81
250.532	179.81
250.765	187.81
250.998	197.81
251.231	207.81
251.465	203.81
251.698	195.81
251.931	190.81
252.164	195.81
252.397	177.81
252.63	183.81
252.863	189.81
253.096	189.81
253.329	202.81
253.562	214.81
253.795	206.81
254.028	220.81
254.261	209.81
254.494	189.81
254.727	206.81
254.96	253.81
255.193	251.81
255.426	221.81
255.659	203.81
255.892	194.81
256.124	206.81
256.357	200.81
256.59	221.81
256.823	219.81
257.056	201.81
257.289	197.81
257.521	187.81
257.754	205.81
257.987	200.81
258.22	207.81
258.452	200.81
258.685	196.81
258.918	180.81
259.151	213.81
259.383	213.81
259.616	205.81
259.849	213.81
260.081	224.81
260.314	229.81
260.547	245.81
260.779	226.81
261.012	233.81
261.244	233.81
261.477	208.81
261.71	213.81
261.942	212.81
262.175	226.81
262.407	211.81
262.64	210.81
262.872	218.81
263.105	194.81
263.337	205.81
263.57	215.81
263.802	199.81
264.035	210.81
264.267	196.81
264.499	205.81
264.732	212.81
264.964	220.81
265.197	221.81
265.429	205.81
265.661	204.81
265.894	214.81
266.126	223.81
266.358	220.81
266.591	204.81
266.823	227.81
267.055	228.81
267.287	220.81
267.52	226.81
267.752	248.81
267.984	220.81
268.216	232.81
268.448	226.81
268.681	225.81
268.913	239.81
269.145	252.81
269.377	267.81
269.609	275.81
269.841	258.81
270.073	266.81
270.306	288.81
270.538	300.81
270.77	297.81
271.002	272.81
271.234	281.81
271.466	277.81
271.698	268.81
271.93	273.81
272.162	299.81
272.394	293.81
272.626	285.81
272.858	290.81
273.09	266.81
273.322	266.81
273.553	271.81
273.785	253.81
274.017	256.81
274.249	260.81
274.481	275.81
274.713	269.81
274.945	266.81
275.176	255.81
275.408	264.81
275.64	268.81
275.872	246.81
276.104	278.81
276.335	290.81
276.567	261.81
276.799	278.81
277.031	307.81
277.262	309.81
277.494	314.81
277.726	304.81
277.957	288.81
278.189	278.81
278.421	295.81
278.652	266.81
278.884	267.81
279.115	277.81
279.347	260.81
279.579	268.81
279.81	264.81
280.042	269.81
280.273	269.81
280.505	274.81
280.736	269.81
280.968	277.81
281.199	281.81
281.431	281.81
281.662	268.81
281.894	284.81
282.125	277.81
282.356	280.81
282.588	307.81
282.819	307.81
283.051	293.81
283.282	256.81
283.513	285.81
283.745	280.81
283.976	306.81
284.207	288.81
284.439	290.81
284.67	281.81
284.901	292.81
285.132	295.81
285.364	269.81
285.595	309.81
285.826	296.81
286.057	303.81
286.288	282.81
286.52	284.81
286.751	295.81
286.982	298.81
287.213	292.81
287.444	306.81
287.675	297.81
287.906	297.81
288.138	285.81
288.369	330.81
288.6	312.81
288.831	322.81
289.062	313.81
289.293	303.81
289.524	298.81
289.755	291.81
289.986	295.81
290.217	306.81
290.448	304.81
290.679	309.81
290.91	296.81
291.141	303.81
291.371	302.81
291.602	307.81
291.833	299.81
292.064	294.81
292.295	291.81
292.526	295.81
292.757	296.81
292.987	296.81
293.218	306.81
293.449	305.81
293.68	320.81
293.91	308.81
294.141	305.81
294.372	304.81
294.603	315.81
294.833	308.81
295.064	311.81
295.295	309.81
295.525	323.81
295.756	314.81
295.987	320.81
296.217	329.81
296.448	341.81
296.679	312.81
296.909	328.81
297.14	317.81
297.37	319.81
297.601	313.81
297.831	308.81
298.062	322.81
298.292	313.81
298.523	317.81
298.753	320.81
298.984	308.81
299.214	317.81
299.445	349.81
299.675	318.81
299.905	320.81
300.136	325.81
300.366	325.81
300.597	338.81
300.827	341.81
301.057	346.81
301.288	323.81
301.518	340.81
301.748	352.81
301.979	363.81
302.209	332.81
302.439	344.81
302.669	345.81
302.9	354.81
303.13	370.81
303.36	341.81
303.59	337.81
303.82	349.81
304.051	337.81
304.281	346.81
304.511	347.81
304.741	338.81
304.971	332.81
305.201	336.81
305.431	347.81
305.661	347.81
305.891	335.81
306.121	357.81
306.352	347.81
306.582	340.81
306.812	322.81
307.042	354.81
307.272	355.81
307.502	341.81
307.731	348.81
307.961	339.81
308.191	336.81
308.421	341.81
308.651	349.81
308.881	357.81
309.111	347.81
309.341	342.81
309.571	352.81
309.8	381.81
310.03	357.81
310.26	373.81
310.49	377.81
310.72	367.81
310.949	372.81
311.179	376.81
311.409	357.81
311.639	387.81
311.868	372.81
312.098	372.81
312.328	384.81
312.557	400.81
312.787	390.81
313.017	380.81
313.246	399.81
313.476	377.81
313.706	382.81
313.935	390.81
314.165	390.81
314.394	425.81
314.624	402.81
314.853	379.81
315.083	391.81
315.312	377.81
315.542	381.81
315.771	372.81
316.001	376.81
316.23	381.81
316.46	405.81
316.689	384.81
316.919	362.81
317.148	395.81
317.377	381.81
317.607	400.81
317.836	378.81
318.065	378.81
318.295	368.81
318.524	379.81
318.753	371.81
318.983	380.81
319.212	378.81
319.441	399.81
319.67	397.81
319.9	392.81
320.129	385.81
320.358	374.81
320.587	381.81
320.816	397.81
321.046	394.81
321.275	410.81
321.504	402.81
321.733	391.81
321.962	412.81
322.191	433.81
322.42	412.81
322.649	418.81
322.878	440.81
323.108	423.81
323.337	443.81
323.566	453.81
323.795	474.81
324.024	513.81
324.253	575.81
324.482	761.81
324.71	1095.81
324.939	1580.81
325.168	1421.81
325.397	751.81
325.626	558.81
325.855	501.81
326.084	446.81
326.313	472.81
326.542	455.81
326.77	483.81
326.999	569.81
327.228	735.81
327.457	1009.81
327.686	1228.81
327.914	861.81
328.143	617.81
328.372	556.81
328.6	516.81
328.829	528.81
329.058	515.81
329.287	507.81
329.515	497.81
329.744	479.81
329.972	499.81
330.201	491.81
330.43	534.81
330.658	543.81
330.887	546.81
331.115	547.81
331.344	486.81
331.572	463.81
331.801	478.81
332.03	470.81
332.258	468.81
332.486	466.81
332.715	474.81
332.943	473.81
333.172	468.81
333.4	479.81
333.629	485.81
333.857	536.81
334.085	522.81
334.314	525.81
334.542	541.81
334.771	532.81
334.999	523.81
335.227	480.81
335.455	473.81
335.684	487.81
335.912	483.81
336.14	476.81
336.369	482.81
336.597	453.81
336.825	479.81
337.053	463.81
337.281	467.81
337.51	467.81
337.738	439.81
337.966	428.81
338.194	464.81
338.422	472.81
338.65	462.81
338.878	459.81
339.106	445.81
339.334	452.81
339.562	431.81
339.79	434.81
340.018	465.81
340.246	432.81
340.474	445.81
340.702	417.81
340.93	459.81
341.158	430.81
341.386	449.81
341.614	436.81
341.842	435.81
342.07	442.81
342.298	434.81
342.526	409.81
342.754	425.81
342.981	429.81
343.209	442.81
343.437	432.81
343.665	444.81
343.893	466.81
344.12	466.81
344.348	468.81
344.576	464.81
344.804	458.81
345.031	459.81
345.259	465.81
345.487	458.81
345.714	453.81
345.942	423.81
346.17	415.81
346.397	413.81
346.625	417.81
346.853	422.81
347.08	400.81
347.308	419.81
347.535	419.81
347.763	425.81
347.99	447.81
348.218	427.81
348.445	417.81
348.673	438.81
348.9	419.81
349.128	405.81
349.355	417.81
349.583	418.81
349.81	393.81
350.037	411.81
350.265	420.81
350.492	417.81
350.72	389.81
350.947	422.81
351.174	390.81
351.402	410.81
351.629	424.81
351.856	410.81
352.083	414.81
352.311	412.81
352.538	450.81
352.765	421.81
352.992	412.81
353.22	408.81
353.447	424.81
353.674	406.81
353.901	417.81
354.128	409.81
354.355	412.81
354.583	394.81
354.81	395.81
355.037	394.81
355.264	387.81
355.491	408.81
355.718	391.81
355.945	392.81
356.172	403.81
356.399	406.81
356.626	384.81
356.853	395.81
357.08	407.81
357.307	400.81
357.534	402.81
357.761	412.81
357.988	412.81
358.215	394.81
358.441	401.81
358.668	390.81
358.895	392.81
359.122	399.81
359.349	424.81
359.576	425.81
359.802	424.81
360.029	425.81
360.256	445.81
360.483	447.81
360.709	431.81
360.936	423.81
361.163	424.81
361.39	404.81
361.616	421.81
361.843	410.81
362.07	425.81
362.296	437.81
362.523	408.81
362.749	407.81
362.976	403.81
363.203	403.81
363.429	409.81
363.656	422.81
363.882	400.81
364.109	416.81
364.335	401.81
364.562	397.81
364.788	401.81
365.015	395.81
365.241	391.81
365.468	415.81
365.694	430.81
365.92	412.81
366.147	415.81
366.373	401.81
366.599	405.81
366.826	392.81
367.052	395.81
367.278	401.81
367.505	419.81
367.731	409.81
367.957	378.81
368.184	403.81
368.41	409.81
368.636	418.81
368.862	425.81
369.089	409.81
369.315	403.81
369.541	403.81
369.767	408.81
369.993	413.81
370.219	405.81
370.445	406.81
370.672	403.81
370.898	422.81
371.124	413.81
371.35	421.81
371.576	402.81
371.802	407.81
372.028	420.81
372.254	393.81
372.48	408.81
372.706	425.81
372.932	420.81
373.158	424.81
373.384	427.81
373.61	405.81
373.835	428.81
374.061	421.81
374.287	443.81
374.513	422.81
374.739	428.81
374.965	421.81
375.191	433.81
375.416	425.81
375.642	427.81
375.868	427.81
376.094	420.81
376.319	397.81
376.545	418.81
376.771	412.81
376.997	416.81
377.222	425.81
377.448	404.81
377.674	421.81
377.899	428.81
378.125	424.81
378.35	402.81
378.576	403.81
378.802	411.81
379.027	415.81
379.253	423.81
379.478	389.81
379.704	407.81
379.929	438.81
380.155	418.81
380.38	398.81
380.606	416.81
380.831	419.81
381.057	398.81
381.282	423.81
381.507	397.81
381.733	422.81
381.958	424.81
382.184	417.81
382.409	427.81
382.634	429.81
382.86	419.81
383.085	432.81
383.31	421.81
383.535	444.81
383.761	432.81
383.986	442.81
384.211	440.81
384.436	457.81
384.662	475.81
384.887	487.81
385.112	465.81
385.337	456.81
385.562	463.81
385.787	466.81
386.013	475.81
386.238	452.81
386.463	465.81
386.688	472.81
386.913	484.81
387.138	473.81
387.363	468.81
387.588	470.81
387.813	468.81
388.038	478.81
388.263	470.81
388.488	463.81
388.713	468.81
388.938	470.81
389.163	482.81
389.387	469.81
389.612	482.81
389.837	460.81
390.062	448.81
390.287	491.81
390.512	432.81
390.736	454.81
390.961	474.81
391.186	449.81
391.411	492.81
391.636	468.81
391.86	489.81
392.085	501.81
392.31	504.81
392.534	500.81
392.759	477.81
392.984	482.81
393.208	476.81
393.433	488.81
393.658	484.81
393.882	471.81
394.107	459.81
394.331	469.81
394.556	473.81
394.78	479.81
395.005	496.81
395.229	492.81
395.454	493.81
395.678	506.81
395.903	517.81
396.127	504.81
396.352	550.81
396.576	516.81
396.801	474.81
397.025	485.81
397.249	495.81
397.474	513.81
397.698	509.81
397.922	529.81
398.147	539.81
398.371	523.81
398.595	541.81
398.82	546.81
399.044	554.81
399.268	605.81
399.492	624.81
399.717	696.81
399.941	724.81
400.165	696.81
400.389	674.81
400.613	641.81
400.837	602.81
401.062	579.81
401.286	561.81
401.51	546.81
401.734	559.81
401.958	583.81
402.182	587.81
402.406	561.81
402.63	545.81
402.854	568.81
403.078	559.81
403.302	566.81
403.526	593.81
403.75	602.81
403.974	602.81
404.198	583.81
404.422	598.81
404.645	594.81
404.869	602.81
405.093	639.81
405.317	637.81
405.541	680.81
405.765	636.81
405.988	607.81
406.212	603.81
406.436	619.81
406.66	632.81
406.883	609.81
407.107	649.81
407.331	695.81
407.555	736.81
407.778	738.81
408.002	676.81
408.226	660.81
408.449	654.81
408.673	625.81
408.896	644.81
409.12	674.81
409.344	649.81
409.567	606.81
409.791	589.81
410.014	567.81
410.238	586.81
410.461	585.81
410.685	561.81
410.908	593.81
411.132	620.81
411.355	643.81
411.578	612.81
411.802	606.81
412.025	584.81
412.249	587.81
412.472	597.81
412.695	646.81
412.919	600.81
413.142	577.81
413.365	549.81
413.589	554.81
413.812	540.81
414.035	565.81
414.258	563.81
414.482	555.81
414.705	577.81
414.928	535.81
415.151	548.81
415.374	559.81
415.597	535.81
415.821	534.81
416.044	532.81
416.267	532.81
416.49	517.81
416.713	536.81
416.936	559.81
417.159	545.81
417.382	565.81
417.605	549.81
417.828	550.81
418.051	553.81
418.274	534.81
418.497	551.81
418.72	558.81
418.943	572.81
419.166	573.81
419.389	617.81
419.611	602.81
419.834	571.81
420.057	597.81
420.28	566.81
420.503	567.81
420.726	557.81
420.948	575.81
421.171	590.81
421.394	625.81
421.617	550.81
421.839	561.81
422.062	575.81
422.285	565.81
422.507	615.81
422.73	686.81
422.953	665.81
423.175	594.81
423.398	573.81
423.621	582.81
423.843	603.81
424.066	586.81
424.288	600.81
424.511	593.81
424.733	644.81
424.956	715.81
425.178	684.81
425.401	674.81
425.623	678.81
425.846	589.81
426.068	563.81
426.291	578.81
426.513	580.81
426.735	580.81
426.958	578.81
427.18	652.81
427.402	774.81
427.625	859.81
427.847	740.81
428.069	671.81
428.292	605.81
428.514	588.81
428.736	552.81
428.958	566.81
429.181	559.81
429.403	537.81
429.625	554.81
429.847	581.81
430.069	625.81
430.292	604.81
430.514	529.81
430.736	522.81
430.958	517.81
431.18	529.81
431.402	505.81
431.624	496.81
431.846	505.81
432.068	521.81
432.29	528.81
432.512	529.81
432.734	537.81
432.956	512.81
433.178	497.81
433.4	525.81
433.622	521.81
433.844	501.81
434.066	513.81
434.287	543.81
434.509	513.81
434.731	555.81
434.953	541.81
435.175	559.81
435.397	563.81
435.618	577.81
435.84	576.81
436.062	672.81
436.284	739.81
436.505	641.81
436.727	564.81
436.949	567.81
437.17	559.81
437.392	541.81
437.614	529.81
437.835	575.81
438.057	629.81
438.278	685.81
438.5	687.81
438.721	738.81
438.943	715.81
439.165	596.81
439.386	575.81
439.608	567.81
439.829	576.81
440.05	573.81
440.272	631.81
440.493	604.81
440.715	560.81
440.936	542.81
441.158	552.81
441.379	562.81
441.6	575.81
441.822	563.81
442.043	605.81
442.264	673.81
442.486	707.81
442.707	623.81
442.928	597.81
443.149	579.81
443.371	583.81
443.592	635.81
443.813	724.81
444.034	747.81
444.255	659.81
444.476	628.81
444.698	643.81
444.919	629.81
445.14	747.81
445.361	671.81
445.582	612.81
445.803	659.81
446.024	720.81
446.245	725.81
446.466	651.81
446.687	593.81
446.908	540.81
447.129	544.81
447.35	517.81
447.571	521.81
447.792	510.81
448.013	529.81
448.234	511.81
448.455	560.81
448.675	660.81
448.896	764.81
449.117	659.81
449.338	629.81
449.559	685.81
449.779	807.81
450	635.81
450.221	547.81
450.442	521.81
450.662	529.81
450.883	513.81
451.104	535.81
451.324	469.81
451.545	493.81
451.766	479.81
451.986	484.81
452.207	474.81
452.428	477.81
452.648	460.81
452.869	474.81
453.089	482.81
453.31	489.81
453.53	471.81
453.751	469.81
453.971	478.81
454.192	480.81
454.412	468.81
454.633	468.81
454.853	472.81
455.073	460.81
455.294	515.81
455.514	532.81
455.734	522.81
455.955	482.81
456.175	450.81
456.395	439.81
456.616	437.81
456.836	434.81
457.056	436.81
457.276	432.81
457.497	443.81
457.717	446.81
457.937	464.81
458.157	454.81
458.377	460.81
458.598	479.81
458.818	511.81
459.038	570.81
459.258	601.81
459.478	561.81
459.698	535.81
459.918	522.81
460.138	543.81
460.358	535.81
460.578	549.81
460.798	544.81
461.018	543.81
461.238	536.81
461.458	570.81
461.678	523.81
461.898	547.81
462.118	546.81
462.338	572.81
462.558	585.81
462.777	586.81
462.997	610.81
463.217	637.81
463.437	626.81
463.657	614.81
463.876	628.81
464.096	618.81
464.316	614.81
464.536	608.81
464.755	580.81
464.975	556.81
465.195	581.81
465.414	601.81
465.634	563.81
465.854	551.81
466.073	523.81
466.293	514.81
466.512	492.81
466.732	495.81
466.951	483.81
467.171	479.81
467.391	489.81
467.61	513.81
467.829	481.81
468.049	489.81
468.268	488.81
468.488	472.81
468.707	485.81
468.927	481.81
469.146	476.81
469.365	475.81
469.585	478.81
469.804	484.81
470.023	503.81
470.243	513.81
470.462	483.81
470.681	526.81
470.901	494.81
471.12	511.81
471.339	498.81
471.558	492.81
471.777	522.81
471.997	506.81
472.216	509.81
472.435	517.81
472.654	518.81
472.873	514.81
473.092	476.81
473.311	464.81
473.53	484.81
473.749	508.81
473.968	528.81
474.187	579.81
474.406	602.81
474.625	538.81
474.844	507.81
475.063	481.81
475.282	488.81
475.501	492.81
475.72	507.81
475.939	504.81
476.158	491.81
476.377	507.81
476.596	518.81
476.814	505.81
477.033	528.81
477.252	515.81
477.471	533.81
477.69	531.81
477.908	538.81
478.127	542.81
478.346	564.81
478.564	575.81
478.783	570.81
479.002	561.81
479.22	563.81
479.439	607.81
479.658	592.81
479.876	597.81
480.095	602.81
480.313	635.81
480.532	627.81
480.751	631.81
480.969	619.81
481.188	629.81
481.406	653.81
481.624	612.81
481.843	604.81
482.061	597.81
482.28	557.81
482.498	580.81
482.717	581.81
482.935	589.81
483.153	568.81
483.372	594.81
483.59	581.81
483.808	565.81
484.027	569.81
484.245	586.81
484.463	579.81
484.681	604.81
484.9	580.81
485.118	598.81
485.336	599.81
485.554	607.81
485.772	597.81
485.99	589.81
486.209	567.81
486.427	581.81
486.645	593.81
486.863	606.81
487.081	616.81
487.299	608.81
487.517	611.81
487.735	608.81
487.953	618.81
488.171	609.81
488.389	626.81
488.607	591.81
488.825	605.81
489.043	616.81
489.261	616.81
489.479	605.81
489.696	611.81
489.914	612.81
490.132	616.81
490.35	643.81
490.568	635.81
490.786	655.81
491.003	641.81
491.221	661.81
491.439	667.81
491.657	639.81
491.874	682.81
492.092	659.81
492.31	680.81
492.527	680.81
492.745	667.81
492.963	669.81
493.18	720.81
493.398	704.81
493.615	703.81
493.833	690.81
494.05	697.81
494.268	674.81
494.485	695.81
494.703	708.81
494.92	701.81
495.138	684.81
495.355	699.81
495.573	734.81
495.79	709.81
496.008	719.81
496.225	721.81
496.442	715.81
496.66	713.81
496.877	698.81
497.094	711.81
497.312	748.81
497.529	769.81
497.746	754.81
497.963	776.81
498.181	818.81
498.398	820.81
498.615	816.81
498.832	861.81
499.049	861.81
499.267	947.81
499.484	961.81
499.701	1035.81
499.918	1094.81
500.135	1173.81
500.352	1212.81
500.569	1236.81
500.786	1240.81
501.003	1203.81
501.22	1149.81
501.437	1106.81
501.654	1039.81
501.871	966.81
