Data from 1962.PennyLincolnUp.Lamp.En5.5.200Scan.071719.P1._HRD10591_13-54-37-061.txt Node
Date: Thu Jul 18 13:54:37 EDT 2019
User: cochatt
Spectrometer: HR+D1059
Trigger mode: 1
Integration Time (sec): 1.000000E-1
Scans to average: 1
Electric dark correction enabled: true
Nonlinearity correction enabled: false
Boxcar width: 0
XAxis mode: Wavelengths
Number of Pixels in Spectrum: 2048
>>>>>Begin Spectral Data<<<<<
223.165	-11.94
223.4	-11.94
223.635	-11.94
223.869	-27.94
224.104	-10.94
224.338	-13.94
224.573	-15.94
224.808	-0.94
225.042	3.06
225.277	7.06
225.511	-14.94
225.746	-8.94
225.98	0.06
226.215	9.06
226.449	21.06
226.683	11.06
226.918	22.06
227.152	32.06
227.387	31.06
227.621	46.06
227.856	43.06
228.09	45.06
228.324	48.06
228.559	53.06
228.793	73.06
229.027	93.06
229.262	94.06
229.496	101.06
229.73	119.06
229.964	125.06
230.199	117.06
230.433	108.06
230.667	102.06
230.901	107.06
231.136	122.06
231.37	114.06
231.604	106.06
231.838	120.06
232.072	120.06
232.306	114.06
232.541	123.06
232.775	104.06
233.009	122.06
233.243	110.06
233.477	106.06
233.711	118.06
233.945	98.06
234.179	108.06
234.413	128.06
234.647	114.06
234.881	109.06
235.115	106.06
235.349	112.06
235.583	114.06
235.817	133.06
236.051	116.06
236.285	114.06
236.519	116.06
236.753	131.06
236.987	125.06
237.221	144.06
237.455	188.06
237.689	148.06
237.922	142.06
238.156	122.06
238.39	122.06
238.624	121.06
238.858	128.06
239.091	116.06
239.325	128.06
239.559	125.06
239.793	126.06
240.027	120.06
240.26	114.06
240.494	133.06
240.728	128.06
240.961	133.06
241.195	160.06
241.429	132.06
241.662	132.06
241.896	116.06
242.13	125.06
242.363	132.06
242.597	132.06
242.83	120.06
243.064	135.06
243.298	133.06
243.531	132.06
243.765	129.06
243.998	145.06
244.232	132.06
244.465	138.06
244.699	141.06
244.932	135.06
245.166	155.06
245.399	144.06
245.633	138.06
245.866	138.06
246.099	147.06
246.333	142.06
246.566	140.06
246.8	132.06
247.033	167.06
247.266	151.06
247.5	157.06
247.733	157.06
247.966	152.06
248.2	152.06
248.433	167.06
248.666	178.06
248.899	167.06
249.133	168.06
249.366	181.06
249.599	170.06
249.832	168.06
250.066	180.06
250.299	174.06
250.532	180.06
250.765	204.06
250.998	215.06
251.231	217.06
251.465	190.06
251.698	187.06
251.931	187.06
252.164	182.06
252.397	173.06
252.63	189.06
252.863	196.06
253.096	179.06
253.329	191.06
253.562	201.06
253.795	205.06
254.028	205.06
254.261	201.06
254.494	212.06
254.727	207.06
254.96	235.06
255.193	224.06
255.426	214.06
255.659	210.06
255.892	211.06
256.124	208.06
256.357	206.06
256.59	213.06
256.823	218.06
257.056	205.06
257.289	204.06
257.521	198.06
257.754	200.06
257.987	208.06
258.22	204.06
258.452	202.06
258.685	189.06
258.918	203.06
259.151	203.06
259.383	220.06
259.616	210.06
259.849	198.06
260.081	218.06
260.314	220.06
260.547	234.06
260.779	230.06
261.012	226.06
261.244	239.06
261.477	207.06
261.71	206.06
261.942	224.06
262.175	222.06
262.407	203.06
262.64	212.06
262.872	190.06
263.105	207.06
263.337	222.06
263.57	211.06
263.802	230.06
264.035	198.06
264.267	211.06
264.499	218.06
264.732	228.06
264.964	203.06
265.197	211.06
265.429	201.06
265.661	215.06
265.894	201.06
266.126	214.06
266.358	226.06
266.591	212.06
266.823	221.06
267.055	225.06
267.287	226.06
267.52	220.06
267.752	226.06
267.984	224.06
268.216	191.06
268.448	221.06
268.681	250.06
268.913	234.06
269.145	245.06
269.377	252.06
269.609	249.06
269.841	249.06
270.073	249.06
270.306	269.06
270.538	276.06
270.77	270.06
271.002	288.06
271.234	284.06
271.466	277.06
271.698	286.06
271.93	288.06
272.162	288.06
272.394	273.06
272.626	276.06
272.858	266.06
273.09	253.06
273.322	246.06
273.553	241.06
273.785	266.06
274.017	254.06
274.249	247.06
274.481	248.06
274.713	260.06
274.945	262.06
275.176	262.06
275.408	248.06
275.64	258.06
275.872	265.06
276.104	263.06
276.335	255.06
276.567	265.06
276.799	282.06
277.031	277.06
277.262	297.06
277.494	299.06
277.726	276.06
277.957	263.06
278.189	276.06
278.421	276.06
278.652	275.06
278.884	279.06
279.115	273.06
279.347	267.06
279.579	278.06
279.81	266.06
280.042	281.06
280.273	278.06
280.505	272.06
280.736	264.06
280.968	275.06
281.199	284.06
281.431	263.06
281.662	267.06
281.894	265.06
282.125	290.06
282.356	280.06
282.588	305.06
282.819	310.06
283.051	274.06
283.282	280.06
283.513	286.06
283.745	285.06
283.976	301.06
284.207	286.06
284.439	291.06
284.67	279.06
284.901	304.06
285.132	292.06
285.364	297.06
285.595	284.06
285.826	294.06
286.057	296.06
286.288	270.06
286.52	306.06
286.751	285.06
286.982	290.06
287.213	296.06
287.444	299.06
287.675	311.06
287.906	294.06
288.138	296.06
288.369	318.06
288.6	297.06
288.831	310.06
289.062	290.06
289.293	298.06
289.524	317.06
289.755	298.06
289.986	301.06
290.217	306.06
290.448	312.06
290.679	311.06
290.91	285.06
291.141	295.06
291.371	289.06
291.602	297.06
291.833	291.06
292.064	312.06
292.295	284.06
292.526	287.06
292.757	315.06
292.987	305.06
293.218	289.06
293.449	293.06
293.68	312.06
293.91	302.06
294.141	301.06
294.372	306.06
294.603	304.06
294.833	291.06
295.064	306.06
295.295	314.06
295.525	299.06
295.756	315.06
295.987	297.06
296.217	334.06
296.448	336.06
296.679	315.06
296.909	310.06
297.14	304.06
297.37	324.06
297.601	308.06
297.831	311.06
298.062	309.06
298.292	304.06
298.523	315.06
298.753	307.06
298.984	317.06
299.214	318.06
299.445	333.06
299.675	330.06
299.905	332.06
300.136	316.06
300.366	335.06
300.597	316.06
300.827	316.06
301.057	328.06
301.288	350.06
301.518	348.06
301.748	338.06
301.979	340.06
302.209	337.06
302.439	324.06
302.669	318.06
302.9	342.06
303.13	337.06
303.36	335.06
303.59	345.06
303.82	359.06
304.051	334.06
304.281	354.06
304.511	344.06
304.741	359.06
304.971	340.06
305.201	327.06
305.431	328.06
305.661	337.06
305.891	331.06
306.121	369.06
306.352	353.06
306.582	346.06
306.812	331.06
307.042	337.06
307.272	338.06
307.502	353.06
307.731	341.06
307.961	339.06
308.191	349.06
308.421	336.06
308.651	340.06
308.881	366.06
309.111	344.06
309.341	328.06
309.571	338.06
309.8	376.06
310.03	353.06
310.26	378.06
310.49	360.06
310.72	362.06
310.949	366.06
311.179	354.06
311.409	371.06
311.639	361.06
311.868	372.06
312.098	376.06
312.328	371.06
312.557	379.06
312.787	373.06
313.017	378.06
313.246	375.06
313.476	380.06
313.706	380.06
313.935	371.06
314.165	375.06
314.394	381.06
314.624	383.06
314.853	377.06
315.083	376.06
315.312	381.06
315.542	349.06
315.771	358.06
316.001	371.06
316.23	361.06
316.46	380.06
316.689	366.06
316.919	378.06
317.148	385.06
317.377	385.06
317.607	372.06
317.836	379.06
318.065	370.06
318.295	363.06
318.524	380.06
318.753	376.06
318.983	379.06
319.212	393.06
319.441	374.06
319.67	392.06
319.9	383.06
320.129	387.06
320.358	375.06
320.587	395.06
320.816	388.06
321.046	388.06
321.275	372.06
321.504	395.06
321.733	402.06
321.962	398.06
322.191	394.06
322.42	391.06
322.649	417.06
322.878	426.06
323.108	421.06
323.337	414.06
323.566	446.06
323.795	454.06
324.024	475.06
324.253	540.06
324.482	730.06
324.71	1051.06
324.939	1472.06
325.168	1315.06
325.397	745.06
325.626	544.06
325.855	490.06
326.084	466.06
326.313	467.06
326.542	449.06
326.77	488.06
326.999	539.06
327.228	667.06
327.457	937.06
327.686	1142.06
327.914	805.06
328.143	591.06
328.372	544.06
328.6	516.06
328.829	478.06
329.058	498.06
329.287	506.06
329.515	498.06
329.744	504.06
329.972	452.06
330.201	484.06
330.43	491.06
330.658	474.06
330.887	524.06
331.115	494.06
331.344	490.06
331.572	465.06
331.801	460.06
332.03	461.06
332.258	453.06
332.486	448.06
332.715	455.06
332.943	437.06
333.172	480.06
333.4	494.06
333.629	477.06
333.857	516.06
334.085	521.06
334.314	533.06
334.542	514.06
334.771	516.06
334.999	496.06
335.227	487.06
335.455	473.06
335.684	488.06
335.912	478.06
336.14	463.06
336.369	460.06
336.597	470.06
336.825	479.06
337.053	471.06
337.281	470.06
337.51	447.06
337.738	455.06
337.966	445.06
338.194	428.06
338.422	437.06
338.65	461.06
338.878	449.06
339.106	436.06
339.334	448.06
339.562	444.06
339.79	422.06
340.018	440.06
340.246	432.06
340.474	439.06
340.702	439.06
340.93	430.06
341.158	422.06
341.386	427.06
341.614	425.06
341.842	433.06
342.07	416.06
342.298	410.06
342.526	414.06
342.754	419.06
342.981	417.06
343.209	408.06
343.437	436.06
343.665	438.06
343.893	482.06
344.12	473.06
344.348	457.06
344.576	454.06
344.804	438.06
345.031	443.06
345.259	443.06
345.487	428.06
345.714	435.06
345.942	428.06
346.17	423.06
346.397	437.06
346.625	429.06
346.853	435.06
347.08	404.06
347.308	405.06
347.535	401.06
347.763	422.06
347.99	396.06
348.218	419.06
348.445	409.06
348.673	420.06
348.9	406.06
349.128	401.06
349.355	412.06
349.583	426.06
349.81	406.06
350.037	392.06
350.265	414.06
350.492	406.06
350.72	395.06
350.947	422.06
351.174	404.06
351.402	411.06
351.629	420.06
351.856	410.06
352.083	427.06
352.311	424.06
352.538	405.06
352.765	406.06
352.992	402.06
353.22	412.06
353.447	414.06
353.674	401.06
353.901	402.06
354.128	397.06
354.355	390.06
354.583	412.06
354.81	410.06
355.037	409.06
355.264	425.06
355.491	382.06
355.718	382.06
355.945	397.06
356.172	398.06
356.399	416.06
356.626	401.06
356.853	370.06
357.08	368.06
357.307	385.06
357.534	398.06
357.761	398.06
357.988	391.06
358.215	403.06
358.441	382.06
358.668	387.06
358.895	394.06
359.122	392.06
359.349	422.06
359.576	404.06
359.802	394.06
360.029	429.06
360.256	437.06
360.483	429.06
360.709	417.06
360.936	419.06
361.163	416.06
361.39	403.06
361.616	403.06
361.843	371.06
362.07	413.06
362.296	391.06
362.523	407.06
362.749	420.06
362.976	399.06
363.203	389.06
363.429	390.06
363.656	378.06
363.882	372.06
364.109	389.06
364.335	392.06
364.562	402.06
364.788	390.06
365.015	407.06
365.241	410.06
365.468	404.06
365.694	385.06
365.92	420.06
366.147	386.06
366.373	393.06
366.599	394.06
366.826	376.06
367.052	389.06
367.278	402.06
367.505	384.06
367.731	403.06
367.957	418.06
368.184	391.06
368.41	394.06
368.636	391.06
368.862	429.06
369.089	396.06
369.315	405.06
369.541	405.06
369.767	406.06
369.993	415.06
370.219	396.06
370.445	425.06
370.672	417.06
370.898	398.06
371.124	404.06
371.35	412.06
371.576	419.06
371.802	438.06
372.028	428.06
372.254	389.06
372.48	413.06
372.706	408.06
372.932	422.06
373.158	430.06
373.384	408.06
373.61	402.06
373.835	423.06
374.061	426.06
374.287	416.06
374.513	420.06
374.739	427.06
374.965	437.06
375.191	412.06
375.416	433.06
375.642	430.06
375.868	426.06
376.094	429.06
376.319	405.06
376.545	409.06
376.771	418.06
376.997	402.06
377.222	420.06
377.448	398.06
377.674	395.06
377.899	409.06
378.125	413.06
378.35	395.06
378.576	404.06
378.802	389.06
379.027	402.06
379.253	419.06
379.478	404.06
379.704	408.06
379.929	411.06
380.155	399.06
380.38	413.06
380.606	414.06
380.831	392.06
381.057	435.06
381.282	391.06
381.507	427.06
381.733	428.06
381.958	422.06
382.184	429.06
382.409	426.06
382.634	427.06
382.86	416.06
383.085	414.06
383.31	432.06
383.535	416.06
383.761	437.06
383.986	436.06
384.211	439.06
384.436	442.06
384.662	452.06
384.887	442.06
385.112	473.06
385.337	462.06
385.562	477.06
385.787	445.06
386.013	466.06
386.238	465.06
386.463	468.06
386.688	490.06
386.913	462.06
387.138	449.06
387.363	474.06
387.588	453.06
387.813	459.06
388.038	475.06
388.263	479.06
388.488	444.06
388.713	473.06
388.938	452.06
389.163	460.06
389.387	459.06
389.612	457.06
389.837	462.06
390.062	445.06
390.287	441.06
390.512	453.06
390.736	462.06
390.961	448.06
391.186	460.06
391.411	473.06
391.636	480.06
391.86	501.06
392.085	496.06
392.31	473.06
392.534	474.06
392.759	478.06
392.984	482.06
393.208	478.06
393.433	472.06
393.658	489.06
393.882	472.06
394.107	468.06
394.331	464.06
394.556	473.06
394.78	483.06
395.005	497.06
395.229	470.06
395.454	482.06
395.678	497.06
395.903	507.06
396.127	513.06
396.352	484.06
396.576	485.06
396.801	485.06
397.025	501.06
397.249	490.06
397.474	501.06
397.698	499.06
397.922	523.06
398.147	523.06
398.371	524.06
398.595	531.06
398.82	563.06
399.044	572.06
399.268	615.06
399.492	645.06
399.717	681.06
399.941	683.06
400.165	689.06
400.389	671.06
400.613	630.06
400.837	586.06
401.062	571.06
401.286	566.06
401.51	544.06
401.734	554.06
401.958	562.06
402.182	563.06
402.406	572.06
402.63	548.06
402.854	557.06
403.078	562.06
403.302	561.06
403.526	560.06
403.75	574.06
403.974	583.06
404.198	584.06
404.422	610.06
404.645	589.06
404.869	587.06
405.093	618.06
405.317	641.06
405.541	668.06
405.765	609.06
405.988	596.06
406.212	590.06
406.436	618.06
406.66	623.06
406.883	630.06
407.107	642.06
407.331	676.06
407.555	734.06
407.778	733.06
408.002	684.06
408.226	674.06
408.449	620.06
408.673	646.06
408.896	631.06
409.12	668.06
409.344	657.06
409.567	588.06
409.791	570.06
410.014	592.06
410.238	554.06
410.461	579.06
410.685	577.06
410.908	593.06
411.132	608.06
411.355	629.06
411.578	626.06
411.802	580.06
412.025	565.06
412.249	575.06
412.472	595.06
412.695	621.06
412.919	616.06
413.142	580.06
413.365	564.06
413.589	542.06
413.812	528.06
414.035	558.06
414.258	528.06
414.482	551.06
414.705	539.06
414.928	533.06
415.151	526.06
415.374	542.06
415.597	546.06
415.821	525.06
416.044	543.06
416.267	530.06
416.49	520.06
416.713	534.06
416.936	538.06
417.159	534.06
417.382	539.06
417.605	538.06
417.828	542.06
418.051	544.06
418.274	567.06
418.497	531.06
418.72	548.06
418.943	541.06
419.166	565.06
419.389	602.06
419.611	571.06
419.834	581.06
420.057	555.06
420.28	547.06
420.503	545.06
420.726	545.06
420.948	555.06
421.171	589.06
421.394	622.06
421.617	590.06
421.839	549.06
422.062	555.06
422.285	551.06
422.507	597.06
422.73	663.06
422.953	634.06
423.175	590.06
423.398	565.06
423.621	568.06
423.843	612.06
424.066	590.06
424.288	598.06
424.511	591.06
424.733	647.06
424.956	690.06
425.178	636.06
425.401	654.06
425.623	667.06
425.846	614.06
426.068	582.06
426.291	583.06
426.513	563.06
426.735	565.06
426.958	604.06
427.18	666.06
427.402	761.06
427.625	817.06
427.847	691.06
428.069	648.06
428.292	571.06
428.514	552.06
428.736	539.06
428.958	532.06
429.181	526.06
429.403	537.06
429.625	527.06
429.847	541.06
430.069	582.06
430.292	576.06
430.514	514.06
430.736	524.06
430.958	536.06
431.18	520.06
431.402	503.06
431.624	494.06
431.846	515.06
432.068	520.06
432.29	513.06
432.512	500.06
432.734	513.06
432.956	508.06
433.178	530.06
433.4	493.06
433.622	518.06
433.844	502.06
434.066	510.06
434.287	513.06
434.509	525.06
434.731	541.06
434.953	548.06
435.175	541.06
435.397	561.06
435.618	573.06
435.84	595.06
436.062	653.06
436.284	722.06
436.505	594.06
436.727	568.06
436.949	523.06
437.17	542.06
437.392	533.06
437.614	533.06
437.835	535.06
438.057	617.06
438.278	658.06
438.5	686.06
438.721	738.06
438.943	721.06
439.165	630.06
439.386	550.06
439.608	555.06
439.829	570.06
440.05	585.06
440.272	594.06
440.493	560.06
440.715	584.06
440.936	532.06
441.158	543.06
441.379	549.06
441.6	553.06
441.822	554.06
442.043	605.06
442.264	656.06
442.486	711.06
442.707	596.06
442.928	562.06
443.149	568.06
443.371	593.06
443.592	611.06
443.813	694.06
444.034	760.06
444.255	663.06
444.476	606.06
444.698	588.06
444.919	619.06
445.14	738.06
445.361	647.06
445.582	592.06
445.803	662.06
446.024	694.06
446.245	720.06
446.466	655.06
446.687	611.06
446.908	555.06
447.129	534.06
447.35	513.06
447.571	533.06
447.792	518.06
448.013	512.06
448.234	528.06
448.455	562.06
448.675	636.06
448.896	744.06
449.117	632.06
449.338	608.06
449.559	692.06
449.779	784.06
450	655.06
450.221	560.06
450.442	510.06
450.662	500.06
450.883	471.06
451.104	492.06
451.324	482.06
451.545	473.06
451.766	483.06
451.986	465.06
452.207	454.06
452.428	442.06
452.648	448.06
452.869	458.06
453.089	480.06
453.31	464.06
453.53	462.06
453.751	461.06
453.971	469.06
454.192	475.06
454.412	434.06
454.633	460.06
454.853	445.06
455.073	480.06
455.294	478.06
455.514	533.06
455.734	510.06
455.955	463.06
456.175	443.06
456.395	420.06
456.616	461.06
456.836	458.06
457.056	444.06
457.276	442.06
457.497	420.06
457.717	460.06
457.937	462.06
458.157	462.06
458.377	476.06
458.598	469.06
458.818	487.06
459.038	568.06
459.258	579.06
459.478	526.06
459.698	520.06
459.918	487.06
460.138	533.06
460.358	540.06
460.578	542.06
460.798	547.06
461.018	554.06
461.238	541.06
461.458	559.06
461.678	540.06
461.898	579.06
462.118	563.06
462.338	564.06
462.558	595.06
462.777	581.06
462.997	621.06
463.217	639.06
463.437	640.06
463.657	620.06
463.876	616.06
464.096	597.06
464.316	592.06
464.536	585.06
464.755	590.06
464.975	584.06
465.195	587.06
465.414	606.06
465.634	572.06
465.854	529.06
466.073	510.06
466.293	524.06
466.512	503.06
466.732	489.06
466.951	501.06
467.171	487.06
467.391	502.06
467.61	480.06
467.829	508.06
468.049	491.06
468.268	487.06
468.488	478.06
468.707	461.06
468.927	472.06
469.146	491.06
469.365	485.06
469.585	463.06
469.804	478.06
470.023	503.06
470.243	481.06
470.462	494.06
470.681	496.06
470.901	492.06
471.12	520.06
471.339	506.06
471.558	492.06
471.777	481.06
471.997	500.06
472.216	506.06
472.435	500.06
472.654	505.06
472.873	483.06
473.092	459.06
473.311	480.06
473.53	477.06
473.749	468.06
473.968	524.06
474.187	587.06
474.406	588.06
474.625	521.06
474.844	481.06
475.063	481.06
475.282	490.06
475.501	462.06
475.72	507.06
475.939	481.06
476.158	498.06
476.377	475.06
476.596	484.06
476.814	521.06
477.033	508.06
477.252	529.06
477.471	502.06
477.69	530.06
477.908	522.06
478.127	551.06
478.346	546.06
478.564	547.06
478.783	586.06
479.002	576.06
479.22	561.06
479.439	581.06
479.658	576.06
479.876	595.06
480.095	596.06
480.313	622.06
480.532	613.06
480.751	631.06
480.969	632.06
481.188	641.06
481.406	630.06
481.624	614.06
481.843	594.06
482.061	592.06
482.28	597.06
482.498	602.06
482.717	576.06
482.935	578.06
483.153	564.06
483.372	542.06
483.59	551.06
483.808	556.06
484.027	563.06
484.245	558.06
484.463	570.06
484.681	582.06
484.9	576.06
485.118	571.06
485.336	576.06
485.554	574.06
485.772	590.06
485.99	574.06
486.209	569.06
486.427	592.06
486.645	595.06
486.863	609.06
487.081	617.06
487.299	616.06
487.517	628.06
487.735	586.06
487.953	597.06
488.171	612.06
488.389	586.06
488.607	618.06
488.825	613.06
489.043	598.06
489.261	599.06
489.479	595.06
489.696	626.06
489.914	619.06
490.132	630.06
490.35	618.06
490.568	605.06
490.786	640.06
491.003	634.06
491.221	638.06
491.439	646.06
491.657	634.06
491.874	660.06
492.092	684.06
492.31	667.06
492.527	652.06
492.745	648.06
492.963	678.06
493.18	692.06
493.398	672.06
493.615	666.06
493.833	706.06
494.05	694.06
494.268	698.06
494.485	691.06
494.703	676.06
494.92	671.06
495.138	671.06
495.355	723.06
495.573	715.06
495.79	697.06
496.008	704.06
496.225	694.06
496.442	706.06
496.66	706.06
496.877	716.06
497.094	746.06
497.312	724.06
497.529	728.06
497.746	750.06
497.963	765.06
498.181	776.06
498.398	822.06
498.615	833.06
498.832	838.06
499.049	892.06
499.267	931.06
499.484	957.06
499.701	1018.06
499.918	1046.06
500.135	1132.06
500.352	1222.06
500.569	1250.06
500.786	1252.06
501.003	1191.06
501.22	1137.06
501.437	1090.06
501.654	993.06
501.871	1011.06
