Data from 1962.PennyLincolnUp.Lamp.En5.5.200Scan.071719.P1._HRD10591_13-53-15-061.txt Node
Date: Thu Jul 18 13:53:15 EDT 2019
User: cochatt
Spectrometer: HR+D1059
Trigger mode: 1
Integration Time (sec): 1.000000E-1
Scans to average: 1
Electric dark correction enabled: true
Nonlinearity correction enabled: false
Boxcar width: 0
XAxis mode: Wavelengths
Number of Pixels in Spectrum: 2048
>>>>>Begin Spectral Data<<<<<
223.165	1.06
223.4	1.06
223.635	1.06
223.869	-5.94
224.104	-2.94
224.338	-10.94
224.573	-35.94
224.808	-12.94
225.042	-5.94
225.277	-6.94
225.511	2.06
225.746	5.06
225.98	8.06
226.215	6.06
226.449	14.06
226.683	23.06
226.918	11.06
227.152	11.06
227.387	33.06
227.621	30.06
227.856	43.06
228.09	35.06
228.324	52.06
228.559	57.06
228.793	70.06
229.027	86.06
229.262	94.06
229.496	101.06
229.73	109.06
229.964	118.06
230.199	114.06
230.433	104.06
230.667	116.06
230.901	110.06
231.136	101.06
231.37	105.06
231.604	87.06
231.838	100.06
232.072	123.06
232.306	111.06
232.541	119.06
232.775	119.06
233.009	114.06
233.243	125.06
233.477	114.06
233.711	107.06
233.945	115.06
234.179	111.06
234.413	112.06
234.647	115.06
234.881	106.06
235.115	109.06
235.349	117.06
235.583	115.06
235.817	116.06
236.051	113.06
236.285	104.06
236.519	106.06
236.753	121.06
236.987	129.06
237.221	141.06
237.455	170.06
237.689	138.06
237.922	129.06
238.156	119.06
238.39	119.06
238.624	94.06
238.858	97.06
239.091	118.06
239.325	121.06
239.559	102.06
239.793	117.06
240.027	113.06
240.26	117.06
240.494	147.06
240.728	123.06
240.961	118.06
241.195	135.06
241.429	137.06
241.662	131.06
241.896	129.06
242.13	127.06
242.363	122.06
242.597	114.06
242.83	137.06
243.064	131.06
243.298	129.06
243.531	141.06
243.765	128.06
243.998	137.06
244.232	131.06
244.465	135.06
244.699	138.06
244.932	125.06
245.166	131.06
245.399	138.06
245.633	131.06
245.866	140.06
246.099	126.06
246.333	141.06
246.566	141.06
246.8	135.06
247.033	145.06
247.266	143.06
247.5	149.06
247.733	132.06
247.966	152.06
248.2	169.06
248.433	138.06
248.666	148.06
248.899	161.06
249.133	170.06
249.366	181.06
249.599	171.06
249.832	143.06
250.066	167.06
250.299	150.06
250.532	155.06
250.765	181.06
250.998	179.06
251.231	180.06
251.465	192.06
251.698	175.06
251.931	174.06
252.164	183.06
252.397	163.06
252.63	185.06
252.863	181.06
253.096	165.06
253.329	191.06
253.562	195.06
253.795	187.06
254.028	190.06
254.261	189.06
254.494	189.06
254.727	198.06
254.96	224.06
255.193	213.06
255.426	206.06
255.659	174.06
255.892	215.06
256.124	186.06
256.357	203.06
256.59	203.06
256.823	196.06
257.056	189.06
257.289	183.06
257.521	196.06
257.754	181.06
257.987	197.06
258.22	184.06
258.452	192.06
258.685	195.06
258.918	195.06
259.151	199.06
259.383	185.06
259.616	188.06
259.849	203.06
260.081	206.06
260.314	209.06
260.547	199.06
260.779	199.06
261.012	214.06
261.244	208.06
261.477	196.06
261.71	189.06
261.942	183.06
262.175	193.06
262.407	202.06
262.64	184.06
262.872	189.06
263.105	196.06
263.337	196.06
263.57	197.06
263.802	198.06
264.035	203.06
264.267	197.06
264.499	192.06
264.732	188.06
264.964	177.06
265.197	209.06
265.429	211.06
265.661	206.06
265.894	192.06
266.126	197.06
266.358	203.06
266.591	208.06
266.823	198.06
267.055	202.06
267.287	216.06
267.52	193.06
267.752	216.06
267.984	201.06
268.216	214.06
268.448	219.06
268.681	213.06
268.913	222.06
269.145	230.06
269.377	245.06
269.609	230.06
269.841	255.06
270.073	234.06
270.306	254.06
270.538	273.06
270.77	283.06
271.002	244.06
271.234	255.06
271.466	259.06
271.698	263.06
271.93	266.06
272.162	266.06
272.394	268.06
272.626	271.06
272.858	259.06
273.09	241.06
273.322	244.06
273.553	248.06
273.785	264.06
274.017	257.06
274.249	231.06
274.481	233.06
274.713	244.06
274.945	231.06
275.176	245.06
275.408	249.06
275.64	263.06
275.872	244.06
276.104	238.06
276.335	234.06
276.567	239.06
276.799	262.06
277.031	270.06
277.262	272.06
277.494	277.06
277.726	255.06
277.957	261.06
278.189	253.06
278.421	276.06
278.652	265.06
278.884	242.06
279.115	230.06
279.347	233.06
279.579	271.06
279.81	232.06
280.042	247.06
280.273	249.06
280.505	271.06
280.736	240.06
280.968	251.06
281.199	254.06
281.431	247.06
281.662	243.06
281.894	238.06
282.125	253.06
282.356	273.06
282.588	276.06
282.819	278.06
283.051	265.06
283.282	258.06
283.513	260.06
283.745	268.06
283.976	261.06
284.207	273.06
284.439	260.06
284.67	260.06
284.901	271.06
285.132	271.06
285.364	273.06
285.595	287.06
285.826	262.06
286.057	271.06
286.288	272.06
286.52	281.06
286.751	272.06
286.982	280.06
287.213	266.06
287.444	293.06
287.675	291.06
287.906	285.06
288.138	276.06
288.369	279.06
288.6	278.06
288.831	295.06
289.062	282.06
289.293	277.06
289.524	285.06
289.755	291.06
289.986	277.06
290.217	289.06
290.448	273.06
290.679	285.06
290.91	289.06
291.141	265.06
291.371	277.06
291.602	280.06
291.833	283.06
292.064	271.06
292.295	280.06
292.526	291.06
292.757	298.06
292.987	299.06
293.218	288.06
293.449	292.06
293.68	277.06
293.91	294.06
294.141	289.06
294.372	289.06
294.603	296.06
294.833	283.06
295.064	304.06
295.295	292.06
295.525	291.06
295.756	273.06
295.987	297.06
296.217	302.06
296.448	318.06
296.679	295.06
296.909	290.06
297.14	290.06
297.37	292.06
297.601	310.06
297.831	296.06
298.062	303.06
298.292	305.06
298.523	320.06
298.753	293.06
298.984	291.06
299.214	305.06
299.445	307.06
299.675	307.06
299.905	311.06
300.136	303.06
300.366	321.06
300.597	300.06
300.827	321.06
301.057	327.06
301.288	307.06
301.518	303.06
301.748	303.06
301.979	326.06
302.209	326.06
302.439	294.06
302.669	331.06
302.9	322.06
303.13	324.06
303.36	315.06
303.59	323.06
303.82	340.06
304.051	329.06
304.281	307.06
304.511	314.06
304.741	316.06
304.971	326.06
305.201	327.06
305.431	326.06
305.661	321.06
305.891	310.06
306.121	346.06
306.352	315.06
306.582	318.06
306.812	318.06
307.042	296.06
307.272	319.06
307.502	320.06
307.731	335.06
307.961	312.06
308.191	322.06
308.421	327.06
308.651	322.06
308.881	314.06
309.111	323.06
309.341	324.06
309.571	302.06
309.8	337.06
310.03	339.06
310.26	352.06
310.49	348.06
310.72	342.06
310.949	369.06
311.179	346.06
311.409	334.06
311.639	339.06
311.868	338.06
312.098	325.06
312.328	350.06
312.557	360.06
312.787	352.06
313.017	373.06
313.246	353.06
313.476	353.06
313.706	353.06
313.935	357.06
314.165	339.06
314.394	339.06
314.624	358.06
314.853	358.06
315.083	366.06
315.312	361.06
315.542	365.06
315.771	365.06
316.001	372.06
316.23	359.06
316.46	361.06
316.689	353.06
316.919	355.06
317.148	364.06
317.377	369.06
317.607	357.06
317.836	366.06
318.065	351.06
318.295	357.06
318.524	354.06
318.753	367.06
318.983	356.06
319.212	349.06
319.441	363.06
319.67	362.06
319.9	361.06
320.129	353.06
320.358	348.06
320.587	363.06
320.816	360.06
321.046	373.06
321.275	370.06
321.504	369.06
321.733	365.06
321.962	367.06
322.191	374.06
322.42	373.06
322.649	379.06
322.878	373.06
323.108	381.06
323.337	427.06
323.566	407.06
323.795	433.06
324.024	458.06
324.253	471.06
324.482	602.06
324.71	866.06
324.939	1177.06
325.168	1065.06
325.397	606.06
325.626	461.06
325.855	433.06
326.084	400.06
326.313	417.06
326.542	405.06
326.77	437.06
326.999	447.06
327.228	593.06
327.457	818.06
327.686	949.06
327.914	692.06
328.143	507.06
328.372	472.06
328.6	457.06
328.829	459.06
329.058	447.06
329.287	462.06
329.515	421.06
329.744	431.06
329.972	414.06
330.201	446.06
330.43	459.06
330.658	467.06
330.887	459.06
331.115	477.06
331.344	445.06
331.572	432.06
331.801	436.06
332.03	423.06
332.258	401.06
332.486	420.06
332.715	422.06
332.943	435.06
333.172	451.06
333.4	457.06
333.629	451.06
333.857	478.06
334.085	471.06
334.314	480.06
334.542	481.06
334.771	506.06
334.999	482.06
335.227	453.06
335.455	448.06
335.684	458.06
335.912	432.06
336.14	441.06
336.369	417.06
336.597	415.06
336.825	411.06
337.053	440.06
337.281	413.06
337.51	427.06
337.738	416.06
337.966	419.06
338.194	429.06
338.422	427.06
338.65	417.06
338.878	419.06
339.106	408.06
339.334	405.06
339.562	398.06
339.79	406.06
340.018	378.06
340.246	402.06
340.474	393.06
340.702	410.06
340.93	419.06
341.158	389.06
341.386	404.06
341.614	402.06
341.842	401.06
342.07	407.06
342.298	398.06
342.526	398.06
342.754	412.06
342.981	408.06
343.209	399.06
343.437	413.06
343.665	421.06
343.893	413.06
344.12	461.06
344.348	448.06
344.576	457.06
344.804	430.06
345.031	425.06
345.259	413.06
345.487	420.06
345.714	405.06
345.942	394.06
346.17	387.06
346.397	423.06
346.625	409.06
346.853	397.06
347.08	391.06
347.308	390.06
347.535	397.06
347.763	385.06
347.99	404.06
348.218	403.06
348.445	374.06
348.673	378.06
348.9	384.06
349.128	371.06
349.355	369.06
349.583	395.06
349.81	375.06
350.037	379.06
350.265	356.06
350.492	375.06
350.72	401.06
350.947	379.06
351.174	401.06
351.402	394.06
351.629	379.06
351.856	375.06
352.083	378.06
352.311	381.06
352.538	375.06
352.765	386.06
352.992	378.06
353.22	383.06
353.447	382.06
353.674	381.06
353.901	369.06
354.128	371.06
354.355	344.06
354.583	373.06
354.81	387.06
355.037	368.06
355.264	372.06
355.491	375.06
355.718	369.06
355.945	370.06
356.172	377.06
356.399	378.06
356.626	372.06
356.853	365.06
357.08	389.06
357.307	362.06
357.534	380.06
357.761	369.06
357.988	376.06
358.215	375.06
358.441	377.06
358.668	367.06
358.895	374.06
359.122	360.06
359.349	371.06
359.576	391.06
359.802	399.06
360.029	391.06
360.256	394.06
360.483	389.06
360.709	383.06
360.936	386.06
361.163	378.06
361.39	375.06
361.616	387.06
361.843	373.06
362.07	391.06
362.296	367.06
362.523	376.06
362.749	395.06
362.976	386.06
363.203	370.06
363.429	371.06
363.656	385.06
363.882	381.06
364.109	368.06
364.335	377.06
364.562	382.06
364.788	378.06
365.015	381.06
365.241	373.06
365.468	375.06
365.694	385.06
365.92	374.06
366.147	367.06
366.373	400.06
366.599	371.06
366.826	352.06
367.052	367.06
367.278	385.06
367.505	355.06
367.731	385.06
367.957	382.06
368.184	382.06
368.41	360.06
368.636	373.06
368.862	360.06
369.089	383.06
369.315	385.06
369.541	378.06
369.767	382.06
369.993	369.06
370.219	372.06
370.445	379.06
370.672	376.06
370.898	377.06
371.124	392.06
371.35	388.06
371.576	402.06
371.802	381.06
372.028	375.06
372.254	362.06
372.48	391.06
372.706	384.06
372.932	381.06
373.158	393.06
373.384	404.06
373.61	399.06
373.835	377.06
374.061	387.06
374.287	398.06
374.513	397.06
374.739	405.06
374.965	424.06
375.191	395.06
375.416	392.06
375.642	413.06
375.868	394.06
376.094	403.06
376.319	407.06
376.545	392.06
376.771	373.06
376.997	381.06
377.222	388.06
377.448	385.06
377.674	372.06
377.899	395.06
378.125	399.06
378.35	369.06
378.576	381.06
378.802	407.06
379.027	388.06
379.253	397.06
379.478	397.06
379.704	402.06
379.929	394.06
380.155	371.06
380.38	381.06
380.606	404.06
380.831	408.06
381.057	393.06
381.282	383.06
381.507	387.06
381.733	407.06
381.958	391.06
382.184	403.06
382.409	400.06
382.634	414.06
382.86	386.06
383.085	384.06
383.31	424.06
383.535	416.06
383.761	416.06
383.986	407.06
384.211	422.06
384.436	408.06
384.662	423.06
384.887	439.06
385.112	439.06
385.337	413.06
385.562	438.06
385.787	463.06
386.013	438.06
386.238	438.06
386.463	468.06
386.688	434.06
386.913	424.06
387.138	423.06
387.363	432.06
387.588	439.06
387.813	445.06
388.038	454.06
388.263	459.06
388.488	457.06
388.713	436.06
388.938	446.06
389.163	456.06
389.387	442.06
389.612	419.06
389.837	439.06
390.062	407.06
390.287	418.06
390.512	439.06
390.736	431.06
390.961	458.06
391.186	442.06
391.411	449.06
391.636	475.06
391.86	478.06
392.085	488.06
392.31	483.06
392.534	469.06
392.759	472.06
392.984	471.06
393.208	462.06
393.433	457.06
393.658	477.06
393.882	455.06
394.107	466.06
394.331	455.06
394.556	461.06
394.78	453.06
395.005	457.06
395.229	459.06
395.454	454.06
395.678	471.06
395.903	479.06
396.127	480.06
396.352	481.06
396.576	465.06
396.801	471.06
397.025	451.06
397.249	485.06
397.474	482.06
397.698	481.06
397.922	477.06
398.147	468.06
398.371	489.06
398.595	494.06
398.82	495.06
399.044	549.06
399.268	543.06
399.492	608.06
399.717	651.06
399.941	664.06
400.165	661.06
400.389	650.06
400.613	565.06
400.837	561.06
401.062	548.06
401.286	556.06
401.51	521.06
401.734	525.06
401.958	510.06
402.182	534.06
402.406	547.06
402.63	522.06
402.854	529.06
403.078	535.06
403.302	534.06
403.526	542.06
403.75	558.06
403.974	579.06
404.198	561.06
404.422	551.06
404.645	560.06
404.869	553.06
405.093	605.06
405.317	592.06
405.541	637.06
405.765	593.06
405.988	559.06
406.212	560.06
406.436	591.06
406.66	579.06
406.883	570.06
407.107	615.06
407.331	632.06
407.555	669.06
407.778	681.06
408.002	629.06
408.226	607.06
408.449	618.06
408.673	550.06
408.896	595.06
409.12	639.06
409.344	591.06
409.567	572.06
409.791	543.06
410.014	519.06
410.238	544.06
410.461	555.06
410.685	547.06
410.908	530.06
411.132	561.06
411.355	597.06
411.578	567.06
411.802	548.06
412.025	532.06
412.249	536.06
412.472	563.06
412.695	590.06
412.919	579.06
413.142	545.06
413.365	526.06
413.589	545.06
413.812	543.06
414.035	526.06
414.258	533.06
414.482	499.06
414.705	498.06
414.928	523.06
415.151	533.06
415.374	517.06
415.597	514.06
415.821	494.06
416.044	499.06
416.267	521.06
416.49	513.06
416.713	498.06
416.936	520.06
417.159	507.06
417.382	520.06
417.605	513.06
417.828	513.06
418.051	521.06
418.274	531.06
418.497	498.06
418.72	512.06
418.943	514.06
419.166	540.06
419.389	561.06
419.611	557.06
419.834	554.06
420.057	528.06
420.28	535.06
420.503	520.06
420.726	511.06
420.948	498.06
421.171	544.06
421.394	564.06
421.617	513.06
421.839	535.06
422.062	534.06
422.285	537.06
422.507	569.06
422.73	629.06
422.953	581.06
423.175	553.06
423.398	560.06
423.621	548.06
423.843	578.06
424.066	563.06
424.288	558.06
424.511	551.06
424.733	581.06
424.956	633.06
425.178	607.06
425.401	621.06
425.623	633.06
425.846	558.06
426.068	535.06
426.291	528.06
426.513	513.06
426.735	533.06
426.958	566.06
427.18	610.06
427.402	682.06
427.625	730.06
427.847	654.06
428.069	564.06
428.292	535.06
428.514	541.06
428.736	497.06
428.958	478.06
429.181	501.06
429.403	493.06
429.625	487.06
429.847	505.06
430.069	556.06
430.292	538.06
430.514	525.06
430.736	483.06
430.958	476.06
431.18	481.06
431.402	461.06
431.624	471.06
431.846	471.06
432.068	477.06
432.29	474.06
432.512	471.06
432.734	498.06
432.956	508.06
433.178	475.06
433.4	455.06
433.622	478.06
433.844	483.06
434.066	475.06
434.287	493.06
434.509	490.06
434.731	524.06
434.953	520.06
435.175	517.06
435.397	537.06
435.618	539.06
435.84	566.06
436.062	598.06
436.284	642.06
436.505	586.06
436.727	548.06
436.949	500.06
437.17	512.06
437.392	490.06
437.614	491.06
437.835	510.06
438.057	559.06
438.278	614.06
438.5	640.06
438.721	685.06
438.943	670.06
439.165	537.06
439.386	519.06
439.608	522.06
439.829	519.06
440.05	525.06
440.272	537.06
440.493	541.06
440.715	520.06
440.936	493.06
441.158	527.06
441.379	505.06
441.6	528.06
441.822	536.06
442.043	549.06
442.264	595.06
442.486	624.06
442.707	563.06
442.928	526.06
443.149	549.06
443.371	542.06
443.592	573.06
443.813	633.06
444.034	692.06
444.255	609.06
444.476	584.06
444.698	568.06
444.919	593.06
445.14	682.06
445.361	609.06
445.582	574.06
445.803	594.06
446.024	643.06
446.245	643.06
446.466	602.06
446.687	550.06
446.908	495.06
447.129	494.06
447.35	488.06
447.571	487.06
447.792	472.06
448.013	494.06
448.234	499.06
448.455	494.06
448.675	576.06
448.896	631.06
449.117	545.06
449.338	553.06
449.559	610.06
449.779	702.06
450	574.06
450.221	519.06
450.442	484.06
450.662	476.06
450.883	463.06
451.104	480.06
451.324	443.06
451.545	443.06
451.766	440.06
451.986	434.06
452.207	424.06
452.428	439.06
452.648	441.06
452.869	430.06
453.089	426.06
453.31	456.06
453.53	426.06
453.751	450.06
453.971	419.06
454.192	440.06
454.412	425.06
454.633	423.06
454.853	422.06
455.073	428.06
455.294	461.06
455.514	481.06
455.734	479.06
455.955	447.06
456.175	441.06
456.395	421.06
456.616	432.06
456.836	417.06
457.056	416.06
457.276	411.06
457.497	437.06
457.717	405.06
457.937	415.06
458.157	449.06
458.377	455.06
458.598	446.06
458.818	481.06
459.038	524.06
459.258	524.06
459.478	487.06
459.698	473.06
459.918	489.06
460.138	496.06
460.358	506.06
460.578	507.06
460.798	549.06
461.018	515.06
461.238	501.06
461.458	523.06
461.678	522.06
461.898	509.06
462.118	499.06
462.338	529.06
462.558	564.06
462.777	552.06
462.997	599.06
463.217	612.06
463.437	612.06
463.657	586.06
463.876	577.06
464.096	577.06
464.316	571.06
464.536	554.06
464.755	551.06
464.975	554.06
465.195	550.06
465.414	555.06
465.634	518.06
465.854	497.06
466.073	498.06
466.293	472.06
466.512	476.06
466.732	464.06
466.951	440.06
467.171	470.06
467.391	440.06
467.61	437.06
467.829	454.06
468.049	449.06
468.268	465.06
468.488	474.06
468.707	442.06
468.927	450.06
469.146	446.06
469.365	442.06
469.585	453.06
469.804	448.06
470.023	449.06
470.243	473.06
470.462	447.06
470.681	472.06
470.901	469.06
471.12	462.06
471.339	474.06
471.558	460.06
471.777	472.06
471.997	450.06
472.216	478.06
472.435	480.06
472.654	453.06
472.873	461.06
473.092	437.06
473.311	458.06
473.53	438.06
473.749	457.06
473.968	472.06
474.187	528.06
474.406	561.06
474.625	500.06
474.844	451.06
475.063	428.06
475.282	445.06
475.501	455.06
475.72	485.06
475.939	465.06
476.158	469.06
476.377	478.06
476.596	476.06
476.814	466.06
477.033	477.06
477.252	471.06
477.471	496.06
477.69	523.06
477.908	507.06
478.127	510.06
478.346	527.06
478.564	533.06
478.783	530.06
479.002	545.06
479.22	540.06
479.439	540.06
479.658	547.06
479.876	545.06
480.095	552.06
480.313	567.06
480.532	587.06
480.751	563.06
480.969	595.06
481.188	599.06
481.406	599.06
481.624	583.06
481.843	535.06
482.061	536.06
482.28	536.06
482.498	531.06
482.717	541.06
482.935	530.06
483.153	550.06
483.372	531.06
483.59	542.06
483.808	507.06
484.027	525.06
484.245	538.06
484.463	551.06
484.681	564.06
484.9	566.06
485.118	567.06
485.336	538.06
485.554	550.06
485.772	554.06
485.99	544.06
486.209	580.06
486.427	560.06
486.645	589.06
486.863	560.06
487.081	562.06
487.299	587.06
487.517	579.06
487.735	552.06
487.953	583.06
488.171	576.06
488.389	581.06
488.607	574.06
488.825	579.06
489.043	567.06
489.261	583.06
489.479	598.06
489.696	600.06
489.914	574.06
490.132	570.06
490.35	583.06
490.568	598.06
490.786	564.06
491.003	582.06
491.221	587.06
491.439	597.06
491.657	594.06
491.874	606.06
492.092	601.06
492.31	616.06
492.527	589.06
492.745	618.06
492.963	630.06
493.18	621.06
493.398	667.06
493.615	623.06
493.833	611.06
494.05	635.06
494.268	617.06
494.485	612.06
494.703	638.06
494.92	649.06
495.138	649.06
495.355	624.06
495.573	639.06
495.79	629.06
496.008	621.06
496.225	632.06
496.442	661.06
496.66	664.06
496.877	676.06
497.094	673.06
497.312	690.06
497.529	680.06
497.746	721.06
497.963	726.06
498.181	738.06
498.398	728.06
498.615	778.06
498.832	787.06
499.049	823.06
499.267	852.06
499.484	911.06
499.701	968.06
499.918	977.06
500.135	1085.06
500.352	1153.06
500.569	1199.06
500.786	1190.06
501.003	1134.06
501.22	1100.06
501.437	1008.06
501.654	953.06
501.871	931.06
502.088	893.06
