Data from 1962.PennyLincolnUp.Lamp.En5.5.200Scan.071719.P1._HRD10591_13-53-14-061.txt Node
Date: Thu Jul 18 13:53:14 EDT 2019
User: cochatt
Spectrometer: HR+D1059
Trigger mode: 1
Integration Time (sec): 1.000000E-1
Scans to average: 1
Electric dark correction enabled: true
Nonlinearity correction enabled: false
Boxcar width: 0
XAxis mode: Wavelengths
Number of Pixels in Spectrum: 2048
>>>>>Begin Spectral Data<<<<<
223.165	-18.44
223.4	-18.44
223.635	-18.44
223.869	-5.44
224.104	-20.44
224.338	-21.44
224.573	-17.44
224.808	-30.44
225.042	-0.44
225.277	-12.44
225.511	11.56
225.746	8.56
225.98	7.56
226.215	3.56
226.449	15.56
226.683	29.56
226.918	16.56
227.152	33.56
227.387	24.56
227.621	37.56
227.856	40.56
228.09	47.56
228.324	49.56
228.559	56.56
228.793	64.56
229.027	87.56
229.262	99.56
229.496	71.56
229.73	111.56
229.964	119.56
230.199	104.56
230.433	99.56
230.667	107.56
230.901	100.56
231.136	104.56
231.37	104.56
231.604	106.56
231.838	107.56
232.072	112.56
232.306	118.56
232.541	111.56
232.775	112.56
233.009	107.56
233.243	119.56
233.477	120.56
233.711	105.56
233.945	109.56
234.179	108.56
234.413	103.56
234.647	115.56
234.881	103.56
235.115	107.56
235.349	122.56
235.583	115.56
235.817	119.56
236.051	126.56
236.285	131.56
236.519	113.56
236.753	122.56
236.987	123.56
237.221	141.56
237.455	171.56
237.689	139.56
237.922	120.56
238.156	132.56
238.39	117.56
238.624	116.56
238.858	119.56
239.091	119.56
239.325	114.56
239.559	129.56
239.793	123.56
240.027	120.56
240.26	129.56
240.494	129.56
240.728	152.56
240.961	124.56
241.195	115.56
241.429	143.56
241.662	131.56
241.896	123.56
242.13	133.56
242.363	123.56
242.597	141.56
242.83	129.56
243.064	140.56
243.298	123.56
243.531	122.56
243.765	133.56
243.998	130.56
244.232	129.56
244.465	125.56
244.699	135.56
244.932	130.56
245.166	134.56
245.399	143.56
245.633	135.56
245.866	143.56
246.099	132.56
246.333	138.56
246.566	141.56
246.8	142.56
247.033	156.56
247.266	146.56
247.5	140.56
247.733	139.56
247.966	150.56
248.2	159.56
248.433	157.56
248.666	154.56
248.899	168.56
249.133	163.56
249.366	176.56
249.599	187.56
249.832	154.56
250.066	163.56
250.299	161.56
250.532	170.56
250.765	178.56
250.998	178.56
251.231	180.56
251.465	195.56
251.698	186.56
251.931	181.56
252.164	181.56
252.397	166.56
252.63	181.56
252.863	175.56
253.096	186.56
253.329	184.56
253.562	180.56
253.795	188.56
254.028	189.56
254.261	197.56
254.494	203.56
254.727	199.56
254.96	226.56
255.193	205.56
255.426	195.56
255.659	200.56
255.892	202.56
256.124	206.56
256.357	185.56
256.59	189.56
256.823	203.56
257.056	183.56
257.289	184.56
257.521	191.56
257.754	202.56
257.987	197.56
258.22	194.56
258.452	195.56
258.685	182.56
258.918	189.56
259.151	209.56
259.383	180.56
259.616	191.56
259.849	199.56
260.081	203.56
260.314	210.56
260.547	214.56
260.779	201.56
261.012	221.56
261.244	206.56
261.477	193.56
261.71	189.56
261.942	212.56
262.175	195.56
262.407	204.56
262.64	213.56
262.872	197.56
263.105	205.56
263.337	197.56
263.57	195.56
263.802	191.56
264.035	204.56
264.267	196.56
264.499	184.56
264.732	194.56
264.964	207.56
265.197	204.56
265.429	196.56
265.661	196.56
265.894	195.56
266.126	194.56
266.358	211.56
266.591	192.56
266.823	200.56
267.055	197.56
267.287	215.56
267.52	226.56
267.752	229.56
267.984	222.56
268.216	204.56
268.448	222.56
268.681	219.56
268.913	204.56
269.145	236.56
269.377	241.56
269.609	233.56
269.841	229.56
270.073	237.56
270.306	242.56
270.538	259.56
270.77	256.56
271.002	259.56
271.234	259.56
271.466	255.56
271.698	251.56
271.93	263.56
272.162	256.56
272.394	258.56
272.626	265.56
272.858	271.56
273.09	262.56
273.322	239.56
273.553	230.56
273.785	239.56
274.017	245.56
274.249	244.56
274.481	251.56
274.713	263.56
274.945	259.56
275.176	252.56
275.408	257.56
275.64	263.56
275.872	233.56
276.104	276.56
276.335	249.56
276.567	250.56
276.799	263.56
277.031	258.56
277.262	259.56
277.494	255.56
277.726	268.56
277.957	253.56
278.189	261.56
278.421	267.56
278.652	253.56
278.884	269.56
279.115	258.56
279.347	253.56
279.579	272.56
279.81	243.56
280.042	265.56
280.273	275.56
280.505	255.56
280.736	269.56
280.968	265.56
281.199	256.56
281.431	274.56
281.662	263.56
281.894	254.56
282.125	273.56
282.356	260.56
282.588	289.56
282.819	285.56
283.051	273.56
283.282	276.56
283.513	272.56
283.745	260.56
283.976	275.56
284.207	268.56
284.439	270.56
284.67	280.56
284.901	285.56
285.132	284.56
285.364	270.56
285.595	283.56
285.826	265.56
286.057	291.56
286.288	267.56
286.52	270.56
286.751	275.56
286.982	286.56
287.213	296.56
287.444	276.56
287.675	270.56
287.906	285.56
288.138	312.56
288.369	286.56
288.6	316.56
288.831	309.56
289.062	280.56
289.293	301.56
289.524	284.56
289.755	285.56
289.986	296.56
290.217	279.56
290.448	284.56
290.679	289.56
290.91	288.56
291.141	292.56
291.371	299.56
291.602	280.56
291.833	274.56
292.064	283.56
292.295	275.56
292.526	285.56
292.757	289.56
292.987	300.56
293.218	267.56
293.449	297.56
293.68	284.56
293.91	300.56
294.141	286.56
294.372	304.56
294.603	300.56
294.833	306.56
295.064	296.56
295.295	279.56
295.525	305.56
295.756	305.56
295.987	306.56
296.217	308.56
296.448	316.56
296.679	303.56
296.909	313.56
297.14	292.56
297.37	290.56
297.601	305.56
297.831	281.56
298.062	320.56
298.292	303.56
298.523	299.56
298.753	312.56
298.984	284.56
299.214	312.56
299.445	315.56
299.675	312.56
299.905	322.56
300.136	295.56
300.366	320.56
300.597	320.56
300.827	317.56
301.057	335.56
301.288	325.56
301.518	327.56
301.748	315.56
301.979	297.56
302.209	338.56
302.439	320.56
302.669	333.56
302.9	329.56
303.13	328.56
303.36	327.56
303.59	328.56
303.82	342.56
304.051	331.56
304.281	330.56
304.511	316.56
304.741	317.56
304.971	331.56
305.201	311.56
305.431	311.56
305.661	334.56
305.891	325.56
306.121	323.56
306.352	311.56
306.582	305.56
306.812	308.56
307.042	321.56
307.272	337.56
307.502	316.56
307.731	331.56
307.961	331.56
308.191	320.56
308.421	340.56
308.651	322.56
308.881	309.56
309.111	316.56
309.341	332.56
309.571	344.56
309.8	327.56
310.03	349.56
310.26	368.56
310.49	351.56
310.72	344.56
310.949	356.56
311.179	342.56
311.409	355.56
311.639	337.56
311.868	330.56
312.098	352.56
312.328	371.56
312.557	357.56
312.787	362.56
313.017	359.56
313.246	379.56
313.476	373.56
313.706	360.56
313.935	358.56
314.165	372.56
314.394	379.56
314.624	369.56
314.853	359.56
315.083	362.56
315.312	360.56
315.542	375.56
315.771	358.56
316.001	355.56
316.23	371.56
316.46	361.56
316.689	359.56
316.919	352.56
317.148	368.56
317.377	375.56
317.607	353.56
317.836	349.56
318.065	339.56
318.295	363.56
318.524	354.56
318.753	355.56
318.983	361.56
319.212	359.56
319.441	379.56
319.67	366.56
319.9	368.56
320.129	358.56
320.358	354.56
320.587	363.56
320.816	359.56
321.046	361.56
321.275	360.56
321.504	373.56
321.733	383.56
321.962	385.56
322.191	363.56
322.42	376.56
322.649	396.56
322.878	389.56
323.108	372.56
323.337	388.56
323.566	400.56
323.795	438.56
324.024	441.56
324.253	492.56
324.482	608.56
324.71	872.56
324.939	1157.56
325.168	1035.56
325.397	608.56
325.626	469.56
325.855	441.56
326.084	438.56
326.313	400.56
326.542	405.56
326.77	434.56
326.999	484.56
327.228	597.56
327.457	776.56
327.686	955.56
327.914	667.56
328.143	525.56
328.372	460.56
328.6	451.56
328.829	424.56
329.058	442.56
329.287	441.56
329.515	405.56
329.744	426.56
329.972	410.56
330.201	434.56
330.43	437.56
330.658	449.56
330.887	465.56
331.115	477.56
331.344	414.56
331.572	415.56
331.801	429.56
332.03	425.56
332.258	425.56
332.486	418.56
332.715	434.56
332.943	443.56
333.172	446.56
333.4	466.56
333.629	458.56
333.857	469.56
334.085	463.56
334.314	477.56
334.542	487.56
334.771	501.56
334.999	467.56
335.227	459.56
335.455	451.56
335.684	437.56
335.912	451.56
336.14	434.56
336.369	430.56
336.597	440.56
336.825	433.56
337.053	447.56
337.281	450.56
337.51	435.56
337.738	420.56
337.966	432.56
338.194	444.56
338.422	419.56
338.65	420.56
338.878	417.56
339.106	409.56
339.334	398.56
339.562	427.56
339.79	409.56
340.018	412.56
340.246	401.56
340.474	409.56
340.702	394.56
340.93	433.56
341.158	398.56
341.386	409.56
341.614	406.56
341.842	417.56
342.07	408.56
342.298	404.56
342.526	390.56
342.754	401.56
342.981	392.56
343.209	401.56
343.437	427.56
343.665	425.56
343.893	414.56
344.12	456.56
344.348	459.56
344.576	444.56
344.804	439.56
345.031	427.56
345.259	428.56
345.487	413.56
345.714	416.56
345.942	397.56
346.17	410.56
346.397	380.56
346.625	392.56
346.853	392.56
347.08	389.56
347.308	408.56
347.535	394.56
347.763	389.56
347.99	386.56
348.218	385.56
348.445	396.56
348.673	374.56
348.9	381.56
349.128	388.56
349.355	392.56
349.583	372.56
349.81	377.56
350.037	397.56
350.265	393.56
350.492	373.56
350.72	391.56
350.947	397.56
351.174	394.56
351.402	385.56
351.629	383.56
351.856	387.56
352.083	388.56
352.311	391.56
352.538	364.56
352.765	388.56
352.992	397.56
353.22	388.56
353.447	396.56
353.674	390.56
353.901	383.56
354.128	389.56
354.355	369.56
354.583	383.56
354.81	372.56
355.037	391.56
355.264	381.56
355.491	379.56
355.718	355.56
355.945	374.56
356.172	391.56
356.399	384.56
356.626	378.56
356.853	363.56
357.08	381.56
357.307	371.56
357.534	381.56
357.761	394.56
357.988	369.56
358.215	364.56
358.441	387.56
358.668	371.56
358.895	378.56
359.122	380.56
359.349	383.56
359.576	387.56
359.802	391.56
360.029	404.56
360.256	415.56
360.483	407.56
360.709	393.56
360.936	381.56
361.163	361.56
361.39	390.56
361.616	383.56
361.843	372.56
362.07	377.56
362.296	387.56
362.523	398.56
362.749	393.56
362.976	395.56
363.203	373.56
363.429	390.56
363.656	385.56
363.882	372.56
364.109	377.56
364.335	372.56
364.562	385.56
364.788	377.56
365.015	375.56
365.241	385.56
365.468	368.56
365.694	378.56
365.92	389.56
366.147	368.56
366.373	375.56
366.599	390.56
366.826	357.56
367.052	375.56
367.278	363.56
367.505	367.56
367.731	379.56
367.957	391.56
368.184	365.56
368.41	375.56
368.636	385.56
368.862	405.56
369.089	383.56
369.315	388.56
369.541	399.56
369.767	385.56
369.993	377.56
370.219	379.56
370.445	397.56
370.672	401.56
370.898	386.56
371.124	371.56
371.35	405.56
371.576	370.56
371.802	381.56
372.028	382.56
372.254	391.56
372.48	395.56
372.706	389.56
372.932	423.56
373.158	403.56
373.384	397.56
373.61	389.56
373.835	376.56
374.061	393.56
374.287	398.56
374.513	400.56
374.739	412.56
374.965	418.56
375.191	398.56
375.416	404.56
375.642	391.56
375.868	389.56
376.094	397.56
376.319	403.56
376.545	406.56
376.771	394.56
376.997	391.56
377.222	375.56
377.448	388.56
377.674	389.56
377.899	409.56
378.125	379.56
378.35	380.56
378.576	365.56
378.802	376.56
379.027	379.56
379.253	385.56
379.478	390.56
379.704	377.56
379.929	395.56
380.155	399.56
380.38	394.56
380.606	403.56
380.831	393.56
381.057	388.56
381.282	411.56
381.507	399.56
381.733	391.56
381.958	419.56
382.184	396.56
382.409	398.56
382.634	393.56
382.86	413.56
383.085	399.56
383.31	419.56
383.535	410.56
383.761	413.56
383.986	417.56
384.211	403.56
384.436	420.56
384.662	437.56
384.887	444.56
385.112	448.56
385.337	438.56
385.562	439.56
385.787	455.56
386.013	479.56
386.238	449.56
386.463	440.56
386.688	442.56
386.913	475.56
387.138	450.56
387.363	438.56
387.588	445.56
387.813	457.56
388.038	427.56
388.263	462.56
388.488	459.56
388.713	441.56
388.938	440.56
389.163	439.56
389.387	444.56
389.612	436.56
389.837	447.56
390.062	441.56
390.287	441.56
390.512	427.56
390.736	439.56
390.961	453.56
391.186	438.56
391.411	469.56
391.636	458.56
391.86	476.56
392.085	479.56
392.31	461.56
392.534	477.56
392.759	479.56
392.984	462.56
393.208	448.56
393.433	463.56
393.658	454.56
393.882	458.56
394.107	462.56
394.331	455.56
394.556	458.56
394.78	457.56
395.005	476.56
395.229	482.56
395.454	495.56
395.678	477.56
395.903	477.56
396.127	495.56
396.352	474.56
396.576	481.56
396.801	475.56
397.025	471.56
397.249	475.56
397.474	485.56
397.698	492.56
397.922	494.56
398.147	481.56
398.371	489.56
398.595	530.56
398.82	535.56
399.044	537.56
399.268	596.56
399.492	597.56
399.717	648.56
399.941	679.56
400.165	663.56
400.389	665.56
400.613	598.56
400.837	562.56
401.062	540.56
401.286	529.56
401.51	539.56
401.734	513.56
401.958	540.56
402.182	531.56
402.406	536.56
402.63	531.56
402.854	547.56
403.078	522.56
403.302	554.56
403.526	531.56
403.75	542.56
403.974	576.56
404.198	574.56
404.422	540.56
404.645	565.56
404.869	574.56
405.093	593.56
405.317	587.56
405.541	624.56
405.765	584.56
405.988	567.56
406.212	568.56
406.436	555.56
406.66	586.56
406.883	594.56
407.107	587.56
407.331	628.56
407.555	697.56
407.778	687.56
408.002	652.56
408.226	603.56
408.449	623.56
408.673	583.56
408.896	609.56
409.12	633.56
409.344	613.56
409.567	571.56
409.791	569.56
410.014	582.56
410.238	566.56
410.461	555.56
410.685	557.56
410.908	568.56
411.132	563.56
411.355	553.56
411.578	558.56
411.802	559.56
412.025	552.56
412.249	570.56
412.472	559.56
412.695	562.56
412.919	578.56
413.142	544.56
413.365	532.56
413.589	531.56
413.812	516.56
414.035	508.56
414.258	528.56
414.482	525.56
414.705	526.56
414.928	541.56
415.151	520.56
415.374	506.56
415.597	531.56
415.821	499.56
416.044	520.56
416.267	502.56
416.49	506.56
416.713	513.56
416.936	504.56
417.159	495.56
417.382	503.56
417.605	511.56
417.828	531.56
418.051	533.56
418.274	510.56
418.497	516.56
418.72	521.56
418.943	499.56
419.166	527.56
419.389	573.56
419.611	562.56
419.834	567.56
420.057	529.56
420.28	530.56
420.503	541.56
420.726	512.56
420.948	538.56
421.171	555.56
421.394	574.56
421.617	547.56
421.839	529.56
422.062	541.56
422.285	540.56
422.507	565.56
422.73	611.56
422.953	622.56
423.175	539.56
423.398	543.56
423.621	546.56
423.843	552.56
424.066	559.56
424.288	552.56
424.511	573.56
424.733	599.56
424.956	639.56
425.178	636.56
425.401	604.56
425.623	635.56
425.846	563.56
426.068	547.56
426.291	543.56
426.513	532.56
426.735	545.56
426.958	564.56
427.18	593.56
427.402	680.56
427.625	732.56
427.847	639.56
428.069	565.56
428.292	533.56
428.514	526.56
428.736	520.56
428.958	519.56
429.181	492.56
429.403	500.56
429.625	506.56
429.847	514.56
430.069	552.56
430.292	535.56
430.514	473.56
430.736	471.56
430.958	478.56
431.18	509.56
431.402	467.56
431.624	481.56
431.846	472.56
432.068	475.56
432.29	489.56
432.512	479.56
432.734	490.56
432.956	490.56
433.178	500.56
433.4	499.56
433.622	488.56
433.844	487.56
434.066	482.56
434.287	479.56
434.509	473.56
434.731	511.56
434.953	503.56
435.175	520.56
435.397	531.56
435.618	527.56
435.84	551.56
436.062	611.56
436.284	637.56
436.505	560.56
436.727	530.56
436.949	490.56
437.17	495.56
437.392	487.56
437.614	483.56
437.835	489.56
438.057	571.56
438.278	609.56
438.5	644.56
438.721	684.56
438.943	663.56
439.165	565.56
439.386	527.56
439.608	509.56
439.829	520.56
440.05	500.56
440.272	534.56
440.493	529.56
440.715	504.56
440.936	512.56
441.158	515.56
441.379	490.56
441.6	507.56
441.822	533.56
442.043	559.56
442.264	614.56
442.486	632.56
442.707	557.56
442.928	543.56
443.149	533.56
443.371	543.56
443.592	577.56
443.813	635.56
444.034	684.56
444.255	599.56
444.476	563.56
444.698	576.56
444.919	574.56
445.14	694.56
445.361	613.56
445.582	579.56
445.803	585.56
446.024	649.56
446.245	636.56
446.466	591.56
446.687	551.56
446.908	521.56
447.129	491.56
447.35	488.56
447.571	509.56
447.792	466.56
448.013	452.56
448.234	461.56
448.455	503.56
448.675	587.56
448.896	659.56
449.117	564.56
449.338	543.56
449.559	620.56
449.779	703.56
450	564.56
450.221	541.56
450.442	467.56
450.662	478.56
450.883	471.56
451.104	468.56
451.324	448.56
451.545	451.56
451.766	450.56
451.986	447.56
452.207	416.56
452.428	410.56
452.648	424.56
452.869	441.56
453.089	439.56
453.31	457.56
453.53	446.56
453.751	442.56
453.971	435.56
454.192	433.56
454.412	433.56
454.633	430.56
454.853	424.56
455.073	427.56
455.294	433.56
455.514	460.56
455.734	469.56
455.955	428.56
456.175	426.56
456.395	412.56
456.616	414.56
456.836	441.56
457.056	398.56
457.276	419.56
457.497	413.56
457.717	406.56
457.937	422.56
458.157	434.56
458.377	448.56
458.598	426.56
458.818	485.56
459.038	532.56
459.258	532.56
459.478	523.56
459.698	492.56
459.918	483.56
460.138	492.56
460.358	517.56
460.578	539.56
460.798	549.56
461.018	524.56
461.238	532.56
461.458	523.56
461.678	497.56
461.898	528.56
462.118	514.56
462.338	528.56
462.558	559.56
462.777	534.56
462.997	575.56
463.217	589.56
463.437	631.56
463.657	603.56
463.876	581.56
464.096	579.56
464.316	571.56
464.536	576.56
464.755	554.56
464.975	554.56
465.195	543.56
465.414	567.56
465.634	508.56
465.854	497.56
466.073	495.56
466.293	486.56
466.512	473.56
466.732	457.56
466.951	461.56
467.171	479.56
467.391	464.56
467.61	461.56
467.829	452.56
468.049	456.56
468.268	437.56
468.488	431.56
468.707	447.56
468.927	450.56
469.146	450.56
469.365	443.56
469.585	470.56
469.804	439.56
470.023	450.56
470.243	462.56
470.462	486.56
470.681	474.56
470.901	469.56
471.12	480.56
471.339	481.56
471.558	474.56
471.777	460.56
471.997	463.56
472.216	467.56
472.435	469.56
472.654	448.56
472.873	469.56
473.092	448.56
473.311	451.56
473.53	456.56
473.749	465.56
473.968	484.56
474.187	524.56
474.406	574.56
474.625	495.56
474.844	468.56
475.063	451.56
475.282	445.56
475.501	454.56
475.72	483.56
475.939	476.56
476.158	477.56
476.377	482.56
476.596	456.56
476.814	485.56
477.033	479.56
477.252	491.56
477.471	472.56
477.69	509.56
477.908	518.56
478.127	508.56
478.346	520.56
478.564	530.56
478.783	513.56
479.002	515.56
479.22	529.56
479.439	537.56
479.658	534.56
479.876	533.56
480.095	567.56
480.313	591.56
480.532	590.56
480.751	584.56
480.969	571.56
481.188	596.56
481.406	619.56
481.624	548.56
481.843	569.56
482.061	571.56
482.28	529.56
482.498	536.56
482.717	521.56
482.935	535.56
483.153	532.56
483.372	526.56
483.59	544.56
483.808	545.56
484.027	532.56
484.245	531.56
484.463	552.56
484.681	544.56
484.9	546.56
485.118	557.56
485.336	568.56
485.554	552.56
485.772	585.56
485.99	580.56
486.209	555.56
486.427	580.56
486.645	553.56
486.863	559.56
487.081	583.56
487.299	552.56
487.517	574.56
487.735	572.56
487.953	575.56
488.171	579.56
488.389	566.56
488.607	591.56
488.825	575.56
489.043	545.56
489.261	581.56
489.479	563.56
489.696	580.56
489.914	570.56
490.132	590.56
490.35	590.56
490.568	587.56
490.786	583.56
491.003	582.56
491.221	602.56
491.439	629.56
491.657	589.56
491.874	581.56
492.092	607.56
492.31	625.56
492.527	639.56
492.745	645.56
492.963	641.56
493.18	636.56
493.398	628.56
493.615	607.56
493.833	626.56
494.05	639.56
494.268	632.56
494.485	637.56
494.703	617.56
494.92	616.56
495.138	632.56
495.355	643.56
495.573	643.56
495.79	637.56
496.008	643.56
496.225	647.56
496.442	649.56
496.66	640.56
496.877	649.56
497.094	655.56
497.312	695.56
497.529	679.56
497.746	684.56
497.963	709.56
498.181	739.56
498.398	758.56
498.615	753.56
498.832	791.56
499.049	836.56
499.267	877.56
499.484	904.56
499.701	953.56
499.918	986.56
500.135	1079.56
500.352	1147.56
500.569	1234.56
500.786	1205.56
501.003	1140.56
501.22	1056.56
501.437	998.56
501.654	976.56
501.871	944.56
