Data from 1962.PennyLincolnUp.Lamp.En5.5.200Scan.071719.P1._HRD10591_13-53-26-061.txt Node
Date: Thu Jul 18 13:53:26 EDT 2019
User: cochatt
Spectrometer: HR+D1059
Trigger mode: 1
Integration Time (sec): 1.000000E-1
Scans to average: 1
Electric dark correction enabled: true
Nonlinearity correction enabled: false
Boxcar width: 0
XAxis mode: Wavelengths
Number of Pixels in Spectrum: 2048
>>>>>Begin Spectral Data<<<<<
223.165	-18.88
223.4	-18.88
223.635	-18.88
223.869	-13.88
224.104	-21.88
224.338	-15.88
224.573	-21.88
224.808	1.12
225.042	-9.88
225.277	-11.88
225.511	0.12
225.746	6.12
225.98	1.12
226.215	9.12
226.449	21.12
226.683	17.12
226.918	23.12
227.152	35.12
227.387	41.12
227.621	29.12
227.856	29.12
228.09	50.12
228.324	41.12
228.559	51.12
228.793	56.12
229.027	89.12
229.262	92.12
229.496	101.12
229.73	103.12
229.964	120.12
230.199	115.12
230.433	91.12
230.667	109.12
230.901	104.12
231.136	96.12
231.37	97.12
231.604	101.12
231.838	124.12
232.072	120.12
232.306	124.12
232.541	115.12
232.775	118.12
233.009	117.12
233.243	106.12
233.477	112.12
233.711	117.12
233.945	120.12
234.179	111.12
234.413	108.12
234.647	118.12
234.881	106.12
235.115	109.12
235.349	121.12
235.583	117.12
235.817	99.12
236.051	122.12
236.285	112.12
236.519	108.12
236.753	118.12
236.987	138.12
237.221	144.12
237.455	180.12
237.689	141.12
237.922	128.12
238.156	107.12
238.39	117.12
238.624	133.12
238.858	117.12
239.091	109.12
239.325	108.12
239.559	125.12
239.793	127.12
240.027	131.12
240.26	135.12
240.494	139.12
240.728	129.12
240.961	130.12
241.195	135.12
241.429	139.12
241.662	138.12
241.896	120.12
242.13	148.12
242.363	124.12
242.597	139.12
242.83	127.12
243.064	140.12
243.298	144.12
243.531	128.12
243.765	137.12
243.998	150.12
244.232	136.12
244.465	133.12
244.699	148.12
244.932	146.12
245.166	123.12
245.399	143.12
245.633	142.12
245.866	138.12
246.099	146.12
246.333	150.12
246.566	142.12
246.8	157.12
247.033	138.12
247.266	153.12
247.5	148.12
247.733	150.12
247.966	143.12
248.2	142.12
248.433	162.12
248.666	150.12
248.899	150.12
249.133	160.12
249.366	189.12
249.599	177.12
249.832	156.12
250.066	154.12
250.299	155.12
250.532	143.12
250.765	171.12
250.998	187.12
251.231	177.12
251.465	165.12
251.698	183.12
251.931	168.12
252.164	162.12
252.397	188.12
252.63	174.12
252.863	191.12
253.096	184.12
253.329	192.12
253.562	202.12
253.795	198.12
254.028	168.12
254.261	180.12
254.494	176.12
254.727	202.12
254.96	225.12
255.193	218.12
255.426	196.12
255.659	191.12
255.892	184.12
256.124	195.12
256.357	191.12
256.59	202.12
256.823	184.12
257.056	209.12
257.289	202.12
257.521	198.12
257.754	196.12
257.987	189.12
258.22	189.12
258.452	180.12
258.685	183.12
258.918	180.12
259.151	186.12
259.383	194.12
259.616	204.12
259.849	192.12
260.081	211.12
260.314	218.12
260.547	227.12
260.779	219.12
261.012	210.12
261.244	205.12
261.477	189.12
261.71	202.12
261.942	214.12
262.175	196.12
262.407	187.12
262.64	195.12
262.872	212.12
263.105	200.12
263.337	203.12
263.57	220.12
263.802	194.12
264.035	195.12
264.267	215.12
264.499	203.12
264.732	186.12
264.964	198.12
265.197	201.12
265.429	199.12
265.661	193.12
265.894	211.12
266.126	208.12
266.358	188.12
266.591	204.12
266.823	212.12
267.055	216.12
267.287	210.12
267.52	211.12
267.752	203.12
267.984	229.12
268.216	221.12
268.448	225.12
268.681	221.12
268.913	221.12
269.145	216.12
269.377	238.12
269.609	242.12
269.841	252.12
270.073	243.12
270.306	266.12
270.538	262.12
270.77	231.12
271.002	264.12
271.234	244.12
271.466	272.12
271.698	265.12
271.93	262.12
272.162	261.12
272.394	276.12
272.626	237.12
272.858	244.12
273.09	266.12
273.322	262.12
273.553	261.12
273.785	245.12
274.017	245.12
274.249	248.12
274.481	252.12
274.713	254.12
274.945	239.12
275.176	253.12
275.408	235.12
275.64	230.12
275.872	251.12
276.104	260.12
276.335	249.12
276.567	252.12
276.799	253.12
277.031	277.12
277.262	271.12
277.494	269.12
277.726	274.12
277.957	263.12
278.189	250.12
278.421	258.12
278.652	250.12
278.884	243.12
279.115	258.12
279.347	282.12
279.579	266.12
279.81	248.12
280.042	237.12
280.273	240.12
280.505	257.12
280.736	275.12
280.968	274.12
281.199	260.12
281.431	250.12
281.662	276.12
281.894	265.12
282.125	276.12
282.356	285.12
282.588	257.12
282.819	283.12
283.051	265.12
283.282	274.12
283.513	274.12
283.745	273.12
283.976	272.12
284.207	280.12
284.439	271.12
284.67	269.12
284.901	282.12
285.132	297.12
285.364	285.12
285.595	267.12
285.826	286.12
286.057	265.12
286.288	275.12
286.52	272.12
286.751	295.12
286.982	279.12
287.213	273.12
287.444	282.12
287.675	283.12
287.906	280.12
288.138	292.12
288.369	301.12
288.6	304.12
288.831	278.12
289.062	295.12
289.293	297.12
289.524	277.12
289.755	286.12
289.986	284.12
290.217	301.12
290.448	290.12
290.679	291.12
290.91	286.12
291.141	280.12
291.371	304.12
291.602	269.12
291.833	286.12
292.064	283.12
292.295	282.12
292.526	282.12
292.757	279.12
292.987	303.12
293.218	288.12
293.449	299.12
293.68	276.12
293.91	306.12
294.141	314.12
294.372	299.12
294.603	286.12
294.833	313.12
295.064	309.12
295.295	288.12
295.525	299.12
295.756	288.12
295.987	298.12
296.217	301.12
296.448	310.12
296.679	316.12
296.909	306.12
297.14	288.12
297.37	297.12
297.601	302.12
297.831	309.12
298.062	320.12
298.292	307.12
298.523	317.12
298.753	316.12
298.984	298.12
299.214	311.12
299.445	308.12
299.675	298.12
299.905	320.12
300.136	318.12
300.366	308.12
300.597	305.12
300.827	315.12
301.057	329.12
301.288	315.12
301.518	314.12
301.748	330.12
301.979	316.12
302.209	356.12
302.439	310.12
302.669	327.12
302.9	334.12
303.13	332.12
303.36	334.12
303.59	335.12
303.82	338.12
304.051	349.12
304.281	322.12
304.511	339.12
304.741	336.12
304.971	322.12
305.201	330.12
305.431	310.12
305.661	338.12
305.891	330.12
306.121	312.12
306.352	346.12
306.582	310.12
306.812	333.12
307.042	322.12
307.272	326.12
307.502	333.12
307.731	327.12
307.961	341.12
308.191	334.12
308.421	316.12
308.651	331.12
308.881	330.12
309.111	336.12
309.341	321.12
309.571	334.12
309.8	346.12
310.03	350.12
310.26	356.12
310.49	338.12
310.72	358.12
310.949	326.12
311.179	359.12
311.409	352.12
311.639	327.12
311.868	347.12
312.098	350.12
312.328	357.12
312.557	362.12
312.787	359.12
313.017	363.12
313.246	368.12
313.476	348.12
313.706	362.12
313.935	357.12
314.165	369.12
314.394	373.12
314.624	354.12
314.853	353.12
315.083	366.12
315.312	366.12
315.542	358.12
315.771	327.12
316.001	380.12
316.23	354.12
316.46	357.12
316.689	380.12
316.919	362.12
317.148	370.12
317.377	379.12
317.607	368.12
317.836	345.12
318.065	363.12
318.295	369.12
318.524	375.12
318.753	354.12
318.983	372.12
319.212	363.12
319.441	364.12
319.67	350.12
319.9	356.12
320.129	372.12
320.358	366.12
320.587	371.12
320.816	362.12
321.046	361.12
321.275	362.12
321.504	380.12
321.733	376.12
321.962	383.12
322.191	392.12
322.42	381.12
322.649	384.12
322.878	406.12
323.108	393.12
323.337	408.12
323.566	412.12
323.795	441.12
324.024	467.12
324.253	497.12
324.482	633.12
324.71	883.12
324.939	1241.12
325.168	1084.12
325.397	627.12
325.626	472.12
325.855	444.12
326.084	389.12
326.313	439.12
326.542	432.12
326.77	461.12
326.999	494.12
327.228	602.12
327.457	793.12
327.686	971.12
327.914	701.12
328.143	520.12
328.372	483.12
328.6	463.12
328.829	437.12
329.058	465.12
329.287	457.12
329.515	435.12
329.744	432.12
329.972	444.12
330.201	443.12
330.43	464.12
330.658	474.12
330.887	465.12
331.115	466.12
331.344	435.12
331.572	420.12
331.801	452.12
332.03	458.12
332.258	461.12
332.486	442.12
332.715	432.12
332.943	441.12
333.172	454.12
333.4	457.12
333.629	462.12
333.857	487.12
334.085	475.12
334.314	486.12
334.542	480.12
334.771	481.12
334.999	465.12
335.227	465.12
335.455	454.12
335.684	465.12
335.912	441.12
336.14	441.12
336.369	433.12
336.597	426.12
336.825	451.12
337.053	447.12
337.281	436.12
337.51	440.12
337.738	452.12
337.966	423.12
338.194	414.12
338.422	433.12
338.65	408.12
338.878	436.12
339.106	386.12
339.334	422.12
339.562	416.12
339.79	408.12
340.018	408.12
340.246	405.12
340.474	432.12
340.702	411.12
340.93	412.12
341.158	406.12
341.386	415.12
341.614	408.12
341.842	408.12
342.07	413.12
342.298	420.12
342.526	394.12
342.754	399.12
342.981	416.12
343.209	404.12
343.437	417.12
343.665	417.12
343.893	452.12
344.12	445.12
344.348	420.12
344.576	419.12
344.804	437.12
345.031	405.12
345.259	423.12
345.487	424.12
345.714	398.12
345.942	393.12
346.17	406.12
346.397	420.12
346.625	390.12
346.853	390.12
347.08	388.12
347.308	431.12
347.535	402.12
347.763	391.12
347.99	402.12
348.218	392.12
348.445	418.12
348.673	418.12
348.9	424.12
349.128	386.12
349.355	394.12
349.583	389.12
349.81	381.12
350.037	402.12
350.265	392.12
350.492	392.12
350.72	377.12
350.947	403.12
351.174	394.12
351.402	397.12
351.629	387.12
351.856	398.12
352.083	380.12
352.311	379.12
352.538	392.12
352.765	409.12
352.992	382.12
353.22	387.12
353.447	406.12
353.674	378.12
353.901	380.12
354.128	389.12
354.355	377.12
354.583	380.12
354.81	384.12
355.037	388.12
355.264	392.12
355.491	375.12
355.718	368.12
355.945	386.12
356.172	365.12
356.399	376.12
356.626	393.12
356.853	379.12
357.08	380.12
357.307	386.12
357.534	381.12
357.761	374.12
357.988	371.12
358.215	378.12
358.441	375.12
358.668	380.12
358.895	384.12
359.122	387.12
359.349	372.12
359.576	405.12
359.802	397.12
360.029	420.12
360.256	410.12
360.483	404.12
360.709	394.12
360.936	408.12
361.163	378.12
361.39	411.12
361.616	370.12
361.843	380.12
362.07	399.12
362.296	394.12
362.523	393.12
362.749	402.12
362.976	369.12
363.203	385.12
363.429	384.12
363.656	377.12
363.882	392.12
364.109	393.12
364.335	376.12
364.562	409.12
364.788	414.12
365.015	383.12
365.241	388.12
365.468	388.12
365.694	395.12
365.92	377.12
366.147	376.12
366.373	402.12
366.599	372.12
366.826	401.12
367.052	372.12
367.278	373.12
367.505	387.12
367.731	379.12
367.957	378.12
368.184	388.12
368.41	374.12
368.636	391.12
368.862	406.12
369.089	400.12
369.315	364.12
369.541	376.12
369.767	397.12
369.993	383.12
370.219	410.12
370.445	380.12
370.672	401.12
370.898	382.12
371.124	404.12
371.35	382.12
371.576	397.12
371.802	393.12
372.028	390.12
372.254	412.12
372.48	374.12
372.706	414.12
372.932	416.12
373.158	406.12
373.384	416.12
373.61	408.12
373.835	402.12
374.061	399.12
374.287	421.12
374.513	414.12
374.739	410.12
374.965	422.12
375.191	426.12
375.416	410.12
375.642	406.12
375.868	392.12
376.094	411.12
376.319	408.12
376.545	373.12
376.771	392.12
376.997	396.12
377.222	387.12
377.448	402.12
377.674	384.12
377.899	398.12
378.125	407.12
378.35	396.12
378.576	370.12
378.802	390.12
379.027	389.12
379.253	387.12
379.478	370.12
379.704	394.12
379.929	388.12
380.155	384.12
380.38	402.12
380.606	380.12
380.831	392.12
381.057	404.12
381.282	393.12
381.507	386.12
381.733	411.12
381.958	392.12
382.184	390.12
382.409	401.12
382.634	406.12
382.86	404.12
383.085	398.12
383.31	422.12
383.535	429.12
383.761	429.12
383.986	429.12
384.211	435.12
384.436	454.12
384.662	451.12
384.887	423.12
385.112	457.12
385.337	433.12
385.562	445.12
385.787	438.12
386.013	463.12
386.238	453.12
386.463	466.12
386.688	465.12
386.913	435.12
387.138	457.12
387.363	451.12
387.588	429.12
387.813	453.12
388.038	436.12
388.263	444.12
388.488	451.12
388.713	464.12
388.938	434.12
389.163	454.12
389.387	464.12
389.612	454.12
389.837	426.12
390.062	444.12
390.287	429.12
390.512	461.12
390.736	452.12
390.961	449.12
391.186	456.12
391.411	459.12
391.636	452.12
391.86	494.12
392.085	484.12
392.31	472.12
392.534	470.12
392.759	485.12
392.984	485.12
393.208	464.12
393.433	474.12
393.658	448.12
393.882	469.12
394.107	459.12
394.331	470.12
394.556	469.12
394.78	479.12
395.005	502.12
395.229	468.12
395.454	487.12
395.678	478.12
395.903	479.12
396.127	477.12
396.352	489.12
396.576	451.12
396.801	488.12
397.025	482.12
397.249	461.12
397.474	493.12
397.698	505.12
397.922	494.12
398.147	508.12
398.371	522.12
398.595	535.12
398.82	503.12
399.044	543.12
399.268	569.12
399.492	620.12
399.717	646.12
399.941	655.12
400.165	670.12
400.389	650.12
400.613	600.12
400.837	560.12
401.062	555.12
401.286	541.12
401.51	551.12
401.734	527.12
401.958	546.12
402.182	557.12
402.406	526.12
402.63	546.12
402.854	528.12
403.078	568.12
403.302	537.12
403.526	558.12
403.75	566.12
403.974	585.12
404.198	570.12
404.422	571.12
404.645	562.12
404.869	569.12
405.093	588.12
405.317	596.12
405.541	610.12
405.765	594.12
405.988	554.12
406.212	599.12
406.436	590.12
406.66	596.12
406.883	576.12
407.107	603.12
407.331	626.12
407.555	722.12
407.778	702.12
408.002	638.12
408.226	628.12
408.449	604.12
408.673	597.12
408.896	604.12
409.12	644.12
409.344	615.12
409.567	589.12
409.791	587.12
410.014	539.12
410.238	567.12
410.461	545.12
410.685	547.12
410.908	563.12
411.132	602.12
411.355	600.12
411.578	588.12
411.802	532.12
412.025	519.12
412.249	542.12
412.472	578.12
412.695	604.12
412.919	567.12
413.142	539.12
413.365	534.12
413.589	530.12
413.812	508.12
414.035	534.12
414.258	535.12
414.482	547.12
414.705	527.12
414.928	533.12
415.151	517.12
415.374	532.12
415.597	536.12
415.821	528.12
416.044	517.12
416.267	514.12
416.49	524.12
416.713	502.12
416.936	505.12
417.159	519.12
417.382	513.12
417.605	532.12
417.828	510.12
418.051	522.12
418.274	521.12
418.497	503.12
418.72	519.12
418.943	519.12
419.166	549.12
419.389	577.12
419.611	563.12
419.834	547.12
420.057	549.12
420.28	538.12
420.503	545.12
420.726	514.12
420.948	530.12
421.171	576.12
421.394	568.12
421.617	551.12
421.839	542.12
422.062	528.12
422.285	519.12
422.507	569.12
422.73	625.12
422.953	592.12
423.175	568.12
423.398	564.12
423.621	549.12
423.843	567.12
424.066	550.12
424.288	570.12
424.511	574.12
424.733	624.12
424.956	646.12
425.178	642.12
425.401	636.12
425.623	636.12
425.846	576.12
426.068	540.12
426.291	538.12
426.513	531.12
426.735	531.12
426.958	568.12
427.18	602.12
427.402	680.12
427.625	756.12
427.847	652.12
428.069	589.12
428.292	549.12
428.514	524.12
428.736	516.12
428.958	530.12
429.181	500.12
429.403	485.12
429.625	481.12
429.847	519.12
430.069	552.12
430.292	555.12
430.514	512.12
430.736	491.12
430.958	479.12
431.18	487.12
431.402	484.12
431.624	474.12
431.846	491.12
432.068	476.12
432.29	486.12
432.512	481.12
432.734	510.12
432.956	501.12
433.178	479.12
433.4	504.12
433.622	506.12
433.844	491.12
434.066	483.12
434.287	491.12
434.509	511.12
434.731	520.12
434.953	521.12
435.175	529.12
435.397	552.12
435.618	525.12
435.84	527.12
436.062	617.12
436.284	631.12
436.505	595.12
436.727	542.12
436.949	513.12
437.17	518.12
437.392	513.12
437.614	486.12
437.835	502.12
438.057	575.12
438.278	639.12
438.5	631.12
438.721	702.12
438.943	660.12
439.165	582.12
439.386	539.12
439.608	549.12
439.829	523.12
440.05	536.12
440.272	562.12
440.493	548.12
440.715	513.12
440.936	530.12
441.158	513.12
441.379	525.12
441.6	534.12
441.822	533.12
442.043	552.12
442.264	615.12
442.486	650.12
442.707	567.12
442.928	549.12
443.149	556.12
443.371	549.12
443.592	601.12
443.813	640.12
444.034	722.12
444.255	628.12
444.476	579.12
444.698	574.12
444.919	581.12
445.14	682.12
445.361	621.12
445.582	586.12
445.803	594.12
446.024	638.12
446.245	638.12
446.466	610.12
446.687	528.12
446.908	518.12
447.129	517.12
447.35	484.12
447.571	477.12
447.792	483.12
448.013	499.12
448.234	492.12
448.455	536.12
448.675	574.12
448.896	688.12
449.117	571.12
449.338	565.12
449.559	634.12
449.779	741.12
450	611.12
450.221	502.12
450.442	485.12
450.662	473.12
450.883	467.12
451.104	453.12
451.324	465.12
451.545	459.12
451.766	454.12
451.986	435.12
452.207	442.12
452.428	453.12
452.648	449.12
452.869	469.12
453.089	432.12
453.31	444.12
453.53	440.12
453.751	442.12
453.971	440.12
454.192	452.12
454.412	452.12
454.633	442.12
454.853	432.12
455.073	444.12
455.294	447.12
455.514	490.12
455.734	474.12
455.955	428.12
456.175	432.12
456.395	437.12
456.616	424.12
456.836	413.12
457.056	421.12
457.276	410.12
457.497	435.12
457.717	440.12
457.937	425.12
458.157	442.12
458.377	464.12
458.598	456.12
458.818	491.12
459.038	513.12
459.258	550.12
459.478	516.12
459.698	497.12
459.918	494.12
460.138	504.12
460.358	518.12
460.578	536.12
460.798	503.12
461.018	548.12
461.238	525.12
461.458	545.12
461.678	533.12
461.898	548.12
462.118	549.12
462.338	548.12
462.558	546.12
462.777	565.12
462.997	592.12
463.217	624.12
463.437	612.12
463.657	598.12
463.876	595.12
464.096	594.12
464.316	555.12
464.536	572.12
464.755	562.12
464.975	552.12
465.195	570.12
465.414	572.12
465.634	534.12
465.854	496.12
466.073	500.12
466.293	461.12
466.512	489.12
466.732	487.12
466.951	488.12
467.171	472.12
467.391	482.12
467.61	477.12
467.829	465.12
468.049	457.12
468.268	446.12
468.488	454.12
468.707	451.12
468.927	423.12
469.146	436.12
469.365	455.12
469.585	470.12
469.804	461.12
470.023	472.12
470.243	467.12
470.462	488.12
470.681	502.12
470.901	489.12
471.12	488.12
471.339	470.12
471.558	482.12
471.777	462.12
471.997	465.12
472.216	470.12
472.435	481.12
472.654	457.12
472.873	460.12
473.092	470.12
473.311	469.12
473.53	469.12
473.749	477.12
473.968	488.12
474.187	553.12
474.406	539.12
474.625	480.12
474.844	460.12
475.063	470.12
475.282	457.12
475.501	485.12
475.72	462.12
475.939	470.12
476.158	477.12
476.377	474.12
476.596	481.12
476.814	497.12
477.033	496.12
477.252	502.12
477.471	505.12
477.69	512.12
477.908	499.12
478.127	517.12
478.346	525.12
478.564	534.12
478.783	546.12
479.002	538.12
479.22	536.12
479.439	541.12
479.658	562.12
479.876	565.12
480.095	562.12
480.313	598.12
480.532	587.12
480.751	599.12
480.969	588.12
481.188	601.12
481.406	626.12
481.624	586.12
481.843	548.12
482.061	554.12
482.28	573.12
482.498	523.12
482.717	540.12
482.935	539.12
483.153	562.12
483.372	532.12
483.59	537.12
483.808	536.12
484.027	543.12
484.245	573.12
484.463	533.12
484.681	553.12
484.9	556.12
485.118	540.12
485.336	562.12
485.554	544.12
485.772	548.12
485.99	556.12
486.209	568.12
486.427	563.12
486.645	557.12
486.863	582.12
487.081	579.12
487.299	584.12
487.517	582.12
487.735	574.12
487.953	568.12
488.171	567.12
488.389	575.12
488.607	577.12
488.825	562.12
489.043	569.12
489.261	572.12
489.479	562.12
489.696	587.12
489.914	562.12
490.132	600.12
490.35	593.12
490.568	593.12
490.786	609.12
491.003	598.12
491.221	621.12
491.439	622.12
491.657	626.12
491.874	618.12
492.092	599.12
492.31	616.12
492.527	599.12
492.745	616.12
492.963	635.12
493.18	646.12
493.398	640.12
493.615	652.12
493.833	641.12
494.05	649.12
494.268	623.12
494.485	654.12
494.703	636.12
494.92	645.12
495.138	653.12
495.355	636.12
495.573	661.12
495.79	641.12
496.008	651.12
496.225	662.12
496.442	650.12
496.66	657.12
496.877	673.12
497.094	646.12
497.312	676.12
497.529	716.12
497.746	718.12
497.963	734.12
498.181	754.12
498.398	763.12
498.615	766.12
498.832	828.12
499.049	846.12
499.267	868.12
499.484	898.12
499.701	951.12
499.918	1044.12
500.135	1090.12
500.352	1156.12
500.569	1221.12
500.786	1200.12
501.003	1144.12
501.22	1080.12
501.437	1037.12
501.654	987.12
501.871	929.12
