Data from 1962.PennyLincolnUp.Lamp.En5.5.200Scan.071719.P1._HRD10591_13-54-04-061.txt Node
Date: Thu Jul 18 13:54:04 EDT 2019
User: cochatt
Spectrometer: HR+D1059
Trigger mode: 1
Integration Time (sec): 1.000000E-1
Scans to average: 1
Electric dark correction enabled: true
Nonlinearity correction enabled: false
Boxcar width: 0
XAxis mode: Wavelengths
Number of Pixels in Spectrum: 2048
>>>>>Begin Spectral Data<<<<<
223.165	-19.94
223.4	-19.94
223.635	-19.94
223.869	-7.94
224.104	-24.94
224.338	-17.94
224.573	-18.94
224.808	-19.94
225.042	-10.94
225.277	5.06
225.511	14.06
225.746	3.06
225.98	1.06
226.215	12.06
226.449	10.06
226.683	30.06
226.918	16.06
227.152	29.06
227.387	36.06
227.621	37.06
227.856	44.06
228.09	41.06
228.324	42.06
228.559	52.06
228.793	55.06
229.027	79.06
229.262	86.06
229.496	103.06
229.73	109.06
229.964	129.06
230.199	110.06
230.433	117.06
230.667	118.06
230.901	101.06
231.136	103.06
231.37	101.06
231.604	118.06
231.838	101.06
232.072	108.06
232.306	118.06
232.541	119.06
232.775	110.06
233.009	117.06
233.243	113.06
233.477	104.06
233.711	109.06
233.945	112.06
234.179	117.06
234.413	113.06
234.647	127.06
234.881	133.06
235.115	110.06
235.349	117.06
235.583	118.06
235.817	123.06
236.051	118.06
236.285	111.06
236.519	106.06
236.753	119.06
236.987	149.06
237.221	136.06
237.455	197.06
237.689	163.06
237.922	130.06
238.156	127.06
238.39	111.06
238.624	121.06
238.858	122.06
239.091	118.06
239.325	111.06
239.559	113.06
239.793	125.06
240.027	126.06
240.26	134.06
240.494	144.06
240.728	143.06
240.961	144.06
241.195	137.06
241.429	135.06
241.662	118.06
241.896	134.06
242.13	123.06
242.363	133.06
242.597	122.06
242.83	109.06
243.064	138.06
243.298	134.06
243.531	139.06
243.765	143.06
243.998	133.06
244.232	127.06
244.465	134.06
244.699	146.06
244.932	140.06
245.166	143.06
245.399	127.06
245.633	135.06
245.866	128.06
246.099	142.06
246.333	151.06
246.566	133.06
246.8	131.06
247.033	148.06
247.266	167.06
247.5	140.06
247.733	162.06
247.966	141.06
248.2	166.06
248.433	169.06
248.666	168.06
248.899	152.06
249.133	168.06
249.366	159.06
249.599	182.06
249.832	178.06
250.066	168.06
250.299	164.06
250.532	170.06
250.765	195.06
250.998	197.06
251.231	207.06
251.465	182.06
251.698	184.06
251.931	165.06
252.164	200.06
252.397	167.06
252.63	173.06
252.863	181.06
253.096	181.06
253.329	186.06
253.562	200.06
253.795	196.06
254.028	210.06
254.261	179.06
254.494	193.06
254.727	213.06
254.96	213.06
255.193	234.06
255.426	219.06
255.659	201.06
255.892	196.06
256.124	208.06
256.357	198.06
256.59	212.06
256.823	193.06
257.056	198.06
257.289	184.06
257.521	178.06
257.754	190.06
257.987	197.06
258.22	196.06
258.452	204.06
258.685	185.06
258.918	198.06
259.151	196.06
259.383	189.06
259.616	209.06
259.849	215.06
260.081	220.06
260.314	219.06
260.547	228.06
260.779	238.06
261.012	213.06
261.244	209.06
261.477	218.06
261.71	202.06
261.942	213.06
262.175	217.06
262.407	205.06
262.64	192.06
262.872	206.06
263.105	202.06
263.337	197.06
263.57	209.06
263.802	201.06
264.035	204.06
264.267	218.06
264.499	200.06
264.732	210.06
264.964	217.06
265.197	206.06
265.429	205.06
265.661	210.06
265.894	211.06
266.126	218.06
266.358	209.06
266.591	198.06
266.823	215.06
267.055	226.06
267.287	215.06
267.52	219.06
267.752	211.06
267.984	216.06
268.216	213.06
268.448	210.06
268.681	218.06
268.913	221.06
269.145	244.06
269.377	244.06
269.609	245.06
269.841	251.06
270.073	261.06
270.306	282.06
270.538	275.06
270.77	283.06
271.002	258.06
271.234	264.06
271.466	276.06
271.698	268.06
271.93	280.06
272.162	280.06
272.394	290.06
272.626	293.06
272.858	275.06
273.09	254.06
273.322	259.06
273.553	253.06
273.785	263.06
274.017	263.06
274.249	262.06
274.481	253.06
274.713	235.06
274.945	237.06
275.176	245.06
275.408	238.06
275.64	245.06
275.872	255.06
276.104	232.06
276.335	271.06
276.567	251.06
276.799	266.06
277.031	284.06
277.262	293.06
277.494	296.06
277.726	279.06
277.957	296.06
278.189	269.06
278.421	261.06
278.652	278.06
278.884	263.06
279.115	268.06
279.347	262.06
279.579	285.06
279.81	289.06
280.042	283.06
280.273	281.06
280.505	267.06
280.736	261.06
280.968	269.06
281.199	264.06
281.431	268.06
281.662	261.06
281.894	264.06
282.125	271.06
282.356	289.06
282.588	284.06
282.819	292.06
283.051	273.06
283.282	262.06
283.513	273.06
283.745	273.06
283.976	293.06
284.207	304.06
284.439	282.06
284.67	266.06
284.901	293.06
285.132	284.06
285.364	312.06
285.595	297.06
285.826	263.06
286.057	294.06
286.288	282.06
286.52	276.06
286.751	266.06
286.982	291.06
287.213	296.06
287.444	299.06
287.675	291.06
287.906	294.06
288.138	309.06
288.369	286.06
288.6	307.06
288.831	297.06
289.062	283.06
289.293	292.06
289.524	286.06
289.755	293.06
289.986	299.06
290.217	301.06
290.448	286.06
290.679	289.06
290.91	290.06
291.141	314.06
291.371	293.06
291.602	280.06
291.833	300.06
292.064	310.06
292.295	291.06
292.526	298.06
292.757	292.06
292.987	291.06
293.218	291.06
293.449	305.06
293.68	301.06
293.91	295.06
294.141	299.06
294.372	291.06
294.603	306.06
294.833	301.06
295.064	281.06
295.295	300.06
295.525	293.06
295.756	295.06
295.987	301.06
296.217	313.06
296.448	325.06
296.679	326.06
296.909	303.06
297.14	315.06
297.37	299.06
297.601	298.06
297.831	309.06
298.062	292.06
298.292	305.06
298.523	321.06
298.753	321.06
298.984	322.06
299.214	297.06
299.445	303.06
299.675	315.06
299.905	330.06
300.136	315.06
300.366	353.06
300.597	340.06
300.827	338.06
301.057	332.06
301.288	342.06
301.518	337.06
301.748	323.06
301.979	350.06
302.209	358.06
302.439	344.06
302.669	329.06
302.9	313.06
303.13	329.06
303.36	337.06
303.59	331.06
303.82	344.06
304.051	343.06
304.281	324.06
304.511	335.06
304.741	338.06
304.971	335.06
305.201	338.06
305.431	328.06
305.661	332.06
305.891	323.06
306.121	330.06
306.352	326.06
306.582	341.06
306.812	343.06
307.042	333.06
307.272	327.06
307.502	338.06
307.731	325.06
307.961	346.06
308.191	330.06
308.421	337.06
308.651	318.06
308.881	327.06
309.111	352.06
309.341	346.06
309.571	367.06
309.8	357.06
310.03	380.06
310.26	359.06
310.49	349.06
310.72	362.06
310.949	343.06
311.179	365.06
311.409	354.06
311.639	378.06
311.868	371.06
312.098	355.06
312.328	363.06
312.557	381.06
312.787	379.06
313.017	372.06
313.246	354.06
313.476	367.06
313.706	376.06
313.935	365.06
314.165	369.06
314.394	378.06
314.624	382.06
314.853	376.06
315.083	355.06
315.312	376.06
315.542	369.06
315.771	378.06
316.001	378.06
316.23	377.06
316.46	365.06
316.689	377.06
316.919	368.06
317.148	371.06
317.377	381.06
317.607	369.06
317.836	371.06
318.065	365.06
318.295	353.06
318.524	360.06
318.753	376.06
318.983	357.06
319.212	369.06
319.441	358.06
319.67	363.06
319.9	372.06
320.129	367.06
320.358	374.06
320.587	354.06
320.816	373.06
321.046	387.06
321.275	400.06
321.504	384.06
321.733	391.06
321.962	388.06
322.191	394.06
322.42	406.06
322.649	390.06
322.878	407.06
323.108	387.06
323.337	417.06
323.566	428.06
323.795	430.06
324.024	478.06
324.253	530.06
324.482	668.06
324.71	978.06
324.939	1393.06
325.168	1215.06
325.397	685.06
325.626	513.06
325.855	474.06
326.084	453.06
326.313	441.06
326.542	455.06
326.77	488.06
326.999	534.06
327.228	649.06
327.457	888.06
327.686	1088.06
327.914	781.06
328.143	563.06
328.372	508.06
328.6	499.06
328.829	469.06
329.058	486.06
329.287	481.06
329.515	491.06
329.744	445.06
329.972	456.06
330.201	455.06
330.43	491.06
330.658	503.06
330.887	488.06
331.115	520.06
331.344	468.06
331.572	458.06
331.801	458.06
332.03	461.06
332.258	474.06
332.486	433.06
332.715	450.06
332.943	460.06
333.172	468.06
333.4	478.06
333.629	489.06
333.857	503.06
334.085	499.06
334.314	500.06
334.542	502.06
334.771	539.06
334.999	484.06
335.227	476.06
335.455	458.06
335.684	471.06
335.912	448.06
336.14	447.06
336.369	454.06
336.597	461.06
336.825	474.06
337.053	441.06
337.281	448.06
337.51	442.06
337.738	446.06
337.966	446.06
338.194	442.06
338.422	446.06
338.65	425.06
338.878	448.06
339.106	419.06
339.334	437.06
339.562	403.06
339.79	417.06
340.018	424.06
340.246	423.06
340.474	397.06
340.702	406.06
340.93	452.06
341.158	421.06
341.386	415.06
341.614	429.06
341.842	419.06
342.07	408.06
342.298	421.06
342.526	427.06
342.754	406.06
342.981	409.06
343.209	418.06
343.437	427.06
343.665	446.06
343.893	456.06
344.12	467.06
344.348	466.06
344.576	440.06
344.804	452.06
345.031	435.06
345.259	436.06
345.487	451.06
345.714	423.06
345.942	416.06
346.17	414.06
346.397	395.06
346.625	409.06
346.853	394.06
347.08	391.06
347.308	406.06
347.535	415.06
347.763	399.06
347.99	419.06
348.218	415.06
348.445	416.06
348.673	419.06
348.9	405.06
349.128	396.06
349.355	373.06
349.583	400.06
349.81	394.06
350.037	400.06
350.265	407.06
350.492	409.06
350.72	412.06
350.947	387.06
351.174	403.06
351.402	399.06
351.629	415.06
351.856	403.06
352.083	410.06
352.311	391.06
352.538	410.06
352.765	427.06
352.992	407.06
353.22	402.06
353.447	402.06
353.674	390.06
353.901	397.06
354.128	393.06
354.355	392.06
354.583	377.06
354.81	380.06
355.037	396.06
355.264	387.06
355.491	375.06
355.718	384.06
355.945	369.06
356.172	403.06
356.399	375.06
356.626	393.06
356.853	387.06
357.08	364.06
357.307	393.06
357.534	383.06
357.761	390.06
357.988	390.06
358.215	393.06
358.441	381.06
358.668	363.06
358.895	391.06
359.122	398.06
359.349	390.06
359.576	402.06
359.802	403.06
360.029	385.06
360.256	406.06
360.483	421.06
360.709	400.06
360.936	405.06
361.163	390.06
361.39	391.06
361.616	416.06
361.843	385.06
362.07	389.06
362.296	418.06
362.523	398.06
362.749	403.06
362.976	394.06
363.203	400.06
363.429	406.06
363.656	404.06
363.882	378.06
364.109	378.06
364.335	392.06
364.562	392.06
364.788	399.06
365.015	394.06
365.241	389.06
365.468	397.06
365.694	403.06
365.92	403.06
366.147	410.06
366.373	399.06
366.599	385.06
366.826	402.06
367.052	407.06
367.278	393.06
367.505	400.06
367.731	394.06
367.957	385.06
368.184	403.06
368.41	404.06
368.636	385.06
368.862	390.06
369.089	399.06
369.315	414.06
369.541	392.06
369.767	369.06
369.993	397.06
370.219	392.06
370.445	406.06
370.672	395.06
370.898	402.06
371.124	399.06
371.35	415.06
371.576	424.06
371.802	393.06
372.028	400.06
372.254	401.06
372.48	417.06
372.706	422.06
372.932	402.06
373.158	413.06
373.384	427.06
373.61	421.06
373.835	395.06
374.061	409.06
374.287	405.06
374.513	404.06
374.739	416.06
374.965	426.06
375.191	422.06
375.416	446.06
375.642	433.06
375.868	422.06
376.094	423.06
376.319	407.06
376.545	425.06
376.771	415.06
376.997	399.06
377.222	393.06
377.448	395.06
377.674	402.06
377.899	401.06
378.125	396.06
378.35	412.06
378.576	404.06
378.802	382.06
379.027	405.06
379.253	414.06
379.478	405.06
379.704	409.06
379.929	402.06
380.155	397.06
380.38	382.06
380.606	421.06
380.831	411.06
381.057	412.06
381.282	405.06
381.507	417.06
381.733	412.06
381.958	422.06
382.184	412.06
382.409	420.06
382.634	432.06
382.86	416.06
383.085	420.06
383.31	456.06
383.535	443.06
383.761	452.06
383.986	411.06
384.211	427.06
384.436	435.06
384.662	437.06
384.887	466.06
385.112	427.06
385.337	439.06
385.562	457.06
385.787	458.06
386.013	483.06
386.238	478.06
386.463	460.06
386.688	457.06
386.913	435.06
387.138	443.06
387.363	474.06
387.588	472.06
387.813	469.06
388.038	448.06
388.263	447.06
388.488	449.06
388.713	471.06
388.938	459.06
389.163	449.06
389.387	458.06
389.612	443.06
389.837	458.06
390.062	464.06
390.287	447.06
390.512	457.06
390.736	469.06
390.961	463.06
391.186	456.06
391.411	468.06
391.636	484.06
391.86	469.06
392.085	488.06
392.31	484.06
392.534	485.06
392.759	458.06
392.984	491.06
393.208	465.06
393.433	509.06
393.658	451.06
393.882	445.06
394.107	482.06
394.331	464.06
394.556	492.06
394.78	499.06
395.005	477.06
395.229	475.06
395.454	484.06
395.678	483.06
395.903	490.06
396.127	536.06
396.352	509.06
396.576	491.06
396.801	484.06
397.025	478.06
397.249	479.06
397.474	498.06
397.698	489.06
397.922	513.06
398.147	521.06
398.371	536.06
398.595	540.06
398.82	544.06
399.044	547.06
399.268	575.06
399.492	618.06
399.717	661.06
399.941	695.06
400.165	669.06
400.389	667.06
400.613	608.06
400.837	547.06
401.062	565.06
401.286	536.06
401.51	535.06
401.734	541.06
401.958	544.06
402.182	537.06
402.406	560.06
402.63	567.06
402.854	541.06
403.078	559.06
403.302	574.06
403.526	600.06
403.75	571.06
403.974	578.06
404.198	560.06
404.422	567.06
404.645	567.06
404.869	574.06
405.093	602.06
405.317	616.06
405.541	652.06
405.765	606.06
405.988	577.06
406.212	612.06
406.436	585.06
406.66	614.06
406.883	601.06
407.107	618.06
407.331	663.06
407.555	734.06
407.778	687.06
408.002	669.06
408.226	643.06
408.449	614.06
408.673	604.06
408.896	630.06
409.12	657.06
409.344	635.06
409.567	611.06
409.791	581.06
410.014	580.06
410.238	564.06
410.461	569.06
410.685	571.06
410.908	576.06
411.132	591.06
411.355	606.06
411.578	585.06
411.802	589.06
412.025	549.06
412.249	560.06
412.472	589.06
412.695	589.06
412.919	602.06
413.142	558.06
413.365	546.06
413.589	552.06
413.812	540.06
414.035	556.06
414.258	537.06
414.482	522.06
414.705	534.06
414.928	522.06
415.151	542.06
415.374	538.06
415.597	523.06
415.821	515.06
416.044	514.06
416.267	522.06
416.49	539.06
416.713	545.06
416.936	519.06
417.159	498.06
417.382	539.06
417.605	526.06
417.828	558.06
418.051	544.06
418.274	533.06
418.497	531.06
418.72	545.06
418.943	543.06
419.166	541.06
419.389	567.06
419.611	594.06
419.834	596.06
420.057	548.06
420.28	535.06
420.503	551.06
420.726	554.06
420.948	561.06
421.171	582.06
421.394	594.06
421.617	555.06
421.839	528.06
422.062	536.06
422.285	557.06
422.507	580.06
422.73	647.06
422.953	649.06
423.175	580.06
423.398	550.06
423.621	555.06
423.843	565.06
424.066	583.06
424.288	557.06
424.511	580.06
424.733	584.06
424.956	673.06
425.178	637.06
425.401	645.06
425.623	668.06
425.846	590.06
426.068	563.06
426.291	569.06
426.513	566.06
426.735	578.06
426.958	592.06
427.18	637.06
427.402	717.06
427.625	783.06
427.847	675.06
428.069	647.06
428.292	581.06
428.514	537.06
428.736	536.06
428.958	521.06
429.181	520.06
429.403	507.06
429.625	503.06
429.847	541.06
430.069	598.06
430.292	590.06
430.514	525.06
430.736	520.06
430.958	492.06
431.18	518.06
431.402	508.06
431.624	498.06
431.846	490.06
432.068	493.06
432.29	513.06
432.512	490.06
432.734	502.06
432.956	495.06
433.178	503.06
433.4	517.06
433.622	509.06
433.844	512.06
434.066	513.06
434.287	493.06
434.509	505.06
434.731	526.06
434.953	529.06
435.175	547.06
435.397	580.06
435.618	555.06
435.84	590.06
436.062	634.06
436.284	701.06
436.505	615.06
436.727	528.06
436.949	540.06
437.17	531.06
437.392	504.06
437.614	510.06
437.835	533.06
438.057	606.06
438.278	671.06
438.5	684.06
438.721	744.06
438.943	700.06
439.165	577.06
439.386	565.06
439.608	536.06
439.829	553.06
440.05	578.06
440.272	596.06
440.493	571.06
440.715	549.06
440.936	554.06
441.158	507.06
441.379	535.06
441.6	534.06
441.822	538.06
442.043	597.06
442.264	645.06
442.486	677.06
442.707	604.06
442.928	558.06
443.149	563.06
443.371	571.06
443.592	594.06
443.813	682.06
444.034	707.06
444.255	647.06
444.476	597.06
444.698	590.06
444.919	582.06
445.14	702.06
445.361	637.06
445.582	626.06
445.803	629.06
446.024	675.06
446.245	685.06
446.466	610.06
446.687	569.06
446.908	523.06
447.129	515.06
447.35	532.06
447.571	530.06
447.792	488.06
448.013	520.06
448.234	515.06
448.455	557.06
448.675	637.06
448.896	693.06
449.117	617.06
449.338	583.06
449.559	683.06
449.779	762.06
450	616.06
450.221	554.06
450.442	490.06
450.662	499.06
450.883	494.06
451.104	505.06
451.324	479.06
451.545	482.06
451.766	452.06
451.986	467.06
452.207	472.06
452.428	464.06
452.648	447.06
452.869	455.06
453.089	451.06
453.31	461.06
453.53	453.06
453.751	446.06
453.971	451.06
454.192	463.06
454.412	460.06
454.633	473.06
454.853	472.06
455.073	428.06
455.294	464.06
455.514	503.06
455.734	492.06
455.955	462.06
456.175	457.06
456.395	428.06
456.616	424.06
456.836	458.06
457.056	423.06
457.276	427.06
457.497	437.06
457.717	439.06
457.937	442.06
458.157	450.06
458.377	436.06
458.598	471.06
458.818	501.06
459.038	517.06
459.258	578.06
459.478	531.06
459.698	503.06
459.918	497.06
460.138	535.06
460.358	551.06
460.578	534.06
460.798	550.06
461.018	535.06
461.238	553.06
461.458	551.06
461.678	546.06
461.898	556.06
462.118	539.06
462.338	572.06
462.558	579.06
462.777	589.06
462.997	584.06
463.217	610.06
463.437	650.06
463.657	607.06
463.876	620.06
464.096	605.06
464.316	596.06
464.536	604.06
464.755	564.06
464.975	574.06
465.195	591.06
465.414	574.06
465.634	586.06
465.854	523.06
466.073	524.06
466.293	494.06
466.512	497.06
466.732	471.06
466.951	504.06
467.171	475.06
467.391	468.06
467.61	462.06
467.829	503.06
468.049	490.06
468.268	463.06
468.488	480.06
468.707	456.06
468.927	467.06
469.146	481.06
469.365	472.06
469.585	471.06
469.804	479.06
470.023	491.06
470.243	473.06
470.462	490.06
470.681	489.06
470.901	481.06
471.12	493.06
471.339	488.06
471.558	463.06
471.777	484.06
471.997	459.06
472.216	471.06
472.435	477.06
472.654	485.06
472.873	489.06
473.092	493.06
473.311	483.06
473.53	487.06
473.749	476.06
473.968	500.06
474.187	555.06
474.406	607.06
474.625	506.06
474.844	475.06
475.063	475.06
475.282	487.06
475.501	483.06
475.72	486.06
475.939	488.06
476.158	481.06
476.377	500.06
476.596	492.06
476.814	491.06
477.033	505.06
477.252	499.06
477.471	523.06
477.69	508.06
477.908	517.06
478.127	541.06
478.346	548.06
478.564	566.06
478.783	561.06
479.002	570.06
479.22	553.06
479.439	556.06
479.658	558.06
479.876	575.06
480.095	582.06
480.313	602.06
480.532	607.06
480.751	606.06
480.969	614.06
481.188	621.06
481.406	633.06
481.624	593.06
481.843	572.06
482.061	563.06
482.28	565.06
482.498	563.06
482.717	551.06
482.935	579.06
483.153	562.06
483.372	546.06
483.59	555.06
483.808	557.06
484.027	547.06
484.245	559.06
484.463	575.06
484.681	571.06
484.9	548.06
485.118	597.06
485.336	578.06
485.554	572.06
485.772	599.06
485.99	605.06
486.209	569.06
486.427	574.06
486.645	598.06
486.863	606.06
487.081	571.06
487.299	586.06
487.517	577.06
487.735	581.06
487.953	594.06
488.171	580.06
488.389	568.06
488.607	584.06
488.825	566.06
489.043	598.06
489.261	596.06
489.479	606.06
489.696	570.06
489.914	597.06
490.132	601.06
490.35	612.06
490.568	594.06
490.786	611.06
491.003	615.06
491.221	596.06
491.439	655.06
491.657	633.06
491.874	620.06
492.092	641.06
492.31	629.06
492.527	634.06
492.745	652.06
492.963	655.06
493.18	657.06
493.398	666.06
493.615	664.06
493.833	660.06
494.05	659.06
494.268	653.06
494.485	669.06
494.703	656.06
494.92	667.06
495.138	664.06
495.355	692.06
495.573	667.06
495.79	674.06
496.008	677.06
496.225	689.06
496.442	676.06
496.66	671.06
496.877	695.06
497.094	705.06
497.312	697.06
497.529	710.06
497.746	732.06
497.963	751.06
498.181	788.06
498.398	793.06
498.615	814.06
498.832	834.06
499.049	857.06
499.267	926.06
499.484	943.06
499.701	988.06
499.918	1045.06
500.135	1148.06
500.352	1203.06
500.569	1229.06
500.786	1243.06
501.003	1181.06
501.22	1127.06
501.437	1075.06
501.654	1013.06
501.871	967.06
