Data from 1962.PennyLincolnUp.Lamp.En5.5.200Scan.071719.P1._HRD10591_13-55-16-061.txt Node
Date: Thu Jul 18 13:55:16 EDT 2019
User: cochatt
Spectrometer: HR+D1059
Trigger mode: 1
Integration Time (sec): 1.000000E-1
Scans to average: 1
Electric dark correction enabled: true
Nonlinearity correction enabled: false
Boxcar width: 0
XAxis mode: Wavelengths
Number of Pixels in Spectrum: 2048
>>>>>Begin Spectral Data<<<<<
223.165	-16.12
223.4	-16.12
223.635	-16.12
223.869	-10.12
224.104	-28.12
224.338	-10.12
224.573	-29.12
224.808	-19.12
225.042	-12.12
225.277	-7.12
225.511	0.88
225.746	7.88
225.98	6.88
226.215	23.88
226.449	10.88
226.683	11.88
226.918	25.88
227.152	43.88
227.387	30.88
227.621	27.88
227.856	29.88
228.09	35.88
228.324	35.88
228.559	47.88
228.793	60.88
229.027	74.88
229.262	92.88
229.496	102.88
229.73	124.88
229.964	132.88
230.199	123.88
230.433	107.88
230.667	88.88
230.901	98.88
231.136	108.88
231.37	105.88
231.604	116.88
231.838	105.88
232.072	110.88
232.306	108.88
232.541	118.88
232.775	112.88
233.009	115.88
233.243	116.88
233.477	115.88
233.711	111.88
233.945	96.88
234.179	122.88
234.413	102.88
234.647	114.88
234.881	116.88
235.115	104.88
235.349	113.88
235.583	113.88
235.817	110.88
236.051	121.88
236.285	123.88
236.519	112.88
236.753	117.88
236.987	129.88
237.221	151.88
237.455	197.88
237.689	153.88
237.922	126.88
238.156	112.88
238.39	116.88
238.624	123.88
238.858	118.88
239.091	131.88
239.325	119.88
239.559	129.88
239.793	117.88
240.027	136.88
240.26	127.88
240.494	149.88
240.728	143.88
240.961	134.88
241.195	126.88
241.429	141.88
241.662	134.88
241.896	142.88
242.13	122.88
242.363	134.88
242.597	139.88
242.83	130.88
243.064	133.88
243.298	128.88
243.531	131.88
243.765	131.88
243.998	145.88
244.232	123.88
244.465	130.88
244.699	137.88
244.932	163.88
245.166	151.88
245.399	156.88
245.633	148.88
245.866	154.88
246.099	143.88
246.333	142.88
246.566	146.88
246.8	152.88
247.033	150.88
247.266	142.88
247.5	148.88
247.733	148.88
247.966	156.88
248.2	162.88
248.433	148.88
248.666	151.88
248.899	158.88
249.133	174.88
249.366	170.88
249.599	177.88
249.832	162.88
250.066	170.88
250.299	170.88
250.532	168.88
250.765	191.88
250.998	191.88
251.231	205.88
251.465	194.88
251.698	175.88
251.931	175.88
252.164	183.88
252.397	184.88
252.63	180.88
252.863	193.88
253.096	224.88
253.329	212.88
253.562	210.88
253.795	189.88
254.028	176.88
254.261	176.88
254.494	204.88
254.727	227.88
254.96	237.88
255.193	236.88
255.426	216.88
255.659	220.88
255.892	226.88
256.124	212.88
256.357	199.88
256.59	210.88
256.823	184.88
257.056	203.88
257.289	203.88
257.521	189.88
257.754	190.88
257.987	191.88
258.22	203.88
258.452	179.88
258.685	203.88
258.918	191.88
259.151	197.88
259.383	211.88
259.616	206.88
259.849	206.88
260.081	209.88
260.314	212.88
260.547	231.88
260.779	220.88
261.012	214.88
261.244	227.88
261.477	210.88
261.71	225.88
261.942	228.88
262.175	209.88
262.407	204.88
262.64	217.88
262.872	190.88
263.105	182.88
263.337	194.88
263.57	200.88
263.802	211.88
264.035	200.88
264.267	210.88
264.499	211.88
264.732	197.88
264.964	208.88
265.197	197.88
265.429	208.88
265.661	208.88
265.894	207.88
266.126	212.88
266.358	207.88
266.591	206.88
266.823	227.88
267.055	229.88
267.287	233.88
267.52	225.88
267.752	234.88
267.984	227.88
268.216	233.88
268.448	230.88
268.681	224.88
268.913	242.88
269.145	256.88
269.377	267.88
269.609	267.88
269.841	246.88
270.073	235.88
270.306	261.88
270.538	280.88
270.77	280.88
271.002	295.88
271.234	275.88
271.466	274.88
271.698	267.88
271.93	304.88
272.162	294.88
272.394	292.88
272.626	280.88
272.858	267.88
273.09	272.88
273.322	264.88
273.553	249.88
273.785	276.88
274.017	233.88
274.249	245.88
274.481	260.88
274.713	252.88
274.945	256.88
275.176	255.88
275.408	257.88
275.64	247.88
275.872	264.88
276.104	269.88
276.335	270.88
276.567	272.88
276.799	277.88
277.031	269.88
277.262	275.88
277.494	291.88
277.726	276.88
277.957	291.88
278.189	290.88
278.421	271.88
278.652	273.88
278.884	260.88
279.115	265.88
279.347	266.88
279.579	259.88
279.81	263.88
280.042	265.88
280.273	272.88
280.505	258.88
280.736	265.88
280.968	262.88
281.199	275.88
281.431	263.88
281.662	256.88
281.894	269.88
282.125	266.88
282.356	298.88
282.588	287.88
282.819	288.88
283.051	288.88
283.282	269.88
283.513	281.88
283.745	275.88
283.976	288.88
284.207	283.88
284.439	291.88
284.67	293.88
284.901	276.88
285.132	286.88
285.364	279.88
285.595	299.88
285.826	288.88
286.057	276.88
286.288	282.88
286.52	272.88
286.751	280.88
286.982	288.88
287.213	282.88
287.444	281.88
287.675	299.88
287.906	313.88
288.138	317.88
288.369	297.88
288.6	290.88
288.831	302.88
289.062	311.88
289.293	297.88
289.524	299.88
289.755	293.88
289.986	295.88
290.217	283.88
290.448	312.88
290.679	290.88
290.91	299.88
291.141	297.88
291.371	297.88
291.602	312.88
291.833	283.88
292.064	294.88
292.295	302.88
292.526	293.88
292.757	295.88
292.987	287.88
293.218	290.88
293.449	299.88
293.68	319.88
293.91	303.88
294.141	310.88
294.372	309.88
294.603	298.88
294.833	312.88
295.064	297.88
295.295	312.88
295.525	310.88
295.756	304.88
295.987	313.88
296.217	335.88
296.448	322.88
296.679	315.88
296.909	306.88
297.14	307.88
297.37	312.88
297.601	314.88
297.831	314.88
298.062	290.88
298.292	294.88
298.523	324.88
298.753	328.88
298.984	331.88
299.214	316.88
299.445	329.88
299.675	312.88
299.905	328.88
300.136	320.88
300.366	314.88
300.597	332.88
300.827	337.88
301.057	323.88
301.288	332.88
301.518	337.88
301.748	328.88
301.979	345.88
302.209	326.88
302.439	338.88
302.669	320.88
302.9	350.88
303.13	342.88
303.36	338.88
303.59	343.88
303.82	346.88
304.051	326.88
304.281	342.88
304.511	327.88
304.741	343.88
304.971	345.88
305.201	313.88
305.431	319.88
305.661	341.88
305.891	341.88
306.121	335.88
306.352	344.88
306.582	328.88
306.812	334.88
307.042	334.88
307.272	329.88
307.502	339.88
307.731	348.88
307.961	336.88
308.191	329.88
308.421	334.88
308.651	334.88
308.881	352.88
309.111	337.88
309.341	326.88
309.571	358.88
309.8	374.88
310.03	351.88
310.26	371.88
310.49	359.88
310.72	376.88
310.949	368.88
311.179	355.88
311.409	368.88
311.639	371.88
311.868	361.88
312.098	386.88
312.328	379.88
312.557	373.88
312.787	382.88
313.017	384.88
313.246	380.88
313.476	360.88
313.706	359.88
313.935	358.88
314.165	377.88
314.394	392.88
314.624	371.88
314.853	403.88
315.083	373.88
315.312	354.88
315.542	366.88
315.771	388.88
316.001	372.88
316.23	381.88
316.46	355.88
316.689	400.88
316.919	366.88
317.148	367.88
317.377	383.88
317.607	376.88
317.836	374.88
318.065	391.88
318.295	373.88
318.524	377.88
318.753	364.88
318.983	370.88
319.212	370.88
319.441	369.88
319.67	380.88
319.9	378.88
320.129	361.88
320.358	372.88
320.587	376.88
320.816	380.88
321.046	389.88
321.275	403.88
321.504	390.88
321.733	378.88
321.962	377.88
322.191	415.88
322.42	400.88
322.649	411.88
322.878	427.88
323.108	405.88
323.337	427.88
323.566	455.88
323.795	442.88
324.024	484.88
324.253	566.88
324.482	731.88
324.71	1106.88
324.939	1544.88
325.168	1343.88
325.397	728.88
325.626	540.88
325.855	487.88
326.084	470.88
326.313	450.88
326.542	472.88
326.77	489.88
326.999	541.88
327.228	692.88
327.457	984.88
327.686	1196.88
327.914	823.88
328.143	581.88
328.372	527.88
328.6	495.88
328.829	525.88
329.058	501.88
329.287	508.88
329.515	498.88
329.744	446.88
329.972	459.88
330.201	487.88
330.43	507.88
330.658	509.88
330.887	510.88
331.115	513.88
331.344	470.88
331.572	458.88
331.801	450.88
332.03	479.88
332.258	474.88
332.486	460.88
332.715	444.88
332.943	455.88
333.172	451.88
333.4	467.88
333.629	506.88
333.857	485.88
334.085	504.88
334.314	515.88
334.542	528.88
334.771	523.88
334.999	476.88
335.227	496.88
335.455	484.88
335.684	457.88
335.912	468.88
336.14	466.88
336.369	459.88
336.597	459.88
336.825	470.88
337.053	459.88
337.281	452.88
337.51	430.88
337.738	466.88
337.966	455.88
338.194	423.88
338.422	438.88
338.65	437.88
338.878	439.88
339.106	437.88
339.334	447.88
339.562	428.88
339.79	437.88
340.018	421.88
340.246	418.88
340.474	444.88
340.702	442.88
340.93	435.88
341.158	425.88
341.386	420.88
341.614	422.88
341.842	431.88
342.07	414.88
342.298	427.88
342.526	423.88
342.754	426.88
342.981	432.88
343.209	435.88
343.437	429.88
343.665	437.88
343.893	483.88
344.12	464.88
344.348	474.88
344.576	456.88
344.804	446.88
345.031	440.88
345.259	457.88
345.487	433.88
345.714	419.88
345.942	406.88
346.17	414.88
346.397	415.88
346.625	412.88
346.853	409.88
347.08	395.88
347.308	426.88
347.535	412.88
347.763	437.88
347.99	395.88
348.218	412.88
348.445	417.88
348.673	413.88
348.9	421.88
349.128	411.88
349.355	396.88
349.583	386.88
349.81	404.88
350.037	405.88
350.265	409.88
350.492	386.88
350.72	388.88
350.947	403.88
351.174	397.88
351.402	406.88
351.629	406.88
351.856	394.88
352.083	404.88
352.311	407.88
352.538	408.88
352.765	400.88
352.992	417.88
353.22	390.88
353.447	389.88
353.674	386.88
353.901	384.88
354.128	404.88
354.355	394.88
354.583	389.88
354.81	400.88
355.037	396.88
355.264	402.88
355.491	393.88
355.718	366.88
355.945	380.88
356.172	397.88
356.399	386.88
356.626	406.88
356.853	380.88
357.08	390.88
357.307	391.88
357.534	378.88
357.761	404.88
357.988	394.88
358.215	388.88
358.441	410.88
358.668	385.88
358.895	378.88
359.122	385.88
359.349	416.88
359.576	404.88
359.802	409.88
360.029	434.88
360.256	437.88
360.483	429.88
360.709	420.88
360.936	410.88
361.163	371.88
361.39	418.88
361.616	420.88
361.843	420.88
362.07	411.88
362.296	397.88
362.523	411.88
362.749	419.88
362.976	377.88
363.203	382.88
363.429	388.88
363.656	402.88
363.882	409.88
364.109	404.88
364.335	395.88
364.562	402.88
364.788	395.88
365.015	398.88
365.241	390.88
365.468	385.88
365.694	402.88
365.92	384.88
366.147	373.88
366.373	394.88
366.599	395.88
366.826	396.88
367.052	387.88
367.278	398.88
367.505	382.88
367.731	401.88
367.957	390.88
368.184	393.88
368.41	415.88
368.636	402.88
368.862	423.88
369.089	414.88
369.315	407.88
369.541	411.88
369.767	382.88
369.993	406.88
370.219	387.88
370.445	390.88
370.672	410.88
370.898	380.88
371.124	410.88
371.35	399.88
371.576	402.88
371.802	412.88
372.028	406.88
372.254	400.88
372.48	409.88
372.706	420.88
372.932	402.88
373.158	410.88
373.384	401.88
373.61	410.88
373.835	434.88
374.061	414.88
374.287	400.88
374.513	418.88
374.739	409.88
374.965	410.88
375.191	426.88
375.416	426.88
375.642	416.88
375.868	402.88
376.094	401.88
376.319	393.88
376.545	402.88
376.771	398.88
376.997	412.88
377.222	424.88
377.448	389.88
377.674	388.88
377.899	400.88
378.125	400.88
378.35	402.88
378.576	404.88
378.802	403.88
379.027	391.88
379.253	374.88
379.478	398.88
379.704	400.88
379.929	404.88
380.155	399.88
380.38	404.88
380.606	398.88
380.831	406.88
381.057	407.88
381.282	422.88
381.507	404.88
381.733	423.88
381.958	406.88
382.184	416.88
382.409	411.88
382.634	425.88
382.86	416.88
383.085	440.88
383.31	423.88
383.535	430.88
383.761	435.88
383.986	443.88
384.211	454.88
384.436	456.88
384.662	447.88
384.887	451.88
385.112	451.88
385.337	457.88
385.562	445.88
385.787	455.88
386.013	461.88
386.238	486.88
386.463	466.88
386.688	444.88
386.913	454.88
387.138	466.88
387.363	466.88
387.588	466.88
387.813	454.88
388.038	456.88
388.263	449.88
388.488	464.88
388.713	452.88
388.938	447.88
389.163	460.88
389.387	459.88
389.612	440.88
389.837	438.88
390.062	477.88
390.287	451.88
390.512	446.88
390.736	449.88
390.961	462.88
391.186	464.88
391.411	474.88
391.636	466.88
391.86	482.88
392.085	492.88
392.31	477.88
392.534	479.88
392.759	484.88
392.984	490.88
393.208	462.88
393.433	474.88
393.658	463.88
393.882	474.88
394.107	467.88
394.331	472.88
394.556	471.88
394.78	450.88
395.005	452.88
395.229	465.88
395.454	484.88
395.678	481.88
395.903	512.88
396.127	522.88
396.352	526.88
396.576	492.88
396.801	478.88
397.025	469.88
397.249	474.88
397.474	497.88
397.698	482.88
397.922	496.88
398.147	524.88
398.371	518.88
398.595	525.88
398.82	520.88
399.044	560.88
399.268	594.88
399.492	655.88
399.717	657.88
399.941	688.88
400.165	694.88
400.389	681.88
400.613	636.88
400.837	574.88
401.062	566.88
401.286	562.88
401.51	564.88
401.734	558.88
401.958	552.88
402.182	549.88
402.406	551.88
402.63	542.88
402.854	572.88
403.078	577.88
403.302	594.88
403.526	576.88
403.75	579.88
403.974	593.88
404.198	584.88
404.422	601.88
404.645	567.88
404.869	609.88
405.093	611.88
405.317	622.88
405.541	678.88
405.765	631.88
405.988	599.88
406.212	601.88
406.436	590.88
406.66	610.88
406.883	621.88
407.107	616.88
407.331	666.88
407.555	735.88
407.778	741.88
408.002	678.88
408.226	645.88
408.449	636.88
408.673	636.88
408.896	664.88
409.12	667.88
409.344	649.88
409.567	583.88
409.791	597.88
410.014	583.88
410.238	550.88
410.461	569.88
410.685	562.88
410.908	566.88
411.132	590.88
411.355	609.88
411.578	601.88
411.802	561.88
412.025	572.88
412.249	561.88
412.472	583.88
412.695	634.88
412.919	596.88
413.142	551.88
413.365	563.88
413.589	558.88
413.812	546.88
414.035	534.88
414.258	524.88
414.482	538.88
414.705	527.88
414.928	534.88
415.151	532.88
415.374	549.88
415.597	524.88
415.821	529.88
416.044	518.88
416.267	548.88
416.49	521.88
416.713	548.88
416.936	550.88
417.159	524.88
417.382	532.88
417.605	569.88
417.828	542.88
418.051	542.88
418.274	546.88
418.497	536.88
418.72	525.88
418.943	527.88
419.166	572.88
419.389	607.88
419.611	590.88
419.834	562.88
420.057	580.88
420.28	566.88
420.503	546.88
420.726	568.88
420.948	543.88
421.171	585.88
421.394	620.88
421.617	558.88
421.839	553.88
422.062	555.88
422.285	555.88
422.507	598.88
422.73	650.88
422.953	636.88
423.175	591.88
423.398	574.88
423.621	588.88
423.843	576.88
424.066	602.88
424.288	582.88
424.511	590.88
424.733	634.88
424.956	693.88
425.178	678.88
425.401	643.88
425.623	677.88
425.846	606.88
426.068	581.88
426.291	568.88
426.513	576.88
426.735	563.88
426.958	617.88
427.18	662.88
427.402	773.88
427.625	836.88
427.847	707.88
428.069	635.88
428.292	578.88
428.514	562.88
428.736	539.88
428.958	546.88
429.181	495.88
429.403	516.88
429.625	540.88
429.847	558.88
430.069	605.88
430.292	593.88
430.514	525.88
430.736	502.88
430.958	491.88
431.18	512.88
431.402	503.88
431.624	500.88
431.846	504.88
432.068	489.88
432.29	504.88
432.512	518.88
432.734	508.88
432.956	502.88
433.178	525.88
433.4	509.88
433.622	500.88
433.844	522.88
434.066	503.88
434.287	525.88
434.509	508.88
434.731	534.88
434.953	542.88
435.175	544.88
435.397	554.88
435.618	561.88
435.84	577.88
436.062	649.88
436.284	707.88
436.505	598.88
436.727	547.88
436.949	536.88
437.17	519.88
437.392	522.88
437.614	536.88
437.835	549.88
438.057	651.88
438.278	694.88
438.5	707.88
438.721	754.88
438.943	733.88
439.165	583.88
439.386	588.88
439.608	560.88
439.829	550.88
440.05	552.88
440.272	600.88
440.493	568.88
440.715	544.88
440.936	530.88
441.158	527.88
441.379	534.88
441.6	560.88
441.822	549.88
442.043	596.88
442.264	644.88
442.486	704.88
442.707	597.88
442.928	568.88
443.149	574.88
443.371	609.88
443.592	622.88
443.813	701.88
444.034	766.88
444.255	640.88
444.476	633.88
444.698	608.88
444.919	588.88
445.14	716.88
445.361	677.88
445.582	612.88
445.803	662.88
446.024	730.88
446.245	716.88
446.466	654.88
446.687	582.88
446.908	553.88
447.129	548.88
447.35	521.88
447.571	521.88
447.792	481.88
448.013	515.88
448.234	528.88
448.455	555.88
448.675	652.88
448.896	762.88
449.117	627.88
449.338	615.88
449.559	704.88
449.779	775.88
450	642.88
450.221	540.88
450.442	490.88
450.662	495.88
450.883	509.88
451.104	517.88
451.324	510.88
451.545	487.88
451.766	470.88
451.986	465.88
452.207	458.88
452.428	467.88
452.648	472.88
452.869	459.88
453.089	471.88
453.31	484.88
453.53	450.88
453.751	467.88
453.971	476.88
454.192	456.88
454.412	459.88
454.633	451.88
454.853	437.88
455.073	456.88
455.294	450.88
455.514	507.88
455.734	510.88
455.955	468.88
456.175	445.88
456.395	433.88
456.616	435.88
456.836	455.88
457.056	441.88
457.276	433.88
457.497	459.88
457.717	433.88
457.937	445.88
458.157	451.88
458.377	457.88
458.598	471.88
458.818	508.88
459.038	579.88
459.258	615.88
459.478	531.88
459.698	533.88
459.918	517.88
460.138	519.88
460.358	541.88
460.578	523.88
460.798	547.88
461.018	570.88
461.238	545.88
461.458	526.88
461.678	533.88
461.898	535.88
462.118	554.88
462.338	545.88
462.558	560.88
462.777	566.88
462.997	600.88
463.217	637.88
463.437	630.88
463.657	618.88
463.876	615.88
464.096	618.88
464.316	572.88
464.536	587.88
464.755	552.88
464.975	572.88
465.195	581.88
465.414	623.88
465.634	551.88
465.854	534.88
466.073	507.88
466.293	520.88
466.512	481.88
466.732	472.88
466.951	495.88
467.171	481.88
467.391	480.88
467.61	486.88
467.829	490.88
468.049	500.88
468.268	480.88
468.488	480.88
468.707	463.88
468.927	465.88
469.146	464.88
469.365	462.88
469.585	474.88
469.804	466.88
470.023	495.88
470.243	482.88
470.462	491.88
470.681	507.88
470.901	495.88
471.12	496.88
471.339	492.88
471.558	496.88
471.777	484.88
471.997	476.88
472.216	484.88
472.435	503.88
472.654	500.88
472.873	479.88
473.092	475.88
473.311	476.88
473.53	478.88
473.749	490.88
473.968	522.88
474.187	587.88
474.406	615.88
474.625	532.88
474.844	510.88
475.063	486.88
475.282	481.88
475.501	505.88
475.72	497.88
475.939	503.88
476.158	489.88
476.377	496.88
476.596	498.88
476.814	509.88
477.033	478.88
477.252	512.88
477.471	518.88
477.69	532.88
477.908	540.88
478.127	538.88
478.346	538.88
478.564	551.88
478.783	545.88
479.002	553.88
479.22	562.88
479.439	595.88
479.658	578.88
479.876	582.88
480.095	596.88
480.313	636.88
480.532	609.88
480.751	599.88
480.969	619.88
481.188	644.88
481.406	631.88
481.624	608.88
481.843	584.88
482.061	592.88
482.28	581.88
482.498	569.88
482.717	548.88
482.935	574.88
483.153	582.88
483.372	565.88
483.59	549.88
483.808	544.88
484.027	553.88
484.245	564.88
484.463	575.88
484.681	580.88
484.9	580.88
485.118	566.88
485.336	579.88
485.554	600.88
485.772	568.88
485.99	589.88
486.209	582.88
486.427	579.88
486.645	598.88
486.863	615.88
487.081	607.88
487.299	604.88
487.517	605.88
487.735	590.88
487.953	598.88
488.171	596.88
488.389	583.88
488.607	599.88
488.825	588.88
489.043	608.88
489.261	617.88
489.479	585.88
489.696	612.88
489.914	603.88
490.132	604.88
490.35	623.88
490.568	602.88
490.786	631.88
491.003	648.88
491.221	653.88
491.439	650.88
491.657	652.88
491.874	674.88
492.092	662.88
492.31	653.88
492.527	651.88
492.745	660.88
492.963	675.88
493.18	664.88
493.398	698.88
493.615	684.88
493.833	693.88
494.05	663.88
494.268	676.88
494.485	684.88
494.703	686.88
494.92	693.88
495.138	666.88
495.355	699.88
495.573	721.88
495.79	701.88
496.008	688.88
496.225	698.88
496.442	688.88
496.66	696.88
496.877	722.88
497.094	700.88
497.312	690.88
497.529	726.88
497.746	732.88
497.963	735.88
498.181	780.88
498.398	794.88
498.615	821.88
498.832	836.88
499.049	844.88
499.267	915.88
499.484	946.88
499.701	989.88
499.918	1075.88
500.135	1152.88
500.352	1194.88
500.569	1274.88
500.786	1242.88
501.003	1227.88
501.22	1123.88
501.437	1070.88
501.654	1024.88
501.871	978.88
