Data from 1962.PennyLincolnUp.Lamp.En5.5.200Scan.071719.P1._HRD10591_13-54-36-061.txt Node
Date: Thu Jul 18 13:54:36 EDT 2019
User: cochatt
Spectrometer: HR+D1059
Trigger mode: 1
Integration Time (sec): 1.000000E-1
Scans to average: 1
Electric dark correction enabled: true
Nonlinearity correction enabled: false
Boxcar width: 0
XAxis mode: Wavelengths
Number of Pixels in Spectrum: 2048
>>>>>Begin Spectral Data<<<<<
223.165	-26.69
223.4	-26.69
223.635	-26.69
223.869	-12.69
224.104	-6.69
224.338	-20.69
224.573	-15.69
224.808	-14.69
225.042	-0.69
225.277	-5.69
225.511	8.31
225.746	-18.69
225.98	17.31
226.215	16.31
226.449	8.31
226.683	19.31
226.918	29.31
227.152	23.31
227.387	37.31
227.621	34.31
227.856	37.31
228.09	43.31
228.324	46.31
228.559	57.31
228.793	67.31
229.027	91.31
229.262	100.31
229.496	104.31
229.73	117.31
229.964	119.31
230.199	124.31
230.433	121.31
230.667	113.31
230.901	105.31
231.136	110.31
231.37	113.31
231.604	110.31
231.838	114.31
232.072	100.31
232.306	107.31
232.541	97.31
232.775	119.31
233.009	110.31
233.243	107.31
233.477	111.31
233.711	91.31
233.945	123.31
234.179	113.31
234.413	111.31
234.647	113.31
234.881	119.31
235.115	115.31
235.349	123.31
235.583	115.31
235.817	107.31
236.051	129.31
236.285	136.31
236.519	119.31
236.753	133.31
236.987	138.31
237.221	143.31
237.455	189.31
237.689	171.31
237.922	129.31
238.156	119.31
238.39	120.31
238.624	126.31
238.858	115.31
239.091	120.31
239.325	130.31
239.559	126.31
239.793	124.31
240.027	127.31
240.26	131.31
240.494	132.31
240.728	149.31
240.961	143.31
241.195	133.31
241.429	139.31
241.662	120.31
241.896	125.31
242.13	143.31
242.363	131.31
242.597	130.31
242.83	140.31
243.064	141.31
243.298	122.31
243.531	127.31
243.765	122.31
243.998	141.31
244.232	125.31
244.465	141.31
244.699	141.31
244.932	163.31
245.166	136.31
245.399	139.31
245.633	153.31
245.866	146.31
246.099	139.31
246.333	143.31
246.566	144.31
246.8	140.31
247.033	139.31
247.266	142.31
247.5	145.31
247.733	157.31
247.966	147.31
248.2	157.31
248.433	155.31
248.666	157.31
248.899	168.31
249.133	177.31
249.366	189.31
249.599	175.31
249.832	176.31
250.066	173.31
250.299	168.31
250.532	176.31
250.765	184.31
250.998	188.31
251.231	200.31
251.465	197.31
251.698	179.31
251.931	177.31
252.164	195.31
252.397	168.31
252.63	165.31
252.863	183.31
253.096	192.31
253.329	187.31
253.562	209.31
253.795	204.31
254.028	200.31
254.261	189.31
254.494	193.31
254.727	203.31
254.96	234.31
255.193	232.31
255.426	229.31
255.659	204.31
255.892	213.31
256.124	217.31
256.357	192.31
256.59	200.31
256.823	204.31
257.056	206.31
257.289	214.31
257.521	203.31
257.754	193.31
257.987	183.31
258.22	191.31
258.452	187.31
258.685	198.31
258.918	204.31
259.151	200.31
259.383	208.31
259.616	212.31
259.849	203.31
260.081	231.31
260.314	225.31
260.547	220.31
260.779	215.31
261.012	231.31
261.244	218.31
261.477	229.31
261.71	210.31
261.942	204.31
262.175	194.31
262.407	195.31
262.64	206.31
262.872	209.31
263.105	201.31
263.337	218.31
263.57	202.31
263.802	222.31
264.035	213.31
264.267	218.31
264.499	203.31
264.732	202.31
264.964	203.31
265.197	219.31
265.429	207.31
265.661	210.31
265.894	205.31
266.126	205.31
266.358	214.31
266.591	236.31
266.823	210.31
267.055	223.31
267.287	212.31
267.52	215.31
267.752	211.31
267.984	226.31
268.216	213.31
268.448	229.31
268.681	249.31
268.913	219.31
269.145	244.31
269.377	250.31
269.609	276.31
269.841	252.31
270.073	274.31
270.306	275.31
270.538	270.31
270.77	255.31
271.002	261.31
271.234	272.31
271.466	278.31
271.698	288.31
271.93	283.31
272.162	283.31
272.394	292.31
272.626	281.31
272.858	278.31
273.09	250.31
273.322	264.31
273.553	261.31
273.785	278.31
274.017	244.31
274.249	254.31
274.481	263.31
274.713	262.31
274.945	283.31
275.176	271.31
275.408	250.31
275.64	257.31
275.872	271.31
276.104	268.31
276.335	261.31
276.567	269.31
276.799	264.31
277.031	286.31
277.262	302.31
277.494	287.31
277.726	292.31
277.957	278.31
278.189	273.31
278.421	300.31
278.652	273.31
278.884	270.31
279.115	277.31
279.347	272.31
279.579	286.31
279.81	281.31
280.042	277.31
280.273	270.31
280.505	272.31
280.736	257.31
280.968	276.31
281.199	263.31
281.431	263.31
281.662	250.31
281.894	245.31
282.125	269.31
282.356	301.31
282.588	303.31
282.819	299.31
283.051	286.31
283.282	264.31
283.513	270.31
283.745	290.31
283.976	281.31
284.207	286.31
284.439	271.31
284.67	282.31
284.901	283.31
285.132	301.31
285.364	289.31
285.595	289.31
285.826	301.31
286.057	285.31
286.288	279.31
286.52	307.31
286.751	300.31
286.982	287.31
287.213	278.31
287.444	287.31
287.675	300.31
287.906	295.31
288.138	297.31
288.369	297.31
288.6	302.31
288.831	318.31
289.062	297.31
289.293	294.31
289.524	298.31
289.755	298.31
289.986	303.31
290.217	300.31
290.448	287.31
290.679	290.31
290.91	306.31
291.141	297.31
291.371	292.31
291.602	303.31
291.833	305.31
292.064	273.31
292.295	290.31
292.526	293.31
292.757	291.31
292.987	297.31
293.218	282.31
293.449	297.31
293.68	305.31
293.91	306.31
294.141	294.31
294.372	299.31
294.603	300.31
294.833	302.31
295.064	312.31
295.295	303.31
295.525	290.31
295.756	291.31
295.987	306.31
296.217	312.31
296.448	334.31
296.679	303.31
296.909	315.31
297.14	300.31
297.37	300.31
297.601	308.31
297.831	303.31
298.062	309.31
298.292	305.31
298.523	316.31
298.753	313.31
298.984	305.31
299.214	308.31
299.445	337.31
299.675	317.31
299.905	325.31
300.136	320.31
300.366	321.31
300.597	328.31
300.827	326.31
301.057	345.31
301.288	317.31
301.518	337.31
301.748	327.31
301.979	340.31
302.209	314.31
302.439	335.31
302.669	321.31
302.9	325.31
303.13	314.31
303.36	350.31
303.59	362.31
303.82	360.31
304.051	339.31
304.281	338.31
304.511	338.31
304.741	309.31
304.971	354.31
305.201	334.31
305.431	345.31
305.661	340.31
305.891	340.31
306.121	322.31
306.352	336.31
306.582	340.31
306.812	358.31
307.042	332.31
307.272	339.31
307.502	332.31
307.731	322.31
307.961	323.31
308.191	328.31
308.421	345.31
308.651	361.31
308.881	349.31
309.111	344.31
309.341	341.31
309.571	329.31
309.8	369.31
310.03	358.31
310.26	372.31
310.49	356.31
310.72	350.31
310.949	355.31
311.179	363.31
311.409	376.31
311.639	335.31
311.868	366.31
312.098	370.31
312.328	379.31
312.557	386.31
312.787	381.31
313.017	383.31
313.246	371.31
313.476	370.31
313.706	356.31
313.935	373.31
314.165	375.31
314.394	397.31
314.624	363.31
314.853	376.31
315.083	369.31
315.312	384.31
315.542	387.31
315.771	386.31
316.001	364.31
316.23	349.31
316.46	382.31
316.689	381.31
316.919	356.31
317.148	361.31
317.377	362.31
317.607	369.31
317.836	369.31
318.065	382.31
318.295	371.31
318.524	367.31
318.753	369.31
318.983	369.31
319.212	383.31
319.441	401.31
319.67	387.31
319.9	366.31
320.129	392.31
320.358	387.31
320.587	381.31
320.816	385.31
321.046	370.31
321.275	371.31
321.504	375.31
321.733	380.31
321.962	380.31
322.191	398.31
322.42	401.31
322.649	400.31
322.878	402.31
323.108	409.31
323.337	423.31
323.566	428.31
323.795	449.31
324.024	478.31
324.253	557.31
324.482	717.31
324.71	1014.31
324.939	1399.31
325.168	1303.31
325.397	718.31
325.626	539.31
325.855	478.31
326.084	456.31
326.313	443.31
326.542	462.31
326.77	471.31
326.999	530.31
327.228	672.31
327.457	959.31
327.686	1115.31
327.914	795.31
328.143	580.31
328.372	511.31
328.6	492.31
328.829	468.31
329.058	486.31
329.287	485.31
329.515	471.31
329.744	486.31
329.972	455.31
330.201	485.31
330.43	487.31
330.658	489.31
330.887	510.31
331.115	507.31
331.344	474.31
331.572	468.31
331.801	467.31
332.03	457.31
332.258	468.31
332.486	460.31
332.715	487.31
332.943	471.31
333.172	469.31
333.4	457.31
333.629	464.31
333.857	492.31
334.085	497.31
334.314	517.31
334.542	489.31
334.771	520.31
334.999	518.31
335.227	476.31
335.455	469.31
335.684	464.31
335.912	454.31
336.14	456.31
336.369	460.31
336.597	453.31
336.825	450.31
337.053	450.31
337.281	442.31
337.51	427.31
337.738	445.31
337.966	445.31
338.194	440.31
338.422	450.31
338.65	438.31
338.878	442.31
339.106	444.31
339.334	434.31
339.562	445.31
339.79	428.31
340.018	433.31
340.246	419.31
340.474	443.31
340.702	427.31
340.93	424.31
341.158	424.31
341.386	410.31
341.614	424.31
341.842	426.31
342.07	430.31
342.298	421.31
342.526	413.31
342.754	419.31
342.981	397.31
343.209	404.31
343.437	425.31
343.665	464.31
343.893	460.31
344.12	475.31
344.348	458.31
344.576	439.31
344.804	458.31
345.031	434.31
345.259	428.31
345.487	422.31
345.714	417.31
345.942	391.31
346.17	421.31
346.397	427.31
346.625	412.31
346.853	413.31
347.08	397.31
347.308	411.31
347.535	400.31
347.763	393.31
347.99	424.31
348.218	423.31
348.445	411.31
348.673	402.31
348.9	422.31
349.128	409.31
349.355	383.31
349.583	397.31
349.81	394.31
350.037	394.31
350.265	396.31
350.492	374.31
350.72	397.31
350.947	396.31
351.174	413.31
351.402	407.31
351.629	435.31
351.856	405.31
352.083	417.31
352.311	393.31
352.538	388.31
352.765	413.31
352.992	422.31
353.22	406.31
353.447	378.31
353.674	385.31
353.901	391.31
354.128	394.31
354.355	389.31
354.583	383.31
354.81	365.31
355.037	395.31
355.264	382.31
355.491	382.31
355.718	405.31
355.945	379.31
356.172	380.31
356.399	379.31
356.626	389.31
356.853	379.31
357.08	395.31
357.307	410.31
357.534	387.31
357.761	393.31
357.988	383.31
358.215	383.31
358.441	397.31
358.668	393.31
358.895	388.31
359.122	402.31
359.349	406.31
359.576	424.31
359.802	435.31
360.029	442.31
360.256	457.31
360.483	419.31
360.709	407.31
360.936	403.31
361.163	395.31
361.39	412.31
361.616	399.31
361.843	381.31
362.07	393.31
362.296	409.31
362.523	403.31
362.749	391.31
362.976	410.31
363.203	405.31
363.429	383.31
363.656	401.31
363.882	407.31
364.109	423.31
364.335	392.31
364.562	401.31
364.788	394.31
365.015	381.31
365.241	414.31
365.468	393.31
365.694	397.31
365.92	404.31
366.147	383.31
366.373	407.31
366.599	398.31
366.826	397.31
367.052	402.31
367.278	381.31
367.505	395.31
367.731	409.31
367.957	382.31
368.184	409.31
368.41	417.31
368.636	402.31
368.862	366.31
369.089	391.31
369.315	397.31
369.541	402.31
369.767	383.31
369.993	377.31
370.219	396.31
370.445	379.31
370.672	405.31
370.898	381.31
371.124	398.31
371.35	388.31
371.576	401.31
371.802	405.31
372.028	389.31
372.254	419.31
372.48	395.31
372.706	406.31
372.932	433.31
373.158	414.31
373.384	414.31
373.61	408.31
373.835	413.31
374.061	420.31
374.287	404.31
374.513	431.31
374.739	406.31
374.965	434.31
375.191	413.31
375.416	417.31
375.642	425.31
375.868	422.31
376.094	391.31
376.319	420.31
376.545	412.31
376.771	408.31
376.997	425.31
377.222	404.31
377.448	406.31
377.674	411.31
377.899	389.31
378.125	386.31
378.35	398.31
378.576	396.31
378.802	398.31
379.027	403.31
379.253	416.31
379.478	393.31
379.704	408.31
379.929	411.31
380.155	404.31
380.38	412.31
380.606	406.31
380.831	415.31
381.057	396.31
381.282	391.31
381.507	431.31
381.733	434.31
381.958	409.31
382.184	420.31
382.409	423.31
382.634	419.31
382.86	428.31
383.085	428.31
383.31	438.31
383.535	415.31
383.761	421.31
383.986	423.31
384.211	433.31
384.436	443.31
384.662	441.31
384.887	429.31
385.112	445.31
385.337	453.31
385.562	436.31
385.787	462.31
386.013	462.31
386.238	459.31
386.463	447.31
386.688	470.31
386.913	445.31
387.138	453.31
387.363	459.31
387.588	468.31
387.813	469.31
388.038	427.31
388.263	458.31
388.488	469.31
388.713	469.31
388.938	461.31
389.163	451.31
389.387	454.31
389.612	458.31
389.837	440.31
390.062	454.31
390.287	466.31
390.512	447.31
390.736	426.31
390.961	461.31
391.186	451.31
391.411	445.31
391.636	480.31
391.86	509.31
392.085	477.31
392.31	468.31
392.534	473.31
392.759	459.31
392.984	460.31
393.208	472.31
393.433	462.31
393.658	475.31
393.882	464.31
394.107	482.31
394.331	469.31
394.556	478.31
394.78	463.31
395.005	471.31
395.229	472.31
395.454	482.31
395.678	512.31
395.903	520.31
396.127	516.31
396.352	515.31
396.576	479.31
396.801	492.31
397.025	470.31
397.249	481.31
397.474	490.31
397.698	480.31
397.922	493.31
398.147	543.31
398.371	518.31
398.595	524.31
398.82	539.31
399.044	561.31
399.268	577.31
399.492	635.31
399.717	665.31
399.941	711.31
400.165	687.31
400.389	685.31
400.613	625.31
400.837	581.31
401.062	573.31
401.286	551.31
401.51	561.31
401.734	540.31
401.958	537.31
402.182	562.31
402.406	540.31
402.63	563.31
402.854	543.31
403.078	546.31
403.302	568.31
403.526	575.31
403.75	578.31
403.974	606.31
404.198	577.31
404.422	569.31
404.645	572.31
404.869	583.31
405.093	601.31
405.317	630.31
405.541	653.31
405.765	623.31
405.988	580.31
406.212	605.31
406.436	603.31
406.66	597.31
406.883	588.31
407.107	645.31
407.331	666.31
407.555	718.31
407.778	724.31
408.002	655.31
408.226	620.31
408.449	620.31
408.673	611.31
408.896	663.31
409.12	650.31
409.344	656.31
409.567	575.31
409.791	577.31
410.014	557.31
410.238	567.31
410.461	586.31
410.685	571.31
410.908	574.31
411.132	597.31
411.355	626.31
411.578	586.31
411.802	565.31
412.025	541.31
412.249	567.31
412.472	591.31
412.695	596.31
412.919	598.31
413.142	561.31
413.365	567.31
413.589	547.31
413.812	543.31
414.035	530.31
414.258	535.31
414.482	518.31
414.705	557.31
414.928	553.31
415.151	522.31
415.374	535.31
415.597	537.31
415.821	522.31
416.044	512.31
416.267	527.31
416.49	539.31
416.713	513.31
416.936	518.31
417.159	519.31
417.382	547.31
417.605	521.31
417.828	557.31
418.051	529.31
418.274	554.31
418.497	527.31
418.72	520.31
418.943	531.31
419.166	558.31
419.389	584.31
419.611	591.31
419.834	569.31
420.057	558.31
420.28	573.31
420.503	543.31
420.726	537.31
420.948	553.31
421.171	574.31
421.394	574.31
421.617	550.31
421.839	531.31
422.062	547.31
422.285	525.31
422.507	577.31
422.73	651.31
422.953	632.31
423.175	568.31
423.398	564.31
423.621	575.31
423.843	581.31
424.066	581.31
424.288	587.31
424.511	574.31
424.733	597.31
424.956	693.31
425.178	659.31
425.401	637.31
425.623	657.31
425.846	619.31
426.068	583.31
426.291	582.31
426.513	576.31
426.735	588.31
426.958	584.31
427.18	655.31
427.402	759.31
427.625	799.31
427.847	683.31
428.069	611.31
428.292	563.31
428.514	536.31
428.736	509.31
428.958	531.31
429.181	531.31
429.403	524.31
429.625	520.31
429.847	549.31
430.069	582.31
430.292	591.31
430.514	527.31
430.736	503.31
430.958	508.31
431.18	484.31
431.402	483.31
431.624	490.31
431.846	494.31
432.068	496.31
432.29	502.31
432.512	489.31
432.734	531.31
432.956	507.31
433.178	498.31
433.4	506.31
433.622	518.31
433.844	490.31
434.066	511.31
434.287	501.31
434.509	486.31
434.731	541.31
434.953	537.31
435.175	546.31
435.397	556.31
435.618	544.31
435.84	597.31
436.062	658.31
436.284	707.31
436.505	586.31
436.727	547.31
436.949	541.31
437.17	514.31
437.392	501.31
437.614	521.31
437.835	525.31
438.057	606.31
438.278	657.31
438.5	687.31
438.721	761.31
438.943	706.31
439.165	582.31
439.386	554.31
439.608	551.31
439.829	530.31
440.05	567.31
440.272	582.31
440.493	563.31
440.715	541.31
440.936	502.31
441.158	528.31
441.379	518.31
441.6	539.31
441.822	556.31
442.043	578.31
442.264	636.31
442.486	683.31
442.707	585.31
442.928	557.31
443.149	564.31
443.371	585.31
443.592	619.31
443.813	692.31
444.034	728.31
444.255	642.31
444.476	605.31
444.698	603.31
444.919	600.31
445.14	698.31
445.361	622.31
445.582	603.31
445.803	622.31
446.024	690.31
446.245	669.31
446.466	633.31
446.687	574.31
446.908	548.31
447.129	517.31
447.35	502.31
447.571	503.31
447.792	470.31
448.013	487.31
448.234	512.31
448.455	530.31
448.675	614.31
448.896	713.31
449.117	632.31
449.338	571.31
449.559	665.31
449.779	740.31
450	633.31
450.221	533.31
450.442	517.31
450.662	483.31
450.883	459.31
451.104	514.31
451.324	499.31
451.545	447.31
451.766	492.31
451.986	471.31
452.207	444.31
452.428	461.31
452.648	456.31
452.869	457.31
453.089	475.31
453.31	478.31
453.53	475.31
453.751	457.31
453.971	468.31
454.192	458.31
454.412	457.31
454.633	460.31
454.853	443.31
455.073	449.31
455.294	460.31
455.514	515.31
455.734	494.31
455.955	471.31
456.175	420.31
456.395	450.31
456.616	443.31
456.836	438.31
457.056	420.31
457.276	449.31
457.497	435.31
457.717	440.31
457.937	439.31
458.157	451.31
458.377	453.31
458.598	485.31
458.818	496.31
459.038	550.31
459.258	570.31
459.478	526.31
459.698	491.31
459.918	505.31
460.138	536.31
460.358	521.31
460.578	547.31
460.798	542.31
461.018	543.31
461.238	544.31
461.458	563.31
461.678	561.31
461.898	534.31
462.118	551.31
462.338	532.31
462.558	550.31
462.777	572.31
462.997	631.31
463.217	610.31
463.437	613.31
463.657	585.31
463.876	600.31
464.096	626.31
464.316	595.31
464.536	589.31
464.755	601.31
464.975	577.31
465.195	596.31
465.414	599.31
465.634	548.31
465.854	536.31
466.073	527.31
466.293	493.31
466.512	473.31
466.732	482.31
466.951	488.31
467.171	495.31
467.391	486.31
467.61	461.31
467.829	483.31
468.049	472.31
468.268	477.31
468.488	475.31
468.707	481.31
468.927	475.31
469.146	455.31
469.365	463.31
469.585	456.31
469.804	477.31
470.023	503.31
470.243	475.31
470.462	476.31
470.681	503.31
470.901	513.31
471.12	493.31
471.339	492.31
471.558	482.31
471.777	500.31
471.997	497.31
472.216	480.31
472.435	481.31
472.654	485.31
472.873	482.31
473.092	509.31
473.311	490.31
473.53	491.31
473.749	487.31
473.968	497.31
474.187	565.31
474.406	578.31
474.625	538.31
474.844	484.31
475.063	483.31
475.282	469.31
475.501	460.31
475.72	481.31
475.939	492.31
476.158	505.31
476.377	481.31
476.596	498.31
476.814	509.31
477.033	520.31
477.252	507.31
477.471	510.31
477.69	539.31
477.908	517.31
478.127	535.31
478.346	533.31
478.564	562.31
478.783	554.31
479.002	570.31
479.22	571.31
479.439	581.31
479.658	589.31
479.876	597.31
480.095	604.31
480.313	613.31
480.532	602.31
480.751	587.31
480.969	624.31
481.188	617.31
481.406	613.31
481.624	615.31
481.843	595.31
482.061	561.31
482.28	577.31
482.498	549.31
482.717	542.31
482.935	559.31
483.153	551.31
483.372	561.31
483.59	556.31
483.808	552.31
484.027	527.31
484.245	555.31
484.463	572.31
484.681	562.31
484.9	549.31
485.118	581.31
485.336	567.31
485.554	573.31
485.772	591.31
485.99	587.31
486.209	578.31
486.427	563.31
486.645	570.31
486.863	597.31
487.081	571.31
487.299	597.31
487.517	589.31
487.735	599.31
487.953	598.31
488.171	586.31
488.389	581.31
488.607	598.31
488.825	569.31
489.043	599.31
489.261	600.31
489.479	607.31
489.696	609.31
489.914	607.31
490.132	607.31
490.35	618.31
490.568	599.31
490.786	620.31
491.003	631.31
491.221	613.31
491.439	632.31
491.657	632.31
491.874	649.31
492.092	648.31
492.31	662.31
492.527	655.31
492.745	665.31
492.963	663.31
493.18	661.31
493.398	645.31
493.615	661.31
493.833	668.31
494.05	673.31
494.268	673.31
494.485	680.31
494.703	685.31
494.92	668.31
495.138	650.31
495.355	691.31
495.573	686.31
495.79	693.31
496.008	675.31
496.225	676.31
496.442	698.31
496.66	689.31
496.877	697.31
497.094	696.31
497.312	710.31
497.529	730.31
497.746	723.31
497.963	743.31
498.181	775.31
498.398	775.31
498.615	819.31
498.832	846.31
499.049	862.31
499.267	896.31
499.484	973.31
499.701	996.31
499.918	1065.31
500.135	1117.31
500.352	1177.31
500.569	1234.31
500.786	1214.31
501.003	1163.31
501.22	1146.31
501.437	1053.31
501.654	1003.31
501.871	966.31
