Data from 1962.PennyLincolnUp.Lamp.En5.5.200Scan.071719.P1._HRD10591_13-53-39-060.txt Node
Date: Thu Jul 18 13:53:39 EDT 2019
User: cochatt
Spectrometer: HR+D1059
Trigger mode: 1
Integration Time (sec): 1.000000E-1
Scans to average: 1
Electric dark correction enabled: true
Nonlinearity correction enabled: false
Boxcar width: 0
XAxis mode: Wavelengths
Number of Pixels in Spectrum: 2048
>>>>>Begin Spectral Data<<<<<
223.165	-19.88
223.4	-19.88
223.635	-19.88
223.869	-4.88
224.104	-20.88
224.338	-13.88
224.573	-14.88
224.808	-16.88
225.042	-4.88
225.277	-6.88
225.511	1.12
225.746	-2.88
225.98	7.12
226.215	23.12
226.449	14.12
226.683	14.12
226.918	9.12
227.152	37.12
227.387	18.12
227.621	37.12
227.856	39.12
228.09	61.12
228.324	47.12
228.559	45.12
228.793	59.12
229.027	94.12
229.262	89.12
229.496	91.12
229.73	107.12
229.964	131.12
230.199	109.12
230.433	97.12
230.667	89.12
230.901	91.12
231.136	99.12
231.37	97.12
231.604	107.12
231.838	92.12
232.072	104.12
232.306	116.12
232.541	103.12
232.775	119.12
233.009	103.12
233.243	93.12
233.477	106.12
233.711	118.12
233.945	116.12
234.179	96.12
234.413	110.12
234.647	113.12
234.881	99.12
235.115	105.12
235.349	122.12
235.583	129.12
235.817	120.12
236.051	112.12
236.285	122.12
236.519	121.12
236.753	121.12
236.987	128.12
237.221	154.12
237.455	166.12
237.689	155.12
237.922	131.12
238.156	98.12
238.39	120.12
238.624	121.12
238.858	127.12
239.091	119.12
239.325	119.12
239.559	120.12
239.793	124.12
240.027	121.12
240.26	125.12
240.494	139.12
240.728	133.12
240.961	136.12
241.195	125.12
241.429	134.12
241.662	134.12
241.896	124.12
242.13	129.12
242.363	118.12
242.597	117.12
242.83	112.12
243.064	124.12
243.298	119.12
243.531	140.12
243.765	131.12
243.998	134.12
244.232	135.12
244.465	144.12
244.699	137.12
244.932	138.12
245.166	131.12
245.399	129.12
245.633	141.12
245.866	145.12
246.099	144.12
246.333	131.12
246.566	145.12
246.8	147.12
247.033	147.12
247.266	142.12
247.5	143.12
247.733	157.12
247.966	154.12
248.2	159.12
248.433	159.12
248.666	162.12
248.899	157.12
249.133	169.12
249.366	171.12
249.599	166.12
249.832	156.12
250.066	145.12
250.299	149.12
250.532	176.12
250.765	177.12
250.998	205.12
251.231	178.12
251.465	188.12
251.698	183.12
251.931	193.12
252.164	183.12
252.397	183.12
252.63	182.12
252.863	181.12
253.096	178.12
253.329	186.12
253.562	202.12
253.795	195.12
254.028	170.12
254.261	183.12
254.494	190.12
254.727	214.12
254.96	243.12
255.193	221.12
255.426	225.12
255.659	207.12
255.892	197.12
256.124	194.12
256.357	202.12
256.59	198.12
256.823	203.12
257.056	187.12
257.289	191.12
257.521	173.12
257.754	182.12
257.987	184.12
258.22	195.12
258.452	182.12
258.685	170.12
258.918	182.12
259.151	187.12
259.383	209.12
259.616	195.12
259.849	205.12
260.081	222.12
260.314	221.12
260.547	227.12
260.779	218.12
261.012	206.12
261.244	201.12
261.477	196.12
261.71	198.12
261.942	192.12
262.175	209.12
262.407	204.12
262.64	207.12
262.872	195.12
263.105	213.12
263.337	202.12
263.57	199.12
263.802	211.12
264.035	199.12
264.267	213.12
264.499	206.12
264.732	196.12
264.964	203.12
265.197	187.12
265.429	192.12
265.661	193.12
265.894	212.12
266.126	203.12
266.358	209.12
266.591	202.12
266.823	198.12
267.055	207.12
267.287	211.12
267.52	212.12
267.752	209.12
267.984	227.12
268.216	226.12
268.448	217.12
268.681	226.12
268.913	217.12
269.145	222.12
269.377	261.12
269.609	250.12
269.841	258.12
270.073	261.12
270.306	251.12
270.538	272.12
270.77	276.12
271.002	258.12
271.234	230.12
271.466	274.12
271.698	255.12
271.93	266.12
272.162	266.12
272.394	271.12
272.626	255.12
272.858	263.12
273.09	270.12
273.322	260.12
273.553	237.12
273.785	248.12
274.017	257.12
274.249	238.12
274.481	241.12
274.713	269.12
274.945	245.12
275.176	248.12
275.408	258.12
275.64	242.12
275.872	248.12
276.104	268.12
276.335	258.12
276.567	263.12
276.799	249.12
277.031	265.12
277.262	288.12
277.494	280.12
277.726	270.12
277.957	270.12
278.189	274.12
278.421	278.12
278.652	253.12
278.884	263.12
279.115	263.12
279.347	269.12
279.579	266.12
279.81	249.12
280.042	261.12
280.273	258.12
280.505	259.12
280.736	261.12
280.968	282.12
281.199	253.12
281.431	233.12
281.662	261.12
281.894	263.12
282.125	262.12
282.356	284.12
282.588	288.12
282.819	264.12
283.051	281.12
283.282	285.12
283.513	265.12
283.745	260.12
283.976	270.12
284.207	262.12
284.439	279.12
284.67	271.12
284.901	282.12
285.132	276.12
285.364	264.12
285.595	273.12
285.826	273.12
286.057	302.12
286.288	280.12
286.52	275.12
286.751	282.12
286.982	300.12
287.213	263.12
287.444	280.12
287.675	285.12
287.906	299.12
288.138	303.12
288.369	296.12
288.6	311.12
288.831	311.12
289.062	308.12
289.293	307.12
289.524	293.12
289.755	291.12
289.986	293.12
290.217	291.12
290.448	277.12
290.679	285.12
290.91	316.12
291.141	292.12
291.371	282.12
291.602	287.12
291.833	281.12
292.064	275.12
292.295	287.12
292.526	283.12
292.757	282.12
292.987	285.12
293.218	281.12
293.449	292.12
293.68	286.12
293.91	284.12
294.141	275.12
294.372	297.12
294.603	299.12
294.833	319.12
295.064	301.12
295.295	292.12
295.525	282.12
295.756	301.12
295.987	300.12
296.217	305.12
296.448	324.12
296.679	301.12
296.909	311.12
297.14	296.12
297.37	301.12
297.601	309.12
297.831	301.12
298.062	295.12
298.292	302.12
298.523	307.12
298.753	306.12
298.984	302.12
299.214	316.12
299.445	324.12
299.675	306.12
299.905	309.12
300.136	313.12
300.366	311.12
300.597	310.12
300.827	321.12
301.057	324.12
301.288	329.12
301.518	321.12
301.748	313.12
301.979	328.12
302.209	331.12
302.439	327.12
302.669	335.12
302.9	333.12
303.13	339.12
303.36	329.12
303.59	327.12
303.82	345.12
304.051	341.12
304.281	319.12
304.511	325.12
304.741	327.12
304.971	323.12
305.201	342.12
305.431	321.12
305.661	332.12
305.891	328.12
306.121	330.12
306.352	349.12
306.582	346.12
306.812	313.12
307.042	334.12
307.272	344.12
307.502	326.12
307.731	328.12
307.961	341.12
308.191	319.12
308.421	307.12
308.651	341.12
308.881	319.12
309.111	331.12
309.341	324.12
309.571	336.12
309.8	353.12
310.03	345.12
310.26	336.12
310.49	341.12
310.72	342.12
310.949	352.12
311.179	355.12
311.409	351.12
311.639	329.12
311.868	355.12
312.098	368.12
312.328	365.12
312.557	369.12
312.787	386.12
313.017	386.12
313.246	358.12
313.476	351.12
313.706	353.12
313.935	365.12
314.165	365.12
314.394	363.12
314.624	379.12
314.853	399.12
315.083	377.12
315.312	381.12
315.542	353.12
315.771	359.12
316.001	373.12
316.23	371.12
316.46	367.12
316.689	360.12
316.919	378.12
317.148	390.12
317.377	381.12
317.607	367.12
317.836	356.12
318.065	354.12
318.295	360.12
318.524	354.12
318.753	366.12
318.983	358.12
319.212	377.12
319.441	339.12
319.67	360.12
319.9	375.12
320.129	369.12
320.358	371.12
320.587	363.12
320.816	361.12
321.046	376.12
321.275	360.12
321.504	379.12
321.733	383.12
321.962	377.12
322.191	378.12
322.42	381.12
322.649	390.12
322.878	395.12
323.108	380.12
323.337	406.12
323.566	431.12
323.795	425.12
324.024	445.12
324.253	518.12
324.482	680.12
324.71	943.12
324.939	1288.12
325.168	1163.12
325.397	670.12
325.626	507.12
325.855	429.12
326.084	438.12
326.313	445.12
326.542	421.12
326.77	447.12
326.999	503.12
327.228	644.12
327.457	854.12
327.686	1049.12
327.914	721.12
328.143	551.12
328.372	513.12
328.6	478.12
328.829	473.12
329.058	454.12
329.287	464.12
329.515	463.12
329.744	448.12
329.972	453.12
330.201	452.12
330.43	465.12
330.658	487.12
330.887	490.12
331.115	493.12
331.344	472.12
331.572	446.12
331.801	432.12
332.03	437.12
332.258	429.12
332.486	442.12
332.715	449.12
332.943	448.12
333.172	438.12
333.4	457.12
333.629	478.12
333.857	480.12
334.085	476.12
334.314	489.12
334.542	479.12
334.771	502.12
334.999	481.12
335.227	472.12
335.455	441.12
335.684	464.12
335.912	465.12
336.14	443.12
336.369	433.12
336.597	447.12
336.825	459.12
337.053	455.12
337.281	455.12
337.51	427.12
337.738	443.12
337.966	433.12
338.194	435.12
338.422	444.12
338.65	417.12
338.878	436.12
339.106	415.12
339.334	445.12
339.562	432.12
339.79	409.12
340.018	431.12
340.246	400.12
340.474	424.12
340.702	415.12
340.93	408.12
341.158	417.12
341.386	413.12
341.614	418.12
341.842	394.12
342.07	435.12
342.298	422.12
342.526	417.12
342.754	405.12
342.981	412.12
343.209	402.12
343.437	429.12
343.665	438.12
343.893	442.12
344.12	459.12
344.348	450.12
344.576	443.12
344.804	442.12
345.031	420.12
345.259	429.12
345.487	413.12
345.714	416.12
345.942	421.12
346.17	420.12
346.397	427.12
346.625	411.12
346.853	418.12
347.08	381.12
347.308	408.12
347.535	413.12
347.763	410.12
347.99	399.12
348.218	391.12
348.445	403.12
348.673	396.12
348.9	407.12
349.128	402.12
349.355	381.12
349.583	373.12
349.81	378.12
350.037	377.12
350.265	393.12
350.492	383.12
350.72	392.12
350.947	395.12
351.174	393.12
351.402	409.12
351.629	396.12
351.856	401.12
352.083	388.12
352.311	417.12
352.538	424.12
352.765	388.12
352.992	410.12
353.22	390.12
353.447	393.12
353.674	376.12
353.901	378.12
354.128	376.12
354.355	369.12
354.583	375.12
354.81	393.12
355.037	378.12
355.264	379.12
355.491	391.12
355.718	388.12
355.945	407.12
356.172	391.12
356.399	379.12
356.626	399.12
356.853	377.12
357.08	388.12
357.307	378.12
357.534	383.12
357.761	388.12
357.988	378.12
358.215	377.12
358.441	395.12
358.668	394.12
358.895	376.12
359.122	383.12
359.349	380.12
359.576	394.12
359.802	413.12
360.029	413.12
360.256	398.12
360.483	393.12
360.709	391.12
360.936	399.12
361.163	381.12
361.39	375.12
361.616	384.12
361.843	390.12
362.07	409.12
362.296	403.12
362.523	410.12
362.749	397.12
362.976	386.12
363.203	407.12
363.429	377.12
363.656	383.12
363.882	365.12
364.109	355.12
364.335	373.12
364.562	375.12
364.788	378.12
365.015	389.12
365.241	385.12
365.468	379.12
365.694	379.12
365.92	384.12
366.147	395.12
366.373	393.12
366.599	379.12
366.826	366.12
367.052	383.12
367.278	366.12
367.505	399.12
367.731	387.12
367.957	390.12
368.184	409.12
368.41	400.12
368.636	394.12
368.862	392.12
369.089	405.12
369.315	391.12
369.541	386.12
369.767	381.12
369.993	371.12
370.219	394.12
370.445	393.12
370.672	409.12
370.898	400.12
371.124	395.12
371.35	398.12
371.576	401.12
371.802	384.12
372.028	394.12
372.254	416.12
372.48	375.12
372.706	391.12
372.932	425.12
373.158	409.12
373.384	401.12
373.61	404.12
373.835	406.12
374.061	399.12
374.287	419.12
374.513	407.12
374.739	388.12
374.965	412.12
375.191	411.12
375.416	432.12
375.642	410.12
375.868	407.12
376.094	403.12
376.319	394.12
376.545	406.12
376.771	383.12
376.997	422.12
377.222	389.12
377.448	424.12
377.674	422.12
377.899	403.12
378.125	410.12
378.35	392.12
378.576	394.12
378.802	371.12
379.027	392.12
379.253	392.12
379.478	399.12
379.704	409.12
379.929	392.12
380.155	406.12
380.38	374.12
380.606	403.12
380.831	400.12
381.057	405.12
381.282	403.12
381.507	414.12
381.733	389.12
381.958	411.12
382.184	412.12
382.409	401.12
382.634	418.12
382.86	408.12
383.085	399.12
383.31	413.12
383.535	414.12
383.761	422.12
383.986	442.12
384.211	442.12
384.436	447.12
384.662	425.12
384.887	434.12
385.112	431.12
385.337	458.12
385.562	455.12
385.787	448.12
386.013	460.12
386.238	446.12
386.463	437.12
386.688	462.12
386.913	442.12
387.138	447.12
387.363	458.12
387.588	448.12
387.813	452.12
388.038	471.12
388.263	475.12
388.488	443.12
388.713	455.12
388.938	456.12
389.163	464.12
389.387	458.12
389.612	459.12
389.837	447.12
390.062	446.12
390.287	430.12
390.512	423.12
390.736	451.12
390.961	439.12
391.186	470.12
391.411	469.12
391.636	467.12
391.86	467.12
392.085	470.12
392.31	482.12
392.534	507.12
392.759	483.12
392.984	481.12
393.208	475.12
393.433	475.12
393.658	477.12
393.882	494.12
394.107	460.12
394.331	475.12
394.556	450.12
394.78	495.12
395.005	459.12
395.229	453.12
395.454	467.12
395.678	505.12
395.903	496.12
396.127	508.12
396.352	503.12
396.576	457.12
396.801	469.12
397.025	474.12
397.249	482.12
397.474	490.12
397.698	473.12
397.922	501.12
398.147	527.12
398.371	509.12
398.595	537.12
398.82	521.12
399.044	554.12
399.268	587.12
399.492	632.12
399.717	675.12
399.941	685.12
400.165	710.12
400.389	691.12
400.613	601.12
400.837	564.12
401.062	559.12
401.286	551.12
401.51	547.12
401.734	553.12
401.958	558.12
402.182	549.12
402.406	544.12
402.63	550.12
402.854	543.12
403.078	552.12
403.302	570.12
403.526	575.12
403.75	574.12
403.974	552.12
404.198	572.12
404.422	564.12
404.645	575.12
404.869	586.12
405.093	586.12
405.317	625.12
405.541	630.12
405.765	614.12
405.988	598.12
406.212	595.12
406.436	611.12
406.66	611.12
406.883	593.12
407.107	624.12
407.331	664.12
407.555	712.12
407.778	693.12
408.002	674.12
408.226	611.12
408.449	637.12
408.673	618.12
408.896	637.12
409.12	659.12
409.344	618.12
409.567	571.12
409.791	562.12
410.014	558.12
410.238	552.12
410.461	567.12
410.685	561.12
410.908	560.12
411.132	581.12
411.355	590.12
411.578	583.12
411.802	554.12
412.025	551.12
412.249	567.12
412.472	577.12
412.695	630.12
412.919	615.12
413.142	551.12
413.365	549.12
413.589	521.12
413.812	538.12
414.035	537.12
414.258	537.12
414.482	551.12
414.705	545.12
414.928	537.12
415.151	511.12
415.374	523.12
415.597	532.12
415.821	554.12
416.044	523.12
416.267	523.12
416.49	520.12
416.713	517.12
416.936	526.12
417.159	522.12
417.382	520.12
417.605	501.12
417.828	536.12
418.051	537.12
418.274	515.12
418.497	517.12
418.72	524.12
418.943	523.12
419.166	550.12
419.389	582.12
419.611	565.12
419.834	570.12
420.057	549.12
420.28	567.12
420.503	524.12
420.726	528.12
420.948	557.12
421.171	552.12
421.394	602.12
421.617	558.12
421.839	535.12
422.062	521.12
422.285	553.12
422.507	585.12
422.73	641.12
422.953	632.12
423.175	583.12
423.398	554.12
423.621	564.12
423.843	574.12
424.066	574.12
424.288	581.12
424.511	578.12
424.733	597.12
424.956	674.12
425.178	651.12
425.401	650.12
425.623	647.12
425.846	586.12
426.068	557.12
426.291	535.12
426.513	534.12
426.735	566.12
426.958	571.12
427.18	626.12
427.402	729.12
427.625	793.12
427.847	699.12
428.069	596.12
428.292	559.12
428.514	523.12
428.736	536.12
428.958	534.12
429.181	498.12
429.403	523.12
429.625	519.12
429.847	534.12
430.069	593.12
430.292	593.12
430.514	531.12
430.736	517.12
430.958	497.12
431.18	516.12
431.402	475.12
431.624	486.12
431.846	488.12
432.068	499.12
432.29	493.12
432.512	528.12
432.734	510.12
432.956	503.12
433.178	510.12
433.4	497.12
433.622	485.12
433.844	489.12
434.066	483.12
434.287	485.12
434.509	510.12
434.731	519.12
434.953	518.12
435.175	538.12
435.397	543.12
435.618	532.12
435.84	557.12
436.062	625.12
436.284	669.12
436.505	601.12
436.727	543.12
436.949	496.12
437.17	516.12
437.392	510.12
437.614	515.12
437.835	530.12
438.057	578.12
438.278	650.12
438.5	655.12
438.721	707.12
438.943	695.12
439.165	590.12
439.386	544.12
439.608	528.12
439.829	525.12
440.05	531.12
440.272	572.12
440.493	541.12
440.715	523.12
440.936	519.12
441.158	511.12
441.379	516.12
441.6	531.12
441.822	554.12
442.043	572.12
442.264	632.12
442.486	657.12
442.707	602.12
442.928	549.12
443.149	575.12
443.371	567.12
443.592	605.12
443.813	695.12
444.034	733.12
444.255	610.12
444.476	603.12
444.698	591.12
444.919	597.12
445.14	686.12
445.361	645.12
445.582	577.12
445.803	605.12
446.024	650.12
446.245	667.12
446.466	607.12
446.687	555.12
446.908	520.12
447.129	517.12
447.35	487.12
447.571	497.12
447.792	501.12
448.013	516.12
448.234	510.12
448.455	503.12
448.675	602.12
448.896	693.12
449.117	600.12
449.338	580.12
449.559	663.12
449.779	749.12
450	593.12
450.221	537.12
450.442	474.12
450.662	484.12
450.883	472.12
451.104	486.12
451.324	473.12
451.545	454.12
451.766	464.12
451.986	453.12
452.207	455.12
452.428	464.12
452.648	460.12
452.869	440.12
453.089	470.12
453.31	448.12
453.53	466.12
453.751	454.12
453.971	456.12
454.192	468.12
454.412	444.12
454.633	440.12
454.853	446.12
455.073	463.12
455.294	454.12
455.514	495.12
455.734	479.12
455.955	455.12
456.175	435.12
456.395	433.12
456.616	424.12
456.836	445.12
457.056	433.12
457.276	421.12
457.497	423.12
457.717	429.12
457.937	440.12
458.157	439.12
458.377	444.12
458.598	466.12
458.818	494.12
459.038	560.12
459.258	569.12
459.478	510.12
459.698	477.12
459.918	511.12
460.138	518.12
460.358	528.12
460.578	526.12
460.798	531.12
461.018	543.12
461.238	520.12
461.458	524.12
461.678	526.12
461.898	529.12
462.118	536.12
462.338	550.12
462.558	569.12
462.777	581.12
462.997	598.12
463.217	614.12
463.437	615.12
463.657	609.12
463.876	573.12
464.096	592.12
464.316	575.12
464.536	587.12
464.755	568.12
464.975	561.12
465.195	591.12
465.414	575.12
465.634	530.12
465.854	523.12
466.073	538.12
466.293	494.12
466.512	475.12
466.732	463.12
466.951	496.12
467.171	483.12
467.391	485.12
467.61	482.12
467.829	465.12
468.049	474.12
468.268	466.12
468.488	464.12
468.707	479.12
468.927	478.12
469.146	464.12
469.365	469.12
469.585	469.12
469.804	461.12
470.023	465.12
470.243	473.12
470.462	461.12
470.681	475.12
470.901	486.12
471.12	499.12
471.339	472.12
471.558	482.12
471.777	470.12
471.997	491.12
472.216	480.12
472.435	501.12
472.654	486.12
472.873	459.12
473.092	465.12
473.311	471.12
473.53	464.12
473.749	474.12
473.968	488.12
474.187	576.12
474.406	561.12
474.625	486.12
474.844	471.12
475.063	466.12
475.282	467.12
475.501	473.12
475.72	477.12
475.939	474.12
476.158	498.12
476.377	497.12
476.596	495.12
476.814	472.12
477.033	511.12
477.252	522.12
477.471	515.12
477.69	502.12
477.908	521.12
478.127	529.12
478.346	523.12
478.564	535.12
478.783	549.12
479.002	552.12
479.22	558.12
479.439	581.12
479.658	574.12
479.876	570.12
480.095	597.12
480.313	621.12
480.532	599.12
480.751	588.12
480.969	605.12
481.188	600.12
481.406	635.12
481.624	594.12
481.843	567.12
482.061	584.12
482.28	558.12
482.498	545.12
482.717	567.12
482.935	573.12
483.153	537.12
483.372	548.12
483.59	531.12
483.808	564.12
484.027	565.12
484.245	539.12
484.463	576.12
484.681	569.12
484.9	553.12
485.118	560.12
485.336	559.12
485.554	571.12
485.772	590.12
485.99	575.12
486.209	587.12
486.427	581.12
486.645	609.12
486.863	593.12
487.081	592.12
487.299	586.12
487.517	579.12
487.735	587.12
487.953	578.12
488.171	576.12
488.389	546.12
488.607	578.12
488.825	569.12
489.043	579.12
489.261	589.12
489.479	584.12
489.696	583.12
489.914	571.12
490.132	565.12
490.35	614.12
490.568	596.12
490.786	624.12
491.003	618.12
491.221	625.12
491.439	633.12
491.657	622.12
491.874	625.12
492.092	628.12
492.31	632.12
492.527	630.12
492.745	647.12
492.963	643.12
493.18	635.12
493.398	674.12
493.615	647.12
493.833	655.12
494.05	673.12
494.268	647.12
494.485	657.12
494.703	671.12
494.92	654.12
495.138	652.12
495.355	679.12
495.573	691.12
495.79	677.12
496.008	661.12
496.225	680.12
496.442	679.12
496.66	670.12
496.877	658.12
497.094	707.12
497.312	677.12
497.529	685.12
497.746	722.12
497.963	749.12
498.181	758.12
498.398	798.12
498.615	814.12
498.832	821.12
499.049	865.12
499.267	881.12
499.484	921.12
499.701	989.12
499.918	1056.12
500.135	1110.12
500.352	1171.12
500.569	1203.12
500.786	1222.12
501.003	1191.12
501.22	1139.12
501.437	1037.12
501.654	999.12
501.871	924.12
502.088	907.12
