Data from 1962.PennyLincolnUp.Lamp.En5.5.200Scan.071719.P1._HRD10591_13-54-49-061.txt Node
Date: Thu Jul 18 13:54:49 EDT 2019
User: cochatt
Spectrometer: HR+D1059
Trigger mode: 1
Integration Time (sec): 1.000000E-1
Scans to average: 1
Electric dark correction enabled: true
Nonlinearity correction enabled: false
Boxcar width: 0
XAxis mode: Wavelengths
Number of Pixels in Spectrum: 2048
>>>>>Begin Spectral Data<<<<<
223.165	-27.75
223.4	-27.75
223.635	-27.75
223.869	-17.75
224.104	-13.75
224.338	-12.75
224.573	-14.75
224.808	1.25
225.042	-11.75
225.277	-10.75
225.511	-0.75
225.746	5.25
225.98	9.25
226.215	10.25
226.449	18.25
226.683	21.25
226.918	24.25
227.152	20.25
227.387	28.25
227.621	29.25
227.856	45.25
228.09	33.25
228.324	39.25
228.559	51.25
228.793	57.25
229.027	78.25
229.262	92.25
229.496	108.25
229.73	128.25
229.964	121.25
230.199	103.25
230.433	127.25
230.667	102.25
230.901	109.25
231.136	103.25
231.37	105.25
231.604	113.25
231.838	108.25
232.072	111.25
232.306	114.25
232.541	111.25
232.775	115.25
233.009	122.25
233.243	120.25
233.477	107.25
233.711	121.25
233.945	103.25
234.179	110.25
234.413	119.25
234.647	105.25
234.881	105.25
235.115	115.25
235.349	122.25
235.583	109.25
235.817	121.25
236.051	116.25
236.285	131.25
236.519	104.25
236.753	131.25
236.987	129.25
237.221	154.25
237.455	189.25
237.689	157.25
237.922	142.25
238.156	120.25
238.39	121.25
238.624	130.25
238.858	117.25
239.091	120.25
239.325	115.25
239.559	125.25
239.793	121.25
240.027	121.25
240.26	140.25
240.494	135.25
240.728	138.25
240.961	133.25
241.195	135.25
241.429	131.25
241.662	139.25
241.896	123.25
242.13	129.25
242.363	137.25
242.597	130.25
242.83	127.25
243.064	125.25
243.298	141.25
243.531	141.25
243.765	135.25
243.998	139.25
244.232	139.25
244.465	132.25
244.699	147.25
244.932	151.25
245.166	132.25
245.399	149.25
245.633	138.25
245.866	143.25
246.099	160.25
246.333	149.25
246.566	136.25
246.8	142.25
247.033	156.25
247.266	167.25
247.5	161.25
247.733	168.25
247.966	167.25
248.2	156.25
248.433	160.25
248.666	156.25
248.899	170.25
249.133	186.25
249.366	185.25
249.599	183.25
249.832	157.25
250.066	166.25
250.299	166.25
250.532	188.25
250.765	179.25
250.998	185.25
251.231	189.25
251.465	207.25
251.698	184.25
251.931	193.25
252.164	200.25
252.397	178.25
252.63	201.25
252.863	182.25
253.096	181.25
253.329	206.25
253.562	193.25
253.795	213.25
254.028	213.25
254.261	185.25
254.494	215.25
254.727	208.25
254.96	250.25
255.193	240.25
255.426	235.25
255.659	223.25
255.892	213.25
256.124	215.25
256.357	225.25
256.59	205.25
256.823	194.25
257.056	203.25
257.289	197.25
257.521	199.25
257.754	202.25
257.987	202.25
258.22	201.25
258.452	204.25
258.685	201.25
258.918	198.25
259.151	217.25
259.383	193.25
259.616	201.25
259.849	204.25
260.081	212.25
260.314	229.25
260.547	219.25
260.779	228.25
261.012	235.25
261.244	226.25
261.477	206.25
261.71	201.25
261.942	208.25
262.175	209.25
262.407	208.25
262.64	206.25
262.872	189.25
263.105	209.25
263.337	216.25
263.57	206.25
263.802	216.25
264.035	223.25
264.267	222.25
264.499	215.25
264.732	196.25
264.964	223.25
265.197	217.25
265.429	200.25
265.661	221.25
265.894	213.25
266.126	217.25
266.358	201.25
266.591	226.25
266.823	212.25
267.055	219.25
267.287	232.25
267.52	220.25
267.752	215.25
267.984	230.25
268.216	229.25
268.448	235.25
268.681	232.25
268.913	230.25
269.145	257.25
269.377	263.25
269.609	265.25
269.841	256.25
270.073	251.25
270.306	258.25
270.538	284.25
270.77	287.25
271.002	280.25
271.234	278.25
271.466	290.25
271.698	270.25
271.93	285.25
272.162	275.25
272.394	302.25
272.626	277.25
272.858	277.25
273.09	265.25
273.322	272.25
273.553	282.25
273.785	265.25
274.017	243.25
274.249	263.25
274.481	257.25
274.713	268.25
274.945	259.25
275.176	261.25
275.408	269.25
275.64	268.25
275.872	259.25
276.104	266.25
276.335	250.25
276.567	252.25
276.799	266.25
277.031	285.25
277.262	306.25
277.494	305.25
277.726	296.25
277.957	285.25
278.189	279.25
278.421	264.25
278.652	265.25
278.884	278.25
279.115	271.25
279.347	271.25
279.579	260.25
279.81	264.25
280.042	277.25
280.273	275.25
280.505	276.25
280.736	273.25
280.968	265.25
281.199	265.25
281.431	279.25
281.662	270.25
281.894	281.25
282.125	281.25
282.356	287.25
282.588	298.25
282.819	302.25
283.051	288.25
283.282	265.25
283.513	272.25
283.745	279.25
283.976	275.25
284.207	285.25
284.439	280.25
284.67	290.25
284.901	286.25
285.132	291.25
285.364	285.25
285.595	276.25
285.826	278.25
286.057	279.25
286.288	285.25
286.52	283.25
286.751	280.25
286.982	283.25
287.213	301.25
287.444	314.25
287.675	293.25
287.906	289.25
288.138	297.25
288.369	300.25
288.6	309.25
288.831	301.25
289.062	305.25
289.293	316.25
289.524	313.25
289.755	291.25
289.986	299.25
290.217	286.25
290.448	302.25
290.679	287.25
290.91	306.25
291.141	302.25
291.371	299.25
291.602	297.25
291.833	290.25
292.064	304.25
292.295	322.25
292.526	321.25
292.757	311.25
292.987	289.25
293.218	297.25
293.449	319.25
293.68	300.25
293.91	304.25
294.141	307.25
294.372	285.25
294.603	309.25
294.833	305.25
295.064	300.25
295.295	317.25
295.525	311.25
295.756	323.25
295.987	318.25
296.217	329.25
296.448	334.25
296.679	319.25
296.909	311.25
297.14	305.25
297.37	310.25
297.601	327.25
297.831	308.25
298.062	314.25
298.292	326.25
298.523	298.25
298.753	318.25
298.984	312.25
299.214	324.25
299.445	340.25
299.675	318.25
299.905	332.25
300.136	315.25
300.366	324.25
300.597	334.25
300.827	339.25
301.057	336.25
301.288	324.25
301.518	334.25
301.748	341.25
301.979	356.25
302.209	347.25
302.439	319.25
302.669	330.25
302.9	343.25
303.13	346.25
303.36	341.25
303.59	333.25
303.82	342.25
304.051	364.25
304.281	339.25
304.511	346.25
304.741	321.25
304.971	350.25
305.201	339.25
305.431	340.25
305.661	329.25
305.891	325.25
306.121	341.25
306.352	335.25
306.582	351.25
306.812	356.25
307.042	315.25
307.272	334.25
307.502	347.25
307.731	334.25
307.961	349.25
308.191	329.25
308.421	342.25
308.651	362.25
308.881	332.25
309.111	334.25
309.341	362.25
309.571	372.25
309.8	371.25
310.03	357.25
310.26	367.25
310.49	346.25
310.72	363.25
310.949	383.25
311.179	381.25
311.409	370.25
311.639	366.25
311.868	364.25
312.098	371.25
312.328	389.25
312.557	391.25
312.787	381.25
313.017	385.25
313.246	383.25
313.476	354.25
313.706	371.25
313.935	387.25
314.165	393.25
314.394	391.25
314.624	389.25
314.853	377.25
315.083	366.25
315.312	381.25
315.542	376.25
315.771	364.25
316.001	337.25
316.23	362.25
316.46	372.25
316.689	394.25
316.919	377.25
317.148	381.25
317.377	371.25
317.607	375.25
317.836	382.25
318.065	380.25
318.295	382.25
318.524	378.25
318.753	374.25
318.983	381.25
319.212	361.25
319.441	383.25
319.67	368.25
319.9	377.25
320.129	364.25
320.358	371.25
320.587	375.25
320.816	382.25
321.046	389.25
321.275	404.25
321.504	396.25
321.733	410.25
321.962	404.25
322.191	390.25
322.42	392.25
322.649	418.25
322.878	403.25
323.108	405.25
323.337	430.25
323.566	437.25
323.795	451.25
324.024	461.25
324.253	525.25
324.482	714.25
324.71	1055.25
324.939	1461.25
325.168	1308.25
325.397	715.25
325.626	548.25
325.855	472.25
326.084	462.25
326.313	451.25
326.542	466.25
326.77	493.25
326.999	547.25
327.228	662.25
327.457	910.25
327.686	1138.25
327.914	791.25
328.143	581.25
328.372	549.25
328.6	503.25
328.829	477.25
329.058	487.25
329.287	490.25
329.515	483.25
329.744	460.25
329.972	462.25
330.201	478.25
330.43	507.25
330.658	491.25
330.887	508.25
331.115	509.25
331.344	449.25
331.572	465.25
331.801	467.25
332.03	459.25
332.258	457.25
332.486	467.25
332.715	479.25
332.943	446.25
333.172	462.25
333.4	449.25
333.629	489.25
333.857	493.25
334.085	489.25
334.314	512.25
334.542	517.25
334.771	541.25
334.999	497.25
335.227	505.25
335.455	467.25
335.684	466.25
335.912	474.25
336.14	462.25
336.369	471.25
336.597	442.25
336.825	452.25
337.053	476.25
337.281	437.25
337.51	449.25
337.738	439.25
337.966	446.25
338.194	467.25
338.422	445.25
338.65	428.25
338.878	441.25
339.106	455.25
339.334	440.25
339.562	442.25
339.79	443.25
340.018	431.25
340.246	429.25
340.474	439.25
340.702	416.25
340.93	440.25
341.158	427.25
341.386	433.25
341.614	429.25
341.842	418.25
342.07	415.25
342.298	401.25
342.526	431.25
342.754	431.25
342.981	410.25
343.209	427.25
343.437	433.25
343.665	444.25
343.893	451.25
344.12	465.25
344.348	461.25
344.576	467.25
344.804	441.25
345.031	456.25
345.259	423.25
345.487	429.25
345.714	429.25
345.942	411.25
346.17	438.25
346.397	417.25
346.625	425.25
346.853	402.25
347.08	407.25
347.308	406.25
347.535	427.25
347.763	414.25
347.99	435.25
348.218	413.25
348.445	409.25
348.673	434.25
348.9	414.25
349.128	404.25
349.355	404.25
349.583	400.25
349.81	406.25
350.037	406.25
350.265	407.25
350.492	406.25
350.72	405.25
350.947	393.25
351.174	412.25
351.402	417.25
351.629	421.25
351.856	407.25
352.083	423.25
352.311	410.25
352.538	406.25
352.765	403.25
352.992	410.25
353.22	403.25
353.447	407.25
353.674	396.25
353.901	386.25
354.128	405.25
354.355	399.25
354.583	404.25
354.81	399.25
355.037	403.25
355.264	399.25
355.491	398.25
355.718	389.25
355.945	398.25
356.172	384.25
356.399	396.25
356.626	390.25
356.853	397.25
357.08	405.25
357.307	405.25
357.534	388.25
357.761	401.25
357.988	382.25
358.215	388.25
358.441	391.25
358.668	401.25
358.895	383.25
359.122	401.25
359.349	419.25
359.576	401.25
359.802	411.25
360.029	435.25
360.256	427.25
360.483	414.25
360.709	393.25
360.936	419.25
361.163	415.25
361.39	419.25
361.616	398.25
361.843	400.25
362.07	421.25
362.296	414.25
362.523	404.25
362.749	389.25
362.976	413.25
363.203	406.25
363.429	409.25
363.656	392.25
363.882	406.25
364.109	389.25
364.335	394.25
364.562	401.25
364.788	395.25
365.015	406.25
365.241	390.25
365.468	404.25
365.694	414.25
365.92	412.25
366.147	421.25
366.373	400.25
366.599	404.25
366.826	383.25
367.052	385.25
367.278	401.25
367.505	402.25
367.731	384.25
367.957	405.25
368.184	391.25
368.41	419.25
368.636	404.25
368.862	406.25
369.089	414.25
369.315	398.25
369.541	396.25
369.767	388.25
369.993	396.25
370.219	389.25
370.445	398.25
370.672	420.25
370.898	418.25
371.124	407.25
371.35	404.25
371.576	411.25
371.802	394.25
372.028	406.25
372.254	414.25
372.48	419.25
372.706	436.25
372.932	417.25
373.158	427.25
373.384	437.25
373.61	403.25
373.835	406.25
374.061	428.25
374.287	429.25
374.513	410.25
374.739	424.25
374.965	418.25
375.191	414.25
375.416	417.25
375.642	412.25
375.868	403.25
376.094	429.25
376.319	395.25
376.545	429.25
376.771	398.25
376.997	410.25
377.222	407.25
377.448	415.25
377.674	403.25
377.899	391.25
378.125	403.25
378.35	401.25
378.576	405.25
378.802	400.25
379.027	415.25
379.253	415.25
379.478	404.25
379.704	385.25
379.929	404.25
380.155	422.25
380.38	412.25
380.606	415.25
380.831	409.25
381.057	426.25
381.282	429.25
381.507	413.25
381.733	407.25
381.958	395.25
382.184	415.25
382.409	401.25
382.634	408.25
382.86	430.25
383.085	445.25
383.31	441.25
383.535	415.25
383.761	443.25
383.986	443.25
384.211	461.25
384.436	450.25
384.662	444.25
384.887	445.25
385.112	458.25
385.337	441.25
385.562	461.25
385.787	458.25
386.013	476.25
386.238	473.25
386.463	470.25
386.688	475.25
386.913	456.25
387.138	458.25
387.363	460.25
387.588	474.25
387.813	458.25
388.038	462.25
388.263	457.25
388.488	461.25
388.713	461.25
388.938	462.25
389.163	477.25
389.387	463.25
389.612	478.25
389.837	441.25
390.062	463.25
390.287	465.25
390.512	441.25
390.736	450.25
390.961	478.25
391.186	454.25
391.411	474.25
391.636	474.25
391.86	501.25
392.085	491.25
392.31	488.25
392.534	490.25
392.759	488.25
392.984	473.25
393.208	498.25
393.433	486.25
393.658	464.25
393.882	477.25
394.107	485.25
394.331	455.25
394.556	501.25
394.78	483.25
395.005	486.25
395.229	501.25
395.454	493.25
395.678	472.25
395.903	510.25
396.127	513.25
396.352	501.25
396.576	505.25
396.801	497.25
397.025	498.25
397.249	488.25
397.474	529.25
397.698	508.25
397.922	507.25
398.147	528.25
398.371	526.25
398.595	515.25
398.82	565.25
399.044	591.25
399.268	600.25
399.492	665.25
399.717	699.25
399.941	718.25
400.165	714.25
400.389	661.25
400.613	638.25
400.837	586.25
401.062	585.25
401.286	560.25
401.51	549.25
401.734	524.25
401.958	567.25
402.182	552.25
402.406	553.25
402.63	554.25
402.854	589.25
403.078	575.25
403.302	571.25
403.526	564.25
403.75	591.25
403.974	592.25
404.198	589.25
404.422	575.25
404.645	590.25
404.869	588.25
405.093	594.25
405.317	625.25
405.541	669.25
405.765	635.25
405.988	598.25
406.212	589.25
406.436	623.25
406.66	644.25
406.883	605.25
407.107	649.25
407.331	688.25
407.555	745.25
407.778	748.25
408.002	698.25
408.226	655.25
408.449	665.25
408.673	645.25
408.896	614.25
409.12	661.25
409.344	656.25
409.567	607.25
409.791	599.25
410.014	565.25
410.238	549.25
410.461	580.25
410.685	586.25
410.908	571.25
411.132	604.25
411.355	605.25
411.578	618.25
411.802	558.25
412.025	564.25
412.249	573.25
412.472	580.25
412.695	590.25
412.919	599.25
413.142	579.25
413.365	562.25
413.589	547.25
413.812	532.25
414.035	549.25
414.258	554.25
414.482	545.25
414.705	538.25
414.928	543.25
415.151	536.25
415.374	557.25
415.597	541.25
415.821	525.25
416.044	513.25
416.267	526.25
416.49	528.25
416.713	524.25
416.936	534.25
417.159	556.25
417.382	519.25
417.605	547.25
417.828	541.25
418.051	547.25
418.274	555.25
418.497	537.25
418.72	570.25
418.943	545.25
419.166	570.25
419.389	569.25
419.611	588.25
419.834	575.25
420.057	581.25
420.28	558.25
420.503	547.25
420.726	554.25
420.948	572.25
421.171	586.25
421.394	613.25
421.617	569.25
421.839	569.25
422.062	585.25
422.285	546.25
422.507	610.25
422.73	666.25
422.953	647.25
423.175	622.25
423.398	581.25
423.621	570.25
423.843	590.25
424.066	592.25
424.288	590.25
424.511	576.25
424.733	631.25
424.956	678.25
425.178	665.25
425.401	663.25
425.623	670.25
425.846	630.25
426.068	574.25
426.291	553.25
426.513	577.25
426.735	607.25
426.958	618.25
427.18	651.25
427.402	744.25
427.625	811.25
427.847	701.25
428.069	619.25
428.292	587.25
428.514	551.25
428.736	540.25
428.958	557.25
429.181	511.25
429.403	531.25
429.625	550.25
429.847	535.25
430.069	586.25
430.292	589.25
430.514	529.25
430.736	528.25
430.958	501.25
431.18	503.25
431.402	514.25
431.624	474.25
431.846	501.25
432.068	531.25
432.29	514.25
432.512	499.25
432.734	511.25
432.956	522.25
433.178	513.25
433.4	517.25
433.622	526.25
433.844	513.25
434.066	511.25
434.287	498.25
434.509	532.25
434.731	538.25
434.953	550.25
435.175	526.25
435.397	566.25
435.618	577.25
435.84	593.25
436.062	665.25
436.284	699.25
436.505	616.25
436.727	566.25
436.949	523.25
437.17	521.25
437.392	515.25
437.614	514.25
437.835	565.25
438.057	605.25
438.278	693.25
438.5	715.25
438.721	752.25
438.943	730.25
439.165	599.25
439.386	567.25
439.608	566.25
439.829	537.25
440.05	558.25
440.272	565.25
440.493	593.25
440.715	570.25
440.936	549.25
441.158	529.25
441.379	538.25
441.6	546.25
441.822	563.25
442.043	567.25
442.264	645.25
442.486	689.25
442.707	617.25
442.928	594.25
443.149	580.25
443.371	583.25
443.592	606.25
443.813	690.25
444.034	743.25
444.255	660.25
444.476	598.25
444.698	599.25
444.919	630.25
445.14	714.25
445.361	644.25
445.582	623.25
445.803	625.25
446.024	723.25
446.245	708.25
446.466	669.25
446.687	565.25
446.908	569.25
447.129	542.25
447.35	515.25
447.571	530.25
447.792	512.25
448.013	512.25
448.234	526.25
448.455	579.25
448.675	647.25
448.896	759.25
449.117	632.25
449.338	595.25
449.559	675.25
449.779	766.25
450	618.25
450.221	531.25
450.442	535.25
450.662	504.25
450.883	490.25
451.104	510.25
451.324	499.25
451.545	491.25
451.766	483.25
451.986	472.25
452.207	459.25
452.428	454.25
452.648	460.25
452.869	469.25
453.089	481.25
453.31	490.25
453.53	466.25
453.751	464.25
453.971	460.25
454.192	457.25
454.412	469.25
454.633	445.25
454.853	430.25
455.073	457.25
455.294	485.25
455.514	526.25
455.734	508.25
455.955	468.25
456.175	446.25
456.395	449.25
456.616	449.25
456.836	471.25
457.056	450.25
457.276	449.25
457.497	462.25
457.717	435.25
457.937	455.25
458.157	434.25
458.377	466.25
458.598	487.25
458.818	511.25
459.038	573.25
459.258	572.25
459.478	552.25
459.698	515.25
459.918	513.25
460.138	537.25
460.358	537.25
460.578	550.25
460.798	555.25
461.018	550.25
461.238	566.25
461.458	563.25
461.678	565.25
461.898	568.25
462.118	560.25
462.338	573.25
462.558	588.25
462.777	599.25
462.997	629.25
463.217	649.25
463.437	636.25
463.657	595.25
463.876	605.25
464.096	614.25
464.316	571.25
464.536	588.25
464.755	578.25
464.975	572.25
465.195	573.25
465.414	611.25
465.634	541.25
465.854	527.25
466.073	523.25
466.293	515.25
466.512	483.25
466.732	492.25
466.951	484.25
467.171	468.25
467.391	474.25
467.61	483.25
467.829	486.25
468.049	495.25
468.268	493.25
468.488	497.25
468.707	488.25
468.927	475.25
469.146	463.25
469.365	481.25
469.585	477.25
469.804	478.25
470.023	500.25
470.243	514.25
470.462	499.25
470.681	504.25
470.901	527.25
471.12	489.25
471.339	498.25
471.558	489.25
471.777	469.25
471.997	491.25
472.216	497.25
472.435	491.25
472.654	476.25
472.873	466.25
473.092	490.25
473.311	486.25
473.53	478.25
473.749	481.25
473.968	513.25
474.187	574.25
474.406	608.25
474.625	529.25
474.844	508.25
475.063	464.25
475.282	491.25
475.501	513.25
475.72	497.25
475.939	506.25
476.158	494.25
476.377	497.25
476.596	489.25
476.814	514.25
477.033	515.25
477.252	526.25
477.471	507.25
477.69	531.25
477.908	533.25
478.127	531.25
478.346	540.25
478.564	553.25
478.783	567.25
479.002	557.25
479.22	561.25
479.439	577.25
479.658	582.25
479.876	594.25
480.095	588.25
480.313	623.25
480.532	627.25
480.751	631.25
480.969	620.25
481.188	633.25
481.406	617.25
481.624	606.25
481.843	578.25
482.061	573.25
482.28	568.25
482.498	580.25
482.717	557.25
482.935	580.25
483.153	575.25
483.372	579.25
483.59	584.25
483.808	563.25
484.027	581.25
484.245	578.25
484.463	571.25
484.681	585.25
484.9	581.25
485.118	589.25
485.336	559.25
485.554	583.25
485.772	565.25
485.99	601.25
486.209	589.25
486.427	594.25
486.645	623.25
486.863	611.25
487.081	599.25
487.299	609.25
487.517	602.25
487.735	600.25
487.953	591.25
488.171	615.25
488.389	604.25
488.607	595.25
488.825	601.25
489.043	599.25
489.261	630.25
489.479	620.25
489.696	621.25
489.914	614.25
490.132	617.25
490.35	636.25
490.568	625.25
490.786	608.25
491.003	646.25
491.221	629.25
491.439	651.25
491.657	644.25
491.874	671.25
492.092	661.25
492.31	652.25
492.527	651.25
492.745	678.25
492.963	681.25
493.18	661.25
493.398	672.25
493.615	661.25
493.833	670.25
494.05	669.25
494.268	657.25
494.485	683.25
494.703	679.25
494.92	691.25
495.138	689.25
495.355	697.25
495.573	699.25
495.79	706.25
496.008	676.25
496.225	689.25
496.442	715.25
496.66	710.25
496.877	710.25
497.094	705.25
497.312	717.25
497.529	720.25
497.746	750.25
497.963	755.25
498.181	775.25
498.398	789.25
498.615	841.25
498.832	852.25
499.049	867.25
499.267	915.25
499.484	961.25
499.701	995.25
499.918	1076.25
500.135	1145.25
500.352	1238.25
500.569	1245.25
500.786	1250.25
501.003	1242.25
501.22	1179.25
501.437	1093.25
501.654	1029.25
501.871	993.25
