Data from 1962.PennyLincolnUp.Lamp.En5.5.200Scan.071719.P1._HRD10591_13-54-18-061.txt Node
Date: Thu Jul 18 13:54:18 EDT 2019
User: cochatt
Spectrometer: HR+D1059
Trigger mode: 1
Integration Time (sec): 1.000000E-1
Scans to average: 1
Electric dark correction enabled: true
Nonlinearity correction enabled: false
Boxcar width: 0
XAxis mode: Wavelengths
Number of Pixels in Spectrum: 2048
>>>>>Begin Spectral Data<<<<<
223.165	-12.12
223.4	-12.12
223.635	-12.12
223.869	-17.12
224.104	-21.12
224.338	-21.12
224.573	-6.12
224.808	-16.12
225.042	-1.12
225.277	-0.12
225.511	-13.12
225.746	4.88
225.98	3.88
226.215	23.88
226.449	21.88
226.683	14.88
226.918	22.88
227.152	15.88
227.387	42.88
227.621	32.88
227.856	40.88
228.09	31.88
228.324	27.88
228.559	52.88
228.793	54.88
229.027	91.88
229.262	106.88
229.496	119.88
229.73	108.88
229.964	117.88
230.199	123.88
230.433	97.88
230.667	107.88
230.901	113.88
231.136	94.88
231.37	104.88
231.604	115.88
231.838	109.88
232.072	113.88
232.306	117.88
232.541	117.88
232.775	121.88
233.009	125.88
233.243	115.88
233.477	120.88
233.711	99.88
233.945	110.88
234.179	127.88
234.413	131.88
234.647	115.88
234.881	114.88
235.115	118.88
235.349	108.88
235.583	111.88
235.817	114.88
236.051	125.88
236.285	109.88
236.519	116.88
236.753	124.88
236.987	131.88
237.221	163.88
237.455	170.88
237.689	144.88
237.922	120.88
238.156	122.88
238.39	130.88
238.624	123.88
238.858	129.88
239.091	131.88
239.325	118.88
239.559	120.88
239.793	116.88
240.027	124.88
240.26	137.88
240.494	151.88
240.728	135.88
240.961	138.88
241.195	140.88
241.429	143.88
241.662	137.88
241.896	136.88
242.13	138.88
242.363	129.88
242.597	131.88
242.83	136.88
243.064	139.88
243.298	126.88
243.531	140.88
243.765	137.88
243.998	135.88
244.232	147.88
244.465	130.88
244.699	149.88
244.932	141.88
245.166	138.88
245.399	135.88
245.633	135.88
245.866	138.88
246.099	131.88
246.333	140.88
246.566	150.88
246.8	153.88
247.033	142.88
247.266	145.88
247.5	147.88
247.733	154.88
247.966	171.88
248.2	171.88
248.433	159.88
248.666	155.88
248.899	158.88
249.133	163.88
249.366	163.88
249.599	194.88
249.832	155.88
250.066	164.88
250.299	167.88
250.532	163.88
250.765	171.88
250.998	191.88
251.231	197.88
251.465	195.88
251.698	185.88
251.931	169.88
252.164	180.88
252.397	199.88
252.63	171.88
252.863	189.88
253.096	181.88
253.329	183.88
253.562	194.88
253.795	189.88
254.028	189.88
254.261	195.88
254.494	201.88
254.727	225.88
254.96	227.88
255.193	218.88
255.426	197.88
255.659	202.88
255.892	215.88
256.124	195.88
256.357	213.88
256.59	200.88
256.823	198.88
257.056	210.88
257.289	191.88
257.521	199.88
257.754	186.88
257.987	182.88
258.22	189.88
258.452	195.88
258.685	200.88
258.918	204.88
259.151	212.88
259.383	195.88
259.616	204.88
259.849	209.88
260.081	224.88
260.314	223.88
260.547	230.88
260.779	219.88
261.012	227.88
261.244	223.88
261.477	201.88
261.71	207.88
261.942	226.88
262.175	216.88
262.407	212.88
262.64	200.88
262.872	193.88
263.105	202.88
263.337	208.88
263.57	205.88
263.802	209.88
264.035	217.88
264.267	200.88
264.499	194.88
264.732	214.88
264.964	206.88
265.197	222.88
265.429	193.88
265.661	208.88
265.894	210.88
266.126	219.88
266.358	221.88
266.591	196.88
266.823	236.88
267.055	212.88
267.287	213.88
267.52	223.88
267.752	211.88
267.984	230.88
268.216	237.88
268.448	218.88
268.681	212.88
268.913	239.88
269.145	231.88
269.377	280.88
269.609	263.88
269.841	230.88
270.073	251.88
270.306	258.88
270.538	265.88
270.77	291.88
271.002	271.88
271.234	249.88
271.466	253.88
271.698	288.88
271.93	281.88
272.162	276.88
272.394	287.88
272.626	257.88
272.858	269.88
273.09	280.88
273.322	251.88
273.553	275.88
273.785	259.88
274.017	250.88
274.249	250.88
274.481	270.88
274.713	268.88
274.945	266.88
275.176	245.88
275.408	263.88
275.64	244.88
275.872	253.88
276.104	260.88
276.335	259.88
276.567	251.88
276.799	279.88
277.031	275.88
277.262	293.88
277.494	289.88
277.726	299.88
277.957	278.88
278.189	270.88
278.421	277.88
278.652	272.88
278.884	265.88
279.115	260.88
279.347	259.88
279.579	267.88
279.81	268.88
280.042	271.88
280.273	269.88
280.505	266.88
280.736	257.88
280.968	267.88
281.199	281.88
281.431	283.88
281.662	268.88
281.894	279.88
282.125	282.88
282.356	282.88
282.588	301.88
282.819	302.88
283.051	277.88
283.282	272.88
283.513	273.88
283.745	277.88
283.976	258.88
284.207	302.88
284.439	280.88
284.67	287.88
284.901	298.88
285.132	290.88
285.364	271.88
285.595	296.88
285.826	290.88
286.057	294.88
286.288	274.88
286.52	287.88
286.751	286.88
286.982	283.88
287.213	295.88
287.444	287.88
287.675	279.88
287.906	290.88
288.138	316.88
288.369	297.88
288.6	301.88
288.831	311.88
289.062	301.88
289.293	293.88
289.524	282.88
289.755	280.88
289.986	312.88
290.217	296.88
290.448	295.88
290.679	297.88
290.91	302.88
291.141	286.88
291.371	307.88
291.602	313.88
291.833	294.88
292.064	317.88
292.295	279.88
292.526	302.88
292.757	299.88
292.987	301.88
293.218	301.88
293.449	303.88
293.68	281.88
293.91	306.88
294.141	286.88
294.372	295.88
294.603	292.88
294.833	300.88
295.064	314.88
295.295	302.88
295.525	311.88
295.756	298.88
295.987	288.88
296.217	319.88
296.448	333.88
296.679	326.88
296.909	302.88
297.14	309.88
297.37	309.88
297.601	310.88
297.831	299.88
298.062	311.88
298.292	318.88
298.523	310.88
298.753	311.88
298.984	327.88
299.214	314.88
299.445	326.88
299.675	313.88
299.905	321.88
300.136	334.88
300.366	313.88
300.597	310.88
300.827	341.88
301.057	320.88
301.288	342.88
301.518	350.88
301.748	349.88
301.979	320.88
302.209	323.88
302.439	324.88
302.669	327.88
302.9	326.88
303.13	351.88
303.36	350.88
303.59	343.88
303.82	346.88
304.051	355.88
304.281	317.88
304.511	323.88
304.741	332.88
304.971	343.88
305.201	324.88
305.431	332.88
305.661	330.88
305.891	328.88
306.121	345.88
306.352	325.88
306.582	319.88
306.812	326.88
307.042	336.88
307.272	353.88
307.502	340.88
307.731	340.88
307.961	335.88
308.191	342.88
308.421	320.88
308.651	343.88
308.881	349.88
309.111	373.88
309.341	343.88
309.571	342.88
309.8	353.88
310.03	369.88
310.26	355.88
310.49	349.88
310.72	355.88
310.949	369.88
311.179	377.88
311.409	339.88
311.639	348.88
311.868	365.88
312.098	370.88
312.328	364.88
312.557	377.88
312.787	382.88
313.017	374.88
313.246	358.88
313.476	369.88
313.706	373.88
313.935	370.88
314.165	380.88
314.394	396.88
314.624	382.88
314.853	377.88
315.083	393.88
315.312	378.88
315.542	371.88
315.771	377.88
316.001	362.88
316.23	360.88
316.46	370.88
316.689	385.88
316.919	399.88
317.148	383.88
317.377	381.88
317.607	393.88
317.836	386.88
318.065	365.88
318.295	366.88
318.524	373.88
318.753	377.88
318.983	394.88
319.212	378.88
319.441	381.88
319.67	382.88
319.9	377.88
320.129	369.88
320.358	383.88
320.587	383.88
320.816	385.88
321.046	388.88
321.275	391.88
321.504	393.88
321.733	393.88
321.962	401.88
322.191	397.88
322.42	414.88
322.649	387.88
322.878	423.88
323.108	428.88
323.337	433.88
323.566	422.88
323.795	450.88
324.024	474.88
324.253	522.88
324.482	692.88
324.71	1005.88
324.939	1414.88
325.168	1221.88
325.397	676.88
325.626	534.88
325.855	477.88
326.084	441.88
326.313	445.88
326.542	435.88
326.77	479.88
326.999	509.88
327.228	680.88
327.457	912.88
327.686	1092.88
327.914	777.88
328.143	560.88
328.372	527.88
328.6	509.88
328.829	473.88
329.058	471.88
329.287	492.88
329.515	474.88
329.744	437.88
329.972	433.88
330.201	481.88
330.43	490.88
330.658	481.88
330.887	514.88
331.115	499.88
331.344	467.88
331.572	448.88
331.801	468.88
332.03	475.88
332.258	445.88
332.486	439.88
332.715	455.88
332.943	467.88
333.172	469.88
333.4	478.88
333.629	486.88
333.857	483.88
334.085	484.88
334.314	489.88
334.542	510.88
334.771	521.88
334.999	498.88
335.227	485.88
335.455	459.88
335.684	466.88
335.912	470.88
336.14	438.88
336.369	462.88
336.597	477.88
336.825	454.88
337.053	453.88
337.281	456.88
337.51	433.88
337.738	438.88
337.966	450.88
338.194	433.88
338.422	435.88
338.65	434.88
338.878	419.88
339.106	440.88
339.334	449.88
339.562	431.88
339.79	420.88
340.018	425.88
340.246	439.88
340.474	418.88
340.702	441.88
340.93	409.88
341.158	415.88
341.386	429.88
341.614	435.88
341.842	434.88
342.07	429.88
342.298	424.88
342.526	427.88
342.754	415.88
342.981	428.88
343.209	415.88
343.437	427.88
343.665	433.88
343.893	442.88
344.12	458.88
344.348	447.88
344.576	472.88
344.804	452.88
345.031	447.88
345.259	428.88
345.487	427.88
345.714	417.88
345.942	425.88
346.17	422.88
346.397	395.88
346.625	425.88
346.853	397.88
347.08	395.88
347.308	419.88
347.535	407.88
347.763	387.88
347.99	426.88
348.218	422.88
348.445	410.88
348.673	412.88
348.9	402.88
349.128	422.88
349.355	399.88
349.583	407.88
349.81	413.88
350.037	422.88
350.265	401.88
350.492	405.88
350.72	387.88
350.947	395.88
351.174	410.88
351.402	398.88
351.629	400.88
351.856	387.88
352.083	398.88
352.311	429.88
352.538	402.88
352.765	416.88
352.992	414.88
353.22	417.88
353.447	403.88
353.674	399.88
353.901	390.88
354.128	407.88
354.355	395.88
354.583	381.88
354.81	381.88
355.037	394.88
355.264	380.88
355.491	380.88
355.718	381.88
355.945	398.88
356.172	377.88
356.399	394.88
356.626	371.88
356.853	387.88
357.08	383.88
357.307	384.88
357.534	397.88
357.761	397.88
357.988	392.88
358.215	383.88
358.441	391.88
358.668	404.88
358.895	397.88
359.122	400.88
359.349	395.88
359.576	398.88
359.802	406.88
360.029	405.88
360.256	406.88
360.483	418.88
360.709	402.88
360.936	395.88
361.163	388.88
361.39	387.88
361.616	400.88
361.843	402.88
362.07	405.88
362.296	384.88
362.523	387.88
362.749	405.88
362.976	402.88
363.203	391.88
363.429	387.88
363.656	414.88
363.882	393.88
364.109	398.88
364.335	393.88
364.562	398.88
364.788	396.88
365.015	409.88
365.241	403.88
365.468	409.88
365.694	414.88
365.92	395.88
366.147	387.88
366.373	396.88
366.599	397.88
366.826	378.88
367.052	407.88
367.278	403.88
367.505	394.88
367.731	395.88
367.957	396.88
368.184	409.88
368.41	408.88
368.636	405.88
368.862	396.88
369.089	395.88
369.315	386.88
369.541	380.88
369.767	409.88
369.993	394.88
370.219	388.88
370.445	403.88
370.672	403.88
370.898	408.88
371.124	431.88
371.35	416.88
371.576	406.88
371.802	405.88
372.028	406.88
372.254	432.88
372.48	407.88
372.706	403.88
372.932	421.88
373.158	418.88
373.384	426.88
373.61	427.88
373.835	405.88
374.061	387.88
374.287	403.88
374.513	416.88
374.739	407.88
374.965	441.88
375.191	423.88
375.416	426.88
375.642	443.88
375.868	397.88
376.094	395.88
376.319	372.88
376.545	414.88
376.771	392.88
376.997	400.88
377.222	420.88
377.448	403.88
377.674	413.88
377.899	395.88
378.125	414.88
378.35	397.88
378.576	397.88
378.802	408.88
379.027	409.88
379.253	400.88
379.478	407.88
379.704	403.88
379.929	415.88
380.155	414.88
380.38	408.88
380.606	408.88
380.831	410.88
381.057	406.88
381.282	398.88
381.507	400.88
381.733	423.88
381.958	399.88
382.184	422.88
382.409	415.88
382.634	415.88
382.86	419.88
383.085	422.88
383.31	438.88
383.535	440.88
383.761	421.88
383.986	444.88
384.211	436.88
384.436	421.88
384.662	442.88
384.887	453.88
385.112	427.88
385.337	429.88
385.562	457.88
385.787	443.88
386.013	451.88
386.238	457.88
386.463	443.88
386.688	473.88
386.913	450.88
387.138	481.88
387.363	460.88
387.588	459.88
387.813	458.88
388.038	433.88
388.263	445.88
388.488	448.88
388.713	459.88
388.938	455.88
389.163	451.88
389.387	474.88
389.612	444.88
389.837	457.88
390.062	467.88
390.287	461.88
390.512	452.88
390.736	461.88
390.961	469.88
391.186	461.88
391.411	465.88
391.636	469.88
391.86	460.88
392.085	486.88
392.31	496.88
392.534	497.88
392.759	484.88
392.984	477.88
393.208	493.88
393.433	466.88
393.658	479.88
393.882	475.88
394.107	453.88
394.331	468.88
394.556	453.88
394.78	474.88
395.005	497.88
395.229	483.88
395.454	494.88
395.678	497.88
395.903	489.88
396.127	505.88
396.352	498.88
396.576	479.88
396.801	473.88
397.025	520.88
397.249	499.88
397.474	499.88
397.698	502.88
397.922	508.88
398.147	522.88
398.371	519.88
398.595	520.88
398.82	542.88
399.044	559.88
399.268	604.88
399.492	637.88
399.717	669.88
399.941	714.88
400.165	673.88
400.389	678.88
400.613	619.88
400.837	595.88
401.062	563.88
401.286	552.88
401.51	551.88
401.734	533.88
401.958	537.88
402.182	568.88
402.406	543.88
402.63	564.88
402.854	540.88
403.078	574.88
403.302	570.88
403.526	566.88
403.75	567.88
403.974	550.88
404.198	582.88
404.422	580.88
404.645	609.88
404.869	597.88
405.093	598.88
405.317	619.88
405.541	689.88
405.765	612.88
405.988	610.88
406.212	595.88
406.436	612.88
406.66	606.88
406.883	598.88
407.107	644.88
407.331	645.88
407.555	704.88
407.778	712.88
408.002	662.88
408.226	639.88
408.449	617.88
408.673	618.88
408.896	626.88
409.12	636.88
409.344	629.88
409.567	595.88
409.791	587.88
410.014	571.88
410.238	570.88
410.461	559.88
410.685	575.88
410.908	561.88
411.132	606.88
411.355	626.88
411.578	598.88
411.802	586.88
412.025	547.88
412.249	575.88
412.472	571.88
412.695	602.88
412.919	615.88
413.142	571.88
413.365	539.88
413.589	567.88
413.812	547.88
414.035	542.88
414.258	539.88
414.482	550.88
414.705	541.88
414.928	570.88
415.151	535.88
415.374	553.88
415.597	543.88
415.821	531.88
416.044	558.88
416.267	529.88
416.49	542.88
416.713	528.88
416.936	521.88
417.159	520.88
417.382	524.88
417.605	514.88
417.828	536.88
418.051	533.88
418.274	516.88
418.497	547.88
418.72	523.88
418.943	532.88
419.166	539.88
419.389	596.88
419.611	577.88
419.834	551.88
420.057	554.88
420.28	561.88
420.503	538.88
420.726	544.88
420.948	548.88
421.171	584.88
421.394	612.88
421.617	548.88
421.839	524.88
422.062	554.88
422.285	561.88
422.507	607.88
422.73	614.88
422.953	629.88
423.175	597.88
423.398	561.88
423.621	554.88
423.843	568.88
424.066	582.88
424.288	578.88
424.511	583.88
424.733	614.88
424.956	653.88
425.178	639.88
425.401	646.88
425.623	661.88
425.846	606.88
426.068	565.88
426.291	552.88
426.513	558.88
426.735	555.88
426.958	593.88
427.18	628.88
427.402	762.88
427.625	792.88
427.847	695.88
428.069	646.88
428.292	577.88
428.514	555.88
428.736	539.88
428.958	504.88
429.181	526.88
429.403	515.88
429.625	543.88
429.847	534.88
430.069	575.88
430.292	603.88
430.514	528.88
430.736	530.88
430.958	504.88
431.18	517.88
431.402	494.88
431.624	486.88
431.846	490.88
432.068	499.88
432.29	505.88
432.512	512.88
432.734	513.88
432.956	511.88
433.178	495.88
433.4	507.88
433.622	491.88
433.844	515.88
434.066	516.88
434.287	501.88
434.509	513.88
434.731	539.88
434.953	545.88
435.175	523.88
435.397	569.88
435.618	549.88
435.84	569.88
436.062	636.88
436.284	696.88
436.505	609.88
436.727	547.88
436.949	528.88
437.17	527.88
437.392	518.88
437.614	515.88
437.835	533.88
438.057	591.88
438.278	674.88
438.5	683.88
438.721	718.88
438.943	722.88
439.165	585.88
439.386	566.88
439.608	547.88
439.829	539.88
440.05	570.88
440.272	579.88
440.493	555.88
440.715	511.88
440.936	531.88
441.158	503.88
441.379	530.88
441.6	555.88
441.822	559.88
442.043	574.88
442.264	613.88
442.486	680.88
442.707	598.88
442.928	567.88
443.149	583.88
443.371	596.88
443.592	604.88
443.813	691.88
444.034	703.88
444.255	630.88
444.476	601.88
444.698	609.88
444.919	606.88
445.14	703.88
445.361	643.88
445.582	597.88
445.803	639.88
446.024	697.88
446.245	701.88
446.466	643.88
446.687	564.88
446.908	532.88
447.129	526.88
447.35	505.88
447.571	501.88
447.792	476.88
448.013	507.88
448.234	498.88
448.455	509.88
448.675	614.88
448.896	701.88
449.117	638.88
449.338	583.88
449.559	665.88
449.779	746.88
450	617.88
450.221	545.88
450.442	492.88
450.662	485.88
450.883	492.88
451.104	476.88
451.324	492.88
451.545	503.88
451.766	470.88
451.986	469.88
452.207	463.88
452.428	459.88
452.648	488.88
452.869	461.88
453.089	463.88
453.31	475.88
453.53	462.88
453.751	462.88
453.971	446.88
454.192	453.88
454.412	443.88
454.633	429.88
454.853	429.88
455.073	445.88
455.294	467.88
455.514	505.88
455.734	503.88
455.955	458.88
456.175	433.88
456.395	465.88
456.616	445.88
456.836	447.88
457.056	441.88
457.276	447.88
457.497	449.88
457.717	431.88
457.937	447.88
458.157	469.88
458.377	463.88
458.598	460.88
458.818	483.88
459.038	547.88
459.258	556.88
459.478	506.88
459.698	512.88
459.918	499.88
460.138	527.88
460.358	538.88
460.578	529.88
460.798	543.88
461.018	543.88
461.238	553.88
461.458	516.88
461.678	527.88
461.898	554.88
462.118	535.88
462.338	558.88
462.558	579.88
462.777	572.88
462.997	594.88
463.217	625.88
463.437	620.88
463.657	596.88
463.876	561.88
464.096	604.88
464.316	598.88
464.536	591.88
464.755	593.88
464.975	581.88
465.195	578.88
465.414	585.88
465.634	532.88
465.854	528.88
466.073	532.88
466.293	510.88
466.512	471.88
466.732	470.88
466.951	483.88
467.171	483.88
467.391	492.88
467.61	499.88
467.829	476.88
468.049	501.88
468.268	479.88
468.488	479.88
468.707	476.88
468.927	482.88
469.146	466.88
469.365	467.88
469.585	463.88
469.804	471.88
470.023	499.88
470.243	492.88
470.462	471.88
470.681	507.88
470.901	493.88
471.12	479.88
471.339	469.88
471.558	481.88
471.777	518.88
471.997	480.88
472.216	489.88
472.435	486.88
472.654	504.88
472.873	484.88
473.092	457.88
473.311	462.88
473.53	488.88
473.749	490.88
473.968	489.88
474.187	567.88
474.406	587.88
474.625	527.88
474.844	498.88
475.063	487.88
475.282	486.88
475.501	477.88
475.72	492.88
475.939	497.88
476.158	491.88
476.377	496.88
476.596	479.88
476.814	509.88
477.033	501.88
477.252	523.88
477.471	525.88
477.69	517.88
477.908	531.88
478.127	539.88
478.346	539.88
478.564	552.88
478.783	533.88
479.002	571.88
479.22	549.88
479.439	586.88
479.658	558.88
479.876	570.88
480.095	568.88
480.313	625.88
480.532	628.88
480.751	602.88
480.969	596.88
481.188	605.88
481.406	627.88
481.624	583.88
481.843	559.88
482.061	559.88
482.28	573.88
482.498	561.88
482.717	561.88
482.935	546.88
483.153	548.88
483.372	582.88
483.59	559.88
483.808	554.88
484.027	558.88
484.245	537.88
484.463	558.88
484.681	577.88
484.9	585.88
485.118	560.88
485.336	570.88
485.554	571.88
485.772	577.88
485.99	594.88
486.209	599.88
486.427	581.88
486.645	581.88
486.863	568.88
487.081	596.88
487.299	589.88
487.517	583.88
487.735	592.88
487.953	570.88
488.171	601.88
488.389	585.88
488.607	597.88
488.825	573.88
489.043	594.88
489.261	587.88
489.479	609.88
489.696	635.88
489.914	590.88
490.132	605.88
490.35	598.88
490.568	602.88
490.786	619.88
491.003	625.88
491.221	645.88
491.439	652.88
491.657	639.88
491.874	641.88
492.092	647.88
492.31	669.88
492.527	623.88
492.745	656.88
492.963	675.88
493.18	671.88
493.398	674.88
493.615	671.88
493.833	667.88
494.05	663.88
494.268	667.88
494.485	656.88
494.703	661.88
494.92	686.88
495.138	658.88
495.355	683.88
495.573	679.88
495.79	676.88
496.008	695.88
496.225	679.88
496.442	690.88
496.66	702.88
496.877	699.88
497.094	697.88
497.312	708.88
497.529	713.88
497.746	737.88
497.963	747.88
498.181	789.88
498.398	781.88
498.615	782.88
498.832	837.88
499.049	862.88
499.267	893.88
499.484	939.88
499.701	1029.88
499.918	1074.88
500.135	1124.88
500.352	1217.88
500.569	1257.88
500.786	1241.88
501.003	1167.88
501.22	1141.88
501.437	1075.88
501.654	1014.88
501.871	969.88
