Data from 1962.PennyLincolnUp.Lamp.En5.5.200Scan.071719.P1._HRD10591_13-55-44-062.txt Node
Date: Thu Jul 18 13:55:44 EDT 2019
User: cochatt
Spectrometer: HR+D1059
Trigger mode: 1
Integration Time (sec): 1.000000E-1
Scans to average: 1
Electric dark correction enabled: true
Nonlinearity correction enabled: false
Boxcar width: 0
XAxis mode: Wavelengths
Number of Pixels in Spectrum: 2048
>>>>>Begin Spectral Data<<<<<
223.165	-33.88
223.4	-33.88
223.635	-33.88
223.869	-3.88
224.104	-8.88
224.338	-14.88
224.573	-6.88
224.808	-17.88
225.042	-18.88
225.277	-5.88
225.511	-2.88
225.746	-7.88
225.98	5.12
226.215	14.12
226.449	13.12
226.683	33.12
226.918	33.12
227.152	23.12
227.387	42.12
227.621	41.12
227.856	31.12
228.09	52.12
228.324	45.12
228.559	63.12
228.793	69.12
229.027	84.12
229.262	94.12
229.496	117.12
229.73	129.12
229.964	125.12
230.199	130.12
230.433	121.12
230.667	93.12
230.901	126.12
231.136	98.12
231.37	104.12
231.604	108.12
231.838	117.12
232.072	100.12
232.306	105.12
232.541	114.12
232.775	107.12
233.009	99.12
233.243	109.12
233.477	116.12
233.711	117.12
233.945	133.12
234.179	115.12
234.413	118.12
234.647	121.12
234.881	110.12
235.115	131.12
235.349	117.12
235.583	118.12
235.817	98.12
236.051	119.12
236.285	126.12
236.519	133.12
236.753	121.12
236.987	135.12
237.221	165.12
237.455	214.12
237.689	160.12
237.922	137.12
238.156	134.12
238.39	129.12
238.624	123.12
238.858	131.12
239.091	119.12
239.325	125.12
239.559	121.12
239.793	124.12
240.027	129.12
240.26	153.12
240.494	135.12
240.728	152.12
240.961	148.12
241.195	139.12
241.429	135.12
241.662	145.12
241.896	121.12
242.13	136.12
242.363	130.12
242.597	127.12
242.83	143.12
243.064	146.12
243.298	141.12
243.531	133.12
243.765	136.12
243.998	123.12
244.232	148.12
244.465	137.12
244.699	133.12
244.932	142.12
245.166	141.12
245.399	130.12
245.633	141.12
245.866	144.12
246.099	151.12
246.333	153.12
246.566	143.12
246.8	162.12
247.033	143.12
247.266	155.12
247.5	161.12
247.733	180.12
247.966	163.12
248.2	145.12
248.433	174.12
248.666	167.12
248.899	183.12
249.133	187.12
249.366	193.12
249.599	186.12
249.832	170.12
250.066	178.12
250.299	169.12
250.532	173.12
250.765	180.12
250.998	194.12
251.231	208.12
251.465	199.12
251.698	182.12
251.931	181.12
252.164	179.12
252.397	190.12
252.63	182.12
252.863	180.12
253.096	183.12
253.329	205.12
253.562	203.12
253.795	190.12
254.028	197.12
254.261	190.12
254.494	193.12
254.727	232.12
254.96	261.12
255.193	237.12
255.426	222.12
255.659	232.12
255.892	218.12
256.124	204.12
256.357	214.12
256.59	192.12
256.823	209.12
257.056	202.12
257.289	193.12
257.521	205.12
257.754	193.12
257.987	203.12
258.22	185.12
258.452	195.12
258.685	189.12
258.918	201.12
259.151	215.12
259.383	197.12
259.616	213.12
259.849	218.12
260.081	219.12
260.314	235.12
260.547	226.12
260.779	239.12
261.012	214.12
261.244	206.12
261.477	212.12
261.71	215.12
261.942	211.12
262.175	204.12
262.407	209.12
262.64	210.12
262.872	213.12
263.105	218.12
263.337	213.12
263.57	205.12
263.802	210.12
264.035	217.12
264.267	230.12
264.499	210.12
264.732	205.12
264.964	214.12
265.197	219.12
265.429	199.12
265.661	207.12
265.894	214.12
266.126	213.12
266.358	230.12
266.591	224.12
266.823	228.12
267.055	230.12
267.287	232.12
267.52	232.12
267.752	219.12
267.984	217.12
268.216	228.12
268.448	219.12
268.681	232.12
268.913	238.12
269.145	249.12
269.377	251.12
269.609	255.12
269.841	257.12
270.073	266.12
270.306	271.12
270.538	279.12
270.77	283.12
271.002	272.12
271.234	265.12
271.466	302.12
271.698	293.12
271.93	301.12
272.162	282.12
272.394	295.12
272.626	271.12
272.858	276.12
273.09	265.12
273.322	272.12
273.553	278.12
273.785	259.12
274.017	243.12
274.249	271.12
274.481	263.12
274.713	243.12
274.945	266.12
275.176	282.12
275.408	269.12
275.64	262.12
275.872	242.12
276.104	260.12
276.335	278.12
276.567	270.12
276.799	251.12
277.031	290.12
277.262	305.12
277.494	290.12
277.726	283.12
277.957	272.12
278.189	281.12
278.421	275.12
278.652	282.12
278.884	261.12
279.115	296.12
279.347	261.12
279.579	281.12
279.81	271.12
280.042	283.12
280.273	270.12
280.505	263.12
280.736	282.12
280.968	275.12
281.199	267.12
281.431	261.12
281.662	283.12
281.894	285.12
282.125	271.12
282.356	294.12
282.588	295.12
282.819	288.12
283.051	300.12
283.282	273.12
283.513	298.12
283.745	261.12
283.976	298.12
284.207	292.12
284.439	285.12
284.67	302.12
284.901	275.12
285.132	273.12
285.364	301.12
285.595	289.12
285.826	286.12
286.057	293.12
286.288	307.12
286.52	298.12
286.751	290.12
286.982	289.12
287.213	296.12
287.444	302.12
287.675	301.12
287.906	297.12
288.138	295.12
288.369	305.12
288.6	317.12
288.831	314.12
289.062	312.12
289.293	312.12
289.524	290.12
289.755	293.12
289.986	313.12
290.217	311.12
290.448	306.12
290.679	302.12
290.91	299.12
291.141	300.12
291.371	323.12
291.602	296.12
291.833	305.12
292.064	297.12
292.295	307.12
292.526	276.12
292.757	286.12
292.987	310.12
293.218	300.12
293.449	306.12
293.68	314.12
293.91	299.12
294.141	300.12
294.372	299.12
294.603	308.12
294.833	318.12
295.064	307.12
295.295	311.12
295.525	301.12
295.756	311.12
295.987	330.12
296.217	331.12
296.448	339.12
296.679	326.12
296.909	305.12
297.14	334.12
297.37	309.12
297.601	333.12
297.831	325.12
298.062	309.12
298.292	330.12
298.523	309.12
298.753	317.12
298.984	310.12
299.214	317.12
299.445	304.12
299.675	314.12
299.905	331.12
300.136	327.12
300.366	315.12
300.597	320.12
300.827	348.12
301.057	337.12
301.288	333.12
301.518	335.12
301.748	325.12
301.979	347.12
302.209	321.12
302.439	334.12
302.669	339.12
302.9	335.12
303.13	341.12
303.36	343.12
303.59	345.12
303.82	348.12
304.051	345.12
304.281	345.12
304.511	328.12
304.741	331.12
304.971	337.12
305.201	344.12
305.431	331.12
305.661	365.12
305.891	341.12
306.121	341.12
306.352	363.12
306.582	328.12
306.812	317.12
307.042	349.12
307.272	334.12
307.502	354.12
307.731	341.12
307.961	336.12
308.191	348.12
308.421	341.12
308.651	349.12
308.881	330.12
309.111	346.12
309.341	341.12
309.571	350.12
309.8	355.12
310.03	354.12
310.26	365.12
310.49	355.12
310.72	364.12
310.949	366.12
311.179	377.12
311.409	371.12
311.639	375.12
311.868	372.12
312.098	366.12
312.328	385.12
312.557	393.12
312.787	382.12
313.017	394.12
313.246	383.12
313.476	393.12
313.706	372.12
313.935	371.12
314.165	381.12
314.394	375.12
314.624	400.12
314.853	360.12
315.083	382.12
315.312	371.12
315.542	373.12
315.771	366.12
316.001	371.12
316.23	363.12
316.46	379.12
316.689	389.12
316.919	388.12
317.148	378.12
317.377	369.12
317.607	393.12
317.836	364.12
318.065	369.12
318.295	383.12
318.524	397.12
318.753	382.12
318.983	393.12
319.212	385.12
319.441	366.12
319.67	364.12
319.9	367.12
320.129	398.12
320.358	377.12
320.587	377.12
320.816	390.12
321.046	375.12
321.275	378.12
321.504	398.12
321.733	402.12
321.962	401.12
322.191	390.12
322.42	403.12
322.649	427.12
322.878	418.12
323.108	416.12
323.337	435.12
323.566	441.12
323.795	467.12
324.024	486.12
324.253	570.12
324.482	739.12
324.71	1111.12
324.939	1507.12
325.168	1359.12
325.397	759.12
325.626	562.12
325.855	483.12
326.084	468.12
326.313	447.12
326.542	466.12
326.77	500.12
326.999	577.12
327.228	724.12
327.457	982.12
327.686	1193.12
327.914	862.12
328.143	604.12
328.372	539.12
328.6	509.12
328.829	490.12
329.058	497.12
329.287	515.12
329.515	508.12
329.744	481.12
329.972	490.12
330.201	481.12
330.43	498.12
330.658	518.12
330.887	532.12
331.115	505.12
331.344	486.12
331.572	442.12
331.801	472.12
332.03	463.12
332.258	443.12
332.486	475.12
332.715	447.12
332.943	478.12
333.172	476.12
333.4	498.12
333.629	485.12
333.857	501.12
334.085	517.12
334.314	515.12
334.542	538.12
334.771	528.12
334.999	500.12
335.227	500.12
335.455	474.12
335.684	483.12
335.912	488.12
336.14	466.12
336.369	465.12
336.597	455.12
336.825	445.12
337.053	463.12
337.281	462.12
337.51	450.12
337.738	437.12
337.966	439.12
338.194	447.12
338.422	458.12
338.65	448.12
338.878	442.12
339.106	435.12
339.334	425.12
339.562	427.12
339.79	453.12
340.018	441.12
340.246	423.12
340.474	431.12
340.702	433.12
340.93	447.12
341.158	423.12
341.386	430.12
341.614	431.12
341.842	438.12
342.07	412.12
342.298	422.12
342.526	417.12
342.754	433.12
342.981	427.12
343.209	436.12
343.437	439.12
343.665	449.12
343.893	455.12
344.12	482.12
344.348	463.12
344.576	440.12
344.804	454.12
345.031	443.12
345.259	443.12
345.487	450.12
345.714	420.12
345.942	439.12
346.17	438.12
346.397	420.12
346.625	431.12
346.853	423.12
347.08	427.12
347.308	409.12
347.535	395.12
347.763	433.12
347.99	435.12
348.218	415.12
348.445	417.12
348.673	423.12
348.9	428.12
349.128	419.12
349.355	424.12
349.583	447.12
349.81	409.12
350.037	425.12
350.265	413.12
350.492	410.12
350.72	405.12
350.947	403.12
351.174	401.12
351.402	408.12
351.629	397.12
351.856	406.12
352.083	415.12
352.311	435.12
352.538	430.12
352.765	420.12
352.992	421.12
353.22	422.12
353.447	409.12
353.674	389.12
353.901	386.12
354.128	402.12
354.355	413.12
354.583	417.12
354.81	380.12
355.037	395.12
355.264	401.12
355.491	414.12
355.718	393.12
355.945	393.12
356.172	392.12
356.399	395.12
356.626	386.12
356.853	389.12
357.08	386.12
357.307	375.12
357.534	377.12
357.761	407.12
357.988	398.12
358.215	385.12
358.441	393.12
358.668	398.12
358.895	397.12
359.122	405.12
359.349	415.12
359.576	411.12
359.802	413.12
360.029	421.12
360.256	411.12
360.483	411.12
360.709	416.12
360.936	399.12
361.163	426.12
361.39	401.12
361.616	421.12
361.843	417.12
362.07	422.12
362.296	421.12
362.523	408.12
362.749	416.12
362.976	410.12
363.203	393.12
363.429	395.12
363.656	382.12
363.882	407.12
364.109	399.12
364.335	406.12
364.562	411.12
364.788	393.12
365.015	406.12
365.241	423.12
365.468	397.12
365.694	402.12
365.92	398.12
366.147	391.12
366.373	407.12
366.599	390.12
366.826	399.12
367.052	398.12
367.278	405.12
367.505	403.12
367.731	396.12
367.957	415.12
368.184	389.12
368.41	415.12
368.636	428.12
368.862	424.12
369.089	431.12
369.315	398.12
369.541	405.12
369.767	403.12
369.993	405.12
370.219	454.12
370.445	399.12
370.672	417.12
370.898	394.12
371.124	410.12
371.35	403.12
371.576	413.12
371.802	419.12
372.028	397.12
372.254	385.12
372.48	418.12
372.706	422.12
372.932	421.12
373.158	428.12
373.384	436.12
373.61	411.12
373.835	441.12
374.061	393.12
374.287	424.12
374.513	409.12
374.739	409.12
374.965	450.12
375.191	431.12
375.416	427.12
375.642	420.12
375.868	444.12
376.094	439.12
376.319	397.12
376.545	419.12
376.771	422.12
376.997	417.12
377.222	419.12
377.448	398.12
377.674	412.12
377.899	417.12
378.125	395.12
378.35	409.12
378.576	406.12
378.802	407.12
379.027	420.12
379.253	434.12
379.478	419.12
379.704	410.12
379.929	415.12
380.155	409.12
380.38	407.12
380.606	387.12
380.831	430.12
381.057	419.12
381.282	408.12
381.507	439.12
381.733	419.12
381.958	417.12
382.184	426.12
382.409	423.12
382.634	412.12
382.86	437.12
383.085	422.12
383.31	443.12
383.535	435.12
383.761	444.12
383.986	431.12
384.211	441.12
384.436	428.12
384.662	440.12
384.887	451.12
385.112	442.12
385.337	463.12
385.562	456.12
385.787	454.12
386.013	488.12
386.238	455.12
386.463	465.12
386.688	483.12
386.913	465.12
387.138	464.12
387.363	460.12
387.588	441.12
387.813	471.12
388.038	455.12
388.263	455.12
388.488	459.12
388.713	470.12
388.938	483.12
389.163	499.12
389.387	463.12
389.612	459.12
389.837	459.12
390.062	447.12
390.287	470.12
390.512	467.12
390.736	470.12
390.961	445.12
391.186	480.12
391.411	482.12
391.636	475.12
391.86	495.12
392.085	500.12
392.31	467.12
392.534	473.12
392.759	472.12
392.984	462.12
393.208	476.12
393.433	478.12
393.658	500.12
393.882	477.12
394.107	473.12
394.331	493.12
394.556	470.12
394.78	479.12
395.005	471.12
395.229	488.12
395.454	489.12
395.678	511.12
395.903	502.12
396.127	514.12
396.352	509.12
396.576	490.12
396.801	494.12
397.025	498.12
397.249	489.12
397.474	510.12
397.698	501.12
397.922	496.12
398.147	527.12
398.371	553.12
398.595	535.12
398.82	549.12
399.044	558.12
399.268	602.12
399.492	632.12
399.717	678.12
399.941	678.12
400.165	710.12
400.389	698.12
400.613	626.12
400.837	603.12
401.062	561.12
401.286	563.12
401.51	553.12
401.734	533.12
401.958	574.12
402.182	548.12
402.406	554.12
402.63	559.12
402.854	554.12
403.078	563.12
403.302	580.12
403.526	580.12
403.75	593.12
403.974	567.12
404.198	574.12
404.422	579.12
404.645	576.12
404.869	589.12
405.093	605.12
405.317	634.12
405.541	681.12
405.765	614.12
405.988	606.12
406.212	607.12
406.436	588.12
406.66	622.12
406.883	623.12
407.107	654.12
407.331	670.12
407.555	736.12
407.778	746.12
408.002	675.12
408.226	649.12
408.449	649.12
408.673	619.12
408.896	652.12
409.12	664.12
409.344	657.12
409.567	603.12
409.791	576.12
410.014	588.12
410.238	568.12
410.461	571.12
410.685	585.12
410.908	591.12
411.132	609.12
411.355	641.12
411.578	594.12
411.802	585.12
412.025	567.12
412.249	588.12
412.472	603.12
412.695	616.12
412.919	589.12
413.142	567.12
413.365	565.12
413.589	561.12
413.812	558.12
414.035	533.12
414.258	549.12
414.482	515.12
414.705	549.12
414.928	522.12
415.151	547.12
415.374	531.12
415.597	532.12
415.821	519.12
416.044	551.12
416.267	532.12
416.49	517.12
416.713	543.12
416.936	515.12
417.159	538.12
417.382	529.12
417.605	534.12
417.828	557.12
418.051	555.12
418.274	545.12
418.497	535.12
418.72	536.12
418.943	547.12
419.166	563.12
419.389	584.12
419.611	573.12
419.834	550.12
420.057	597.12
420.28	563.12
420.503	572.12
420.726	545.12
420.948	558.12
421.171	581.12
421.394	618.12
421.617	579.12
421.839	589.12
422.062	561.12
422.285	595.12
422.507	611.12
422.73	652.12
422.953	653.12
423.175	587.12
423.398	578.12
423.621	595.12
423.843	602.12
424.066	614.12
424.288	606.12
424.511	615.12
424.733	653.12
424.956	720.12
425.178	682.12
425.401	687.12
425.623	682.12
425.846	582.12
426.068	567.12
426.291	549.12
426.513	568.12
426.735	570.12
426.958	627.12
427.18	665.12
427.402	773.12
427.625	843.12
427.847	745.12
428.069	659.12
428.292	584.12
428.514	538.12
428.736	528.12
428.958	565.12
429.181	565.12
429.403	530.12
429.625	546.12
429.847	559.12
430.069	586.12
430.292	583.12
430.514	561.12
430.736	539.12
430.958	522.12
431.18	515.12
431.402	513.12
431.624	490.12
431.846	501.12
432.068	505.12
432.29	514.12
432.512	505.12
432.734	501.12
432.956	523.12
433.178	518.12
433.4	518.12
433.622	503.12
433.844	533.12
434.066	514.12
434.287	514.12
434.509	528.12
434.731	554.12
434.953	561.12
435.175	555.12
435.397	579.12
435.618	579.12
435.84	599.12
436.062	658.12
436.284	727.12
436.505	617.12
436.727	602.12
436.949	548.12
437.17	528.12
437.392	519.12
437.614	546.12
437.835	550.12
438.057	644.12
438.278	697.12
438.5	698.12
438.721	778.12
438.943	728.12
439.165	632.12
439.386	580.12
439.608	565.12
439.829	564.12
440.05	557.12
440.272	588.12
440.493	609.12
440.715	555.12
440.936	539.12
441.158	527.12
441.379	520.12
441.6	572.12
441.822	583.12
442.043	603.12
442.264	666.12
442.486	697.12
442.707	587.12
442.928	576.12
443.149	574.12
443.371	590.12
443.592	629.12
443.813	711.12
444.034	790.12
444.255	651.12
444.476	630.12
444.698	621.12
444.919	597.12
445.14	730.12
445.361	655.12
445.582	620.12
445.803	659.12
446.024	703.12
446.245	724.12
446.466	666.12
446.687	604.12
446.908	575.12
447.129	551.12
447.35	541.12
447.571	523.12
447.792	534.12
448.013	527.12
448.234	523.12
448.455	565.12
448.675	675.12
448.896	749.12
449.117	628.12
449.338	591.12
449.559	709.12
449.779	805.12
450	636.12
450.221	540.12
450.442	498.12
450.662	510.12
450.883	502.12
451.104	519.12
451.324	506.12
451.545	482.12
451.766	485.12
451.986	462.12
452.207	485.12
452.428	460.12
452.648	469.12
452.869	469.12
453.089	487.12
453.31	467.12
453.53	479.12
453.751	460.12
453.971	483.12
454.192	481.12
454.412	484.12
454.633	471.12
454.853	457.12
455.073	463.12
455.294	471.12
455.514	530.12
455.734	515.12
455.955	454.12
456.175	459.12
456.395	455.12
456.616	441.12
456.836	444.12
457.056	440.12
457.276	430.12
457.497	449.12
457.717	459.12
457.937	454.12
458.157	450.12
458.377	460.12
458.598	496.12
458.818	518.12
459.038	549.12
459.258	599.12
459.478	543.12
459.698	532.12
459.918	527.12
460.138	548.12
460.358	541.12
460.578	568.12
460.798	543.12
461.018	530.12
461.238	558.12
461.458	537.12
461.678	542.12
461.898	565.12
462.118	565.12
462.338	573.12
462.558	573.12
462.777	587.12
462.997	592.12
463.217	640.12
463.437	639.12
463.657	609.12
463.876	593.12
464.096	612.12
464.316	572.12
464.536	587.12
464.755	569.12
464.975	575.12
465.195	573.12
465.414	610.12
465.634	560.12
465.854	530.12
466.073	547.12
466.293	505.12
466.512	512.12
466.732	490.12
466.951	500.12
467.171	502.12
467.391	494.12
467.61	485.12
467.829	475.12
468.049	492.12
468.268	488.12
468.488	478.12
468.707	473.12
468.927	460.12
469.146	489.12
469.365	465.12
469.585	467.12
469.804	475.12
470.023	478.12
470.243	478.12
470.462	505.12
470.681	489.12
470.901	497.12
471.12	520.12
471.339	518.12
471.558	492.12
471.777	481.12
471.997	460.12
472.216	504.12
472.435	519.12
472.654	490.12
472.873	469.12
473.092	481.12
473.311	471.12
473.53	478.12
473.749	498.12
473.968	517.12
474.187	605.12
474.406	628.12
474.625	517.12
474.844	493.12
475.063	491.12
475.282	486.12
475.501	487.12
475.72	495.12
475.939	523.12
476.158	500.12
476.377	496.12
476.596	499.12
476.814	517.12
477.033	522.12
477.252	507.12
477.471	528.12
477.69	528.12
477.908	520.12
478.127	553.12
478.346	555.12
478.564	545.12
478.783	549.12
479.002	578.12
479.22	549.12
479.439	573.12
479.658	569.12
479.876	603.12
480.095	587.12
480.313	611.12
480.532	619.12
480.751	613.12
480.969	613.12
481.188	648.12
481.406	625.12
481.624	593.12
481.843	583.12
482.061	579.12
482.28	563.12
482.498	554.12
482.717	548.12
482.935	563.12
483.153	571.12
483.372	562.12
483.59	566.12
483.808	568.12
484.027	574.12
484.245	593.12
484.463	578.12
484.681	565.12
484.9	579.12
485.118	621.12
485.336	588.12
485.554	591.12
485.772	598.12
485.99	606.12
486.209	584.12
486.427	583.12
486.645	603.12
486.863	618.12
487.081	606.12
487.299	610.12
487.517	615.12
487.735	611.12
487.953	579.12
488.171	572.12
488.389	596.12
488.607	595.12
488.825	590.12
489.043	604.12
489.261	608.12
489.479	605.12
489.696	613.12
489.914	601.12
490.132	633.12
490.35	613.12
490.568	616.12
490.786	613.12
491.003	627.12
491.221	646.12
491.439	670.12
491.657	654.12
491.874	655.12
492.092	650.12
492.31	642.12
492.527	667.12
492.745	683.12
492.963	676.12
493.18	684.12
493.398	700.12
493.615	684.12
493.833	706.12
494.05	666.12
494.268	687.12
494.485	707.12
494.703	686.12
494.92	687.12
495.138	702.12
495.355	667.12
495.573	694.12
495.79	706.12
496.008	699.12
496.225	696.12
496.442	699.12
496.66	704.12
496.877	696.12
497.094	707.12
497.312	718.12
497.529	737.12
497.746	761.12
497.963	775.12
498.181	797.12
498.398	783.12
498.615	836.12
498.832	846.12
499.049	891.12
499.267	917.12
499.484	948.12
499.701	1025.12
499.918	1054.12
500.135	1100.12
500.352	1234.12
500.569	1238.12
500.786	1240.12
501.003	1223.12
501.22	1149.12
501.437	1065.12
501.654	984.12
501.871	990.12
