Data from 1962.PennyLincolnUp.Lamp.En5.5.200Scan.071719.P1._HRD10591_13-54-28-061.txt Node
Date: Thu Jul 18 13:54:28 EDT 2019
User: cochatt
Spectrometer: HR+D1059
Trigger mode: 1
Integration Time (sec): 1.000000E-1
Scans to average: 1
Electric dark correction enabled: true
Nonlinearity correction enabled: false
Boxcar width: 0
XAxis mode: Wavelengths
Number of Pixels in Spectrum: 2048
>>>>>Begin Spectral Data<<<<<
223.165	-21.19
223.4	-21.19
223.635	-21.19
223.869	-12.19
224.104	-21.19
224.338	-4.19
224.573	-23.19
224.808	-21.19
225.042	-7.19
225.277	19.81
225.511	-3.19
225.746	-1.19
225.98	10.81
226.215	8.81
226.449	12.81
226.683	15.81
226.918	24.81
227.152	21.81
227.387	29.81
227.621	27.81
227.856	37.81
228.09	55.81
228.324	49.81
228.559	47.81
228.793	71.81
229.027	84.81
229.262	94.81
229.496	109.81
229.73	119.81
229.964	132.81
230.199	110.81
230.433	109.81
230.667	108.81
230.901	89.81
231.136	113.81
231.37	97.81
231.604	97.81
231.838	115.81
232.072	104.81
232.306	99.81
232.541	107.81
232.775	116.81
233.009	108.81
233.243	103.81
233.477	111.81
233.711	119.81
233.945	113.81
234.179	98.81
234.413	115.81
234.647	113.81
234.881	122.81
235.115	119.81
235.349	112.81
235.583	102.81
235.817	115.81
236.051	127.81
236.285	125.81
236.519	121.81
236.753	122.81
236.987	134.81
237.221	137.81
237.455	177.81
237.689	159.81
237.922	135.81
238.156	115.81
238.39	123.81
238.624	120.81
238.858	116.81
239.091	109.81
239.325	116.81
239.559	124.81
239.793	129.81
240.027	125.81
240.26	135.81
240.494	146.81
240.728	124.81
240.961	128.81
241.195	145.81
241.429	140.81
241.662	130.81
241.896	132.81
242.13	126.81
242.363	143.81
242.597	130.81
242.83	126.81
243.064	131.81
243.298	133.81
243.531	121.81
243.765	135.81
243.998	124.81
244.232	126.81
244.465	146.81
244.699	125.81
244.932	137.81
245.166	133.81
245.399	156.81
245.633	142.81
245.866	147.81
246.099	136.81
246.333	148.81
246.566	139.81
246.8	148.81
247.033	152.81
247.266	161.81
247.5	158.81
247.733	158.81
247.966	141.81
248.2	151.81
248.433	137.81
248.666	150.81
248.899	169.81
249.133	191.81
249.366	190.81
249.599	185.81
249.832	168.81
250.066	184.81
250.299	166.81
250.532	171.81
250.765	178.81
250.998	190.81
251.231	201.81
251.465	193.81
251.698	177.81
251.931	194.81
252.164	182.81
252.397	186.81
252.63	170.81
252.863	190.81
253.096	195.81
253.329	173.81
253.562	206.81
253.795	175.81
254.028	192.81
254.261	192.81
254.494	199.81
254.727	220.81
254.96	223.81
255.193	218.81
255.426	201.81
255.659	189.81
255.892	214.81
256.124	207.81
256.357	203.81
256.59	206.81
256.823	195.81
257.056	196.81
257.289	207.81
257.521	194.81
257.754	201.81
257.987	193.81
258.22	204.81
258.452	195.81
258.685	203.81
258.918	188.81
259.151	206.81
259.383	203.81
259.616	217.81
259.849	195.81
260.081	204.81
260.314	218.81
260.547	239.81
260.779	225.81
261.012	213.81
261.244	211.81
261.477	214.81
261.71	217.81
261.942	211.81
262.175	207.81
262.407	225.81
262.64	213.81
262.872	203.81
263.105	213.81
263.337	208.81
263.57	202.81
263.802	208.81
264.035	206.81
264.267	213.81
264.499	217.81
264.732	196.81
264.964	207.81
265.197	193.81
265.429	225.81
265.661	197.81
265.894	231.81
266.126	219.81
266.358	218.81
266.591	222.81
266.823	198.81
267.055	207.81
267.287	212.81
267.52	213.81
267.752	216.81
267.984	226.81
268.216	228.81
268.448	230.81
268.681	222.81
268.913	232.81
269.145	233.81
269.377	260.81
269.609	245.81
269.841	251.81
270.073	241.81
270.306	247.81
270.538	291.81
270.77	292.81
271.002	279.81
271.234	268.81
271.466	272.81
271.698	284.81
271.93	288.81
272.162	272.81
272.394	289.81
272.626	268.81
272.858	271.81
273.09	286.81
273.322	270.81
273.553	252.81
273.785	251.81
274.017	262.81
274.249	243.81
274.481	254.81
274.713	257.81
274.945	258.81
275.176	270.81
275.408	254.81
275.64	258.81
275.872	271.81
276.104	273.81
276.335	263.81
276.567	283.81
276.799	267.81
277.031	286.81
277.262	284.81
277.494	283.81
277.726	268.81
277.957	279.81
278.189	271.81
278.421	241.81
278.652	271.81
278.884	283.81
279.115	270.81
279.347	249.81
279.579	266.81
279.81	269.81
280.042	266.81
280.273	279.81
280.505	276.81
280.736	241.81
280.968	276.81
281.199	259.81
281.431	289.81
281.662	275.81
281.894	266.81
282.125	267.81
282.356	278.81
282.588	293.81
282.819	299.81
283.051	277.81
283.282	266.81
283.513	275.81
283.745	282.81
283.976	279.81
284.207	282.81
284.439	287.81
284.67	266.81
284.901	253.81
285.132	273.81
285.364	278.81
285.595	287.81
285.826	279.81
286.057	299.81
286.288	286.81
286.52	283.81
286.751	280.81
286.982	300.81
287.213	300.81
287.444	285.81
287.675	297.81
287.906	295.81
288.138	295.81
288.369	295.81
288.6	310.81
288.831	279.81
289.062	286.81
289.293	294.81
289.524	300.81
289.755	293.81
289.986	289.81
290.217	291.81
290.448	271.81
290.679	287.81
290.91	321.81
291.141	302.81
291.371	289.81
291.602	293.81
291.833	284.81
292.064	300.81
292.295	293.81
292.526	301.81
292.757	304.81
292.987	302.81
293.218	307.81
293.449	288.81
293.68	316.81
293.91	315.81
294.141	282.81
294.372	305.81
294.603	302.81
294.833	313.81
295.064	298.81
295.295	315.81
295.525	294.81
295.756	317.81
295.987	317.81
296.217	317.81
296.448	329.81
296.679	302.81
296.909	315.81
297.14	305.81
297.37	308.81
297.601	324.81
297.831	308.81
298.062	300.81
298.292	313.81
298.523	333.81
298.753	317.81
298.984	316.81
299.214	333.81
299.445	327.81
299.675	324.81
299.905	327.81
300.136	341.81
300.366	319.81
300.597	317.81
300.827	312.81
301.057	335.81
301.288	351.81
301.518	339.81
301.748	331.81
301.979	327.81
302.209	338.81
302.439	331.81
302.669	345.81
302.9	340.81
303.13	344.81
303.36	342.81
303.59	353.81
303.82	350.81
304.051	339.81
304.281	318.81
304.511	338.81
304.741	327.81
304.971	317.81
305.201	334.81
305.431	349.81
305.661	351.81
305.891	351.81
306.121	350.81
306.352	340.81
306.582	344.81
306.812	335.81
307.042	343.81
307.272	330.81
307.502	334.81
307.731	333.81
307.961	344.81
308.191	329.81
308.421	334.81
308.651	343.81
308.881	351.81
309.111	318.81
309.341	346.81
309.571	343.81
309.8	350.81
310.03	371.81
310.26	370.81
310.49	347.81
310.72	382.81
310.949	373.81
311.179	360.81
311.409	373.81
311.639	356.81
311.868	369.81
312.098	375.81
312.328	369.81
312.557	385.81
312.787	365.81
313.017	393.81
313.246	375.81
313.476	373.81
313.706	365.81
313.935	378.81
314.165	375.81
314.394	387.81
314.624	384.81
314.853	389.81
315.083	387.81
315.312	369.81
315.542	387.81
315.771	359.81
316.001	346.81
316.23	350.81
316.46	364.81
316.689	378.81
316.919	395.81
317.148	363.81
317.377	395.81
317.607	364.81
317.836	379.81
318.065	369.81
318.295	368.81
318.524	383.81
318.753	375.81
318.983	371.81
319.212	358.81
319.441	384.81
319.67	362.81
319.9	371.81
320.129	381.81
320.358	371.81
320.587	372.81
320.816	382.81
321.046	370.81
321.275	369.81
321.504	370.81
321.733	389.81
321.962	405.81
322.191	382.81
322.42	396.81
322.649	405.81
322.878	397.81
323.108	405.81
323.337	433.81
323.566	434.81
323.795	460.81
324.024	490.81
324.253	554.81
324.482	727.81
324.71	1089.81
324.939	1409.81
325.168	1259.81
325.397	712.81
325.626	533.81
325.855	485.81
326.084	475.81
326.313	438.81
326.542	438.81
326.77	466.81
326.999	527.81
327.228	641.81
327.457	925.81
327.686	1107.81
327.914	778.81
328.143	558.81
328.372	513.81
328.6	477.81
328.829	483.81
329.058	508.81
329.287	494.81
329.515	481.81
329.744	465.81
329.972	444.81
330.201	470.81
330.43	492.81
330.658	502.81
330.887	500.81
331.115	478.81
331.344	471.81
331.572	461.81
331.801	484.81
332.03	480.81
332.258	445.81
332.486	434.81
332.715	450.81
332.943	459.81
333.172	457.81
333.4	460.81
333.629	473.81
333.857	469.81
334.085	468.81
334.314	501.81
334.542	520.81
334.771	516.81
334.999	492.81
335.227	461.81
335.455	461.81
335.684	459.81
335.912	441.81
336.14	459.81
336.369	471.81
336.597	461.81
336.825	469.81
337.053	439.81
337.281	443.81
337.51	425.81
337.738	437.81
337.966	433.81
338.194	438.81
338.422	435.81
338.65	443.81
338.878	431.81
339.106	436.81
339.334	420.81
339.562	436.81
339.79	437.81
340.018	447.81
340.246	414.81
340.474	437.81
340.702	413.81
340.93	428.81
341.158	417.81
341.386	433.81
341.614	421.81
341.842	430.81
342.07	421.81
342.298	421.81
342.526	421.81
342.754	421.81
342.981	406.81
343.209	419.81
343.437	442.81
343.665	438.81
343.893	477.81
344.12	450.81
344.348	481.81
344.576	451.81
344.804	436.81
345.031	442.81
345.259	453.81
345.487	430.81
345.714	430.81
345.942	417.81
346.17	424.81
346.397	423.81
346.625	433.81
346.853	434.81
347.08	403.81
347.308	425.81
347.535	417.81
347.763	427.81
347.99	402.81
348.218	407.81
348.445	420.81
348.673	416.81
348.9	416.81
349.128	411.81
349.355	386.81
349.583	396.81
349.81	385.81
350.037	401.81
350.265	395.81
350.492	404.81
350.72	388.81
350.947	418.81
351.174	428.81
351.402	423.81
351.629	413.81
351.856	398.81
352.083	405.81
352.311	423.81
352.538	413.81
352.765	411.81
352.992	408.81
353.22	413.81
353.447	405.81
353.674	381.81
353.901	398.81
354.128	369.81
354.355	387.81
354.583	382.81
354.81	396.81
355.037	395.81
355.264	407.81
355.491	385.81
355.718	389.81
355.945	371.81
356.172	382.81
356.399	397.81
356.626	403.81
356.853	399.81
357.08	379.81
357.307	379.81
357.534	403.81
357.761	383.81
357.988	389.81
358.215	411.81
358.441	397.81
358.668	392.81
358.895	387.81
359.122	399.81
359.349	402.81
359.576	409.81
359.802	435.81
360.029	412.81
360.256	431.81
360.483	421.81
360.709	398.81
360.936	403.81
361.163	395.81
361.39	408.81
361.616	403.81
361.843	406.81
362.07	413.81
362.296	388.81
362.523	403.81
362.749	382.81
362.976	389.81
363.203	385.81
363.429	383.81
363.656	385.81
363.882	413.81
364.109	403.81
364.335	386.81
364.562	397.81
364.788	388.81
365.015	387.81
365.241	385.81
365.468	388.81
365.694	399.81
365.92	416.81
366.147	385.81
366.373	398.81
366.599	386.81
366.826	391.81
367.052	397.81
367.278	379.81
367.505	393.81
367.731	397.81
367.957	391.81
368.184	408.81
368.41	384.81
368.636	408.81
368.862	408.81
369.089	398.81
369.315	401.81
369.541	391.81
369.767	408.81
369.993	383.81
370.219	407.81
370.445	397.81
370.672	405.81
370.898	384.81
371.124	411.81
371.35	421.81
371.576	397.81
371.802	410.81
372.028	409.81
372.254	415.81
372.48	413.81
372.706	396.81
372.932	390.81
373.158	420.81
373.384	405.81
373.61	393.81
373.835	397.81
374.061	422.81
374.287	409.81
374.513	426.81
374.739	413.81
374.965	410.81
375.191	410.81
375.416	402.81
375.642	417.81
375.868	405.81
376.094	416.81
376.319	414.81
376.545	411.81
376.771	395.81
376.997	407.81
377.222	437.81
377.448	415.81
377.674	389.81
377.899	389.81
378.125	406.81
378.35	409.81
378.576	416.81
378.802	395.81
379.027	421.81
379.253	395.81
379.478	408.81
379.704	391.81
379.929	417.81
380.155	409.81
380.38	407.81
380.606	405.81
380.831	405.81
381.057	403.81
381.282	396.81
381.507	411.81
381.733	389.81
381.958	400.81
382.184	394.81
382.409	410.81
382.634	404.81
382.86	411.81
383.085	427.81
383.31	420.81
383.535	426.81
383.761	430.81
383.986	436.81
384.211	447.81
384.436	446.81
384.662	442.81
384.887	448.81
385.112	449.81
385.337	451.81
385.562	478.81
385.787	459.81
386.013	451.81
386.238	448.81
386.463	467.81
386.688	433.81
386.913	445.81
387.138	464.81
387.363	467.81
387.588	437.81
387.813	480.81
388.038	466.81
388.263	473.81
388.488	458.81
388.713	464.81
388.938	434.81
389.163	460.81
389.387	454.81
389.612	455.81
389.837	486.81
390.062	437.81
390.287	452.81
390.512	438.81
390.736	454.81
390.961	460.81
391.186	465.81
391.411	484.81
391.636	470.81
391.86	482.81
392.085	490.81
392.31	488.81
392.534	462.81
392.759	494.81
392.984	472.81
393.208	451.81
393.433	480.81
393.658	463.81
393.882	471.81
394.107	460.81
394.331	476.81
394.556	482.81
394.78	479.81
395.005	487.81
395.229	492.81
395.454	479.81
395.678	486.81
395.903	488.81
396.127	504.81
396.352	517.81
396.576	484.81
396.801	489.81
397.025	527.81
397.249	482.81
397.474	486.81
397.698	526.81
397.922	523.81
398.147	516.81
398.371	509.81
398.595	529.81
398.82	535.81
399.044	561.81
399.268	576.81
399.492	627.81
399.717	678.81
399.941	680.81
400.165	713.81
400.389	671.81
400.613	600.81
400.837	588.81
401.062	563.81
401.286	546.81
401.51	545.81
401.734	571.81
401.958	544.81
402.182	535.81
402.406	552.81
402.63	573.81
402.854	548.81
403.078	561.81
403.302	563.81
403.526	579.81
403.75	559.81
403.974	582.81
404.198	601.81
404.422	579.81
404.645	583.81
404.869	602.81
405.093	605.81
405.317	631.81
405.541	671.81
405.765	617.81
405.988	563.81
406.212	582.81
406.436	596.81
406.66	629.81
406.883	622.81
407.107	641.81
407.331	683.81
407.555	718.81
407.778	730.81
408.002	648.81
408.226	626.81
408.449	621.81
408.673	651.81
408.896	613.81
409.12	669.81
409.344	614.81
409.567	575.81
409.791	604.81
410.014	563.81
410.238	550.81
410.461	571.81
410.685	592.81
410.908	586.81
411.132	629.81
411.355	643.81
411.578	577.81
411.802	571.81
412.025	574.81
412.249	571.81
412.472	574.81
412.695	599.81
412.919	584.81
413.142	555.81
413.365	531.81
413.589	553.81
413.812	545.81
414.035	529.81
414.258	543.81
414.482	542.81
414.705	553.81
414.928	527.81
415.151	531.81
415.374	516.81
415.597	533.81
415.821	539.81
416.044	536.81
416.267	552.81
416.49	519.81
416.713	513.81
416.936	516.81
417.159	517.81
417.382	521.81
417.605	527.81
417.828	544.81
418.051	561.81
418.274	540.81
418.497	509.81
418.72	567.81
418.943	546.81
419.166	580.81
419.389	586.81
419.611	574.81
419.834	553.81
420.057	567.81
420.28	560.81
420.503	550.81
420.726	538.81
420.948	548.81
421.171	586.81
421.394	585.81
421.617	556.81
421.839	543.81
422.062	547.81
422.285	563.81
422.507	600.81
422.73	633.81
422.953	627.81
423.175	595.81
423.398	585.81
423.621	580.81
423.843	596.81
424.066	591.81
424.288	579.81
424.511	590.81
424.733	619.81
424.956	677.81
425.178	643.81
425.401	676.81
425.623	665.81
425.846	595.81
426.068	570.81
426.291	579.81
426.513	552.81
426.735	572.81
426.958	590.81
427.18	659.81
427.402	746.81
427.625	797.81
427.847	693.81
428.069	629.81
428.292	581.81
428.514	550.81
428.736	524.81
428.958	524.81
429.181	523.81
429.403	513.81
429.625	504.81
429.847	545.81
430.069	594.81
430.292	587.81
430.514	516.81
430.736	518.81
430.958	514.81
431.18	534.81
431.402	504.81
431.624	462.81
431.846	515.81
432.068	504.81
432.29	505.81
432.512	492.81
432.734	515.81
432.956	518.81
433.178	491.81
433.4	504.81
433.622	503.81
433.844	502.81
434.066	531.81
434.287	503.81
434.509	516.81
434.731	538.81
434.953	525.81
435.175	550.81
435.397	585.81
435.618	539.81
435.84	555.81
436.062	651.81
436.284	706.81
436.505	615.81
436.727	569.81
436.949	540.81
437.17	522.81
437.392	514.81
437.614	524.81
437.835	565.81
438.057	617.81
438.278	670.81
438.5	667.81
438.721	745.81
438.943	718.81
439.165	582.81
439.386	547.81
439.608	537.81
439.829	552.81
440.05	558.81
440.272	587.81
440.493	565.81
440.715	548.81
440.936	537.81
441.158	536.81
441.379	518.81
441.6	572.81
441.822	541.81
442.043	564.81
442.264	658.81
442.486	661.81
442.707	600.81
442.928	581.81
443.149	576.81
443.371	589.81
443.592	605.81
443.813	678.81
444.034	741.81
444.255	637.81
444.476	606.81
444.698	601.81
444.919	597.81
445.14	701.81
445.361	633.81
445.582	606.81
445.803	625.81
446.024	693.81
446.245	711.81
446.466	623.81
446.687	565.81
446.908	539.81
447.129	507.81
447.35	490.81
447.571	502.81
447.792	494.81
448.013	523.81
448.234	516.81
448.455	536.81
448.675	624.81
448.896	719.81
449.117	617.81
449.338	593.81
449.559	671.81
449.779	736.81
450	616.81
450.221	542.81
450.442	506.81
450.662	478.81
450.883	501.81
451.104	516.81
451.324	487.81
451.545	466.81
451.766	461.81
451.986	475.81
452.207	461.81
452.428	445.81
452.648	468.81
452.869	468.81
453.089	470.81
453.31	477.81
453.53	459.81
453.751	451.81
453.971	461.81
454.192	468.81
454.412	437.81
454.633	433.81
454.853	458.81
455.073	447.81
455.294	478.81
455.514	502.81
455.734	487.81
455.955	441.81
456.175	419.81
456.395	431.81
456.616	435.81
456.836	449.81
457.056	415.81
457.276	437.81
457.497	435.81
457.717	459.81
457.937	460.81
458.157	442.81
458.377	475.81
458.598	470.81
458.818	493.81
459.038	539.81
459.258	587.81
459.478	534.81
459.698	517.81
459.918	527.81
460.138	510.81
460.358	536.81
460.578	528.81
460.798	537.81
461.018	573.81
461.238	524.81
461.458	538.81
461.678	534.81
461.898	521.81
462.118	571.81
462.338	568.81
462.558	575.81
462.777	604.81
462.997	602.81
463.217	627.81
463.437	625.81
463.657	612.81
463.876	593.81
464.096	581.81
464.316	574.81
464.536	604.81
464.755	592.81
464.975	577.81
465.195	545.81
465.414	596.81
465.634	552.81
465.854	554.81
466.073	520.81
466.293	514.81
466.512	505.81
466.732	494.81
466.951	483.81
467.171	475.81
467.391	482.81
467.61	479.81
467.829	506.81
468.049	485.81
468.268	493.81
468.488	466.81
468.707	479.81
468.927	479.81
469.146	482.81
469.365	449.81
469.585	452.81
469.804	488.81
470.023	503.81
470.243	486.81
470.462	497.81
470.681	501.81
470.901	523.81
471.12	497.81
471.339	485.81
471.558	501.81
471.777	492.81
471.997	484.81
472.216	486.81
472.435	521.81
472.654	477.81
472.873	490.81
473.092	495.81
473.311	474.81
473.53	467.81
473.749	488.81
473.968	504.81
474.187	558.81
474.406	569.81
474.625	505.81
474.844	486.81
475.063	486.81
475.282	494.81
475.501	497.81
475.72	485.81
475.939	489.81
476.158	470.81
476.377	475.81
476.596	492.81
476.814	488.81
477.033	509.81
477.252	510.81
477.471	521.81
477.69	517.81
477.908	532.81
478.127	533.81
478.346	523.81
478.564	552.81
478.783	557.81
479.002	572.81
479.22	580.81
479.439	591.81
479.658	570.81
479.876	607.81
480.095	589.81
480.313	592.81
480.532	605.81
480.751	600.81
480.969	602.81
481.188	622.81
481.406	637.81
481.624	593.81
481.843	575.81
482.061	548.81
482.28	591.81
482.498	567.81
482.717	556.81
482.935	566.81
483.153	545.81
483.372	557.81
483.59	551.81
483.808	552.81
484.027	564.81
484.245	579.81
484.463	574.81
484.681	559.81
484.9	571.81
485.118	558.81
485.336	577.81
485.554	586.81
485.772	605.81
485.99	587.81
486.209	582.81
486.427	561.81
486.645	593.81
486.863	581.81
487.081	586.81
487.299	601.81
487.517	599.81
487.735	588.81
487.953	605.81
488.171	581.81
488.389	605.81
488.607	601.81
488.825	598.81
489.043	591.81
489.261	604.81
489.479	610.81
489.696	592.81
489.914	598.81
490.132	599.81
490.35	603.81
490.568	622.81
490.786	592.81
491.003	608.81
491.221	632.81
491.439	642.81
491.657	633.81
491.874	641.81
492.092	654.81
492.31	648.81
492.527	656.81
492.745	670.81
492.963	667.81
493.18	657.81
493.398	691.81
493.615	683.81
493.833	649.81
494.05	675.81
494.268	661.81
494.485	661.81
494.703	667.81
494.92	694.81
495.138	678.81
495.355	677.81
495.573	673.81
495.79	668.81
496.008	712.81
496.225	664.81
496.442	707.81
496.66	687.81
496.877	689.81
497.094	695.81
497.312	685.81
497.529	717.81
497.746	714.81
497.963	739.81
498.181	787.81
498.398	810.81
498.615	810.81
498.832	826.81
499.049	860.81
499.267	894.81
499.484	965.81
499.701	973.81
499.918	1034.81
500.135	1132.81
500.352	1180.81
500.569	1231.81
500.786	1227.81
501.003	1173.81
501.22	1145.81
501.437	1063.81
501.654	999.81
501.871	969.81
