Data from 1962.PennyLincolnUp.Lamp.En5.5.200Scan.071719.P1._HRD10591_13-54-25-061.txt Node
Date: Thu Jul 18 13:54:25 EDT 2019
User: cochatt
Spectrometer: HR+D1059
Trigger mode: 1
Integration Time (sec): 1.000000E-1
Scans to average: 1
Electric dark correction enabled: true
Nonlinearity correction enabled: false
Boxcar width: 0
XAxis mode: Wavelengths
Number of Pixels in Spectrum: 2048
>>>>>Begin Spectral Data<<<<<
223.165	-19.19
223.4	-19.19
223.635	-19.19
223.869	-20.19
224.104	-31.19
224.338	-16.19
224.573	-11.19
224.808	-12.19
225.042	-0.19
225.277	-13.19
225.511	-2.19
225.746	3.81
225.98	7.81
226.215	9.81
226.449	30.81
226.683	20.81
226.918	31.81
227.152	20.81
227.387	38.81
227.621	42.81
227.856	38.81
228.09	44.81
228.324	41.81
228.559	36.81
228.793	69.81
229.027	100.81
229.262	93.81
229.496	96.81
229.73	121.81
229.964	128.81
230.199	101.81
230.433	116.81
230.667	87.81
230.901	105.81
231.136	94.81
231.37	108.81
231.604	100.81
231.838	107.81
232.072	118.81
232.306	103.81
232.541	102.81
232.775	115.81
233.009	117.81
233.243	127.81
233.477	117.81
233.711	119.81
233.945	102.81
234.179	117.81
234.413	109.81
234.647	113.81
234.881	112.81
235.115	120.81
235.349	111.81
235.583	115.81
235.817	117.81
236.051	113.81
236.285	121.81
236.519	109.81
236.753	114.81
236.987	127.81
237.221	151.81
237.455	192.81
237.689	157.81
237.922	137.81
238.156	121.81
238.39	109.81
238.624	115.81
238.858	108.81
239.091	107.81
239.325	113.81
239.559	110.81
239.793	116.81
240.027	116.81
240.26	121.81
240.494	135.81
240.728	145.81
240.961	143.81
241.195	135.81
241.429	123.81
241.662	143.81
241.896	110.81
242.13	120.81
242.363	138.81
242.597	129.81
242.83	123.81
243.064	133.81
243.298	131.81
243.531	123.81
243.765	131.81
243.998	121.81
244.232	137.81
244.465	129.81
244.699	140.81
244.932	136.81
245.166	151.81
245.399	142.81
245.633	138.81
245.866	139.81
246.099	134.81
246.333	130.81
246.566	134.81
246.8	138.81
247.033	139.81
247.266	146.81
247.5	153.81
247.733	138.81
247.966	159.81
248.2	166.81
248.433	175.81
248.666	163.81
248.899	161.81
249.133	176.81
249.366	180.81
249.599	185.81
249.832	178.81
250.066	177.81
250.299	160.81
250.532	169.81
250.765	166.81
250.998	205.81
251.231	194.81
251.465	178.81
251.698	172.81
251.931	171.81
252.164	197.81
252.397	195.81
252.63	177.81
252.863	178.81
253.096	203.81
253.329	200.81
253.562	201.81
253.795	182.81
254.028	192.81
254.261	201.81
254.494	194.81
254.727	214.81
254.96	228.81
255.193	232.81
255.426	198.81
255.659	201.81
255.892	203.81
256.124	218.81
256.357	209.81
256.59	212.81
256.823	194.81
257.056	198.81
257.289	191.81
257.521	195.81
257.754	202.81
257.987	187.81
258.22	188.81
258.452	203.81
258.685	188.81
258.918	188.81
259.151	196.81
259.383	197.81
259.616	183.81
259.849	210.81
260.081	207.81
260.314	211.81
260.547	221.81
260.779	224.81
261.012	209.81
261.244	204.81
261.477	225.81
261.71	188.81
261.942	197.81
262.175	205.81
262.407	198.81
262.64	199.81
262.872	196.81
263.105	190.81
263.337	202.81
263.57	195.81
263.802	209.81
264.035	209.81
264.267	197.81
264.499	190.81
264.732	201.81
264.964	186.81
265.197	192.81
265.429	220.81
265.661	204.81
265.894	205.81
266.126	211.81
266.358	201.81
266.591	208.81
266.823	213.81
267.055	210.81
267.287	227.81
267.52	207.81
267.752	222.81
267.984	241.81
268.216	222.81
268.448	224.81
268.681	224.81
268.913	214.81
269.145	235.81
269.377	255.81
269.609	261.81
269.841	279.81
270.073	244.81
270.306	281.81
270.538	264.81
270.77	279.81
271.002	268.81
271.234	260.81
271.466	277.81
271.698	278.81
271.93	287.81
272.162	268.81
272.394	282.81
272.626	276.81
272.858	275.81
273.09	258.81
273.322	277.81
273.553	236.81
273.785	266.81
274.017	258.81
274.249	253.81
274.481	248.81
274.713	243.81
274.945	257.81
275.176	257.81
275.408	256.81
275.64	257.81
275.872	255.81
276.104	269.81
276.335	249.81
276.567	263.81
276.799	264.81
277.031	278.81
277.262	303.81
277.494	298.81
277.726	291.81
277.957	264.81
278.189	261.81
278.421	266.81
278.652	270.81
278.884	264.81
279.115	274.81
279.347	271.81
279.579	254.81
279.81	261.81
280.042	288.81
280.273	265.81
280.505	264.81
280.736	272.81
280.968	267.81
281.199	271.81
281.431	273.81
281.662	270.81
281.894	272.81
282.125	265.81
282.356	274.81
282.588	290.81
282.819	307.81
283.051	297.81
283.282	285.81
283.513	272.81
283.745	275.81
283.976	298.81
284.207	289.81
284.439	290.81
284.67	287.81
284.901	276.81
285.132	305.81
285.364	280.81
285.595	295.81
285.826	285.81
286.057	283.81
286.288	267.81
286.52	285.81
286.751	280.81
286.982	266.81
287.213	295.81
287.444	281.81
287.675	284.81
287.906	316.81
288.138	300.81
288.369	305.81
288.6	304.81
288.831	296.81
289.062	303.81
289.293	293.81
289.524	301.81
289.755	312.81
289.986	284.81
290.217	297.81
290.448	298.81
290.679	327.81
290.91	309.81
291.141	291.81
291.371	292.81
291.602	288.81
291.833	292.81
292.064	297.81
292.295	311.81
292.526	315.81
292.757	307.81
292.987	310.81
293.218	281.81
293.449	296.81
293.68	293.81
293.91	303.81
294.141	291.81
294.372	323.81
294.603	287.81
294.833	316.81
295.064	308.81
295.295	311.81
295.525	281.81
295.756	291.81
295.987	300.81
296.217	324.81
296.448	325.81
296.679	310.81
296.909	313.81
297.14	314.81
297.37	319.81
297.601	301.81
297.831	300.81
298.062	310.81
298.292	298.81
298.523	313.81
298.753	320.81
298.984	310.81
299.214	320.81
299.445	309.81
299.675	294.81
299.905	311.81
300.136	327.81
300.366	324.81
300.597	317.81
300.827	327.81
301.057	320.81
301.288	322.81
301.518	347.81
301.748	341.81
301.979	355.81
302.209	338.81
302.439	328.81
302.669	335.81
302.9	327.81
303.13	342.81
303.36	334.81
303.59	362.81
303.82	352.81
304.051	341.81
304.281	329.81
304.511	337.81
304.741	320.81
304.971	338.81
305.201	329.81
305.431	348.81
305.661	333.81
305.891	322.81
306.121	326.81
306.352	349.81
306.582	335.81
306.812	345.81
307.042	334.81
307.272	326.81
307.502	329.81
307.731	347.81
307.961	343.81
308.191	331.81
308.421	318.81
308.651	325.81
308.881	327.81
309.111	349.81
309.341	335.81
309.571	336.81
309.8	342.81
310.03	344.81
310.26	351.81
310.49	348.81
310.72	361.81
310.949	351.81
311.179	383.81
311.409	364.81
311.639	356.81
311.868	364.81
312.098	355.81
312.328	367.81
312.557	345.81
312.787	372.81
313.017	369.81
313.246	357.81
313.476	364.81
313.706	360.81
313.935	371.81
314.165	387.81
314.394	397.81
314.624	372.81
314.853	374.81
315.083	375.81
315.312	364.81
315.542	375.81
315.771	389.81
316.001	377.81
316.23	378.81
316.46	352.81
316.689	371.81
316.919	385.81
317.148	386.81
317.377	389.81
317.607	369.81
317.836	368.81
318.065	370.81
318.295	379.81
318.524	381.81
318.753	380.81
318.983	389.81
319.212	374.81
319.441	377.81
319.67	370.81
319.9	396.81
320.129	386.81
320.358	388.81
320.587	385.81
320.816	379.81
321.046	378.81
321.275	377.81
321.504	376.81
321.733	393.81
321.962	376.81
322.191	401.81
322.42	401.81
322.649	394.81
322.878	408.81
323.108	413.81
323.337	428.81
323.566	428.81
323.795	457.81
324.024	491.81
324.253	539.81
324.482	684.81
324.71	985.81
324.939	1371.81
325.168	1223.81
325.397	710.81
325.626	510.81
325.855	464.81
326.084	447.81
326.313	435.81
326.542	456.81
326.77	463.81
326.999	545.81
327.228	641.81
327.457	904.81
327.686	1078.81
327.914	773.81
328.143	559.81
328.372	523.81
328.6	502.81
328.829	481.81
329.058	475.81
329.287	506.81
329.515	485.81
329.744	445.81
329.972	455.81
330.201	458.81
330.43	487.81
330.658	491.81
330.887	514.81
331.115	502.81
331.344	462.81
331.572	452.81
331.801	461.81
332.03	459.81
332.258	468.81
332.486	455.81
332.715	452.81
332.943	461.81
333.172	457.81
333.4	465.81
333.629	497.81
333.857	495.81
334.085	521.81
334.314	509.81
334.542	514.81
334.771	535.81
334.999	512.81
335.227	469.81
335.455	469.81
335.684	483.81
335.912	448.81
336.14	455.81
336.369	448.81
336.597	476.81
336.825	460.81
337.053	473.81
337.281	437.81
337.51	439.81
337.738	447.81
337.966	448.81
338.194	459.81
338.422	439.81
338.65	461.81
338.878	441.81
339.106	440.81
339.334	442.81
339.562	441.81
339.79	426.81
340.018	417.81
340.246	421.81
340.474	422.81
340.702	428.81
340.93	429.81
341.158	395.81
341.386	396.81
341.614	408.81
341.842	424.81
342.07	427.81
342.298	419.81
342.526	422.81
342.754	421.81
342.981	400.81
343.209	442.81
343.437	431.81
343.665	441.81
343.893	440.81
344.12	442.81
344.348	446.81
344.576	447.81
344.804	439.81
345.031	428.81
345.259	435.81
345.487	431.81
345.714	443.81
345.942	429.81
346.17	403.81
346.397	433.81
346.625	422.81
346.853	419.81
347.08	399.81
347.308	401.81
347.535	421.81
347.763	404.81
347.99	402.81
348.218	406.81
348.445	412.81
348.673	396.81
348.9	402.81
349.128	406.81
349.355	393.81
349.583	397.81
349.81	417.81
350.037	401.81
350.265	395.81
350.492	397.81
350.72	403.81
350.947	398.81
351.174	403.81
351.402	417.81
351.629	389.81
351.856	376.81
352.083	412.81
352.311	417.81
352.538	411.81
352.765	410.81
352.992	412.81
353.22	405.81
353.447	420.81
353.674	397.81
353.901	376.81
354.128	387.81
354.355	386.81
354.583	399.81
354.81	387.81
355.037	387.81
355.264	394.81
355.491	387.81
355.718	383.81
355.945	393.81
356.172	385.81
356.399	380.81
356.626	389.81
356.853	389.81
357.08	392.81
357.307	377.81
357.534	396.81
357.761	401.81
357.988	382.81
358.215	388.81
358.441	379.81
358.668	374.81
358.895	379.81
359.122	385.81
359.349	398.81
359.576	428.81
359.802	423.81
360.029	425.81
360.256	404.81
360.483	420.81
360.709	395.81
360.936	402.81
361.163	396.81
361.39	403.81
361.616	408.81
361.843	383.81
362.07	422.81
362.296	392.81
362.523	391.81
362.749	404.81
362.976	393.81
363.203	406.81
363.429	377.81
363.656	390.81
363.882	380.81
364.109	392.81
364.335	388.81
364.562	400.81
364.788	386.81
365.015	395.81
365.241	396.81
365.468	407.81
365.694	399.81
365.92	400.81
366.147	388.81
366.373	384.81
366.599	379.81
366.826	394.81
367.052	393.81
367.278	377.81
367.505	381.81
367.731	386.81
367.957	377.81
368.184	386.81
368.41	410.81
368.636	403.81
368.862	399.81
369.089	407.81
369.315	395.81
369.541	405.81
369.767	413.81
369.993	393.81
370.219	384.81
370.445	407.81
370.672	403.81
370.898	397.81
371.124	395.81
371.35	392.81
371.576	405.81
371.802	405.81
372.028	408.81
372.254	418.81
372.48	422.81
372.706	411.81
372.932	403.81
373.158	422.81
373.384	420.81
373.61	429.81
373.835	408.81
374.061	398.81
374.287	423.81
374.513	390.81
374.739	432.81
374.965	412.81
375.191	441.81
375.416	435.81
375.642	411.81
375.868	399.81
376.094	420.81
376.319	409.81
376.545	395.81
376.771	391.81
376.997	408.81
377.222	405.81
377.448	407.81
377.674	402.81
377.899	403.81
378.125	397.81
378.35	397.81
378.576	404.81
378.802	399.81
379.027	402.81
379.253	393.81
379.478	385.81
379.704	401.81
379.929	393.81
380.155	400.81
380.38	405.81
380.606	398.81
380.831	396.81
381.057	409.81
381.282	393.81
381.507	384.81
381.733	414.81
381.958	406.81
382.184	407.81
382.409	419.81
382.634	422.81
382.86	409.81
383.085	411.81
383.31	434.81
383.535	434.81
383.761	434.81
383.986	437.81
384.211	448.81
384.436	447.81
384.662	453.81
384.887	449.81
385.112	443.81
385.337	454.81
385.562	467.81
385.787	455.81
386.013	454.81
386.238	445.81
386.463	452.81
386.688	478.81
386.913	468.81
387.138	465.81
387.363	457.81
387.588	467.81
387.813	450.81
388.038	465.81
388.263	466.81
388.488	445.81
388.713	453.81
388.938	451.81
389.163	448.81
389.387	459.81
389.612	469.81
389.837	445.81
390.062	463.81
390.287	473.81
390.512	458.81
390.736	434.81
390.961	472.81
391.186	476.81
391.411	466.81
391.636	468.81
391.86	494.81
392.085	475.81
392.31	471.81
392.534	467.81
392.759	484.81
392.984	490.81
393.208	473.81
393.433	485.81
393.658	463.81
393.882	464.81
394.107	478.81
394.331	471.81
394.556	467.81
394.78	499.81
395.005	478.81
395.229	472.81
395.454	466.81
395.678	493.81
395.903	484.81
396.127	529.81
396.352	495.81
396.576	487.81
396.801	479.81
397.025	495.81
397.249	508.81
397.474	523.81
397.698	517.81
397.922	499.81
398.147	521.81
398.371	536.81
398.595	525.81
398.82	532.81
399.044	551.81
399.268	579.81
399.492	637.81
399.717	687.81
399.941	682.81
400.165	693.81
400.389	692.81
400.613	619.81
400.837	582.81
401.062	566.81
401.286	545.81
401.51	541.81
401.734	536.81
401.958	547.81
402.182	553.81
402.406	543.81
402.63	538.81
402.854	563.81
403.078	581.81
403.302	576.81
403.526	549.81
403.75	604.81
403.974	553.81
404.198	560.81
404.422	600.81
404.645	588.81
404.869	581.81
405.093	608.81
405.317	641.81
405.541	679.81
405.765	596.81
405.988	601.81
406.212	586.81
406.436	594.81
406.66	612.81
406.883	632.81
407.107	637.81
407.331	652.81
407.555	727.81
407.778	735.81
408.002	660.81
408.226	637.81
408.449	626.81
408.673	613.81
408.896	616.81
409.12	661.81
409.344	631.81
409.567	584.81
409.791	569.81
410.014	579.81
410.238	552.81
410.461	580.81
410.685	596.81
410.908	570.81
411.132	587.81
411.355	628.81
411.578	598.81
411.802	563.81
412.025	579.81
412.249	556.81
412.472	613.81
412.695	579.81
412.919	600.81
413.142	550.81
413.365	548.81
413.589	561.81
413.812	558.81
414.035	530.81
414.258	543.81
414.482	563.81
414.705	533.81
414.928	555.81
415.151	552.81
415.374	548.81
415.597	556.81
415.821	531.81
416.044	530.81
416.267	526.81
416.49	536.81
416.713	529.81
416.936	520.81
417.159	546.81
417.382	519.81
417.605	513.81
417.828	532.81
418.051	533.81
418.274	540.81
418.497	532.81
418.72	546.81
418.943	548.81
419.166	563.81
419.389	571.81
419.611	602.81
419.834	585.81
420.057	579.81
420.28	556.81
420.503	539.81
420.726	538.81
420.948	549.81
421.171	583.81
421.394	604.81
421.617	538.81
421.839	539.81
422.062	560.81
422.285	561.81
422.507	580.81
422.73	658.81
422.953	629.81
423.175	580.81
423.398	579.81
423.621	563.81
423.843	573.81
424.066	588.81
424.288	587.81
424.511	588.81
424.733	629.81
424.956	675.81
425.178	656.81
425.401	671.81
425.623	681.81
425.846	593.81
426.068	561.81
426.291	565.81
426.513	568.81
426.735	565.81
426.958	612.81
427.18	627.81
427.402	754.81
427.625	805.81
427.847	683.81
428.069	612.81
428.292	591.81
428.514	580.81
428.736	559.81
428.958	547.81
429.181	516.81
429.403	511.81
429.625	483.81
429.847	533.81
430.069	583.81
430.292	597.81
430.514	518.81
430.736	509.81
430.958	519.81
431.18	497.81
431.402	501.81
431.624	517.81
431.846	489.81
432.068	506.81
432.29	503.81
432.512	508.81
432.734	501.81
432.956	501.81
433.178	524.81
433.4	533.81
433.622	514.81
433.844	519.81
434.066	519.81
434.287	524.81
434.509	523.81
434.731	501.81
434.953	545.81
435.175	532.81
435.397	565.81
435.618	584.81
435.84	565.81
436.062	632.81
436.284	713.81
436.505	597.81
436.727	554.81
436.949	521.81
437.17	515.81
437.392	508.81
437.614	549.81
437.835	535.81
438.057	572.81
438.278	676.81
438.5	668.81
438.721	754.81
438.943	715.81
439.165	589.81
439.386	536.81
439.608	533.81
439.829	543.81
440.05	567.81
440.272	573.81
440.493	541.81
440.715	539.81
440.936	522.81
441.158	525.81
441.379	513.81
441.6	567.81
441.822	566.81
442.043	594.81
442.264	672.81
442.486	668.81
442.707	592.81
442.928	569.81
443.149	593.81
443.371	562.81
443.592	598.81
443.813	687.81
444.034	724.81
444.255	652.81
444.476	608.81
444.698	620.81
444.919	582.81
445.14	716.81
445.361	643.81
445.582	608.81
445.803	580.81
446.024	688.81
446.245	680.81
446.466	649.81
446.687	574.81
446.908	556.81
447.129	539.81
447.35	516.81
447.571	498.81
447.792	513.81
448.013	500.81
448.234	514.81
448.455	551.81
448.675	635.81
448.896	697.81
449.117	613.81
449.338	593.81
449.559	670.81
449.779	751.81
450	611.81
450.221	547.81
450.442	509.81
450.662	496.81
450.883	474.81
451.104	499.81
451.324	464.81
451.545	464.81
451.766	480.81
451.986	484.81
452.207	463.81
452.428	443.81
452.648	452.81
452.869	443.81
453.089	458.81
453.31	464.81
453.53	461.81
453.751	455.81
453.971	461.81
454.192	465.81
454.412	459.81
454.633	467.81
454.853	452.81
455.073	451.81
455.294	471.81
455.514	503.81
455.734	497.81
455.955	476.81
456.175	436.81
456.395	424.81
456.616	435.81
456.836	452.81
457.056	433.81
457.276	420.81
457.497	474.81
457.717	439.81
457.937	443.81
458.157	460.81
458.377	439.81
458.598	467.81
458.818	506.81
459.038	535.81
459.258	593.81
459.478	540.81
459.698	519.81
459.918	493.81
460.138	513.81
460.358	555.81
460.578	550.81
460.798	536.81
461.018	574.81
461.238	541.81
461.458	544.81
461.678	530.81
461.898	540.81
462.118	536.81
462.338	568.81
462.558	553.81
462.777	585.81
462.997	603.81
463.217	620.81
463.437	641.81
463.657	608.81
463.876	573.81
464.096	624.81
464.316	587.81
464.536	569.81
464.755	608.81
464.975	587.81
465.195	573.81
465.414	608.81
465.634	532.81
465.854	541.81
466.073	524.81
466.293	491.81
466.512	493.81
466.732	474.81
466.951	481.81
467.171	482.81
467.391	501.81
467.61	466.81
467.829	474.81
468.049	480.81
468.268	474.81
468.488	485.81
468.707	460.81
468.927	466.81
469.146	485.81
469.365	457.81
469.585	459.81
469.804	477.81
470.023	493.81
470.243	477.81
470.462	481.81
470.681	521.81
470.901	512.81
471.12	488.81
471.339	464.81
471.558	479.81
471.777	513.81
471.997	486.81
472.216	507.81
472.435	500.81
472.654	493.81
472.873	453.81
473.092	471.81
473.311	471.81
473.53	476.81
473.749	486.81
473.968	521.81
474.187	578.81
474.406	593.81
474.625	545.81
474.844	468.81
475.063	482.81
475.282	483.81
475.501	483.81
475.72	488.81
475.939	485.81
476.158	478.81
476.377	503.81
476.596	495.81
476.814	515.81
477.033	492.81
477.252	502.81
477.471	497.81
477.69	499.81
477.908	525.81
478.127	524.81
478.346	538.81
478.564	557.81
478.783	545.81
479.002	566.81
479.22	549.81
479.439	571.81
479.658	587.81
479.876	585.81
480.095	590.81
480.313	601.81
480.532	603.81
480.751	627.81
480.969	604.81
481.188	631.81
481.406	650.81
481.624	609.81
481.843	563.81
482.061	553.81
482.28	555.81
482.498	571.81
482.717	556.81
482.935	570.81
483.153	539.81
483.372	558.81
483.59	562.81
483.808	564.81
484.027	550.81
484.245	555.81
484.463	573.81
484.681	593.81
484.9	561.81
485.118	569.81
485.336	566.81
485.554	599.81
485.772	591.81
485.99	574.81
486.209	568.81
486.427	581.81
486.645	586.81
486.863	597.81
487.081	596.81
487.299	589.81
487.517	612.81
487.735	590.81
487.953	591.81
488.171	585.81
488.389	584.81
488.607	599.81
488.825	586.81
489.043	586.81
489.261	571.81
489.479	595.81
489.696	593.81
489.914	596.81
490.132	613.81
490.35	624.81
490.568	620.81
490.786	630.81
491.003	633.81
491.221	637.81
491.439	646.81
491.657	629.81
491.874	645.81
492.092	636.81
492.31	663.81
492.527	662.81
492.745	662.81
492.963	667.81
493.18	665.81
493.398	682.81
493.615	655.81
493.833	676.81
494.05	673.81
494.268	668.81
494.485	683.81
494.703	692.81
494.92	676.81
495.138	645.81
495.355	679.81
495.573	659.81
495.79	682.81
496.008	677.81
496.225	703.81
496.442	708.81
496.66	690.81
496.877	695.81
497.094	702.81
497.312	695.81
497.529	728.81
497.746	730.81
497.963	743.81
498.181	759.81
498.398	775.81
498.615	801.81
498.832	812.81
499.049	848.81
499.267	886.81
499.484	915.81
499.701	984.81
499.918	1041.81
500.135	1145.81
500.352	1182.81
500.569	1240.81
500.786	1260.81
501.003	1225.81
501.22	1157.81
501.437	1082.81
501.654	1038.81
501.871	989.81
