Data from 1962.PennyLincolnUp.Lamp.En5.5.200Scan.071719.P1._HRD10591_13-53-57-060.txt Node
Date: Thu Jul 18 13:53:57 EDT 2019
User: cochatt
Spectrometer: HR+D1059
Trigger mode: 1
Integration Time (sec): 1.000000E-1
Scans to average: 1
Electric dark correction enabled: true
Nonlinearity correction enabled: false
Boxcar width: 0
XAxis mode: Wavelengths
Number of Pixels in Spectrum: 2048
>>>>>Begin Spectral Data<<<<<
223.165	-0.62
223.4	-0.62
223.635	-0.62
223.869	-23.62
224.104	-15.62
224.338	1.38
224.573	-13.62
224.808	-3.62
225.042	-3.62
225.277	1.38
225.511	-15.62
225.746	0.38
225.98	-1.62
226.215	22.38
226.449	5.38
226.683	14.38
226.918	16.38
227.152	16.38
227.387	14.38
227.621	34.38
227.856	42.38
228.09	51.38
228.324	56.38
228.559	48.38
228.793	61.38
229.027	84.38
229.262	92.38
229.496	93.38
229.73	102.38
229.964	117.38
230.199	122.38
230.433	106.38
230.667	105.38
230.901	97.38
231.136	94.38
231.37	107.38
231.604	100.38
231.838	109.38
232.072	116.38
232.306	108.38
232.541	110.38
232.775	120.38
233.009	105.38
233.243	100.38
233.477	121.38
233.711	101.38
233.945	109.38
234.179	113.38
234.413	107.38
234.647	122.38
234.881	117.38
235.115	102.38
235.349	110.38
235.583	118.38
235.817	114.38
236.051	109.38
236.285	108.38
236.519	114.38
236.753	137.38
236.987	130.38
237.221	141.38
237.455	188.38
237.689	156.38
237.922	130.38
238.156	142.38
238.39	120.38
238.624	138.38
238.858	133.38
239.091	129.38
239.325	110.38
239.559	121.38
239.793	124.38
240.027	128.38
240.26	120.38
240.494	144.38
240.728	129.38
240.961	130.38
241.195	125.38
241.429	129.38
241.662	136.38
241.896	126.38
242.13	126.38
242.363	137.38
242.597	134.38
242.83	129.38
243.064	128.38
243.298	123.38
243.531	141.38
243.765	126.38
243.998	134.38
244.232	136.38
244.465	146.38
244.699	130.38
244.932	124.38
245.166	135.38
245.399	136.38
245.633	143.38
245.866	144.38
246.099	161.38
246.333	141.38
246.566	148.38
246.8	143.38
247.033	156.38
247.266	150.38
247.5	165.38
247.733	159.38
247.966	167.38
248.2	147.38
248.433	168.38
248.666	163.38
248.899	166.38
249.133	154.38
249.366	169.38
249.599	178.38
249.832	153.38
250.066	156.38
250.299	162.38
250.532	182.38
250.765	190.38
250.998	163.38
251.231	190.38
251.465	174.38
251.698	205.38
251.931	192.38
252.164	188.38
252.397	181.38
252.63	176.38
252.863	190.38
253.096	181.38
253.329	216.38
253.562	188.38
253.795	198.38
254.028	205.38
254.261	184.38
254.494	200.38
254.727	204.38
254.96	221.38
255.193	217.38
255.426	217.38
255.659	203.38
255.892	202.38
256.124	205.38
256.357	210.38
256.59	194.38
256.823	217.38
257.056	179.38
257.289	194.38
257.521	183.38
257.754	204.38
257.987	189.38
258.22	194.38
258.452	200.38
258.685	182.38
258.918	204.38
259.151	190.38
259.383	194.38
259.616	192.38
259.849	196.38
260.081	211.38
260.314	229.38
260.547	222.38
260.779	214.38
261.012	211.38
261.244	210.38
261.477	204.38
261.71	199.38
261.942	218.38
262.175	214.38
262.407	209.38
262.64	185.38
262.872	201.38
263.105	182.38
263.337	205.38
263.57	199.38
263.802	213.38
264.035	229.38
264.267	196.38
264.499	194.38
264.732	217.38
264.964	217.38
265.197	203.38
265.429	214.38
265.661	210.38
265.894	192.38
266.126	194.38
266.358	209.38
266.591	211.38
266.823	212.38
267.055	228.38
267.287	230.38
267.52	214.38
267.752	210.38
267.984	215.38
268.216	222.38
268.448	222.38
268.681	225.38
268.913	230.38
269.145	230.38
269.377	248.38
269.609	239.38
269.841	235.38
270.073	232.38
270.306	254.38
270.538	262.38
270.77	290.38
271.002	275.38
271.234	249.38
271.466	272.38
271.698	267.38
271.93	274.38
272.162	280.38
272.394	262.38
272.626	266.38
272.858	271.38
273.09	246.38
273.322	258.38
273.553	260.38
273.785	249.38
274.017	225.38
274.249	255.38
274.481	243.38
274.713	257.38
274.945	254.38
275.176	254.38
275.408	232.38
275.64	240.38
275.872	256.38
276.104	246.38
276.335	281.38
276.567	268.38
276.799	257.38
277.031	284.38
277.262	274.38
277.494	286.38
277.726	291.38
277.957	274.38
278.189	263.38
278.421	273.38
278.652	269.38
278.884	259.38
279.115	283.38
279.347	254.38
279.579	268.38
279.81	251.38
280.042	256.38
280.273	260.38
280.505	277.38
280.736	266.38
280.968	263.38
281.199	263.38
281.431	258.38
281.662	264.38
281.894	254.38
282.125	270.38
282.356	271.38
282.588	285.38
282.819	278.38
283.051	284.38
283.282	268.38
283.513	284.38
283.745	273.38
283.976	279.38
284.207	277.38
284.439	288.38
284.67	293.38
284.901	273.38
285.132	297.38
285.364	290.38
285.595	288.38
285.826	280.38
286.057	289.38
286.288	264.38
286.52	301.38
286.751	296.38
286.982	291.38
287.213	266.38
287.444	285.38
287.675	273.38
287.906	300.38
288.138	300.38
288.369	304.38
288.6	300.38
288.831	282.38
289.062	290.38
289.293	280.38
289.524	277.38
289.755	283.38
289.986	290.38
290.217	299.38
290.448	283.38
290.679	307.38
290.91	289.38
291.141	312.38
291.371	293.38
291.602	285.38
291.833	298.38
292.064	292.38
292.295	302.38
292.526	302.38
292.757	303.38
292.987	314.38
293.218	294.38
293.449	298.38
293.68	305.38
293.91	297.38
294.141	298.38
294.372	287.38
294.603	309.38
294.833	307.38
295.064	292.38
295.295	296.38
295.525	288.38
295.756	310.38
295.987	308.38
296.217	317.38
296.448	299.38
296.679	315.38
296.909	310.38
297.14	312.38
297.37	305.38
297.601	286.38
297.831	281.38
298.062	312.38
298.292	300.38
298.523	327.38
298.753	333.38
298.984	322.38
299.214	333.38
299.445	321.38
299.675	318.38
299.905	309.38
300.136	298.38
300.366	309.38
300.597	292.38
300.827	317.38
301.057	330.38
301.288	326.38
301.518	326.38
301.748	330.38
301.979	328.38
302.209	334.38
302.439	345.38
302.669	338.38
302.9	342.38
303.13	341.38
303.36	339.38
303.59	336.38
303.82	342.38
304.051	327.38
304.281	309.38
304.511	315.38
304.741	331.38
304.971	328.38
305.201	318.38
305.431	349.38
305.661	335.38
305.891	330.38
306.121	313.38
306.352	340.38
306.582	332.38
306.812	334.38
307.042	334.38
307.272	329.38
307.502	324.38
307.731	324.38
307.961	344.38
308.191	321.38
308.421	353.38
308.651	324.38
308.881	341.38
309.111	356.38
309.341	346.38
309.571	346.38
309.8	345.38
310.03	341.38
310.26	357.38
310.49	360.38
310.72	355.38
310.949	363.38
311.179	375.38
311.409	349.38
311.639	348.38
311.868	350.38
312.098	358.38
312.328	348.38
312.557	382.38
312.787	385.38
313.017	376.38
313.246	363.38
313.476	358.38
313.706	370.38
313.935	379.38
314.165	380.38
314.394	354.38
314.624	372.38
314.853	369.38
315.083	364.38
315.312	380.38
315.542	365.38
315.771	365.38
316.001	371.38
316.23	365.38
316.46	364.38
316.689	370.38
316.919	369.38
317.148	382.38
317.377	370.38
317.607	368.38
317.836	374.38
318.065	370.38
318.295	360.38
318.524	367.38
318.753	356.38
318.983	384.38
319.212	368.38
319.441	376.38
319.67	377.38
319.9	343.38
320.129	370.38
320.358	353.38
320.587	370.38
320.816	363.38
321.046	388.38
321.275	386.38
321.504	381.38
321.733	393.38
321.962	377.38
322.191	396.38
322.42	404.38
322.649	393.38
322.878	398.38
323.108	413.38
323.337	392.38
323.566	433.38
323.795	480.38
324.024	466.38
324.253	521.38
324.482	665.38
324.71	999.38
324.939	1348.38
325.168	1197.38
325.397	684.38
325.626	527.38
325.855	468.38
326.084	426.38
326.313	434.38
326.542	459.38
326.77	456.38
326.999	526.38
327.228	643.38
327.457	892.38
327.686	1085.38
327.914	760.38
328.143	549.38
328.372	502.38
328.6	473.38
328.829	478.38
329.058	479.38
329.287	481.38
329.515	451.38
329.744	462.38
329.972	427.38
330.201	458.38
330.43	474.38
330.658	496.38
330.887	489.38
331.115	512.38
331.344	460.38
331.572	440.38
331.801	458.38
332.03	446.38
332.258	443.38
332.486	447.38
332.715	450.38
332.943	452.38
333.172	459.38
333.4	457.38
333.629	470.38
333.857	477.38
334.085	482.38
334.314	494.38
334.542	500.38
334.771	529.38
334.999	483.38
335.227	463.38
335.455	467.38
335.684	461.38
335.912	456.38
336.14	430.38
336.369	438.38
336.597	436.38
336.825	449.38
337.053	428.38
337.281	443.38
337.51	436.38
337.738	444.38
337.966	440.38
338.194	435.38
338.422	452.38
338.65	427.38
338.878	424.38
339.106	428.38
339.334	405.38
339.562	414.38
339.79	429.38
340.018	404.38
340.246	434.38
340.474	422.38
340.702	422.38
340.93	429.38
341.158	418.38
341.386	418.38
341.614	422.38
341.842	416.38
342.07	408.38
342.298	411.38
342.526	398.38
342.754	409.38
342.981	394.38
343.209	417.38
343.437	442.38
343.665	438.38
343.893	441.38
344.12	480.38
344.348	477.38
344.576	466.38
344.804	444.38
345.031	445.38
345.259	409.38
345.487	444.38
345.714	423.38
345.942	424.38
346.17	407.38
346.397	407.38
346.625	399.38
346.853	417.38
347.08	390.38
347.308	406.38
347.535	403.38
347.763	419.38
347.99	413.38
348.218	386.38
348.445	396.38
348.673	402.38
348.9	422.38
349.128	409.38
349.355	398.38
349.583	393.38
349.81	388.38
350.037	384.38
350.265	399.38
350.492	382.38
350.72	388.38
350.947	401.38
351.174	384.38
351.402	410.38
351.629	383.38
351.856	404.38
352.083	406.38
352.311	397.38
352.538	412.38
352.765	413.38
352.992	414.38
353.22	394.38
353.447	398.38
353.674	388.38
353.901	386.38
354.128	374.38
354.355	386.38
354.583	380.38
354.81	388.38
355.037	388.38
355.264	417.38
355.491	397.38
355.718	392.38
355.945	385.38
356.172	376.38
356.399	371.38
356.626	379.38
356.853	363.38
357.08	370.38
357.307	394.38
357.534	380.38
357.761	385.38
357.988	389.38
358.215	389.38
358.441	393.38
358.668	386.38
358.895	386.38
359.122	418.38
359.349	385.38
359.576	394.38
359.802	417.38
360.029	420.38
360.256	421.38
360.483	412.38
360.709	412.38
360.936	402.38
361.163	404.38
361.39	428.38
361.616	415.38
361.843	396.38
362.07	403.38
362.296	404.38
362.523	401.38
362.749	409.38
362.976	402.38
363.203	408.38
363.429	380.38
363.656	419.38
363.882	393.38
364.109	378.38
364.335	380.38
364.562	386.38
364.788	405.38
365.015	388.38
365.241	404.38
365.468	384.38
365.694	411.38
365.92	399.38
366.147	386.38
366.373	382.38
366.599	388.38
366.826	389.38
367.052	392.38
367.278	392.38
367.505	384.38
367.731	386.38
367.957	397.38
368.184	376.38
368.41	388.38
368.636	401.38
368.862	399.38
369.089	412.38
369.315	393.38
369.541	387.38
369.767	400.38
369.993	395.38
370.219	388.38
370.445	390.38
370.672	403.38
370.898	393.38
371.124	392.38
371.35	414.38
371.576	402.38
371.802	396.38
372.028	387.38
372.254	407.38
372.48	405.38
372.706	403.38
372.932	429.38
373.158	397.38
373.384	400.38
373.61	417.38
373.835	419.38
374.061	411.38
374.287	397.38
374.513	406.38
374.739	412.38
374.965	424.38
375.191	410.38
375.416	424.38
375.642	417.38
375.868	414.38
376.094	387.38
376.319	405.38
376.545	385.38
376.771	405.38
376.997	401.38
377.222	394.38
377.448	417.38
377.674	393.38
377.899	420.38
378.125	378.38
378.35	396.38
378.576	397.38
378.802	382.38
379.027	422.38
379.253	387.38
379.478	406.38
379.704	392.38
379.929	407.38
380.155	400.38
380.38	392.38
380.606	407.38
380.831	383.38
381.057	398.38
381.282	409.38
381.507	402.38
381.733	410.38
381.958	411.38
382.184	419.38
382.409	422.38
382.634	433.38
382.86	410.38
383.085	434.38
383.31	440.38
383.535	449.38
383.761	437.38
383.986	438.38
384.211	468.38
384.436	421.38
384.662	434.38
384.887	433.38
385.112	440.38
385.337	450.38
385.562	458.38
385.787	445.38
386.013	460.38
386.238	476.38
386.463	473.38
386.688	461.38
386.913	460.38
387.138	475.38
387.363	444.38
387.588	449.38
387.813	462.38
388.038	453.38
388.263	462.38
388.488	451.38
388.713	444.38
388.938	446.38
389.163	459.38
389.387	475.38
389.612	462.38
389.837	450.38
390.062	440.38
390.287	446.38
390.512	448.38
390.736	444.38
390.961	457.38
391.186	469.38
391.411	469.38
391.636	482.38
391.86	484.38
392.085	485.38
392.31	485.38
392.534	462.38
392.759	480.38
392.984	489.38
393.208	480.38
393.433	482.38
393.658	474.38
393.882	458.38
394.107	462.38
394.331	458.38
394.556	490.38
394.78	472.38
395.005	466.38
395.229	493.38
395.454	480.38
395.678	487.38
395.903	490.38
396.127	524.38
396.352	488.38
396.576	493.38
396.801	466.38
397.025	498.38
397.249	483.38
397.474	478.38
397.698	484.38
397.922	519.38
398.147	512.38
398.371	522.38
398.595	532.38
398.82	554.38
399.044	564.38
399.268	575.38
399.492	634.38
399.717	662.38
399.941	696.38
400.165	673.38
400.389	661.38
400.613	633.38
400.837	565.38
401.062	544.38
401.286	544.38
401.51	542.38
401.734	567.38
401.958	547.38
402.182	545.38
402.406	554.38
402.63	539.38
402.854	562.38
403.078	554.38
403.302	555.38
403.526	577.38
403.75	596.38
403.974	556.38
404.198	586.38
404.422	584.38
404.645	595.38
404.869	566.38
405.093	599.38
405.317	622.38
405.541	650.38
405.765	590.38
405.988	602.38
406.212	601.38
406.436	589.38
406.66	605.38
406.883	591.38
407.107	609.38
407.331	658.38
407.555	707.38
407.778	694.38
408.002	650.38
408.226	649.38
408.449	611.38
408.673	606.38
408.896	643.38
409.12	656.38
409.344	616.38
409.567	602.38
409.791	588.38
410.014	578.38
410.238	570.38
410.461	573.38
410.685	566.38
410.908	549.38
411.132	579.38
411.355	599.38
411.578	600.38
411.802	581.38
412.025	553.38
412.249	558.38
412.472	588.38
412.695	610.38
412.919	596.38
413.142	574.38
413.365	566.38
413.589	555.38
413.812	526.38
414.035	521.38
414.258	508.38
414.482	521.38
414.705	538.38
414.928	528.38
415.151	536.38
415.374	533.38
415.597	532.38
415.821	524.38
416.044	502.38
416.267	524.38
416.49	506.38
416.713	514.38
416.936	521.38
417.159	515.38
417.382	532.38
417.605	512.38
417.828	526.38
418.051	533.38
418.274	530.38
418.497	539.38
418.72	523.38
418.943	512.38
419.166	531.38
419.389	576.38
419.611	573.38
419.834	552.38
420.057	555.38
420.28	539.38
420.503	542.38
420.726	528.38
420.948	558.38
421.171	574.38
421.394	594.38
421.617	560.38
421.839	539.38
422.062	552.38
422.285	568.38
422.507	604.38
422.73	650.38
422.953	601.38
423.175	566.38
423.398	533.38
423.621	563.38
423.843	554.38
424.066	582.38
424.288	561.38
424.511	591.38
424.733	617.38
424.956	644.38
425.178	640.38
425.401	629.38
425.623	633.38
425.846	609.38
426.068	558.38
426.291	558.38
426.513	547.38
426.735	538.38
426.958	577.38
427.18	616.38
427.402	721.38
427.625	797.38
427.847	666.38
428.069	638.38
428.292	574.38
428.514	526.38
428.736	542.38
428.958	501.38
429.181	508.38
429.403	487.38
429.625	492.38
429.847	526.38
430.069	562.38
430.292	585.38
430.514	509.38
430.736	513.38
430.958	516.38
431.18	526.38
431.402	503.38
431.624	486.38
431.846	489.38
432.068	496.38
432.29	493.38
432.512	496.38
432.734	528.38
432.956	500.38
433.178	499.38
433.4	494.38
433.622	516.38
433.844	505.38
434.066	498.38
434.287	503.38
434.509	494.38
434.731	522.38
434.953	529.38
435.175	544.38
435.397	545.38
435.618	547.38
435.84	566.38
436.062	619.38
436.284	661.38
436.505	577.38
436.727	564.38
436.949	534.38
437.17	515.38
437.392	516.38
437.614	527.38
437.835	526.38
438.057	574.38
438.278	669.38
438.5	650.38
438.721	719.38
438.943	704.38
439.165	599.38
439.386	504.38
439.608	542.38
439.829	532.38
440.05	541.38
440.272	590.38
440.493	539.38
440.715	507.38
440.936	526.38
441.158	513.38
441.379	545.38
441.6	535.38
441.822	554.38
442.043	594.38
442.264	625.38
442.486	676.38
442.707	611.38
442.928	571.38
443.149	571.38
443.371	589.38
443.592	608.38
443.813	666.38
444.034	737.38
444.255	636.38
444.476	585.38
444.698	578.38
444.919	610.38
445.14	693.38
445.361	634.38
445.582	587.38
445.803	634.38
446.024	681.38
446.245	681.38
446.466	618.38
446.687	572.38
446.908	549.38
447.129	521.38
447.35	482.38
447.571	502.38
447.792	500.38
448.013	510.38
448.234	493.38
448.455	518.38
448.675	620.38
448.896	723.38
449.117	617.38
449.338	611.38
449.559	655.38
449.779	730.38
450	614.38
450.221	543.38
450.442	493.38
450.662	491.38
450.883	487.38
451.104	490.38
451.324	468.38
451.545	497.38
451.766	473.38
451.986	454.38
452.207	440.38
452.428	447.38
452.648	438.38
452.869	459.38
453.089	478.38
453.31	451.38
453.53	461.38
453.751	464.38
453.971	479.38
454.192	473.38
454.412	437.38
454.633	446.38
454.853	445.38
455.073	436.38
455.294	462.38
455.514	516.38
455.734	486.38
455.955	458.38
456.175	448.38
456.395	445.38
456.616	441.38
456.836	449.38
457.056	420.38
457.276	416.38
457.497	429.38
457.717	434.38
457.937	422.38
458.157	448.38
458.377	446.38
458.598	467.38
458.818	497.38
459.038	521.38
459.258	592.38
459.478	532.38
459.698	510.38
459.918	493.38
460.138	522.38
460.358	520.38
460.578	534.38
460.798	530.38
461.018	534.38
461.238	539.38
461.458	575.38
461.678	542.38
461.898	546.38
462.118	546.38
462.338	571.38
462.558	572.38
462.777	560.38
462.997	588.38
463.217	626.38
463.437	626.38
463.657	605.38
463.876	563.38
464.096	595.38
464.316	581.38
464.536	585.38
464.755	581.38
464.975	563.38
465.195	580.38
465.414	600.38
465.634	544.38
465.854	524.38
466.073	504.38
466.293	497.38
466.512	470.38
466.732	475.38
466.951	494.38
467.171	470.38
467.391	466.38
467.61	483.38
467.829	473.38
468.049	462.38
468.268	475.38
468.488	490.38
468.707	443.38
468.927	466.38
469.146	446.38
469.365	466.38
469.585	469.38
469.804	465.38
470.023	484.38
470.243	481.38
470.462	489.38
470.681	487.38
470.901	500.38
471.12	485.38
471.339	470.38
471.558	469.38
471.777	480.38
471.997	479.38
472.216	483.38
472.435	486.38
472.654	500.38
472.873	483.38
473.092	472.38
473.311	471.38
473.53	471.38
473.749	480.38
473.968	488.38
474.187	539.38
474.406	589.38
474.625	520.38
474.844	491.38
475.063	482.38
475.282	456.38
475.501	464.38
475.72	486.38
475.939	488.38
476.158	483.38
476.377	484.38
476.596	497.38
476.814	480.38
477.033	504.38
477.252	513.38
477.471	512.38
477.69	528.38
477.908	532.38
478.127	537.38
478.346	538.38
478.564	534.38
478.783	536.38
479.002	561.38
479.22	549.38
479.439	557.38
479.658	571.38
479.876	580.38
480.095	568.38
480.313	615.38
480.532	600.38
480.751	585.38
480.969	613.38
481.188	598.38
481.406	602.38
481.624	584.38
481.843	562.38
482.061	572.38
482.28	546.38
482.498	546.38
482.717	555.38
482.935	556.38
483.153	537.38
483.372	539.38
483.59	564.38
483.808	556.38
484.027	568.38
484.245	579.38
484.463	582.38
484.681	557.38
484.9	580.38
485.118	598.38
485.336	568.38
485.554	573.38
485.772	557.38
485.99	579.38
486.209	567.38
486.427	569.38
486.645	577.38
486.863	580.38
487.081	581.38
487.299	606.38
487.517	565.38
487.735	570.38
487.953	591.38
488.171	591.38
488.389	589.38
488.607	578.38
488.825	584.38
489.043	592.38
489.261	570.38
489.479	594.38
489.696	589.38
489.914	581.38
490.132	595.38
490.35	602.38
490.568	595.38
490.786	598.38
491.003	614.38
491.221	632.38
491.439	616.38
491.657	624.38
491.874	642.38
492.092	606.38
492.31	635.38
492.527	638.38
492.745	644.38
492.963	655.38
493.18	642.38
493.398	671.38
493.615	645.38
493.833	669.38
494.05	638.38
494.268	648.38
494.485	652.38
494.703	677.38
494.92	658.38
495.138	677.38
495.355	680.38
495.573	644.38
495.79	654.38
496.008	653.38
496.225	667.38
496.442	678.38
496.66	663.38
496.877	706.38
497.094	698.38
497.312	679.38
497.529	696.38
497.746	728.38
497.963	734.38
498.181	760.38
498.398	768.38
498.615	793.38
498.832	826.38
499.049	853.38
499.267	884.38
499.484	956.38
499.701	993.38
499.918	1035.38
500.135	1140.38
500.352	1197.38
500.569	1200.38
500.786	1235.38
501.003	1210.38
501.22	1126.38
501.437	1067.38
501.654	1022.38
501.871	954.38
