Data from 1962.PennyLincolnUp.Lamp.En5.5.200Scan.071719.P1._HRD10591_13-53-17-060.txt Node
Date: Thu Jul 18 13:53:17 EDT 2019
User: cochatt
Spectrometer: HR+D1059
Trigger mode: 1
Integration Time (sec): 1.000000E-1
Scans to average: 1
Electric dark correction enabled: true
Nonlinearity correction enabled: false
Boxcar width: 0
XAxis mode: Wavelengths
Number of Pixels in Spectrum: 2048
>>>>>Begin Spectral Data<<<<<
223.165	-25.12
223.4	-25.12
223.635	-25.12
223.869	-8.12
224.104	-17.12
224.338	-19.12
224.573	-16.12
224.808	-12.12
225.042	-24.12
225.277	-8.12
225.511	-0.12
225.746	3.88
225.98	2.88
226.215	19.88
226.449	24.88
226.683	28.88
226.918	26.88
227.152	22.88
227.387	48.88
227.621	45.88
227.856	35.88
228.09	46.88
228.324	46.88
228.559	56.88
228.793	62.88
229.027	86.88
229.262	91.88
229.496	105.88
229.73	113.88
229.964	106.88
230.199	97.88
230.433	93.88
230.667	114.88
230.901	112.88
231.136	89.88
231.37	111.88
231.604	110.88
231.838	122.88
232.072	105.88
232.306	102.88
232.541	113.88
232.775	102.88
233.009	104.88
233.243	111.88
233.477	113.88
233.711	106.88
233.945	116.88
234.179	122.88
234.413	95.88
234.647	104.88
234.881	115.88
235.115	111.88
235.349	100.88
235.583	99.88
235.817	103.88
236.051	113.88
236.285	112.88
236.519	118.88
236.753	113.88
236.987	110.88
237.221	130.88
237.455	165.88
237.689	128.88
237.922	110.88
238.156	131.88
238.39	127.88
238.624	118.88
238.858	119.88
239.091	107.88
239.325	114.88
239.559	126.88
239.793	115.88
240.027	116.88
240.26	122.88
240.494	128.88
240.728	120.88
240.961	128.88
241.195	133.88
241.429	150.88
241.662	129.88
241.896	118.88
242.13	122.88
242.363	126.88
242.597	134.88
242.83	128.88
243.064	114.88
243.298	141.88
243.531	134.88
243.765	121.88
243.998	130.88
244.232	129.88
244.465	132.88
244.699	134.88
244.932	135.88
245.166	126.88
245.399	143.88
245.633	143.88
245.866	134.88
246.099	138.88
246.333	132.88
246.566	136.88
246.8	140.88
247.033	154.88
247.266	141.88
247.5	144.88
247.733	148.88
247.966	140.88
248.2	153.88
248.433	148.88
248.666	153.88
248.899	159.88
249.133	156.88
249.366	162.88
249.599	171.88
249.832	159.88
250.066	155.88
250.299	150.88
250.532	163.88
250.765	168.88
250.998	162.88
251.231	177.88
251.465	170.88
251.698	167.88
251.931	165.88
252.164	183.88
252.397	164.88
252.63	176.88
252.863	190.88
253.096	169.88
253.329	195.88
253.562	188.88
253.795	184.88
254.028	174.88
254.261	186.88
254.494	200.88
254.727	213.88
254.96	197.88
255.193	212.88
255.426	198.88
255.659	189.88
255.892	193.88
256.124	203.88
256.357	200.88
256.59	185.88
256.823	181.88
257.056	192.88
257.289	192.88
257.521	186.88
257.754	188.88
257.987	180.88
258.22	190.88
258.452	175.88
258.685	186.88
258.918	196.88
259.151	178.88
259.383	193.88
259.616	185.88
259.849	199.88
260.081	193.88
260.314	215.88
260.547	198.88
260.779	199.88
261.012	206.88
261.244	212.88
261.477	200.88
261.71	194.88
261.942	195.88
262.175	204.88
262.407	201.88
262.64	190.88
262.872	191.88
263.105	189.88
263.337	194.88
263.57	201.88
263.802	187.88
264.035	195.88
264.267	202.88
264.499	192.88
264.732	181.88
264.964	193.88
265.197	203.88
265.429	188.88
265.661	193.88
265.894	188.88
266.126	196.88
266.358	207.88
266.591	198.88
266.823	217.88
267.055	199.88
267.287	204.88
267.52	204.88
267.752	212.88
267.984	207.88
268.216	212.88
268.448	234.88
268.681	216.88
268.913	223.88
269.145	220.88
269.377	227.88
269.609	235.88
269.841	227.88
270.073	235.88
270.306	253.88
270.538	234.88
270.77	252.88
271.002	266.88
271.234	264.88
271.466	241.88
271.698	260.88
271.93	260.88
272.162	264.88
272.394	278.88
272.626	243.88
272.858	224.88
273.09	261.88
273.322	241.88
273.553	220.88
273.785	242.88
274.017	233.88
274.249	245.88
274.481	235.88
274.713	250.88
274.945	233.88
275.176	245.88
275.408	234.88
275.64	233.88
275.872	243.88
276.104	244.88
276.335	238.88
276.567	263.88
276.799	262.88
277.031	269.88
277.262	260.88
277.494	250.88
277.726	259.88
277.957	251.88
278.189	278.88
278.421	262.88
278.652	251.88
278.884	244.88
279.115	259.88
279.347	274.88
279.579	247.88
279.81	275.88
280.042	263.88
280.273	259.88
280.505	236.88
280.736	256.88
280.968	256.88
281.199	263.88
281.431	272.88
281.662	272.88
281.894	258.88
282.125	261.88
282.356	260.88
282.588	265.88
282.819	266.88
283.051	250.88
283.282	267.88
283.513	251.88
283.745	255.88
283.976	272.88
284.207	281.88
284.439	278.88
284.67	281.88
284.901	266.88
285.132	272.88
285.364	273.88
285.595	271.88
285.826	284.88
286.057	271.88
286.288	283.88
286.52	268.88
286.751	289.88
286.982	287.88
287.213	251.88
287.444	287.88
287.675	270.88
287.906	279.88
288.138	282.88
288.369	287.88
288.6	295.88
288.831	276.88
289.062	280.88
289.293	287.88
289.524	278.88
289.755	288.88
289.986	285.88
290.217	281.88
290.448	297.88
290.679	270.88
290.91	276.88
291.141	282.88
291.371	276.88
291.602	280.88
291.833	283.88
292.064	281.88
292.295	289.88
292.526	283.88
292.757	299.88
292.987	288.88
293.218	286.88
293.449	288.88
293.68	288.88
293.91	290.88
294.141	281.88
294.372	289.88
294.603	282.88
294.833	297.88
295.064	282.88
295.295	286.88
295.525	296.88
295.756	295.88
295.987	278.88
296.217	308.88
296.448	312.88
296.679	276.88
296.909	290.88
297.14	283.88
297.37	291.88
297.601	296.88
297.831	289.88
298.062	299.88
298.292	294.88
298.523	296.88
298.753	320.88
298.984	314.88
299.214	321.88
299.445	318.88
299.675	296.88
299.905	316.88
300.136	294.88
300.366	296.88
300.597	303.88
300.827	312.88
301.057	283.88
301.288	299.88
301.518	313.88
301.748	323.88
301.979	300.88
302.209	322.88
302.439	317.88
302.669	306.88
302.9	322.88
303.13	325.88
303.36	299.88
303.59	318.88
303.82	316.88
304.051	323.88
304.281	342.88
304.511	321.88
304.741	318.88
304.971	323.88
305.201	347.88
305.431	301.88
305.661	325.88
305.891	331.88
306.121	322.88
306.352	294.88
306.582	320.88
306.812	323.88
307.042	310.88
307.272	327.88
307.502	312.88
307.731	319.88
307.961	335.88
308.191	321.88
308.421	330.88
308.651	313.88
308.881	319.88
309.111	338.88
309.341	330.88
309.571	325.88
309.8	338.88
310.03	329.88
310.26	343.88
310.49	344.88
310.72	328.88
310.949	338.88
311.179	334.88
311.409	344.88
311.639	328.88
311.868	356.88
312.098	334.88
312.328	361.88
312.557	356.88
312.787	346.88
313.017	357.88
313.246	344.88
313.476	341.88
313.706	338.88
313.935	354.88
314.165	358.88
314.394	355.88
314.624	362.88
314.853	343.88
315.083	354.88
315.312	379.88
315.542	347.88
315.771	362.88
316.001	354.88
316.23	335.88
316.46	333.88
316.689	354.88
316.919	358.88
317.148	364.88
317.377	363.88
317.607	350.88
317.836	348.88
318.065	347.88
318.295	362.88
318.524	371.88
318.753	342.88
318.983	358.88
319.212	347.88
319.441	354.88
319.67	382.88
319.9	362.88
320.129	356.88
320.358	360.88
320.587	356.88
320.816	369.88
321.046	370.88
321.275	376.88
321.504	363.88
321.733	345.88
321.962	355.88
322.191	354.88
322.42	358.88
322.649	372.88
322.878	382.88
323.108	391.88
323.337	395.88
323.566	413.88
323.795	414.88
324.024	436.88
324.253	483.88
324.482	613.88
324.71	819.88
324.939	1148.88
325.168	1026.88
325.397	622.88
325.626	466.88
325.855	435.88
326.084	410.88
326.313	403.88
326.542	408.88
326.77	444.88
326.999	481.88
327.228	577.88
327.457	801.88
327.686	929.88
327.914	667.88
328.143	513.88
328.372	474.88
328.6	451.88
328.829	438.88
329.058	448.88
329.287	435.88
329.515	438.88
329.744	424.88
329.972	405.88
330.201	436.88
330.43	454.88
330.658	436.88
330.887	452.88
331.115	450.88
331.344	440.88
331.572	419.88
331.801	438.88
332.03	419.88
332.258	412.88
332.486	410.88
332.715	420.88
332.943	435.88
333.172	444.88
333.4	463.88
333.629	457.88
333.857	472.88
334.085	482.88
334.314	464.88
334.542	471.88
334.771	460.88
334.999	463.88
335.227	449.88
335.455	442.88
335.684	442.88
335.912	449.88
336.14	451.88
336.369	436.88
336.597	422.88
336.825	417.88
337.053	414.88
337.281	429.88
337.51	404.88
337.738	438.88
337.966	418.88
338.194	424.88
338.422	410.88
338.65	420.88
338.878	393.88
339.106	412.88
339.334	393.88
339.562	406.88
339.79	400.88
340.018	404.88
340.246	405.88
340.474	384.88
340.702	411.88
340.93	418.88
341.158	388.88
341.386	405.88
341.614	402.88
341.842	431.88
342.07	417.88
342.298	394.88
342.526	396.88
342.754	394.88
342.981	411.88
343.209	416.88
343.437	417.88
343.665	409.88
343.893	420.88
344.12	425.88
344.348	423.88
344.576	417.88
344.804	419.88
345.031	430.88
345.259	400.88
345.487	388.88
345.714	398.88
345.942	390.88
346.17	387.88
346.397	392.88
346.625	375.88
346.853	386.88
347.08	389.88
347.308	397.88
347.535	385.88
347.763	397.88
347.99	378.88
348.218	378.88
348.445	375.88
348.673	381.88
348.9	377.88
349.128	382.88
349.355	376.88
349.583	367.88
349.81	395.88
350.037	371.88
350.265	361.88
350.492	376.88
350.72	372.88
350.947	382.88
351.174	402.88
351.402	377.88
351.629	383.88
351.856	386.88
352.083	387.88
352.311	377.88
352.538	387.88
352.765	391.88
352.992	389.88
353.22	379.88
353.447	385.88
353.674	357.88
353.901	372.88
354.128	378.88
354.355	380.88
354.583	386.88
354.81	366.88
355.037	369.88
355.264	346.88
355.491	376.88
355.718	366.88
355.945	385.88
356.172	382.88
356.399	375.88
356.626	351.88
356.853	360.88
357.08	354.88
357.307	380.88
357.534	388.88
357.761	360.88
357.988	391.88
358.215	364.88
358.441	376.88
358.668	368.88
358.895	360.88
359.122	388.88
359.349	386.88
359.576	370.88
359.802	396.88
360.029	390.88
360.256	394.88
360.483	404.88
360.709	360.88
360.936	382.88
361.163	388.88
361.39	370.88
361.616	386.88
361.843	383.88
362.07	406.88
362.296	363.88
362.523	370.88
362.749	394.88
362.976	377.88
363.203	375.88
363.429	365.88
363.656	377.88
363.882	390.88
364.109	378.88
364.335	369.88
364.562	382.88
364.788	372.88
365.015	371.88
365.241	386.88
365.468	380.88
365.694	386.88
365.92	375.88
366.147	368.88
366.373	395.88
366.599	378.88
366.826	386.88
367.052	396.88
367.278	380.88
367.505	374.88
367.731	370.88
367.957	377.88
368.184	391.88
368.41	390.88
368.636	385.88
368.862	394.88
369.089	393.88
369.315	396.88
369.541	381.88
369.767	373.88
369.993	376.88
370.219	357.88
370.445	384.88
370.672	388.88
370.898	359.88
371.124	384.88
371.35	390.88
371.576	383.88
371.802	376.88
372.028	395.88
372.254	393.88
372.48	366.88
372.706	398.88
372.932	402.88
373.158	400.88
373.384	384.88
373.61	396.88
373.835	382.88
374.061	396.88
374.287	406.88
374.513	391.88
374.739	400.88
374.965	418.88
375.191	418.88
375.416	400.88
375.642	406.88
375.868	382.88
376.094	414.88
376.319	380.88
376.545	402.88
376.771	388.88
376.997	378.88
377.222	397.88
377.448	377.88
377.674	377.88
377.899	392.88
378.125	376.88
378.35	391.88
378.576	379.88
378.802	393.88
379.027	371.88
379.253	375.88
379.478	388.88
379.704	392.88
379.929	373.88
380.155	393.88
380.38	391.88
380.606	397.88
380.831	410.88
381.057	400.88
381.282	366.88
381.507	396.88
381.733	383.88
381.958	386.88
382.184	395.88
382.409	383.88
382.634	414.88
382.86	408.88
383.085	406.88
383.31	397.88
383.535	403.88
383.761	431.88
383.986	425.88
384.211	415.88
384.436	426.88
384.662	438.88
384.887	428.88
385.112	444.88
385.337	434.88
385.562	430.88
385.787	431.88
386.013	440.88
386.238	461.88
386.463	451.88
386.688	460.88
386.913	430.88
387.138	417.88
387.363	435.88
387.588	444.88
387.813	441.88
388.038	459.88
388.263	448.88
388.488	426.88
388.713	448.88
388.938	439.88
389.163	422.88
389.387	453.88
389.612	417.88
389.837	458.88
390.062	453.88
390.287	434.88
390.512	424.88
390.736	430.88
390.961	440.88
391.186	432.88
391.411	446.88
391.636	451.88
391.86	464.88
392.085	450.88
392.31	455.88
392.534	474.88
392.759	452.88
392.984	462.88
393.208	456.88
393.433	457.88
393.658	458.88
393.882	455.88
394.107	449.88
394.331	468.88
394.556	417.88
394.78	467.88
395.005	458.88
395.229	459.88
395.454	463.88
395.678	459.88
395.903	456.88
396.127	498.88
396.352	486.88
396.576	458.88
396.801	442.88
397.025	498.88
397.249	481.88
397.474	499.88
397.698	479.88
397.922	494.88
398.147	513.88
398.371	498.88
398.595	487.88
398.82	529.88
399.044	531.88
399.268	556.88
399.492	613.88
399.717	648.88
399.941	665.88
400.165	668.88
400.389	632.88
400.613	593.88
400.837	558.88
401.062	545.88
401.286	522.88
401.51	528.88
401.734	516.88
401.958	530.88
402.182	524.88
402.406	535.88
402.63	566.88
402.854	558.88
403.078	543.88
403.302	531.88
403.526	534.88
403.75	565.88
403.974	549.88
404.198	534.88
404.422	562.88
404.645	564.88
404.869	570.88
405.093	582.88
405.317	603.88
405.541	631.88
405.765	600.88
405.988	557.88
406.212	563.88
406.436	562.88
406.66	580.88
406.883	587.88
407.107	613.88
407.331	642.88
407.555	684.88
407.778	674.88
408.002	646.88
408.226	606.88
408.449	597.88
408.673	588.88
408.896	616.88
409.12	636.88
409.344	595.88
409.567	552.88
409.791	560.88
410.014	558.88
410.238	540.88
410.461	518.88
410.685	547.88
410.908	526.88
411.132	567.88
411.355	599.88
411.578	569.88
411.802	540.88
412.025	539.88
412.249	550.88
412.472	545.88
412.695	561.88
412.919	548.88
413.142	555.88
413.365	519.88
413.589	524.88
413.812	522.88
414.035	483.88
414.258	490.88
414.482	518.88
414.705	519.88
414.928	494.88
415.151	526.88
415.374	487.88
415.597	496.88
415.821	512.88
416.044	504.88
416.267	523.88
416.49	489.88
416.713	497.88
416.936	489.88
417.159	504.88
417.382	494.88
417.605	493.88
417.828	513.88
418.051	528.88
418.274	529.88
418.497	497.88
418.72	488.88
418.943	514.88
419.166	522.88
419.389	546.88
419.611	559.88
419.834	551.88
420.057	538.88
420.28	523.88
420.503	530.88
420.726	518.88
420.948	531.88
421.171	536.88
421.394	572.88
421.617	523.88
421.839	504.88
422.062	512.88
422.285	535.88
422.507	540.88
422.73	597.88
422.953	586.88
423.175	556.88
423.398	534.88
423.621	543.88
423.843	547.88
424.066	559.88
424.288	522.88
424.511	553.88
424.733	564.88
424.956	614.88
425.178	615.88
425.401	587.88
425.623	614.88
425.846	546.88
426.068	532.88
426.291	531.88
426.513	501.88
426.735	528.88
426.958	568.88
427.18	582.88
427.402	685.88
427.625	750.88
427.847	635.88
428.069	558.88
428.292	520.88
428.514	525.88
428.736	509.88
428.958	507.88
429.181	504.88
429.403	462.88
429.625	507.88
429.847	531.88
430.069	534.88
430.292	544.88
430.514	487.88
430.736	477.88
430.958	477.88
431.18	464.88
431.402	477.88
431.624	450.88
431.846	462.88
432.068	489.88
432.29	500.88
432.512	486.88
432.734	465.88
432.956	458.88
433.178	512.88
433.4	498.88
433.622	502.88
433.844	474.88
434.066	482.88
434.287	495.88
434.509	489.88
434.731	512.88
434.953	509.88
435.175	531.88
435.397	544.88
435.618	529.88
435.84	551.88
436.062	603.88
436.284	657.88
436.505	560.88
436.727	512.88
436.949	492.88
437.17	514.88
437.392	495.88
437.614	482.88
437.835	500.88
438.057	564.88
438.278	621.88
438.5	615.88
438.721	675.88
438.943	672.88
439.165	553.88
439.386	520.88
439.608	487.88
439.829	497.88
440.05	524.88
440.272	555.88
440.493	523.88
440.715	494.88
440.936	482.88
441.158	519.88
441.379	512.88
441.6	512.88
441.822	513.88
442.043	552.88
442.264	590.88
442.486	615.88
442.707	559.88
442.928	512.88
443.149	560.88
443.371	518.88
443.592	578.88
443.813	631.88
444.034	677.88
444.255	609.88
444.476	554.88
444.698	550.88
444.919	566.88
445.14	698.88
445.361	635.88
445.582	570.88
445.803	586.88
446.024	624.88
446.245	626.88
446.466	599.88
446.687	544.88
446.908	487.88
447.129	482.88
447.35	496.88
447.571	497.88
447.792	486.88
448.013	496.88
448.234	474.88
448.455	506.88
448.675	565.88
448.896	673.88
449.117	576.88
449.338	564.88
449.559	634.88
449.779	682.88
450	581.88
450.221	504.88
450.442	465.88
450.662	450.88
450.883	439.88
451.104	497.88
451.324	456.88
451.545	430.88
451.766	442.88
451.986	447.88
452.207	435.88
452.428	431.88
452.648	420.88
452.869	435.88
453.089	438.88
453.31	452.88
453.53	428.88
453.751	433.88
453.971	430.88
454.192	433.88
454.412	417.88
454.633	416.88
454.853	420.88
455.073	418.88
455.294	439.88
455.514	488.88
455.734	475.88
455.955	406.88
456.175	411.88
456.395	408.88
456.616	412.88
456.836	410.88
457.056	415.88
457.276	404.88
457.497	428.88
457.717	441.88
457.937	412.88
458.157	418.88
458.377	446.88
458.598	452.88
458.818	471.88
459.038	513.88
459.258	552.88
459.478	521.88
459.698	471.88
459.918	471.88
460.138	468.88
460.358	508.88
460.578	515.88
460.798	522.88
461.018	524.88
461.238	524.88
461.458	527.88
461.678	512.88
461.898	528.88
462.118	537.88
462.338	539.88
462.558	560.88
462.777	555.88
462.997	580.88
463.217	594.88
463.437	622.88
463.657	573.88
463.876	564.88
464.096	579.88
464.316	558.88
464.536	570.88
464.755	566.88
464.975	547.88
465.195	545.88
465.414	549.88
465.634	499.88
465.854	481.88
466.073	486.88
466.293	461.88
466.512	452.88
466.732	466.88
466.951	448.88
467.171	468.88
467.391	478.88
467.61	477.88
467.829	467.88
468.049	492.88
468.268	455.88
468.488	478.88
468.707	429.88
468.927	442.88
469.146	446.88
469.365	456.88
469.585	455.88
469.804	454.88
470.023	453.88
470.243	473.88
470.462	478.88
470.681	473.88
470.901	469.88
471.12	460.88
471.339	485.88
471.558	464.88
471.777	458.88
471.997	478.88
472.216	467.88
472.435	500.88
472.654	460.88
472.873	456.88
473.092	455.88
473.311	452.88
473.53	458.88
473.749	449.88
473.968	480.88
474.187	530.88
474.406	534.88
474.625	487.88
474.844	467.88
475.063	455.88
475.282	450.88
475.501	467.88
475.72	458.88
475.939	487.88
476.158	481.88
476.377	473.88
476.596	473.88
476.814	470.88
477.033	471.88
477.252	491.88
477.471	482.88
477.69	486.88
477.908	502.88
478.127	522.88
478.346	543.88
478.564	544.88
478.783	535.88
479.002	552.88
479.22	543.88
479.439	546.88
479.658	552.88
479.876	543.88
480.095	550.88
480.313	572.88
480.532	571.88
480.751	578.88
480.969	588.88
481.188	578.88
481.406	590.88
481.624	562.88
481.843	559.88
482.061	554.88
482.28	553.88
482.498	523.88
482.717	515.88
482.935	528.88
483.153	523.88
483.372	536.88
483.59	549.88
483.808	532.88
484.027	532.88
484.245	554.88
484.463	523.88
484.681	532.88
484.9	562.88
485.118	538.88
485.336	536.88
485.554	539.88
485.772	537.88
485.99	552.88
486.209	551.88
486.427	565.88
486.645	560.88
486.863	572.88
487.081	554.88
487.299	565.88
487.517	557.88
487.735	555.88
487.953	570.88
488.171	548.88
488.389	555.88
488.607	562.88
488.825	548.88
489.043	563.88
489.261	581.88
489.479	564.88
489.696	588.88
489.914	577.88
490.132	555.88
490.35	587.88
490.568	586.88
490.786	584.88
491.003	566.88
491.221	578.88
491.439	603.88
491.657	594.88
491.874	634.88
492.092	603.88
492.31	598.88
492.527	602.88
492.745	612.88
492.963	616.88
493.18	625.88
493.398	629.88
493.615	622.88
493.833	623.88
494.05	611.88
494.268	620.88
494.485	640.88
494.703	638.88
494.92	610.88
495.138	636.88
495.355	616.88
495.573	640.88
495.79	641.88
496.008	645.88
496.225	656.88
496.442	648.88
496.66	645.88
496.877	666.88
497.094	664.88
497.312	646.88
497.529	670.88
497.746	692.88
497.963	697.88
498.181	735.88
498.398	738.88
498.615	748.88
498.832	784.88
499.049	822.88
499.267	862.88
499.484	901.88
499.701	961.88
499.918	1005.88
500.135	1072.88
500.352	1185.88
500.569	1193.88
500.786	1152.88
501.003	1142.88
501.22	1083.88
501.437	1042.88
501.654	964.88
501.871	930.88
