Data from 1962.PennyLincolnUp.Lamp.En5.5.200Scan.071719.P1._HRD10591_13-52-41-060.txt Node
Date: Thu Jul 18 13:52:41 EDT 2019
User: cochatt
Spectrometer: HR+D1059
Trigger mode: 1
Integration Time (sec): 1.000000E-1
Scans to average: 1
Electric dark correction enabled: true
Nonlinearity correction enabled: false
Boxcar width: 0
XAxis mode: Wavelengths
Number of Pixels in Spectrum: 2048
>>>>>Begin Spectral Data<<<<<
223.165	-15.38
223.4	-15.38
223.635	-15.38
223.869	-9.38
224.104	-14.38
224.338	-4.38
224.573	-7.38
224.808	-5.38
225.042	-5.38
225.277	-18.38
225.511	-10.38
225.746	4.62
225.98	-9.38
226.215	8.62
226.449	-0.38
226.683	16.62
226.918	25.62
227.152	44.62
227.387	35.62
227.621	50.62
227.856	40.62
228.09	35.62
228.324	49.62
228.559	42.62
228.793	51.62
229.027	86.62
229.262	92.62
229.496	100.62
229.73	96.62
229.964	121.62
230.199	104.62
230.433	102.62
230.667	101.62
230.901	106.62
231.136	101.62
231.37	106.62
231.604	104.62
231.838	96.62
232.072	103.62
232.306	103.62
232.541	114.62
232.775	109.62
233.009	119.62
233.243	100.62
233.477	110.62
233.711	109.62
233.945	110.62
234.179	113.62
234.413	100.62
234.647	109.62
234.881	106.62
235.115	98.62
235.349	99.62
235.583	120.62
235.817	109.62
236.051	109.62
236.285	115.62
236.519	108.62
236.753	105.62
236.987	115.62
237.221	124.62
237.455	151.62
237.689	125.62
237.922	126.62
238.156	108.62
238.39	114.62
238.624	107.62
238.858	102.62
239.091	120.62
239.325	113.62
239.559	101.62
239.793	131.62
240.027	124.62
240.26	118.62
240.494	124.62
240.728	127.62
240.961	128.62
241.195	126.62
241.429	136.62
241.662	112.62
241.896	137.62
242.13	118.62
242.363	107.62
242.597	119.62
242.83	122.62
243.064	125.62
243.298	141.62
243.531	144.62
243.765	106.62
243.998	138.62
244.232	124.62
244.465	133.62
244.699	130.62
244.932	133.62
245.166	153.62
245.399	148.62
245.633	147.62
245.866	140.62
246.099	130.62
246.333	133.62
246.566	151.62
246.8	154.62
247.033	145.62
247.266	143.62
247.5	136.62
247.733	142.62
247.966	150.62
248.2	161.62
248.433	149.62
248.666	146.62
248.899	165.62
249.133	180.62
249.366	167.62
249.599	154.62
249.832	160.62
250.066	166.62
250.299	157.62
250.532	163.62
250.765	170.62
250.998	154.62
251.231	178.62
251.465	167.62
251.698	151.62
251.931	162.62
252.164	172.62
252.397	168.62
252.63	152.62
252.863	176.62
253.096	195.62
253.329	198.62
253.562	170.62
253.795	186.62
254.028	187.62
254.261	174.62
254.494	197.62
254.727	185.62
254.96	187.62
255.193	188.62
255.426	186.62
255.659	181.62
255.892	195.62
256.124	188.62
256.357	188.62
256.59	180.62
256.823	178.62
257.056	171.62
257.289	186.62
257.521	181.62
257.754	192.62
257.987	177.62
258.22	172.62
258.452	173.62
258.685	180.62
258.918	173.62
259.151	184.62
259.383	165.62
259.616	176.62
259.849	184.62
260.081	201.62
260.314	187.62
260.547	185.62
260.779	195.62
261.012	194.62
261.244	192.62
261.477	194.62
261.71	184.62
261.942	200.62
262.175	200.62
262.407	179.62
262.64	180.62
262.872	185.62
263.105	198.62
263.337	198.62
263.57	181.62
263.802	197.62
264.035	212.62
264.267	208.62
264.499	211.62
264.732	209.62
264.964	210.62
265.197	178.62
265.429	197.62
265.661	205.62
265.894	199.62
266.126	195.62
266.358	207.62
266.591	194.62
266.823	207.62
267.055	199.62
267.287	208.62
267.52	215.62
267.752	183.62
267.984	205.62
268.216	216.62
268.448	237.62
268.681	218.62
268.913	203.62
269.145	227.62
269.377	212.62
269.609	243.62
269.841	224.62
270.073	222.62
270.306	225.62
270.538	250.62
270.77	240.62
271.002	245.62
271.234	238.62
271.466	243.62
271.698	229.62
271.93	234.62
272.162	251.62
272.394	248.62
272.626	220.62
272.858	246.62
273.09	240.62
273.322	244.62
273.553	223.62
273.785	259.62
274.017	239.62
274.249	242.62
274.481	214.62
274.713	218.62
274.945	220.62
275.176	229.62
275.408	249.62
275.64	240.62
275.872	235.62
276.104	217.62
276.335	227.62
276.567	245.62
276.799	236.62
277.031	237.62
277.262	260.62
277.494	243.62
277.726	260.62
277.957	242.62
278.189	238.62
278.421	264.62
278.652	264.62
278.884	244.62
279.115	234.62
279.347	260.62
279.579	245.62
279.81	243.62
280.042	258.62
280.273	246.62
280.505	241.62
280.736	243.62
280.968	233.62
281.199	245.62
281.431	244.62
281.662	242.62
281.894	253.62
282.125	258.62
282.356	253.62
282.588	275.62
282.819	265.62
283.051	255.62
283.282	271.62
283.513	252.62
283.745	228.62
283.976	270.62
284.207	272.62
284.439	252.62
284.67	274.62
284.901	241.62
285.132	252.62
285.364	264.62
285.595	253.62
285.826	258.62
286.057	271.62
286.288	260.62
286.52	276.62
286.751	289.62
286.982	271.62
287.213	286.62
287.444	266.62
287.675	272.62
287.906	292.62
288.138	286.62
288.369	289.62
288.6	280.62
288.831	291.62
289.062	280.62
289.293	278.62
289.524	289.62
289.755	307.62
289.986	269.62
290.217	280.62
290.448	272.62
290.679	264.62
290.91	273.62
291.141	288.62
291.371	287.62
291.602	270.62
291.833	279.62
292.064	283.62
292.295	270.62
292.526	283.62
292.757	283.62
292.987	274.62
293.218	265.62
293.449	289.62
293.68	291.62
293.91	288.62
294.141	292.62
294.372	290.62
294.603	273.62
294.833	276.62
295.064	276.62
295.295	294.62
295.525	276.62
295.756	284.62
295.987	281.62
296.217	290.62
296.448	297.62
296.679	308.62
296.909	291.62
297.14	281.62
297.37	275.62
297.601	284.62
297.831	281.62
298.062	297.62
298.292	290.62
298.523	306.62
298.753	295.62
298.984	308.62
299.214	294.62
299.445	313.62
299.675	279.62
299.905	293.62
300.136	289.62
300.366	311.62
300.597	308.62
300.827	319.62
301.057	298.62
301.288	305.62
301.518	308.62
301.748	308.62
301.979	327.62
302.209	316.62
302.439	300.62
302.669	316.62
302.9	329.62
303.13	306.62
303.36	333.62
303.59	316.62
303.82	328.62
304.051	319.62
304.281	310.62
304.511	321.62
304.741	313.62
304.971	322.62
305.201	314.62
305.431	291.62
305.661	310.62
305.891	303.62
306.121	314.62
306.352	324.62
306.582	315.62
306.812	305.62
307.042	317.62
307.272	302.62
307.502	315.62
307.731	310.62
307.961	327.62
308.191	310.62
308.421	320.62
308.651	309.62
308.881	306.62
309.111	298.62
309.341	322.62
309.571	334.62
309.8	339.62
310.03	337.62
310.26	305.62
310.49	316.62
310.72	324.62
310.949	327.62
311.179	332.62
311.409	328.62
311.639	334.62
311.868	337.62
312.098	338.62
312.328	336.62
312.557	326.62
312.787	348.62
313.017	326.62
313.246	325.62
313.476	344.62
313.706	368.62
313.935	353.62
314.165	341.62
314.394	334.62
314.624	362.62
314.853	352.62
315.083	344.62
315.312	356.62
315.542	330.62
315.771	340.62
316.001	322.62
316.23	344.62
316.46	328.62
316.689	340.62
316.919	355.62
317.148	335.62
317.377	359.62
317.607	324.62
317.836	342.62
318.065	350.62
318.295	338.62
318.524	337.62
318.753	340.62
318.983	342.62
319.212	339.62
319.441	338.62
319.67	338.62
319.9	331.62
320.129	339.62
320.358	348.62
320.587	322.62
320.816	344.62
321.046	357.62
321.275	352.62
321.504	355.62
321.733	352.62
321.962	343.62
322.191	349.62
322.42	370.62
322.649	374.62
322.878	359.62
323.108	369.62
323.337	363.62
323.566	384.62
323.795	381.62
324.024	399.62
324.253	446.62
324.482	551.62
324.71	753.62
324.939	1012.62
325.168	938.62
325.397	550.62
325.626	428.62
325.855	403.62
326.084	401.62
326.313	401.62
326.542	392.62
326.77	412.62
326.999	468.62
327.228	545.62
327.457	680.62
327.686	850.62
327.914	618.62
328.143	459.62
328.372	434.62
328.6	406.62
328.829	397.62
329.058	381.62
329.287	405.62
329.515	406.62
329.744	405.62
329.972	397.62
330.201	392.62
330.43	422.62
330.658	412.62
330.887	425.62
331.115	434.62
331.344	416.62
331.572	416.62
331.801	413.62
332.03	411.62
332.258	395.62
332.486	409.62
332.715	410.62
332.943	413.62
333.172	421.62
333.4	443.62
333.629	445.62
333.857	430.62
334.085	441.62
334.314	458.62
334.542	461.62
334.771	471.62
334.999	444.62
335.227	428.62
335.455	420.62
335.684	434.62
335.912	410.62
336.14	414.62
336.369	403.62
336.597	424.62
336.825	407.62
337.053	402.62
337.281	418.62
337.51	422.62
337.738	409.62
337.966	405.62
338.194	415.62
338.422	400.62
338.65	424.62
338.878	385.62
339.106	389.62
339.334	395.62
339.562	378.62
339.79	387.62
340.018	384.62
340.246	383.62
340.474	380.62
340.702	361.62
340.93	387.62
341.158	389.62
341.386	402.62
341.614	396.62
341.842	390.62
342.07	400.62
342.298	395.62
342.526	384.62
342.754	396.62
342.981	379.62
343.209	386.62
343.437	398.62
343.665	409.62
343.893	414.62
344.12	425.62
344.348	441.62
344.576	422.62
344.804	408.62
345.031	408.62
345.259	417.62
345.487	388.62
345.714	376.62
345.942	390.62
346.17	374.62
346.397	383.62
346.625	373.62
346.853	386.62
347.08	372.62
347.308	389.62
347.535	366.62
347.763	377.62
347.99	392.62
348.218	382.62
348.445	376.62
348.673	378.62
348.9	361.62
349.128	374.62
349.355	374.62
349.583	387.62
349.81	382.62
350.037	353.62
350.265	382.62
350.492	378.62
350.72	377.62
350.947	362.62
351.174	365.62
351.402	366.62
351.629	359.62
351.856	350.62
352.083	372.62
352.311	376.62
352.538	374.62
352.765	373.62
352.992	365.62
353.22	380.62
353.447	372.62
353.674	365.62
353.901	374.62
354.128	368.62
354.355	373.62
354.583	380.62
354.81	357.62
355.037	369.62
355.264	344.62
355.491	376.62
355.718	367.62
355.945	360.62
356.172	378.62
356.399	357.62
356.626	357.62
356.853	348.62
357.08	357.62
357.307	360.62
357.534	349.62
357.761	357.62
357.988	371.62
358.215	372.62
358.441	355.62
358.668	356.62
358.895	360.62
359.122	379.62
359.349	376.62
359.576	371.62
359.802	384.62
360.029	385.62
360.256	386.62
360.483	374.62
360.709	367.62
360.936	376.62
361.163	365.62
361.39	372.62
361.616	376.62
361.843	368.62
362.07	377.62
362.296	366.62
362.523	367.62
362.749	364.62
362.976	366.62
363.203	352.62
363.429	358.62
363.656	369.62
363.882	363.62
364.109	356.62
364.335	374.62
364.562	378.62
364.788	352.62
365.015	373.62
365.241	369.62
365.468	366.62
365.694	374.62
365.92	386.62
366.147	368.62
366.373	369.62
366.599	370.62
366.826	356.62
367.052	346.62
367.278	365.62
367.505	367.62
367.731	362.62
367.957	346.62
368.184	364.62
368.41	366.62
368.636	371.62
368.862	377.62
369.089	372.62
369.315	362.62
369.541	360.62
369.767	389.62
369.993	390.62
370.219	389.62
370.445	362.62
370.672	386.62
370.898	380.62
371.124	380.62
371.35	376.62
371.576	376.62
371.802	388.62
372.028	370.62
372.254	379.62
372.48	392.62
372.706	380.62
372.932	392.62
373.158	393.62
373.384	388.62
373.61	380.62
373.835	382.62
374.061	369.62
374.287	380.62
374.513	370.62
374.739	381.62
374.965	382.62
375.191	382.62
375.416	383.62
375.642	404.62
375.868	405.62
376.094	393.62
376.319	381.62
376.545	391.62
376.771	386.62
376.997	376.62
377.222	382.62
377.448	372.62
377.674	373.62
377.899	384.62
378.125	385.62
378.35	387.62
378.576	404.62
378.802	362.62
379.027	360.62
379.253	373.62
379.478	369.62
379.704	360.62
379.929	382.62
380.155	382.62
380.38	390.62
380.606	383.62
380.831	377.62
381.057	384.62
381.282	386.62
381.507	385.62
381.733	377.62
381.958	390.62
382.184	397.62
382.409	370.62
382.634	407.62
382.86	408.62
383.085	399.62
383.31	396.62
383.535	404.62
383.761	390.62
383.986	414.62
384.211	393.62
384.436	412.62
384.662	411.62
384.887	413.62
385.112	427.62
385.337	442.62
385.562	433.62
385.787	411.62
386.013	436.62
386.238	426.62
386.463	448.62
386.688	455.62
386.913	440.62
387.138	423.62
387.363	453.62
387.588	412.62
387.813	421.62
388.038	421.62
388.263	434.62
388.488	442.62
388.713	443.62
388.938	452.62
389.163	428.62
389.387	434.62
389.612	432.62
389.837	446.62
390.062	429.62
390.287	429.62
390.512	441.62
390.736	443.62
390.961	436.62
391.186	434.62
391.411	436.62
391.636	454.62
391.86	474.62
392.085	447.62
392.31	434.62
392.534	445.62
392.759	460.62
392.984	448.62
393.208	455.62
393.433	464.62
393.658	446.62
393.882	432.62
394.107	420.62
394.331	442.62
394.556	440.62
394.78	456.62
395.005	457.62
395.229	451.62
395.454	462.62
395.678	464.62
395.903	455.62
396.127	454.62
396.352	476.62
396.576	461.62
396.801	445.62
397.025	460.62
397.249	451.62
397.474	460.62
397.698	462.62
397.922	468.62
398.147	472.62
398.371	484.62
398.595	493.62
398.82	510.62
399.044	513.62
399.268	553.62
399.492	623.62
399.717	618.62
399.941	660.62
400.165	617.62
400.389	610.62
400.613	564.62
400.837	549.62
401.062	516.62
401.286	520.62
401.51	493.62
401.734	508.62
401.958	514.62
402.182	514.62
402.406	514.62
402.63	544.62
402.854	532.62
403.078	504.62
403.302	518.62
403.526	514.62
403.75	515.62
403.974	545.62
404.198	522.62
404.422	525.62
404.645	545.62
404.869	527.62
405.093	554.62
405.317	579.62
405.541	602.62
405.765	585.62
405.988	545.62
406.212	537.62
406.436	546.62
406.66	556.62
406.883	562.62
407.107	570.62
407.331	569.62
407.555	645.62
407.778	662.62
408.002	622.62
408.226	590.62
408.449	551.62
408.673	548.62
408.896	576.62
409.12	596.62
409.344	590.62
409.567	551.62
409.791	557.62
410.014	541.62
410.238	520.62
410.461	530.62
410.685	530.62
410.908	519.62
411.132	542.62
411.355	541.62
411.578	514.62
411.802	531.62
412.025	518.62
412.249	525.62
412.472	542.62
412.695	565.62
412.919	555.62
413.142	517.62
413.365	511.62
413.589	500.62
413.812	486.62
414.035	513.62
414.258	500.62
414.482	501.62
414.705	499.62
414.928	503.62
415.151	512.62
415.374	528.62
415.597	472.62
415.821	484.62
416.044	477.62
416.267	468.62
416.49	496.62
416.713	484.62
416.936	496.62
417.159	483.62
417.382	477.62
417.605	471.62
417.828	493.62
418.051	493.62
418.274	494.62
418.497	501.62
418.72	501.62
418.943	508.62
419.166	526.62
419.389	554.62
419.611	554.62
419.834	533.62
420.057	532.62
420.28	515.62
420.503	505.62
420.726	494.62
420.948	509.62
421.171	522.62
421.394	548.62
421.617	510.62
421.839	506.62
422.062	509.62
422.285	501.62
422.507	548.62
422.73	583.62
422.953	568.62
423.175	556.62
423.398	510.62
423.621	513.62
423.843	517.62
424.066	537.62
424.288	530.62
424.511	548.62
424.733	554.62
424.956	601.62
425.178	588.62
425.401	577.62
425.623	586.62
425.846	536.62
426.068	536.62
426.291	516.62
426.513	485.62
426.735	493.62
426.958	536.62
427.18	568.62
427.402	634.62
427.625	688.62
427.847	597.62
428.069	552.62
428.292	500.62
428.514	482.62
428.736	458.62
428.958	479.62
429.181	483.62
429.403	482.62
429.625	470.62
429.847	497.62
430.069	534.62
430.292	545.62
430.514	471.62
430.736	470.62
430.958	491.62
431.18	457.62
431.402	446.62
431.624	453.62
431.846	481.62
432.068	478.62
432.29	471.62
432.512	449.62
432.734	461.62
432.956	465.62
433.178	443.62
433.4	483.62
433.622	475.62
433.844	465.62
434.066	473.62
434.287	489.62
434.509	472.62
434.731	505.62
434.953	476.62
435.175	492.62
435.397	515.62
435.618	518.62
435.84	549.62
436.062	569.62
436.284	617.62
436.505	524.62
436.727	493.62
436.949	496.62
437.17	485.62
437.392	484.62
437.614	481.62
437.835	472.62
438.057	543.62
438.278	568.62
438.5	581.62
438.721	647.62
438.943	644.62
439.165	519.62
439.386	514.62
439.608	497.62
439.829	501.62
440.05	506.62
440.272	530.62
440.493	515.62
440.715	463.62
440.936	462.62
441.158	487.62
441.379	491.62
441.6	481.62
441.822	502.62
442.043	526.62
442.264	556.62
442.486	598.62
442.707	528.62
442.928	522.62
443.149	524.62
443.371	520.62
443.592	542.62
443.813	601.62
444.034	636.62
444.255	566.62
444.476	566.62
444.698	556.62
444.919	540.62
445.14	667.62
445.361	611.62
445.582	553.62
445.803	565.62
446.024	622.62
446.245	594.62
446.466	564.62
446.687	520.62
446.908	483.62
447.129	491.62
447.35	479.62
447.571	475.62
447.792	454.62
448.013	461.62
448.234	453.62
448.455	481.62
448.675	556.62
448.896	608.62
449.117	538.62
449.338	530.62
449.559	594.62
449.779	655.62
450	553.62
450.221	483.62
450.442	435.62
450.662	440.62
450.883	436.62
451.104	443.62
451.324	420.62
451.545	424.62
451.766	412.62
451.986	426.62
452.207	411.62
452.428	411.62
452.648	418.62
452.869	405.62
453.089	430.62
453.31	433.62
453.53	412.62
453.751	440.62
453.971	393.62
454.192	427.62
454.412	421.62
454.633	415.62
454.853	395.62
455.073	408.62
455.294	433.62
455.514	461.62
455.734	457.62
455.955	405.62
456.175	408.62
456.395	406.62
456.616	397.62
456.836	409.62
457.056	389.62
457.276	409.62
457.497	416.62
457.717	436.62
457.937	410.62
458.157	413.62
458.377	440.62
458.598	434.62
458.818	465.62
459.038	500.62
459.258	516.62
459.478	490.62
459.698	476.62
459.918	490.62
460.138	484.62
460.358	496.62
460.578	497.62
460.798	534.62
461.018	501.62
461.238	504.62
461.458	515.62
461.678	492.62
461.898	518.62
462.118	488.62
462.338	522.62
462.558	536.62
462.777	527.62
462.997	565.62
463.217	610.62
463.437	608.62
463.657	565.62
463.876	549.62
464.096	536.62
464.316	544.62
464.536	564.62
464.755	550.62
464.975	517.62
465.195	508.62
465.414	515.62
465.634	490.62
465.854	478.62
466.073	445.62
466.293	477.62
466.512	454.62
466.732	458.62
466.951	454.62
467.171	453.62
467.391	452.62
467.61	436.62
467.829	448.62
468.049	440.62
468.268	451.62
468.488	459.62
468.707	452.62
468.927	436.62
469.146	430.62
469.365	442.62
469.585	429.62
469.804	423.62
470.023	446.62
470.243	465.62
470.462	460.62
470.681	455.62
470.901	461.62
471.12	461.62
471.339	469.62
471.558	458.62
471.777	458.62
471.997	442.62
472.216	438.62
472.435	441.62
472.654	461.62
472.873	446.62
473.092	440.62
473.311	450.62
473.53	429.62
473.749	460.62
473.968	461.62
474.187	513.62
474.406	533.62
474.625	487.62
474.844	450.62
475.063	422.62
475.282	454.62
475.501	430.62
475.72	463.62
475.939	456.62
476.158	459.62
476.377	477.62
476.596	463.62
476.814	477.62
477.033	464.62
477.252	470.62
477.471	472.62
477.69	474.62
477.908	475.62
478.127	494.62
478.346	502.62
478.564	518.62
478.783	513.62
479.002	531.62
479.22	536.62
479.439	537.62
479.658	536.62
479.876	525.62
480.095	547.62
480.313	561.62
480.532	555.62
480.751	560.62
480.969	560.62
481.188	556.62
481.406	573.62
481.624	561.62
481.843	535.62
482.061	544.62
482.28	551.62
482.498	545.62
482.717	530.62
482.935	516.62
483.153	540.62
483.372	528.62
483.59	542.62
483.808	541.62
484.027	548.62
484.245	536.62
484.463	542.62
484.681	516.62
484.9	527.62
485.118	544.62
485.336	535.62
485.554	557.62
485.772	538.62
485.99	546.62
486.209	560.62
486.427	543.62
486.645	545.62
486.863	532.62
487.081	540.62
487.299	551.62
487.517	556.62
487.735	523.62
487.953	556.62
488.171	556.62
488.389	545.62
488.607	570.62
488.825	549.62
489.043	555.62
489.261	567.62
489.479	567.62
489.696	549.62
489.914	556.62
490.132	580.62
490.35	579.62
490.568	576.62
490.786	577.62
491.003	567.62
491.221	585.62
491.439	589.62
491.657	572.62
491.874	591.62
492.092	572.62
492.31	590.62
492.527	590.62
492.745	596.62
492.963	613.62
493.18	613.62
493.398	628.62
493.615	617.62
493.833	616.62
494.05	596.62
494.268	620.62
494.485	611.62
494.703	611.62
494.92	605.62
495.138	612.62
495.355	611.62
495.573	605.62
495.79	598.62
496.008	626.62
496.225	653.62
496.442	634.62
496.66	645.62
496.877	642.62
497.094	624.62
497.312	655.62
497.529	663.62
497.746	670.62
497.963	658.62
498.181	683.62
498.398	719.62
498.615	731.62
498.832	768.62
499.049	812.62
499.267	822.62
499.484	852.62
499.701	932.62
499.918	955.62
500.135	1038.62
500.352	1106.62
500.569	1169.62
500.786	1181.62
501.003	1092.62
501.22	1075.62
501.437	1001.62
501.654	949.62
501.871	892.62
502.088	861.62
