Data from 1962.PennyLincolnUp.Lamp.En5.5.200Scan.071719.P1._HRD10591_13-53-52-060.txt Node
Date: Thu Jul 18 13:53:52 EDT 2019
User: cochatt
Spectrometer: HR+D1059
Trigger mode: 1
Integration Time (sec): 1.000000E-1
Scans to average: 1
Electric dark correction enabled: true
Nonlinearity correction enabled: false
Boxcar width: 0
XAxis mode: Wavelengths
Number of Pixels in Spectrum: 2048
>>>>>Begin Spectral Data<<<<<
223.165	-9.38
223.4	-9.38
223.635	-9.38
223.869	-19.38
224.104	-4.38
224.338	-26.38
224.573	-16.38
224.808	-19.38
225.042	-19.38
225.277	-8.38
225.511	-4.38
225.746	-7.38
225.98	20.62
226.215	26.62
226.449	14.62
226.683	2.62
226.918	31.62
227.152	38.62
227.387	38.62
227.621	43.62
227.856	47.62
228.09	42.62
228.324	38.62
228.559	55.62
228.793	65.62
229.027	88.62
229.262	87.62
229.496	84.62
229.73	104.62
229.964	123.62
230.199	115.62
230.433	116.62
230.667	108.62
230.901	96.62
231.136	89.62
231.37	98.62
231.604	97.62
231.838	91.62
232.072	106.62
232.306	110.62
232.541	110.62
232.775	98.62
233.009	99.62
233.243	101.62
233.477	107.62
233.711	115.62
233.945	116.62
234.179	120.62
234.413	109.62
234.647	124.62
234.881	102.62
235.115	123.62
235.349	111.62
235.583	120.62
235.817	100.62
236.051	113.62
236.285	120.62
236.519	116.62
236.753	108.62
236.987	125.62
237.221	146.62
237.455	170.62
237.689	156.62
237.922	127.62
238.156	124.62
238.39	121.62
238.624	116.62
238.858	128.62
239.091	120.62
239.325	121.62
239.559	107.62
239.793	123.62
240.027	113.62
240.26	125.62
240.494	137.62
240.728	123.62
240.961	127.62
241.195	127.62
241.429	130.62
241.662	119.62
241.896	131.62
242.13	126.62
242.363	131.62
242.597	151.62
242.83	135.62
243.064	137.62
243.298	139.62
243.531	120.62
243.765	135.62
243.998	123.62
244.232	140.62
244.465	156.62
244.699	122.62
244.932	134.62
245.166	135.62
245.399	123.62
245.633	125.62
245.866	139.62
246.099	142.62
246.333	153.62
246.566	145.62
246.8	121.62
247.033	138.62
247.266	146.62
247.5	153.62
247.733	145.62
247.966	148.62
248.2	156.62
248.433	168.62
248.666	153.62
248.899	149.62
249.133	149.62
249.366	163.62
249.599	155.62
249.832	142.62
250.066	172.62
250.299	158.62
250.532	162.62
250.765	175.62
250.998	177.62
251.231	208.62
251.465	191.62
251.698	185.62
251.931	164.62
252.164	170.62
252.397	177.62
252.63	193.62
252.863	180.62
253.096	194.62
253.329	184.62
253.562	177.62
253.795	198.62
254.028	201.62
254.261	179.62
254.494	164.62
254.727	232.62
254.96	222.62
255.193	224.62
255.426	205.62
255.659	207.62
255.892	215.62
256.124	188.62
256.357	206.62
256.59	218.62
256.823	187.62
257.056	183.62
257.289	180.62
257.521	178.62
257.754	193.62
257.987	189.62
258.22	194.62
258.452	192.62
258.685	178.62
258.918	191.62
259.151	181.62
259.383	191.62
259.616	199.62
259.849	216.62
260.081	208.62
260.314	209.62
260.547	214.62
260.779	221.62
261.012	208.62
261.244	196.62
261.477	195.62
261.71	202.62
261.942	205.62
262.175	229.62
262.407	210.62
262.64	199.62
262.872	198.62
263.105	193.62
263.337	212.62
263.57	210.62
263.802	196.62
264.035	207.62
264.267	203.62
264.499	210.62
264.732	210.62
264.964	205.62
265.197	202.62
265.429	208.62
265.661	217.62
265.894	206.62
266.126	197.62
266.358	207.62
266.591	212.62
266.823	217.62
267.055	214.62
267.287	200.62
267.52	204.62
267.752	224.62
267.984	209.62
268.216	213.62
268.448	242.62
268.681	227.62
268.913	216.62
269.145	241.62
269.377	246.62
269.609	231.62
269.841	232.62
270.073	237.62
270.306	256.62
270.538	264.62
270.77	262.62
271.002	241.62
271.234	253.62
271.466	261.62
271.698	273.62
271.93	265.62
272.162	278.62
272.394	270.62
272.626	259.62
272.858	267.62
273.09	253.62
273.322	265.62
273.553	259.62
273.785	237.62
274.017	241.62
274.249	254.62
274.481	245.62
274.713	239.62
274.945	266.62
275.176	233.62
275.408	259.62
275.64	259.62
275.872	232.62
276.104	246.62
276.335	255.62
276.567	242.62
276.799	287.62
277.031	286.62
277.262	283.62
277.494	276.62
277.726	273.62
277.957	269.62
278.189	265.62
278.421	250.62
278.652	271.62
278.884	267.62
279.115	261.62
279.347	240.62
279.579	264.62
279.81	242.62
280.042	241.62
280.273	268.62
280.505	275.62
280.736	255.62
280.968	275.62
281.199	265.62
281.431	247.62
281.662	279.62
281.894	264.62
282.125	285.62
282.356	273.62
282.588	288.62
282.819	289.62
283.051	272.62
283.282	265.62
283.513	290.62
283.745	279.62
283.976	274.62
284.207	275.62
284.439	278.62
284.67	255.62
284.901	283.62
285.132	261.62
285.364	276.62
285.595	275.62
285.826	273.62
286.057	284.62
286.288	275.62
286.52	265.62
286.751	264.62
286.982	262.62
287.213	287.62
287.444	290.62
287.675	271.62
287.906	300.62
288.138	305.62
288.369	300.62
288.6	288.62
288.831	288.62
289.062	280.62
289.293	276.62
289.524	286.62
289.755	282.62
289.986	285.62
290.217	294.62
290.448	284.62
290.679	292.62
290.91	281.62
291.141	284.62
291.371	287.62
291.602	273.62
291.833	273.62
292.064	295.62
292.295	277.62
292.526	275.62
292.757	290.62
292.987	296.62
293.218	295.62
293.449	284.62
293.68	292.62
293.91	286.62
294.141	285.62
294.372	298.62
294.603	306.62
294.833	291.62
295.064	303.62
295.295	283.62
295.525	305.62
295.756	306.62
295.987	289.62
296.217	316.62
296.448	302.62
296.679	303.62
296.909	312.62
297.14	313.62
297.37	294.62
297.601	301.62
297.831	308.62
298.062	294.62
298.292	319.62
298.523	313.62
298.753	308.62
298.984	316.62
299.214	307.62
299.445	294.62
299.675	328.62
299.905	300.62
300.136	320.62
300.366	305.62
300.597	323.62
300.827	322.62
301.057	307.62
301.288	316.62
301.518	328.62
301.748	313.62
301.979	332.62
302.209	340.62
302.439	319.62
302.669	337.62
302.9	321.62
303.13	332.62
303.36	337.62
303.59	328.62
303.82	321.62
304.051	327.62
304.281	326.62
304.511	316.62
304.741	323.62
304.971	320.62
305.201	310.62
305.431	333.62
305.661	326.62
305.891	335.62
306.121	337.62
306.352	319.62
306.582	333.62
306.812	316.62
307.042	324.62
307.272	320.62
307.502	330.62
307.731	334.62
307.961	343.62
308.191	342.62
308.421	322.62
308.651	329.62
308.881	324.62
309.111	325.62
309.341	337.62
309.571	333.62
309.8	349.62
310.03	353.62
310.26	343.62
310.49	332.62
310.72	347.62
310.949	337.62
311.179	354.62
311.409	346.62
311.639	346.62
311.868	341.62
312.098	351.62
312.328	375.62
312.557	356.62
312.787	362.62
313.017	401.62
313.246	377.62
313.476	351.62
313.706	349.62
313.935	362.62
314.165	350.62
314.394	357.62
314.624	371.62
314.853	367.62
315.083	362.62
315.312	356.62
315.542	371.62
315.771	346.62
316.001	375.62
316.23	360.62
316.46	373.62
316.689	353.62
316.919	359.62
317.148	365.62
317.377	376.62
317.607	353.62
317.836	361.62
318.065	357.62
318.295	361.62
318.524	363.62
318.753	363.62
318.983	360.62
319.212	373.62
319.441	361.62
319.67	371.62
319.9	369.62
320.129	361.62
320.358	349.62
320.587	361.62
320.816	352.62
321.046	389.62
321.275	371.62
321.504	371.62
321.733	357.62
321.962	403.62
322.191	387.62
322.42	388.62
322.649	386.62
322.878	381.62
323.108	388.62
323.337	423.62
323.566	418.62
323.795	428.62
324.024	470.62
324.253	500.62
324.482	691.62
324.71	965.62
324.939	1345.62
325.168	1124.62
325.397	636.62
325.626	506.62
325.855	451.62
326.084	453.62
326.313	421.62
326.542	452.62
326.77	440.62
326.999	485.62
327.228	599.62
327.457	894.62
327.686	1037.62
327.914	729.62
328.143	545.62
328.372	500.62
328.6	469.62
328.829	469.62
329.058	481.62
329.287	482.62
329.515	441.62
329.744	436.62
329.972	441.62
330.201	443.62
330.43	462.62
330.658	449.62
330.887	481.62
331.115	480.62
331.344	449.62
331.572	426.62
331.801	428.62
332.03	439.62
332.258	442.62
332.486	450.62
332.715	440.62
332.943	454.62
333.172	431.62
333.4	449.62
333.629	467.62
333.857	486.62
334.085	484.62
334.314	481.62
334.542	475.62
334.771	499.62
334.999	485.62
335.227	474.62
335.455	458.62
335.684	460.62
335.912	452.62
336.14	439.62
336.369	415.62
336.597	442.62
336.825	430.62
337.053	439.62
337.281	448.62
337.51	433.62
337.738	424.62
337.966	411.62
338.194	435.62
338.422	449.62
338.65	435.62
338.878	404.62
339.106	402.62
339.334	410.62
339.562	402.62
339.79	405.62
340.018	421.62
340.246	418.62
340.474	413.62
340.702	412.62
340.93	423.62
341.158	412.62
341.386	416.62
341.614	413.62
341.842	426.62
342.07	411.62
342.298	421.62
342.526	423.62
342.754	401.62
342.981	410.62
343.209	401.62
343.437	425.62
343.665	443.62
343.893	447.62
344.12	468.62
344.348	435.62
344.576	441.62
344.804	446.62
345.031	441.62
345.259	425.62
345.487	409.62
345.714	408.62
345.942	384.62
346.17	410.62
346.397	402.62
346.625	414.62
346.853	391.62
347.08	377.62
347.308	389.62
347.535	367.62
347.763	387.62
347.99	400.62
348.218	406.62
348.445	400.62
348.673	404.62
348.9	415.62
349.128	396.62
349.355	380.62
349.583	383.62
349.81	374.62
350.037	387.62
350.265	377.62
350.492	388.62
350.72	391.62
350.947	386.62
351.174	394.62
351.402	391.62
351.629	402.62
351.856	391.62
352.083	388.62
352.311	393.62
352.538	379.62
352.765	395.62
352.992	391.62
353.22	375.62
353.447	391.62
353.674	376.62
353.901	382.62
354.128	387.62
354.355	362.62
354.583	376.62
354.81	372.62
355.037	372.62
355.264	398.62
355.491	353.62
355.718	401.62
355.945	389.62
356.172	391.62
356.399	378.62
356.626	378.62
356.853	382.62
357.08	381.62
357.307	378.62
357.534	375.62
357.761	381.62
357.988	378.62
358.215	394.62
358.441	375.62
358.668	397.62
358.895	375.62
359.122	367.62
359.349	382.62
359.576	397.62
359.802	416.62
360.029	401.62
360.256	411.62
360.483	406.62
360.709	404.62
360.936	382.62
361.163	385.62
361.39	377.62
361.616	394.62
361.843	385.62
362.07	389.62
362.296	395.62
362.523	379.62
362.749	387.62
362.976	388.62
363.203	384.62
363.429	378.62
363.656	384.62
363.882	391.62
364.109	395.62
364.335	375.62
364.562	378.62
364.788	371.62
365.015	374.62
365.241	380.62
365.468	364.62
365.694	372.62
365.92	378.62
366.147	383.62
366.373	375.62
366.599	366.62
366.826	360.62
367.052	391.62
367.278	388.62
367.505	369.62
367.731	383.62
367.957	354.62
368.184	387.62
368.41	394.62
368.636	378.62
368.862	408.62
369.089	391.62
369.315	371.62
369.541	418.62
369.767	386.62
369.993	375.62
370.219	363.62
370.445	383.62
370.672	401.62
370.898	397.62
371.124	393.62
371.35	401.62
371.576	401.62
371.802	398.62
372.028	378.62
372.254	379.62
372.48	417.62
372.706	397.62
372.932	408.62
373.158	395.62
373.384	359.62
373.61	395.62
373.835	399.62
374.061	390.62
374.287	409.62
374.513	401.62
374.739	408.62
374.965	400.62
375.191	420.62
375.416	402.62
375.642	418.62
375.868	410.62
376.094	402.62
376.319	399.62
376.545	384.62
376.771	392.62
376.997	393.62
377.222	392.62
377.448	405.62
377.674	386.62
377.899	384.62
378.125	408.62
378.35	404.62
378.576	387.62
378.802	384.62
379.027	389.62
379.253	410.62
379.478	403.62
379.704	386.62
379.929	391.62
380.155	382.62
380.38	374.62
380.606	401.62
380.831	363.62
381.057	385.62
381.282	387.62
381.507	392.62
381.733	380.62
381.958	412.62
382.184	406.62
382.409	406.62
382.634	416.62
382.86	399.62
383.085	410.62
383.31	401.62
383.535	405.62
383.761	416.62
383.986	398.62
384.211	418.62
384.436	439.62
384.662	454.62
384.887	443.62
385.112	438.62
385.337	446.62
385.562	440.62
385.787	468.62
386.013	463.62
386.238	458.62
386.463	457.62
386.688	449.62
386.913	426.62
387.138	440.62
387.363	442.62
387.588	427.62
387.813	456.62
388.038	444.62
388.263	443.62
388.488	457.62
388.713	460.62
388.938	464.62
389.163	436.62
389.387	448.62
389.612	452.62
389.837	440.62
390.062	450.62
390.287	436.62
390.512	449.62
390.736	466.62
390.961	439.62
391.186	447.62
391.411	443.62
391.636	468.62
391.86	474.62
392.085	467.62
392.31	475.62
392.534	494.62
392.759	465.62
392.984	463.62
393.208	435.62
393.433	475.62
393.658	479.62
393.882	446.62
394.107	457.62
394.331	436.62
394.556	451.62
394.78	461.62
395.005	461.62
395.229	453.62
395.454	480.62
395.678	474.62
395.903	485.62
396.127	488.62
396.352	487.62
396.576	471.62
396.801	479.62
397.025	470.62
397.249	464.62
397.474	477.62
397.698	471.62
397.922	498.62
398.147	513.62
398.371	520.62
398.595	525.62
398.82	522.62
399.044	550.62
399.268	565.62
399.492	608.62
399.717	644.62
399.941	663.62
400.165	674.62
400.389	644.62
400.613	566.62
400.837	562.62
401.062	543.62
401.286	552.62
401.51	545.62
401.734	535.62
401.958	526.62
402.182	501.62
402.406	548.62
402.63	546.62
402.854	554.62
403.078	549.62
403.302	559.62
403.526	562.62
403.75	559.62
403.974	564.62
404.198	575.62
404.422	550.62
404.645	561.62
404.869	571.62
405.093	592.62
405.317	623.62
405.541	643.62
405.765	585.62
405.988	575.62
406.212	589.62
406.436	592.62
406.66	615.62
406.883	598.62
407.107	591.62
407.331	633.62
407.555	687.62
407.778	703.62
408.002	661.62
408.226	619.62
408.449	605.62
408.673	599.62
408.896	619.62
409.12	625.62
409.344	633.62
409.567	576.62
409.791	559.62
410.014	543.62
410.238	537.62
410.461	556.62
410.685	573.62
410.908	562.62
411.132	589.62
411.355	605.62
411.578	563.62
411.802	575.62
412.025	537.62
412.249	539.62
412.472	556.62
412.695	563.62
412.919	587.62
413.142	553.62
413.365	531.62
413.589	509.62
413.812	511.62
414.035	531.62
414.258	518.62
414.482	526.62
414.705	523.62
414.928	521.62
415.151	535.62
415.374	532.62
415.597	520.62
415.821	506.62
416.044	516.62
416.267	513.62
416.49	515.62
416.713	506.62
416.936	518.62
417.159	499.62
417.382	526.62
417.605	522.62
417.828	538.62
418.051	530.62
418.274	524.62
418.497	480.62
418.72	520.62
418.943	532.62
419.166	523.62
419.389	591.62
419.611	579.62
419.834	572.62
420.057	549.62
420.28	542.62
420.503	535.62
420.726	528.62
420.948	541.62
421.171	575.62
421.394	575.62
421.617	565.62
421.839	512.62
422.062	540.62
422.285	538.62
422.507	565.62
422.73	633.62
422.953	624.62
423.175	553.62
423.398	553.62
423.621	550.62
423.843	557.62
424.066	542.62
424.288	559.62
424.511	588.62
424.733	626.62
424.956	651.62
425.178	629.62
425.401	611.62
425.623	661.62
425.846	590.62
426.068	560.62
426.291	546.62
426.513	534.62
426.735	537.62
426.958	568.62
427.18	618.62
427.402	704.62
427.625	757.62
427.847	651.62
428.069	630.62
428.292	568.62
428.514	507.62
428.736	514.62
428.958	530.62
429.181	489.62
429.403	496.62
429.625	495.62
429.847	535.62
430.069	582.62
430.292	620.62
430.514	503.62
430.736	522.62
430.958	506.62
431.18	484.62
431.402	496.62
431.624	487.62
431.846	473.62
432.068	504.62
432.29	511.62
432.512	477.62
432.734	490.62
432.956	500.62
433.178	495.62
433.4	501.62
433.622	514.62
433.844	497.62
434.066	501.62
434.287	492.62
434.509	506.62
434.731	528.62
434.953	491.62
435.175	513.62
435.397	536.62
435.618	548.62
435.84	569.62
436.062	613.62
436.284	687.62
436.505	570.62
436.727	531.62
436.949	547.62
437.17	526.62
437.392	512.62
437.614	485.62
437.835	524.62
438.057	585.62
438.278	636.62
438.5	637.62
438.721	704.62
438.943	704.62
439.165	546.62
439.386	524.62
439.608	514.62
439.829	524.62
440.05	522.62
440.272	569.62
440.493	547.62
440.715	527.62
440.936	515.62
441.158	516.62
441.379	523.62
441.6	539.62
441.822	542.62
442.043	575.62
442.264	587.62
442.486	652.62
442.707	588.62
442.928	568.62
443.149	553.62
443.371	571.62
443.592	603.62
443.813	660.62
444.034	704.62
444.255	626.62
444.476	588.62
444.698	568.62
444.919	586.62
445.14	704.62
445.361	641.62
445.582	578.62
445.803	597.62
446.024	657.62
446.245	658.62
446.466	617.62
446.687	548.62
446.908	537.62
447.129	501.62
447.35	502.62
447.571	509.62
447.792	483.62
448.013	496.62
448.234	508.62
448.455	527.62
448.675	598.62
448.896	676.62
449.117	588.62
449.338	549.62
449.559	655.62
449.779	715.62
450	591.62
450.221	525.62
450.442	479.62
450.662	474.62
450.883	482.62
451.104	475.62
451.324	471.62
451.545	458.62
451.766	454.62
451.986	420.62
452.207	457.62
452.428	460.62
452.648	460.62
452.869	451.62
453.089	456.62
453.31	479.62
453.53	437.62
453.751	427.62
453.971	447.62
454.192	442.62
454.412	458.62
454.633	438.62
454.853	440.62
455.073	441.62
455.294	436.62
455.514	502.62
455.734	484.62
455.955	428.62
456.175	419.62
456.395	435.62
456.616	451.62
456.836	445.62
457.056	413.62
457.276	409.62
457.497	444.62
457.717	430.62
457.937	433.62
458.157	444.62
458.377	455.62
458.598	463.62
458.818	470.62
459.038	521.62
459.258	565.62
459.478	515.62
459.698	498.62
459.918	495.62
460.138	500.62
460.358	529.62
460.578	518.62
460.798	553.62
461.018	525.62
461.238	528.62
461.458	543.62
461.678	522.62
461.898	518.62
462.118	528.62
462.338	538.62
462.558	557.62
462.777	549.62
462.997	580.62
463.217	607.62
463.437	634.62
463.657	589.62
463.876	580.62
464.096	564.62
464.316	571.62
464.536	591.62
464.755	573.62
464.975	560.62
465.195	575.62
465.414	584.62
465.634	542.62
465.854	520.62
466.073	524.62
466.293	473.62
466.512	487.62
466.732	443.62
466.951	476.62
467.171	479.62
467.391	453.62
467.61	474.62
467.829	483.62
468.049	476.62
468.268	468.62
468.488	466.62
468.707	444.62
468.927	452.62
469.146	456.62
469.365	451.62
469.585	469.62
469.804	461.62
470.023	473.62
470.243	471.62
470.462	464.62
470.681	497.62
470.901	496.62
471.12	471.62
471.339	474.62
471.558	461.62
471.777	461.62
471.997	474.62
472.216	463.62
472.435	496.62
472.654	465.62
472.873	453.62
473.092	480.62
473.311	463.62
473.53	456.62
473.749	454.62
473.968	507.62
474.187	541.62
474.406	571.62
474.625	489.62
474.844	464.62
475.063	478.62
475.282	474.62
475.501	469.62
475.72	467.62
475.939	490.62
476.158	488.62
476.377	485.62
476.596	495.62
476.814	490.62
477.033	495.62
477.252	501.62
477.471	506.62
477.69	487.62
477.908	506.62
478.127	528.62
478.346	513.62
478.564	522.62
478.783	539.62
479.002	550.62
479.22	533.62
479.439	552.62
479.658	548.62
479.876	541.62
480.095	552.62
480.313	581.62
480.532	584.62
480.751	592.62
480.969	575.62
481.188	621.62
481.406	601.62
481.624	579.62
481.843	565.62
482.061	565.62
482.28	553.62
482.498	543.62
482.717	555.62
482.935	556.62
483.153	541.62
483.372	541.62
483.59	554.62
483.808	535.62
484.027	537.62
484.245	533.62
484.463	548.62
484.681	555.62
484.9	573.62
485.118	550.62
485.336	556.62
485.554	566.62
485.772	569.62
485.99	573.62
486.209	554.62
486.427	567.62
486.645	564.62
486.863	568.62
487.081	565.62
487.299	568.62
487.517	575.62
487.735	555.62
487.953	591.62
488.171	572.62
488.389	577.62
488.607	578.62
488.825	592.62
489.043	583.62
489.261	591.62
489.479	576.62
489.696	595.62
489.914	590.62
490.132	590.62
490.35	557.62
490.568	581.62
490.786	607.62
491.003	588.62
491.221	624.62
491.439	607.62
491.657	635.62
491.874	605.62
492.092	616.62
492.31	636.62
492.527	624.62
492.745	647.62
492.963	634.62
493.18	650.62
493.398	676.62
493.615	635.62
493.833	623.62
494.05	639.62
494.268	624.62
494.485	653.62
494.703	654.62
494.92	640.62
495.138	643.62
495.355	641.62
495.573	664.62
495.79	646.62
496.008	675.62
496.225	697.62
496.442	652.62
496.66	686.62
496.877	670.62
497.094	688.62
497.312	708.62
497.529	680.62
497.746	722.62
497.963	728.62
498.181	750.62
498.398	742.62
498.615	773.62
498.832	791.62
499.049	861.62
499.267	871.62
499.484	919.62
499.701	983.62
499.918	1027.62
500.135	1088.62
500.352	1173.62
500.569	1187.62
500.786	1184.62
501.003	1165.62
501.22	1109.62
501.437	1032.62
501.654	959.62
501.871	949.62
502.088	884.62
