Data from 1962.PennyLincolnUp.Lamp.En5.5.200Scan.071719.P1._HRD10591_13-52-37-060.txt Node
Date: Thu Jul 18 13:52:37 EDT 2019
User: cochatt
Spectrometer: HR+D1059
Trigger mode: 1
Integration Time (sec): 1.000000E-1
Scans to average: 1
Electric dark correction enabled: true
Nonlinearity correction enabled: false
Boxcar width: 0
XAxis mode: Wavelengths
Number of Pixels in Spectrum: 2048
>>>>>Begin Spectral Data<<<<<
223.165	-11.25
223.4	-11.25
223.635	-11.25
223.869	-15.25
224.104	-28.25
224.338	-19.25
224.573	-14.25
224.808	-10.25
225.042	-1.25
225.277	-3.25
225.511	2.75
225.746	7.75
225.98	7.75
226.215	-1.25
226.449	10.75
226.683	17.75
226.918	24.75
227.152	32.75
227.387	32.75
227.621	31.75
227.856	38.75
228.09	46.75
228.324	49.75
228.559	45.75
228.793	63.75
229.027	82.75
229.262	85.75
229.496	95.75
229.73	87.75
229.964	91.75
230.199	89.75
230.433	104.75
230.667	99.75
230.901	97.75
231.136	95.75
231.37	86.75
231.604	111.75
231.838	97.75
232.072	94.75
232.306	98.75
232.541	108.75
232.775	82.75
233.009	111.75
233.243	109.75
233.477	106.75
233.711	104.75
233.945	118.75
234.179	113.75
234.413	115.75
234.647	103.75
234.881	99.75
235.115	111.75
235.349	111.75
235.583	121.75
235.817	107.75
236.051	109.75
236.285	111.75
236.519	112.75
236.753	124.75
236.987	119.75
237.221	153.75
237.455	171.75
237.689	125.75
237.922	117.75
238.156	96.75
238.39	113.75
238.624	114.75
238.858	103.75
239.091	117.75
239.325	112.75
239.559	106.75
239.793	103.75
240.027	103.75
240.26	98.75
240.494	125.75
240.728	123.75
240.961	114.75
241.195	113.75
241.429	116.75
241.662	116.75
241.896	121.75
242.13	117.75
242.363	122.75
242.597	128.75
242.83	97.75
243.064	120.75
243.298	127.75
243.531	119.75
243.765	123.75
243.998	126.75
244.232	133.75
244.465	125.75
244.699	129.75
244.932	145.75
245.166	134.75
245.399	125.75
245.633	131.75
245.866	139.75
246.099	144.75
246.333	136.75
246.566	134.75
246.8	151.75
247.033	130.75
247.266	127.75
247.5	141.75
247.733	158.75
247.966	148.75
248.2	149.75
248.433	137.75
248.666	157.75
248.899	153.75
249.133	150.75
249.366	157.75
249.599	153.75
249.832	145.75
250.066	151.75
250.299	161.75
250.532	160.75
250.765	155.75
250.998	155.75
251.231	174.75
251.465	169.75
251.698	158.75
251.931	162.75
252.164	158.75
252.397	169.75
252.63	177.75
252.863	168.75
253.096	167.75
253.329	176.75
253.562	196.75
253.795	162.75
254.028	165.75
254.261	177.75
254.494	181.75
254.727	178.75
254.96	185.75
255.193	209.75
255.426	173.75
255.659	179.75
255.892	175.75
256.124	181.75
256.357	179.75
256.59	177.75
256.823	166.75
257.056	173.75
257.289	175.75
257.521	167.75
257.754	173.75
257.987	177.75
258.22	155.75
258.452	174.75
258.685	179.75
258.918	163.75
259.151	177.75
259.383	158.75
259.616	171.75
259.849	185.75
260.081	192.75
260.314	205.75
260.547	194.75
260.779	191.75
261.012	189.75
261.244	180.75
261.477	189.75
261.71	195.75
261.942	199.75
262.175	185.75
262.407	174.75
262.64	186.75
262.872	184.75
263.105	177.75
263.337	190.75
263.57	174.75
263.802	188.75
264.035	178.75
264.267	203.75
264.499	183.75
264.732	190.75
264.964	194.75
265.197	197.75
265.429	200.75
265.661	184.75
265.894	183.75
266.126	190.75
266.358	199.75
266.591	193.75
266.823	191.75
267.055	189.75
267.287	203.75
267.52	197.75
267.752	199.75
267.984	199.75
268.216	210.75
268.448	208.75
268.681	201.75
268.913	201.75
269.145	197.75
269.377	214.75
269.609	218.75
269.841	200.75
270.073	220.75
270.306	222.75
270.538	238.75
270.77	233.75
271.002	227.75
271.234	231.75
271.466	224.75
271.698	243.75
271.93	240.75
272.162	216.75
272.394	231.75
272.626	232.75
272.858	214.75
273.09	209.75
273.322	214.75
273.553	223.75
273.785	216.75
274.017	230.75
274.249	222.75
274.481	229.75
274.713	227.75
274.945	232.75
275.176	226.75
275.408	207.75
275.64	205.75
275.872	225.75
276.104	222.75
276.335	226.75
276.567	225.75
276.799	228.75
277.031	230.75
277.262	271.75
277.494	248.75
277.726	251.75
277.957	242.75
278.189	232.75
278.421	230.75
278.652	235.75
278.884	232.75
279.115	235.75
279.347	234.75
279.579	230.75
279.81	238.75
280.042	231.75
280.273	243.75
280.505	250.75
280.736	222.75
280.968	245.75
281.199	242.75
281.431	230.75
281.662	224.75
281.894	245.75
282.125	236.75
282.356	254.75
282.588	242.75
282.819	233.75
283.051	261.75
283.282	245.75
283.513	252.75
283.745	244.75
283.976	261.75
284.207	234.75
284.439	273.75
284.67	245.75
284.901	268.75
285.132	253.75
285.364	257.75
285.595	260.75
285.826	257.75
286.057	241.75
286.288	247.75
286.52	278.75
286.751	267.75
286.982	249.75
287.213	248.75
287.444	279.75
287.675	246.75
287.906	279.75
288.138	251.75
288.369	248.75
288.6	285.75
288.831	270.75
289.062	272.75
289.293	273.75
289.524	262.75
289.755	259.75
289.986	256.75
290.217	256.75
290.448	258.75
290.679	257.75
290.91	254.75
291.141	265.75
291.371	279.75
291.602	287.75
291.833	283.75
292.064	271.75
292.295	270.75
292.526	270.75
292.757	269.75
292.987	267.75
293.218	265.75
293.449	266.75
293.68	267.75
293.91	260.75
294.141	259.75
294.372	257.75
294.603	275.75
294.833	270.75
295.064	264.75
295.295	268.75
295.525	277.75
295.756	293.75
295.987	285.75
296.217	285.75
296.448	281.75
296.679	296.75
296.909	280.75
297.14	280.75
297.37	274.75
297.601	285.75
297.831	279.75
298.062	263.75
298.292	279.75
298.523	275.75
298.753	286.75
298.984	287.75
299.214	289.75
299.445	285.75
299.675	281.75
299.905	301.75
300.136	296.75
300.366	311.75
300.597	287.75
300.827	298.75
301.057	289.75
301.288	311.75
301.518	293.75
301.748	280.75
301.979	315.75
302.209	298.75
302.439	298.75
302.669	309.75
302.9	322.75
303.13	299.75
303.36	291.75
303.59	298.75
303.82	312.75
304.051	305.75
304.281	310.75
304.511	303.75
304.741	303.75
304.971	298.75
305.201	323.75
305.431	321.75
305.661	290.75
305.891	297.75
306.121	302.75
306.352	305.75
306.582	303.75
306.812	305.75
307.042	294.75
307.272	296.75
307.502	301.75
307.731	300.75
307.961	320.75
308.191	318.75
308.421	287.75
308.651	318.75
308.881	303.75
309.111	302.75
309.341	305.75
309.571	315.75
309.8	332.75
310.03	305.75
310.26	334.75
310.49	306.75
310.72	321.75
310.949	313.75
311.179	318.75
311.409	307.75
311.639	304.75
311.868	307.75
312.098	330.75
312.328	314.75
312.557	331.75
312.787	355.75
313.017	350.75
313.246	324.75
313.476	314.75
313.706	336.75
313.935	326.75
314.165	338.75
314.394	353.75
314.624	331.75
314.853	334.75
315.083	319.75
315.312	349.75
315.542	346.75
315.771	340.75
316.001	337.75
316.23	322.75
316.46	308.75
316.689	342.75
316.919	331.75
317.148	340.75
317.377	329.75
317.607	351.75
317.836	345.75
318.065	326.75
318.295	312.75
318.524	345.75
318.753	332.75
318.983	345.75
319.212	354.75
319.441	340.75
319.67	335.75
319.9	305.75
320.129	315.75
320.358	346.75
320.587	360.75
320.816	336.75
321.046	355.75
321.275	339.75
321.504	330.75
321.733	331.75
321.962	330.75
322.191	354.75
322.42	336.75
322.649	340.75
322.878	330.75
323.108	358.75
323.337	362.75
323.566	373.75
323.795	367.75
324.024	382.75
324.253	435.75
324.482	548.75
324.71	767.75
324.939	1086.75
325.168	945.75
325.397	541.75
325.626	441.75
325.855	405.75
326.084	375.75
326.313	370.75
326.542	377.75
326.77	405.75
326.999	427.75
327.228	520.75
327.457	716.75
327.686	877.75
327.914	622.75
328.143	482.75
328.372	414.75
328.6	404.75
328.829	409.75
329.058	402.75
329.287	390.75
329.515	393.75
329.744	401.75
329.972	399.75
330.201	416.75
330.43	407.75
330.658	399.75
330.887	412.75
331.115	415.75
331.344	402.75
331.572	389.75
331.801	389.75
332.03	403.75
332.258	391.75
332.486	390.75
332.715	409.75
332.943	413.75
333.172	386.75
333.4	426.75
333.629	427.75
333.857	438.75
334.085	417.75
334.314	417.75
334.542	426.75
334.771	430.75
334.999	423.75
335.227	429.75
335.455	415.75
335.684	435.75
335.912	421.75
336.14	415.75
336.369	381.75
336.597	410.75
336.825	393.75
337.053	387.75
337.281	408.75
337.51	392.75
337.738	391.75
337.966	395.75
338.194	392.75
338.422	386.75
338.65	406.75
338.878	414.75
339.106	381.75
339.334	391.75
339.562	386.75
339.79	362.75
340.018	380.75
340.246	375.75
340.474	386.75
340.702	389.75
340.93	379.75
341.158	395.75
341.386	382.75
341.614	389.75
341.842	372.75
342.07	381.75
342.298	384.75
342.526	358.75
342.754	390.75
342.981	361.75
343.209	367.75
343.437	397.75
343.665	402.75
343.893	398.75
344.12	398.75
344.348	414.75
344.576	388.75
344.804	388.75
345.031	396.75
345.259	388.75
345.487	382.75
345.714	373.75
345.942	371.75
346.17	375.75
346.397	358.75
346.625	373.75
346.853	356.75
347.08	379.75
347.308	368.75
347.535	359.75
347.763	367.75
347.99	371.75
348.218	372.75
348.445	365.75
348.673	372.75
348.9	375.75
349.128	359.75
349.355	369.75
349.583	359.75
349.81	369.75
350.037	349.75
350.265	339.75
350.492	349.75
350.72	365.75
350.947	347.75
351.174	369.75
351.402	377.75
351.629	356.75
351.856	339.75
352.083	346.75
352.311	362.75
352.538	360.75
352.765	350.75
352.992	356.75
353.22	368.75
353.447	365.75
353.674	345.75
353.901	367.75
354.128	353.75
354.355	347.75
354.583	355.75
354.81	360.75
355.037	353.75
355.264	340.75
355.491	355.75
355.718	359.75
355.945	374.75
356.172	337.75
356.399	352.75
356.626	356.75
356.853	365.75
357.08	349.75
357.307	357.75
357.534	344.75
357.761	347.75
357.988	354.75
358.215	347.75
358.441	344.75
358.668	356.75
358.895	359.75
359.122	345.75
359.349	352.75
359.576	374.75
359.802	371.75
360.029	368.75
360.256	381.75
360.483	375.75
360.709	334.75
360.936	357.75
361.163	375.75
361.39	351.75
361.616	365.75
361.843	362.75
362.07	347.75
362.296	344.75
362.523	339.75
362.749	378.75
362.976	359.75
363.203	360.75
363.429	352.75
363.656	348.75
363.882	355.75
364.109	338.75
364.335	344.75
364.562	340.75
364.788	345.75
365.015	350.75
365.241	360.75
365.468	360.75
365.694	343.75
365.92	350.75
366.147	360.75
366.373	369.75
366.599	338.75
366.826	341.75
367.052	343.75
367.278	345.75
367.505	355.75
367.731	361.75
367.957	367.75
368.184	354.75
368.41	367.75
368.636	369.75
368.862	393.75
369.089	349.75
369.315	359.75
369.541	375.75
369.767	351.75
369.993	365.75
370.219	355.75
370.445	367.75
370.672	385.75
370.898	358.75
371.124	369.75
371.35	371.75
371.576	370.75
371.802	348.75
372.028	358.75
372.254	354.75
372.48	374.75
372.706	370.75
372.932	393.75
373.158	390.75
373.384	362.75
373.61	355.75
373.835	380.75
374.061	363.75
374.287	365.75
374.513	378.75
374.739	374.75
374.965	390.75
375.191	382.75
375.416	384.75
375.642	384.75
375.868	386.75
376.094	365.75
376.319	346.75
376.545	375.75
376.771	383.75
376.997	371.75
377.222	343.75
377.448	355.75
377.674	367.75
377.899	363.75
378.125	372.75
378.35	361.75
378.576	357.75
378.802	344.75
379.027	369.75
379.253	373.75
379.478	376.75
379.704	373.75
379.929	377.75
380.155	379.75
380.38	367.75
380.606	389.75
380.831	364.75
381.057	383.75
381.282	381.75
381.507	366.75
381.733	396.75
381.958	377.75
382.184	391.75
382.409	355.75
382.634	391.75
382.86	381.75
383.085	409.75
383.31	407.75
383.535	403.75
383.761	394.75
383.986	399.75
384.211	403.75
384.436	415.75
384.662	430.75
384.887	430.75
385.112	428.75
385.337	407.75
385.562	411.75
385.787	421.75
386.013	431.75
386.238	442.75
386.463	434.75
386.688	431.75
386.913	420.75
387.138	435.75
387.363	436.75
387.588	423.75
387.813	429.75
388.038	419.75
388.263	437.75
388.488	427.75
388.713	436.75
388.938	413.75
389.163	405.75
389.387	420.75
389.612	423.75
389.837	415.75
390.062	429.75
390.287	418.75
390.512	425.75
390.736	397.75
390.961	423.75
391.186	424.75
391.411	426.75
391.636	440.75
391.86	442.75
392.085	447.75
392.31	437.75
392.534	457.75
392.759	442.75
392.984	440.75
393.208	410.75
393.433	462.75
393.658	450.75
393.882	409.75
394.107	423.75
394.331	422.75
394.556	414.75
394.78	452.75
395.005	445.75
395.229	445.75
395.454	448.75
395.678	444.75
395.903	439.75
396.127	478.75
396.352	458.75
396.576	435.75
396.801	443.75
397.025	476.75
397.249	472.75
397.474	469.75
397.698	453.75
397.922	501.75
398.147	460.75
398.371	469.75
398.595	472.75
398.82	479.75
399.044	514.75
399.268	518.75
399.492	586.75
399.717	629.75
399.941	638.75
400.165	623.75
400.389	612.75
400.613	557.75
400.837	514.75
401.062	508.75
401.286	505.75
401.51	483.75
401.734	499.75
401.958	495.75
402.182	479.75
402.406	490.75
402.63	494.75
402.854	509.75
403.078	498.75
403.302	484.75
403.526	519.75
403.75	523.75
403.974	510.75
404.198	521.75
404.422	527.75
404.645	512.75
404.869	523.75
405.093	531.75
405.317	561.75
405.541	573.75
405.765	533.75
405.988	510.75
406.212	529.75
406.436	538.75
406.66	545.75
406.883	532.75
407.107	553.75
407.331	614.75
407.555	633.75
407.778	653.75
408.002	604.75
408.226	593.75
408.449	554.75
408.673	536.75
408.896	562.75
409.12	567.75
409.344	550.75
409.567	531.75
409.791	539.75
410.014	515.75
410.238	522.75
410.461	530.75
410.685	530.75
410.908	509.75
411.132	513.75
411.355	555.75
411.578	542.75
411.802	507.75
412.025	492.75
412.249	541.75
412.472	514.75
412.695	543.75
412.919	535.75
413.142	505.75
413.365	497.75
413.589	494.75
413.812	494.75
414.035	494.75
414.258	494.75
414.482	484.75
414.705	494.75
414.928	494.75
415.151	471.75
415.374	477.75
415.597	498.75
415.821	482.75
416.044	479.75
416.267	473.75
416.49	485.75
416.713	502.75
416.936	493.75
417.159	481.75
417.382	470.75
417.605	475.75
417.828	477.75
418.051	469.75
418.274	486.75
418.497	470.75
418.72	491.75
418.943	475.75
419.166	527.75
419.389	529.75
419.611	535.75
419.834	518.75
420.057	497.75
420.28	482.75
420.503	486.75
420.726	489.75
420.948	484.75
421.171	506.75
421.394	531.75
421.617	515.75
421.839	477.75
422.062	486.75
422.285	497.75
422.507	527.75
422.73	538.75
422.953	577.75
423.175	531.75
423.398	501.75
423.621	493.75
423.843	515.75
424.066	527.75
424.288	491.75
424.511	521.75
424.733	535.75
424.956	585.75
425.178	567.75
425.401	555.75
425.623	603.75
425.846	529.75
426.068	499.75
426.291	490.75
426.513	495.75
426.735	489.75
426.958	503.75
427.18	537.75
427.402	648.75
427.625	677.75
427.847	572.75
428.069	529.75
428.292	486.75
428.514	477.75
428.736	471.75
428.958	468.75
429.181	447.75
429.403	450.75
429.625	467.75
429.847	477.75
430.069	505.75
430.292	523.75
430.514	450.75
430.736	462.75
430.958	454.75
431.18	460.75
431.402	458.75
431.624	439.75
431.846	447.75
432.068	470.75
432.29	463.75
432.512	458.75
432.734	464.75
432.956	455.75
433.178	470.75
433.4	459.75
433.622	461.75
433.844	475.75
434.066	467.75
434.287	430.75
434.509	463.75
434.731	486.75
434.953	473.75
435.175	482.75
435.397	509.75
435.618	494.75
435.84	513.75
436.062	551.75
436.284	600.75
436.505	519.75
436.727	505.75
436.949	454.75
437.17	482.75
437.392	463.75
437.614	482.75
437.835	461.75
438.057	513.75
438.278	567.75
438.5	561.75
438.721	606.75
438.943	607.75
439.165	526.75
439.386	472.75
439.608	469.75
439.829	475.75
440.05	493.75
440.272	486.75
440.493	476.75
440.715	497.75
440.936	476.75
441.158	459.75
441.379	474.75
441.6	492.75
441.822	494.75
442.043	543.75
442.264	547.75
442.486	576.75
442.707	511.75
442.928	517.75
443.149	523.75
443.371	528.75
443.592	522.75
443.813	587.75
444.034	640.75
444.255	553.75
444.476	542.75
444.698	537.75
444.919	549.75
445.14	664.75
445.361	579.75
445.582	543.75
445.803	537.75
446.024	579.75
446.245	593.75
446.466	551.75
446.687	498.75
446.908	500.75
447.129	457.75
447.35	449.75
447.571	470.75
447.792	450.75
448.013	441.75
448.234	468.75
448.455	489.75
448.675	527.75
448.896	611.75
449.117	530.75
449.338	512.75
449.559	550.75
449.779	625.75
450	521.75
450.221	463.75
450.442	446.75
450.662	453.75
450.883	431.75
451.104	412.75
451.324	423.75
451.545	435.75
451.766	433.75
451.986	436.75
452.207	420.75
452.428	409.75
452.648	415.75
452.869	397.75
453.089	434.75
453.31	401.75
453.53	411.75
453.751	400.75
453.971	398.75
454.192	418.75
454.412	395.75
454.633	405.75
454.853	407.75
455.073	386.75
455.294	413.75
455.514	440.75
455.734	440.75
455.955	401.75
456.175	387.75
456.395	405.75
456.616	395.75
456.836	414.75
457.056	387.75
457.276	398.75
457.497	406.75
457.717	410.75
457.937	393.75
458.157	410.75
458.377	410.75
458.598	406.75
458.818	444.75
459.038	468.75
459.258	496.75
459.478	473.75
459.698	443.75
459.918	461.75
460.138	477.75
460.358	466.75
460.578	505.75
460.798	486.75
461.018	504.75
461.238	486.75
461.458	504.75
461.678	483.75
461.898	489.75
462.118	493.75
462.338	503.75
462.558	531.75
462.777	533.75
462.997	547.75
463.217	585.75
463.437	584.75
463.657	549.75
463.876	529.75
464.096	548.75
464.316	552.75
464.536	536.75
464.755	528.75
464.975	505.75
465.195	506.75
465.414	517.75
465.634	480.75
465.854	473.75
466.073	444.75
466.293	450.75
466.512	459.75
466.732	442.75
466.951	465.75
467.171	431.75
467.391	447.75
467.61	466.75
467.829	435.75
468.049	451.75
468.268	437.75
468.488	419.75
468.707	429.75
468.927	435.75
469.146	439.75
469.365	435.75
469.585	425.75
469.804	434.75
470.023	474.75
470.243	442.75
470.462	459.75
470.681	468.75
470.901	465.75
471.12	462.75
471.339	446.75
471.558	433.75
471.777	437.75
471.997	423.75
472.216	452.75
472.435	444.75
472.654	437.75
472.873	423.75
473.092	431.75
473.311	439.75
473.53	426.75
473.749	450.75
473.968	441.75
474.187	481.75
474.406	498.75
474.625	476.75
474.844	438.75
475.063	440.75
475.282	433.75
475.501	437.75
475.72	458.75
475.939	447.75
476.158	467.75
476.377	446.75
476.596	446.75
476.814	453.75
477.033	479.75
477.252	465.75
477.471	481.75
477.69	483.75
477.908	478.75
478.127	491.75
478.346	510.75
478.564	474.75
478.783	499.75
479.002	540.75
479.22	506.75
479.439	535.75
479.658	544.75
479.876	531.75
480.095	550.75
480.313	565.75
480.532	561.75
480.751	572.75
480.969	546.75
481.188	548.75
481.406	553.75
481.624	531.75
481.843	531.75
482.061	547.75
482.28	535.75
482.498	518.75
482.717	504.75
482.935	528.75
483.153	519.75
483.372	531.75
483.59	510.75
483.808	518.75
484.027	553.75
484.245	533.75
484.463	511.75
484.681	515.75
484.9	527.75
485.118	545.75
485.336	538.75
485.554	537.75
485.772	528.75
485.99	536.75
486.209	565.75
486.427	543.75
486.645	552.75
486.863	567.75
487.081	552.75
487.299	542.75
487.517	537.75
487.735	545.75
487.953	558.75
488.171	559.75
488.389	546.75
488.607	538.75
488.825	537.75
489.043	543.75
489.261	552.75
489.479	527.75
489.696	531.75
489.914	563.75
490.132	552.75
490.35	564.75
490.568	562.75
490.786	571.75
491.003	552.75
491.221	573.75
491.439	583.75
491.657	555.75
491.874	580.75
492.092	570.75
492.31	569.75
492.527	573.75
492.745	582.75
492.963	593.75
493.18	559.75
493.398	584.75
493.615	602.75
493.833	585.75
494.05	551.75
494.268	611.75
494.485	597.75
494.703	617.75
494.92	583.75
495.138	599.75
495.355	611.75
495.573	579.75
495.79	614.75
496.008	639.75
496.225	600.75
496.442	610.75
496.66	610.75
496.877	607.75
497.094	628.75
497.312	627.75
497.529	633.75
497.746	673.75
497.963	662.75
498.181	704.75
498.398	710.75
498.615	746.75
498.832	741.75
499.049	773.75
499.267	834.75
499.484	865.75
499.701	916.75
499.918	950.75
500.135	1025.75
500.352	1097.75
500.569	1114.75
500.786	1104.75
501.003	1056.75
501.22	1052.75
501.437	977.75
501.654	907.75
501.871	898.75
502.088	824.75
