Data from 1962.PennyLincolnUp.Lamp.En5.5.200Scan.071719.P1._HRD10591_13-55-37-062.txt Node
Date: Thu Jul 18 13:55:37 EDT 2019
User: cochatt
Spectrometer: HR+D1059
Trigger mode: 1
Integration Time (sec): 1.000000E-1
Scans to average: 1
Electric dark correction enabled: true
Nonlinearity correction enabled: false
Boxcar width: 0
XAxis mode: Wavelengths
Number of Pixels in Spectrum: 2048
>>>>>Begin Spectral Data<<<<<
223.165	-13.75
223.4	-13.75
223.635	-13.75
223.869	-5.75
224.104	-17.75
224.338	-18.75
224.573	-16.75
224.808	-12.75
225.042	-2.75
225.277	-10.75
225.511	-3.75
225.746	2.25
225.98	5.25
226.215	4.25
226.449	21.25
226.683	13.25
226.918	33.25
227.152	23.25
227.387	44.25
227.621	44.25
227.856	47.25
228.09	50.25
228.324	49.25
228.559	60.25
228.793	70.25
229.027	84.25
229.262	96.25
229.496	97.25
229.73	99.25
229.964	131.25
230.199	123.25
230.433	98.25
230.667	100.25
230.901	104.25
231.136	115.25
231.37	104.25
231.604	98.25
231.838	113.25
232.072	107.25
232.306	104.25
232.541	101.25
232.775	115.25
233.009	120.25
233.243	109.25
233.477	114.25
233.711	115.25
233.945	122.25
234.179	119.25
234.413	104.25
234.647	104.25
234.881	118.25
235.115	129.25
235.349	115.25
235.583	100.25
235.817	123.25
236.051	115.25
236.285	134.25
236.519	123.25
236.753	116.25
236.987	113.25
237.221	163.25
237.455	197.25
237.689	177.25
237.922	131.25
238.156	150.25
238.39	133.25
238.624	110.25
238.858	123.25
239.091	122.25
239.325	116.25
239.559	125.25
239.793	123.25
240.027	131.25
240.26	127.25
240.494	154.25
240.728	131.25
240.961	147.25
241.195	142.25
241.429	135.25
241.662	117.25
241.896	135.25
242.13	118.25
242.363	115.25
242.597	141.25
242.83	139.25
243.064	123.25
243.298	137.25
243.531	138.25
243.765	135.25
243.998	125.25
244.232	125.25
244.465	141.25
244.699	138.25
244.932	134.25
245.166	132.25
245.399	125.25
245.633	135.25
245.866	141.25
246.099	134.25
246.333	134.25
246.566	137.25
246.8	141.25
247.033	154.25
247.266	159.25
247.5	157.25
247.733	146.25
247.966	158.25
248.2	164.25
248.433	166.25
248.666	172.25
248.899	175.25
249.133	166.25
249.366	194.25
249.599	185.25
249.832	163.25
250.066	168.25
250.299	171.25
250.532	169.25
250.765	200.25
250.998	199.25
251.231	180.25
251.465	202.25
251.698	195.25
251.931	185.25
252.164	165.25
252.397	180.25
252.63	209.25
252.863	183.25
253.096	190.25
253.329	195.25
253.562	215.25
253.795	206.25
254.028	185.25
254.261	178.25
254.494	201.25
254.727	211.25
254.96	247.25
255.193	241.25
255.426	201.25
255.659	207.25
255.892	196.25
256.124	204.25
256.357	211.25
256.59	187.25
256.823	203.25
257.056	193.25
257.289	190.25
257.521	202.25
257.754	196.25
257.987	212.25
258.22	213.25
258.452	209.25
258.685	202.25
258.918	207.25
259.151	196.25
259.383	220.25
259.616	203.25
259.849	205.25
260.081	211.25
260.314	233.25
260.547	235.25
260.779	233.25
261.012	211.25
261.244	212.25
261.477	227.25
261.71	201.25
261.942	200.25
262.175	204.25
262.407	194.25
262.64	202.25
262.872	205.25
263.105	202.25
263.337	212.25
263.57	217.25
263.802	214.25
264.035	210.25
264.267	196.25
264.499	203.25
264.732	199.25
264.964	213.25
265.197	204.25
265.429	193.25
265.661	198.25
265.894	205.25
266.126	207.25
266.358	195.25
266.591	226.25
266.823	222.25
267.055	222.25
267.287	227.25
267.52	229.25
267.752	213.25
267.984	233.25
268.216	224.25
268.448	222.25
268.681	225.25
268.913	235.25
269.145	242.25
269.377	259.25
269.609	248.25
269.841	254.25
270.073	256.25
270.306	267.25
270.538	281.25
270.77	279.25
271.002	265.25
271.234	274.25
271.466	265.25
271.698	278.25
271.93	294.25
272.162	296.25
272.394	281.25
272.626	287.25
272.858	282.25
273.09	251.25
273.322	260.25
273.553	265.25
273.785	259.25
274.017	247.25
274.249	253.25
274.481	270.25
274.713	241.25
274.945	238.25
275.176	253.25
275.408	279.25
275.64	246.25
275.872	247.25
276.104	262.25
276.335	251.25
276.567	247.25
276.799	274.25
277.031	294.25
277.262	292.25
277.494	292.25
277.726	289.25
277.957	286.25
278.189	282.25
278.421	245.25
278.652	273.25
278.884	260.25
279.115	261.25
279.347	273.25
279.579	300.25
279.81	261.25
280.042	260.25
280.273	280.25
280.505	267.25
280.736	293.25
280.968	275.25
281.199	273.25
281.431	271.25
281.662	267.25
281.894	259.25
282.125	280.25
282.356	272.25
282.588	296.25
282.819	322.25
283.051	300.25
283.282	298.25
283.513	277.25
283.745	294.25
283.976	292.25
284.207	279.25
284.439	281.25
284.67	283.25
284.901	279.25
285.132	278.25
285.364	291.25
285.595	277.25
285.826	289.25
286.057	297.25
286.288	291.25
286.52	272.25
286.751	269.25
286.982	281.25
287.213	284.25
287.444	280.25
287.675	278.25
287.906	295.25
288.138	315.25
288.369	283.25
288.6	303.25
288.831	319.25
289.062	298.25
289.293	277.25
289.524	310.25
289.755	286.25
289.986	301.25
290.217	306.25
290.448	302.25
290.679	312.25
290.91	298.25
291.141	275.25
291.371	292.25
291.602	300.25
291.833	277.25
292.064	291.25
292.295	289.25
292.526	290.25
292.757	282.25
292.987	302.25
293.218	284.25
293.449	303.25
293.68	299.25
293.91	299.25
294.141	302.25
294.372	299.25
294.603	293.25
294.833	311.25
295.064	289.25
295.295	305.25
295.525	302.25
295.756	297.25
295.987	307.25
296.217	301.25
296.448	300.25
296.679	323.25
296.909	299.25
297.14	298.25
297.37	292.25
297.601	312.25
297.831	311.25
298.062	307.25
298.292	299.25
298.523	306.25
298.753	319.25
298.984	302.25
299.214	303.25
299.445	299.25
299.675	319.25
299.905	315.25
300.136	319.25
300.366	318.25
300.597	345.25
300.827	338.25
301.057	327.25
301.288	325.25
301.518	322.25
301.748	335.25
301.979	335.25
302.209	340.25
302.439	339.25
302.669	324.25
302.9	335.25
303.13	321.25
303.36	317.25
303.59	324.25
303.82	352.25
304.051	346.25
304.281	358.25
304.511	350.25
304.741	330.25
304.971	321.25
305.201	329.25
305.431	354.25
305.661	330.25
305.891	322.25
306.121	324.25
306.352	328.25
306.582	327.25
306.812	358.25
307.042	335.25
307.272	342.25
307.502	313.25
307.731	339.25
307.961	340.25
308.191	337.25
308.421	345.25
308.651	321.25
308.881	325.25
309.111	351.25
309.341	350.25
309.571	365.25
309.8	358.25
310.03	355.25
310.26	337.25
310.49	349.25
310.72	383.25
310.949	374.25
311.179	389.25
311.409	377.25
311.639	383.25
311.868	383.25
312.098	382.25
312.328	366.25
312.557	371.25
312.787	375.25
313.017	383.25
313.246	385.25
313.476	358.25
313.706	382.25
313.935	367.25
314.165	366.25
314.394	378.25
314.624	366.25
314.853	393.25
315.083	383.25
315.312	382.25
315.542	364.25
315.771	380.25
316.001	377.25
316.23	372.25
316.46	376.25
316.689	386.25
316.919	358.25
317.148	360.25
317.377	386.25
317.607	402.25
317.836	378.25
318.065	364.25
318.295	361.25
318.524	377.25
318.753	373.25
318.983	394.25
319.212	356.25
319.441	386.25
319.67	378.25
319.9	367.25
320.129	354.25
320.358	379.25
320.587	381.25
320.816	387.25
321.046	382.25
321.275	410.25
321.504	406.25
321.733	403.25
321.962	391.25
322.191	404.25
322.42	399.25
322.649	407.25
322.878	418.25
323.108	419.25
323.337	425.25
323.566	424.25
323.795	449.25
324.024	472.25
324.253	565.25
324.482	730.25
324.71	1069.25
324.939	1507.25
325.168	1311.25
325.397	725.25
325.626	557.25
325.855	477.25
326.084	462.25
326.313	453.25
326.542	442.25
326.77	491.25
326.999	542.25
327.228	697.25
327.457	983.25
327.686	1149.25
327.914	799.25
328.143	579.25
328.372	521.25
328.6	500.25
328.829	481.25
329.058	486.25
329.287	511.25
329.515	479.25
329.744	468.25
329.972	468.25
330.201	471.25
330.43	491.25
330.658	499.25
330.887	503.25
331.115	500.25
331.344	486.25
331.572	451.25
331.801	474.25
332.03	462.25
332.258	465.25
332.486	449.25
332.715	475.25
332.943	461.25
333.172	476.25
333.4	467.25
333.629	510.25
333.857	494.25
334.085	513.25
334.314	498.25
334.542	517.25
334.771	517.25
334.999	494.25
335.227	462.25
335.455	470.25
335.684	475.25
335.912	481.25
336.14	447.25
336.369	443.25
336.597	459.25
336.825	473.25
337.053	464.25
337.281	450.25
337.51	453.25
337.738	440.25
337.966	438.25
338.194	451.25
338.422	448.25
338.65	425.25
338.878	449.25
339.106	414.25
339.334	442.25
339.562	439.25
339.79	425.25
340.018	426.25
340.246	422.25
340.474	409.25
340.702	429.25
340.93	430.25
341.158	430.25
341.386	441.25
341.614	445.25
341.842	425.25
342.07	435.25
342.298	438.25
342.526	406.25
342.754	421.25
342.981	416.25
343.209	430.25
343.437	434.25
343.665	430.25
343.893	449.25
344.12	468.25
344.348	466.25
344.576	463.25
344.804	444.25
345.031	435.25
345.259	457.25
345.487	400.25
345.714	430.25
345.942	443.25
346.17	413.25
346.397	392.25
346.625	415.25
346.853	405.25
347.08	425.25
347.308	433.25
347.535	410.25
347.763	412.25
347.99	407.25
348.218	412.25
348.445	429.25
348.673	410.25
348.9	405.25
349.128	404.25
349.355	395.25
349.583	410.25
349.81	413.25
350.037	428.25
350.265	393.25
350.492	397.25
350.72	403.25
350.947	405.25
351.174	409.25
351.402	409.25
351.629	421.25
351.856	405.25
352.083	420.25
352.311	420.25
352.538	415.25
352.765	410.25
352.992	403.25
353.22	400.25
353.447	393.25
353.674	399.25
353.901	380.25
354.128	395.25
354.355	398.25
354.583	406.25
354.81	375.25
355.037	390.25
355.264	387.25
355.491	394.25
355.718	381.25
355.945	369.25
356.172	362.25
356.399	385.25
356.626	384.25
356.853	397.25
357.08	387.25
357.307	400.25
357.534	381.25
357.761	378.25
357.988	382.25
358.215	405.25
358.441	392.25
358.668	389.25
358.895	412.25
359.122	409.25
359.349	415.25
359.576	399.25
359.802	406.25
360.029	459.25
360.256	426.25
360.483	428.25
360.709	412.25
360.936	405.25
361.163	415.25
361.39	409.25
361.616	402.25
361.843	417.25
362.07	413.25
362.296	407.25
362.523	406.25
362.749	393.25
362.976	403.25
363.203	396.25
363.429	393.25
363.656	409.25
363.882	391.25
364.109	413.25
364.335	394.25
364.562	379.25
364.788	385.25
365.015	393.25
365.241	396.25
365.468	378.25
365.694	407.25
365.92	405.25
366.147	389.25
366.373	387.25
366.599	391.25
366.826	383.25
367.052	382.25
367.278	384.25
367.505	377.25
367.731	389.25
367.957	388.25
368.184	394.25
368.41	386.25
368.636	395.25
368.862	389.25
369.089	387.25
369.315	392.25
369.541	395.25
369.767	402.25
369.993	383.25
370.219	394.25
370.445	395.25
370.672	403.25
370.898	407.25
371.124	400.25
371.35	409.25
371.576	399.25
371.802	409.25
372.028	404.25
372.254	409.25
372.48	407.25
372.706	420.25
372.932	412.25
373.158	408.25
373.384	419.25
373.61	418.25
373.835	406.25
374.061	397.25
374.287	419.25
374.513	409.25
374.739	431.25
374.965	421.25
375.191	429.25
375.416	442.25
375.642	409.25
375.868	405.25
376.094	405.25
376.319	399.25
376.545	407.25
376.771	405.25
376.997	403.25
377.222	413.25
377.448	389.25
377.674	381.25
377.899	405.25
378.125	385.25
378.35	404.25
378.576	425.25
378.802	408.25
379.027	410.25
379.253	413.25
379.478	397.25
379.704	405.25
379.929	410.25
380.155	414.25
380.38	399.25
380.606	395.25
380.831	407.25
381.057	415.25
381.282	403.25
381.507	397.25
381.733	396.25
381.958	392.25
382.184	413.25
382.409	388.25
382.634	416.25
382.86	411.25
383.085	424.25
383.31	426.25
383.535	433.25
383.761	427.25
383.986	443.25
384.211	434.25
384.436	464.25
384.662	445.25
384.887	448.25
385.112	424.25
385.337	460.25
385.562	479.25
385.787	457.25
386.013	465.25
386.238	465.25
386.463	475.25
386.688	452.25
386.913	437.25
387.138	430.25
387.363	484.25
387.588	456.25
387.813	459.25
388.038	442.25
388.263	459.25
388.488	475.25
388.713	425.25
388.938	443.25
389.163	437.25
389.387	438.25
389.612	456.25
389.837	472.25
390.062	486.25
390.287	445.25
390.512	461.25
390.736	439.25
390.961	467.25
391.186	479.25
391.411	462.25
391.636	480.25
391.86	486.25
392.085	494.25
392.31	503.25
392.534	500.25
392.759	466.25
392.984	475.25
393.208	454.25
393.433	459.25
393.658	478.25
393.882	467.25
394.107	482.25
394.331	480.25
394.556	461.25
394.78	472.25
395.005	483.25
395.229	480.25
395.454	506.25
395.678	487.25
395.903	490.25
396.127	499.25
396.352	519.25
396.576	500.25
396.801	466.25
397.025	470.25
397.249	476.25
397.474	498.25
397.698	504.25
397.922	504.25
398.147	510.25
398.371	522.25
398.595	509.25
398.82	525.25
399.044	545.25
399.268	577.25
399.492	626.25
399.717	676.25
399.941	701.25
400.165	690.25
400.389	673.25
400.613	591.25
400.837	563.25
401.062	562.25
401.286	545.25
401.51	558.25
401.734	530.25
401.958	559.25
402.182	532.25
402.406	554.25
402.63	535.25
402.854	547.25
403.078	562.25
403.302	559.25
403.526	588.25
403.75	551.25
403.974	605.25
404.198	584.25
404.422	575.25
404.645	598.25
404.869	598.25
405.093	599.25
405.317	612.25
405.541	644.25
405.765	616.25
405.988	597.25
406.212	578.25
406.436	591.25
406.66	612.25
406.883	625.25
407.107	637.25
407.331	677.25
407.555	734.25
407.778	733.25
408.002	664.25
408.226	649.25
408.449	631.25
408.673	635.25
408.896	649.25
409.12	674.25
409.344	661.25
409.567	573.25
409.791	614.25
410.014	583.25
410.238	552.25
410.461	571.25
410.685	558.25
410.908	579.25
411.132	589.25
411.355	629.25
411.578	613.25
411.802	565.25
412.025	564.25
412.249	570.25
412.472	583.25
412.695	603.25
412.919	593.25
413.142	543.25
413.365	541.25
413.589	544.25
413.812	551.25
414.035	538.25
414.258	532.25
414.482	553.25
414.705	538.25
414.928	549.25
415.151	539.25
415.374	521.25
415.597	526.25
415.821	520.25
416.044	528.25
416.267	523.25
416.49	517.25
416.713	520.25
416.936	528.25
417.159	529.25
417.382	539.25
417.605	547.25
417.828	533.25
418.051	557.25
418.274	553.25
418.497	552.25
418.72	542.25
418.943	542.25
419.166	562.25
419.389	593.25
419.611	563.25
419.834	565.25
420.057	573.25
420.28	536.25
420.503	533.25
420.726	531.25
420.948	563.25
421.171	603.25
421.394	623.25
421.617	565.25
421.839	543.25
422.062	524.25
422.285	566.25
422.507	595.25
422.73	671.25
422.953	625.25
423.175	586.25
423.398	572.25
423.621	567.25
423.843	575.25
424.066	574.25
424.288	562.25
424.511	584.25
424.733	630.25
424.956	681.25
425.178	649.25
425.401	648.25
425.623	673.25
425.846	618.25
426.068	585.25
426.291	531.25
426.513	529.25
426.735	586.25
426.958	591.25
427.18	661.25
427.402	755.25
427.625	821.25
427.847	702.25
428.069	647.25
428.292	603.25
428.514	555.25
428.736	520.25
428.958	543.25
429.181	532.25
429.403	525.25
429.625	526.25
429.847	553.25
430.069	599.25
430.292	592.25
430.514	541.25
430.736	535.25
430.958	490.25
431.18	521.25
431.402	505.25
431.624	498.25
431.846	502.25
432.068	485.25
432.29	501.25
432.512	506.25
432.734	496.25
432.956	509.25
433.178	510.25
433.4	492.25
433.622	494.25
433.844	500.25
434.066	515.25
434.287	513.25
434.509	541.25
434.731	517.25
434.953	551.25
435.175	547.25
435.397	554.25
435.618	543.25
435.84	590.25
436.062	634.25
436.284	706.25
436.505	609.25
436.727	572.25
436.949	538.25
437.17	531.25
437.392	519.25
437.614	519.25
437.835	547.25
438.057	625.25
438.278	704.25
438.5	682.25
438.721	777.25
438.943	701.25
439.165	577.25
439.386	537.25
439.608	555.25
439.829	545.25
440.05	568.25
440.272	585.25
440.493	580.25
440.715	514.25
440.936	532.25
441.158	511.25
441.379	522.25
441.6	556.25
441.822	548.25
442.043	598.25
442.264	666.25
442.486	682.25
442.707	640.25
442.928	574.25
443.149	568.25
443.371	604.25
443.592	597.25
443.813	692.25
444.034	729.25
444.255	641.25
444.476	599.25
444.698	586.25
444.919	612.25
445.14	721.25
445.361	646.25
445.582	603.25
445.803	627.25
446.024	696.25
446.245	689.25
446.466	663.25
446.687	583.25
446.908	554.25
447.129	526.25
447.35	502.25
447.571	525.25
447.792	484.25
448.013	511.25
448.234	495.25
448.455	563.25
448.675	641.25
448.896	726.25
449.117	631.25
449.338	585.25
449.559	671.25
449.779	777.25
450	620.25
450.221	539.25
450.442	489.25
450.662	499.25
450.883	494.25
451.104	497.25
451.324	492.25
451.545	493.25
451.766	474.25
451.986	487.25
452.207	451.25
452.428	440.25
452.648	463.25
452.869	458.25
453.089	467.25
453.31	474.25
453.53	457.25
453.751	469.25
453.971	466.25
454.192	473.25
454.412	453.25
454.633	449.25
454.853	439.25
455.073	455.25
455.294	464.25
455.514	502.25
455.734	523.25
455.955	453.25
456.175	437.25
456.395	425.25
456.616	433.25
456.836	430.25
457.056	417.25
457.276	425.25
457.497	440.25
457.717	438.25
457.937	441.25
458.157	468.25
458.377	468.25
458.598	467.25
458.818	505.25
459.038	554.25
459.258	581.25
459.478	520.25
459.698	490.25
459.918	521.25
460.138	509.25
460.358	548.25
460.578	537.25
460.798	535.25
461.018	539.25
461.238	548.25
461.458	553.25
461.678	519.25
461.898	527.25
462.118	554.25
462.338	561.25
462.558	569.25
462.777	557.25
462.997	615.25
463.217	604.25
463.437	615.25
463.657	603.25
463.876	577.25
464.096	573.25
464.316	584.25
464.536	584.25
464.755	577.25
464.975	565.25
465.195	587.25
465.414	598.25
465.634	538.25
465.854	518.25
466.073	501.25
466.293	507.25
466.512	505.25
466.732	474.25
466.951	490.25
467.171	477.25
467.391	490.25
467.61	478.25
467.829	493.25
468.049	497.25
468.268	469.25
468.488	449.25
468.707	452.25
468.927	476.25
469.146	470.25
469.365	474.25
469.585	459.25
469.804	485.25
470.023	500.25
470.243	472.25
470.462	505.25
470.681	513.25
470.901	515.25
471.12	492.25
471.339	504.25
471.558	467.25
471.777	452.25
471.997	475.25
472.216	485.25
472.435	501.25
472.654	494.25
472.873	484.25
473.092	463.25
473.311	500.25
473.53	471.25
473.749	489.25
473.968	508.25
474.187	562.25
474.406	595.25
474.625	535.25
474.844	492.25
475.063	480.25
475.282	476.25
475.501	465.25
475.72	489.25
475.939	495.25
476.158	487.25
476.377	486.25
476.596	505.25
476.814	513.25
477.033	518.25
477.252	513.25
477.471	527.25
477.69	497.25
477.908	539.25
478.127	535.25
478.346	555.25
478.564	537.25
478.783	548.25
479.002	587.25
479.22	579.25
479.439	566.25
479.658	578.25
479.876	572.25
480.095	585.25
480.313	609.25
480.532	614.25
480.751	616.25
480.969	609.25
481.188	621.25
481.406	621.25
481.624	603.25
481.843	575.25
482.061	554.25
482.28	565.25
482.498	565.25
482.717	566.25
482.935	536.25
483.153	557.25
483.372	563.25
483.59	554.25
483.808	555.25
484.027	535.25
484.245	557.25
484.463	554.25
484.681	535.25
484.9	596.25
485.118	569.25
485.336	549.25
485.554	573.25
485.772	587.25
485.99	573.25
486.209	588.25
486.427	592.25
486.645	602.25
486.863	599.25
487.081	585.25
487.299	595.25
487.517	590.25
487.735	595.25
487.953	576.25
488.171	589.25
488.389	597.25
488.607	595.25
488.825	598.25
489.043	577.25
489.261	591.25
489.479	605.25
489.696	605.25
489.914	590.25
490.132	598.25
490.35	634.25
490.568	601.25
490.786	600.25
491.003	594.25
491.221	643.25
491.439	662.25
491.657	633.25
491.874	661.25
492.092	622.25
492.31	679.25
492.527	693.25
492.745	666.25
492.963	647.25
493.18	657.25
493.398	698.25
493.615	673.25
493.833	665.25
494.05	662.25
494.268	679.25
494.485	671.25
494.703	682.25
494.92	684.25
495.138	665.25
495.355	663.25
495.573	694.25
495.79	688.25
496.008	680.25
496.225	700.25
496.442	705.25
496.66	685.25
496.877	677.25
497.094	679.25
497.312	720.25
497.529	734.25
497.746	740.25
497.963	742.25
498.181	761.25
498.398	788.25
498.615	804.25
498.832	835.25
499.049	856.25
499.267	890.25
499.484	925.25
499.701	978.25
499.918	1033.25
500.135	1141.25
500.352	1173.25
500.569	1229.25
500.786	1206.25
501.003	1177.25
501.22	1115.25
501.437	1075.25
501.654	997.25
501.871	980.25
