Data from 1962.PennyLincolnUp.Lamp.En5.5.200Scan.071719.P1._HRD10591_13-54-58-061.txt Node
Date: Thu Jul 18 13:54:58 EDT 2019
User: cochatt
Spectrometer: HR+D1059
Trigger mode: 1
Integration Time (sec): 1.000000E-1
Scans to average: 1
Electric dark correction enabled: true
Nonlinearity correction enabled: false
Boxcar width: 0
XAxis mode: Wavelengths
Number of Pixels in Spectrum: 2048
>>>>>Begin Spectral Data<<<<<
223.165	-16.81
223.4	-16.81
223.635	-16.81
223.869	-13.81
224.104	-5.81
224.338	-11.81
224.573	-16.81
224.808	-10.81
225.042	1.19
225.277	-4.81
225.511	-11.81
225.746	6.19
225.98	3.19
226.215	2.19
226.449	22.19
226.683	20.19
226.918	7.19
227.152	30.19
227.387	39.19
227.621	25.19
227.856	41.19
228.09	43.19
228.324	56.19
228.559	63.19
228.793	63.19
229.027	91.19
229.262	89.19
229.496	105.19
229.73	114.19
229.964	127.19
230.199	115.19
230.433	113.19
230.667	117.19
230.901	117.19
231.136	116.19
231.37	115.19
231.604	120.19
231.838	115.19
232.072	119.19
232.306	116.19
232.541	119.19
232.775	111.19
233.009	109.19
233.243	119.19
233.477	111.19
233.711	97.19
233.945	99.19
234.179	107.19
234.413	113.19
234.647	111.19
234.881	123.19
235.115	120.19
235.349	116.19
235.583	111.19
235.817	129.19
236.051	120.19
236.285	127.19
236.519	116.19
236.753	120.19
236.987	127.19
237.221	145.19
237.455	186.19
237.689	161.19
237.922	137.19
238.156	134.19
238.39	117.19
238.624	117.19
238.858	128.19
239.091	113.19
239.325	112.19
239.559	118.19
239.793	114.19
240.027	125.19
240.26	137.19
240.494	150.19
240.728	144.19
240.961	148.19
241.195	137.19
241.429	139.19
241.662	136.19
241.896	133.19
242.13	127.19
242.363	133.19
242.597	138.19
242.83	132.19
243.064	136.19
243.298	129.19
243.531	140.19
243.765	121.19
243.998	145.19
244.232	139.19
244.465	142.19
244.699	141.19
244.932	135.19
245.166	148.19
245.399	141.19
245.633	143.19
245.866	151.19
246.099	142.19
246.333	147.19
246.566	138.19
246.8	136.19
247.033	148.19
247.266	156.19
247.5	152.19
247.733	163.19
247.966	161.19
248.2	166.19
248.433	154.19
248.666	149.19
248.899	163.19
249.133	168.19
249.366	177.19
249.599	197.19
249.832	172.19
250.066	177.19
250.299	163.19
250.532	168.19
250.765	169.19
250.998	195.19
251.231	211.19
251.465	191.19
251.698	171.19
251.931	195.19
252.164	183.19
252.397	186.19
252.63	215.19
252.863	193.19
253.096	189.19
253.329	193.19
253.562	200.19
253.795	195.19
254.028	193.19
254.261	209.19
254.494	198.19
254.727	233.19
254.96	238.19
255.193	232.19
255.426	209.19
255.659	203.19
255.892	225.19
256.124	209.19
256.357	211.19
256.59	200.19
256.823	210.19
257.056	197.19
257.289	204.19
257.521	198.19
257.754	194.19
257.987	200.19
258.22	184.19
258.452	212.19
258.685	202.19
258.918	197.19
259.151	196.19
259.383	220.19
259.616	195.19
259.849	206.19
260.081	223.19
260.314	224.19
260.547	217.19
260.779	216.19
261.012	223.19
261.244	218.19
261.477	194.19
261.71	194.19
261.942	216.19
262.175	223.19
262.407	200.19
262.64	200.19
262.872	224.19
263.105	212.19
263.337	215.19
263.57	195.19
263.802	207.19
264.035	202.19
264.267	205.19
264.499	195.19
264.732	190.19
264.964	219.19
265.197	191.19
265.429	199.19
265.661	204.19
265.894	211.19
266.126	207.19
266.358	217.19
266.591	225.19
266.823	223.19
267.055	222.19
267.287	234.19
267.52	224.19
267.752	214.19
267.984	240.19
268.216	228.19
268.448	226.19
268.681	233.19
268.913	246.19
269.145	248.19
269.377	260.19
269.609	257.19
269.841	250.19
270.073	248.19
270.306	265.19
270.538	287.19
270.77	294.19
271.002	277.19
271.234	275.19
271.466	280.19
271.698	269.19
271.93	284.19
272.162	290.19
272.394	276.19
272.626	287.19
272.858	263.19
273.09	260.19
273.322	257.19
273.553	256.19
273.785	252.19
274.017	248.19
274.249	237.19
274.481	258.19
274.713	247.19
274.945	246.19
275.176	242.19
275.408	244.19
275.64	257.19
275.872	254.19
276.104	279.19
276.335	275.19
276.567	257.19
276.799	253.19
277.031	279.19
277.262	284.19
277.494	306.19
277.726	298.19
277.957	294.19
278.189	281.19
278.421	277.19
278.652	269.19
278.884	259.19
279.115	272.19
279.347	277.19
279.579	269.19
279.81	273.19
280.042	278.19
280.273	276.19
280.505	279.19
280.736	256.19
280.968	267.19
281.199	280.19
281.431	275.19
281.662	268.19
281.894	260.19
282.125	281.19
282.356	275.19
282.588	289.19
282.819	312.19
283.051	279.19
283.282	287.19
283.513	296.19
283.745	287.19
283.976	280.19
284.207	283.19
284.439	281.19
284.67	288.19
284.901	286.19
285.132	292.19
285.364	288.19
285.595	293.19
285.826	291.19
286.057	302.19
286.288	280.19
286.52	293.19
286.751	280.19
286.982	310.19
287.213	287.19
287.444	292.19
287.675	294.19
287.906	305.19
288.138	299.19
288.369	316.19
288.6	304.19
288.831	292.19
289.062	318.19
289.293	296.19
289.524	291.19
289.755	283.19
289.986	301.19
290.217	278.19
290.448	295.19
290.679	291.19
290.91	295.19
291.141	304.19
291.371	291.19
291.602	299.19
291.833	308.19
292.064	303.19
292.295	294.19
292.526	307.19
292.757	303.19
292.987	300.19
293.218	303.19
293.449	308.19
293.68	313.19
293.91	279.19
294.141	299.19
294.372	292.19
294.603	298.19
294.833	297.19
295.064	296.19
295.295	315.19
295.525	311.19
295.756	314.19
295.987	308.19
296.217	315.19
296.448	317.19
296.679	299.19
296.909	313.19
297.14	329.19
297.37	316.19
297.601	309.19
297.831	302.19
298.062	306.19
298.292	309.19
298.523	309.19
298.753	329.19
298.984	336.19
299.214	324.19
299.445	344.19
299.675	311.19
299.905	334.19
300.136	332.19
300.366	324.19
300.597	331.19
300.827	318.19
301.057	345.19
301.288	335.19
301.518	346.19
301.748	338.19
301.979	340.19
302.209	335.19
302.439	333.19
302.669	334.19
302.9	345.19
303.13	345.19
303.36	343.19
303.59	345.19
303.82	332.19
304.051	342.19
304.281	345.19
304.511	313.19
304.741	353.19
304.971	352.19
305.201	345.19
305.431	340.19
305.661	336.19
305.891	333.19
306.121	329.19
306.352	367.19
306.582	340.19
306.812	349.19
307.042	321.19
307.272	327.19
307.502	332.19
307.731	347.19
307.961	345.19
308.191	336.19
308.421	338.19
308.651	338.19
308.881	347.19
309.111	325.19
309.341	344.19
309.571	352.19
309.8	372.19
310.03	359.19
310.26	365.19
310.49	363.19
310.72	367.19
310.949	373.19
311.179	371.19
311.409	385.19
311.639	378.19
311.868	375.19
312.098	369.19
312.328	368.19
312.557	397.19
312.787	395.19
313.017	363.19
313.246	376.19
313.476	385.19
313.706	371.19
313.935	380.19
314.165	389.19
314.394	383.19
314.624	384.19
314.853	376.19
315.083	385.19
315.312	376.19
315.542	359.19
315.771	367.19
316.001	396.19
316.23	385.19
316.46	371.19
316.689	381.19
316.919	384.19
317.148	375.19
317.377	392.19
317.607	384.19
317.836	360.19
318.065	377.19
318.295	387.19
318.524	374.19
318.753	376.19
318.983	390.19
319.212	381.19
319.441	377.19
319.67	407.19
319.9	381.19
320.129	369.19
320.358	384.19
320.587	381.19
320.816	378.19
321.046	380.19
321.275	380.19
321.504	386.19
321.733	404.19
321.962	373.19
322.191	403.19
322.42	416.19
322.649	409.19
322.878	411.19
323.108	429.19
323.337	434.19
323.566	425.19
323.795	457.19
324.024	501.19
324.253	561.19
324.482	729.19
324.71	1100.19
324.939	1540.19
325.168	1341.19
325.397	732.19
325.626	566.19
325.855	472.19
326.084	471.19
326.313	463.19
326.542	482.19
326.77	491.19
326.999	540.19
327.228	699.19
327.457	971.19
327.686	1193.19
327.914	813.19
328.143	581.19
328.372	548.19
328.6	513.19
328.829	496.19
329.058	475.19
329.287	511.19
329.515	473.19
329.744	442.19
329.972	455.19
330.201	473.19
330.43	511.19
330.658	499.19
330.887	545.19
331.115	541.19
331.344	473.19
331.572	468.19
331.801	461.19
332.03	476.19
332.258	469.19
332.486	447.19
332.715	461.19
332.943	460.19
333.172	480.19
333.4	472.19
333.629	493.19
333.857	497.19
334.085	496.19
334.314	490.19
334.542	496.19
334.771	527.19
334.999	499.19
335.227	496.19
335.455	466.19
335.684	478.19
335.912	451.19
336.14	472.19
336.369	445.19
336.597	466.19
336.825	460.19
337.053	459.19
337.281	471.19
337.51	442.19
337.738	473.19
337.966	469.19
338.194	431.19
338.422	443.19
338.65	450.19
338.878	463.19
339.106	444.19
339.334	439.19
339.562	453.19
339.79	450.19
340.018	425.19
340.246	418.19
340.474	436.19
340.702	433.19
340.93	431.19
341.158	434.19
341.386	430.19
341.614	439.19
341.842	423.19
342.07	417.19
342.298	433.19
342.526	417.19
342.754	420.19
342.981	417.19
343.209	437.19
343.437	446.19
343.665	464.19
343.893	460.19
344.12	473.19
344.348	474.19
344.576	454.19
344.804	457.19
345.031	443.19
345.259	451.19
345.487	435.19
345.714	451.19
345.942	414.19
346.17	431.19
346.397	422.19
346.625	409.19
346.853	409.19
347.08	419.19
347.308	404.19
347.535	405.19
347.763	416.19
347.99	420.19
348.218	428.19
348.445	419.19
348.673	405.19
348.9	420.19
349.128	384.19
349.355	411.19
349.583	391.19
349.81	402.19
350.037	417.19
350.265	398.19
350.492	403.19
350.72	415.19
350.947	395.19
351.174	407.19
351.402	417.19
351.629	392.19
351.856	393.19
352.083	401.19
352.311	403.19
352.538	417.19
352.765	427.19
352.992	418.19
353.22	425.19
353.447	407.19
353.674	408.19
353.901	385.19
354.128	385.19
354.355	405.19
354.583	373.19
354.81	394.19
355.037	406.19
355.264	399.19
355.491	382.19
355.718	385.19
355.945	392.19
356.172	383.19
356.399	387.19
356.626	395.19
356.853	396.19
357.08	392.19
357.307	396.19
357.534	387.19
357.761	380.19
357.988	405.19
358.215	391.19
358.441	396.19
358.668	402.19
358.895	406.19
359.122	395.19
359.349	397.19
359.576	408.19
359.802	440.19
360.029	436.19
360.256	448.19
360.483	428.19
360.709	395.19
360.936	435.19
361.163	410.19
361.39	413.19
361.616	404.19
361.843	413.19
362.07	413.19
362.296	428.19
362.523	387.19
362.749	401.19
362.976	415.19
363.203	415.19
363.429	408.19
363.656	407.19
363.882	386.19
364.109	401.19
364.335	410.19
364.562	391.19
364.788	397.19
365.015	387.19
365.241	380.19
365.468	410.19
365.694	400.19
365.92	415.19
366.147	380.19
366.373	399.19
366.599	393.19
366.826	398.19
367.052	404.19
367.278	402.19
367.505	382.19
367.731	396.19
367.957	412.19
368.184	386.19
368.41	399.19
368.636	429.19
368.862	417.19
369.089	406.19
369.315	391.19
369.541	405.19
369.767	423.19
369.993	397.19
370.219	397.19
370.445	389.19
370.672	401.19
370.898	407.19
371.124	403.19
371.35	423.19
371.576	407.19
371.802	407.19
372.028	414.19
372.254	412.19
372.48	414.19
372.706	389.19
372.932	438.19
373.158	431.19
373.384	412.19
373.61	407.19
373.835	420.19
374.061	403.19
374.287	411.19
374.513	420.19
374.739	417.19
374.965	433.19
375.191	427.19
375.416	416.19
375.642	411.19
375.868	428.19
376.094	415.19
376.319	425.19
376.545	414.19
376.771	412.19
376.997	385.19
377.222	397.19
377.448	397.19
377.674	389.19
377.899	404.19
378.125	391.19
378.35	402.19
378.576	409.19
378.802	389.19
379.027	404.19
379.253	419.19
379.478	398.19
379.704	386.19
379.929	415.19
380.155	413.19
380.38	398.19
380.606	402.19
380.831	397.19
381.057	415.19
381.282	413.19
381.507	404.19
381.733	428.19
381.958	403.19
382.184	419.19
382.409	408.19
382.634	419.19
382.86	419.19
383.085	416.19
383.31	443.19
383.535	423.19
383.761	417.19
383.986	428.19
384.211	420.19
384.436	442.19
384.662	431.19
384.887	476.19
385.112	452.19
385.337	465.19
385.562	455.19
385.787	448.19
386.013	486.19
386.238	477.19
386.463	445.19
386.688	451.19
386.913	449.19
387.138	453.19
387.363	446.19
387.588	487.19
387.813	459.19
388.038	465.19
388.263	459.19
388.488	462.19
388.713	451.19
388.938	472.19
389.163	457.19
389.387	477.19
389.612	449.19
389.837	468.19
390.062	434.19
390.287	467.19
390.512	442.19
390.736	454.19
390.961	481.19
391.186	460.19
391.411	472.19
391.636	468.19
391.86	488.19
392.085	506.19
392.31	503.19
392.534	502.19
392.759	489.19
392.984	461.19
393.208	476.19
393.433	477.19
393.658	467.19
393.882	471.19
394.107	457.19
394.331	482.19
394.556	469.19
394.78	476.19
395.005	488.19
395.229	467.19
395.454	511.19
395.678	515.19
395.903	491.19
396.127	527.19
396.352	511.19
396.576	487.19
396.801	490.19
397.025	506.19
397.249	515.19
397.474	498.19
397.698	507.19
397.922	525.19
398.147	512.19
398.371	518.19
398.595	534.19
398.82	521.19
399.044	548.19
399.268	580.19
399.492	643.19
399.717	678.19
399.941	690.19
400.165	701.19
400.389	678.19
400.613	616.19
400.837	569.19
401.062	567.19
401.286	549.19
401.51	547.19
401.734	560.19
401.958	565.19
402.182	543.19
402.406	559.19
402.63	544.19
402.854	567.19
403.078	563.19
403.302	590.19
403.526	599.19
403.75	589.19
403.974	563.19
404.198	581.19
404.422	604.19
404.645	592.19
404.869	581.19
405.093	607.19
405.317	629.19
405.541	679.19
405.765	634.19
405.988	599.19
406.212	625.19
406.436	632.19
406.66	614.19
406.883	597.19
407.107	630.19
407.331	669.19
407.555	733.19
407.778	724.19
408.002	684.19
408.226	654.19
408.449	624.19
408.673	612.19
408.896	621.19
409.12	669.19
409.344	637.19
409.567	588.19
409.791	565.19
410.014	611.19
410.238	566.19
410.461	561.19
410.685	565.19
410.908	571.19
411.132	595.19
411.355	630.19
411.578	621.19
411.802	546.19
412.025	554.19
412.249	572.19
412.472	617.19
412.695	627.19
412.919	609.19
413.142	590.19
413.365	557.19
413.589	571.19
413.812	547.19
414.035	538.19
414.258	558.19
414.482	539.19
414.705	529.19
414.928	561.19
415.151	555.19
415.374	545.19
415.597	530.19
415.821	516.19
416.044	530.19
416.267	549.19
416.49	513.19
416.713	538.19
416.936	511.19
417.159	507.19
417.382	528.19
417.605	544.19
417.828	563.19
418.051	560.19
418.274	540.19
418.497	538.19
418.72	550.19
418.943	533.19
419.166	563.19
419.389	587.19
419.611	573.19
419.834	567.19
420.057	575.19
420.28	550.19
420.503	547.19
420.726	525.19
420.948	563.19
421.171	569.19
421.394	597.19
421.617	565.19
421.839	555.19
422.062	545.19
422.285	561.19
422.507	619.19
422.73	663.19
422.953	619.19
423.175	567.19
423.398	569.19
423.621	578.19
423.843	597.19
424.066	615.19
424.288	599.19
424.511	597.19
424.733	634.19
424.956	689.19
425.178	685.19
425.401	660.19
425.623	682.19
425.846	601.19
426.068	569.19
426.291	569.19
426.513	548.19
426.735	551.19
426.958	602.19
427.18	645.19
427.402	778.19
427.625	832.19
427.847	714.19
428.069	645.19
428.292	581.19
428.514	542.19
428.736	519.19
428.958	547.19
429.181	526.19
429.403	510.19
429.625	520.19
429.847	547.19
430.069	600.19
430.292	579.19
430.514	513.19
430.736	521.19
430.958	523.19
431.18	482.19
431.402	503.19
431.624	492.19
431.846	502.19
432.068	516.19
432.29	517.19
432.512	513.19
432.734	536.19
432.956	516.19
433.178	532.19
433.4	529.19
433.622	515.19
433.844	532.19
434.066	529.19
434.287	511.19
434.509	508.19
434.731	503.19
434.953	547.19
435.175	550.19
435.397	548.19
435.618	583.19
435.84	582.19
436.062	653.19
436.284	703.19
436.505	604.19
436.727	551.19
436.949	551.19
437.17	532.19
437.392	524.19
437.614	534.19
437.835	576.19
438.057	617.19
438.278	711.19
438.5	689.19
438.721	768.19
438.943	756.19
439.165	603.19
439.386	575.19
439.608	559.19
439.829	521.19
440.05	580.19
440.272	595.19
440.493	581.19
440.715	531.19
440.936	539.19
441.158	525.19
441.379	537.19
441.6	552.19
441.822	580.19
442.043	589.19
442.264	627.19
442.486	690.19
442.707	609.19
442.928	584.19
443.149	585.19
443.371	597.19
443.592	640.19
443.813	706.19
444.034	747.19
444.255	664.19
444.476	596.19
444.698	618.19
444.919	626.19
445.14	706.19
445.361	659.19
445.582	613.19
445.803	636.19
446.024	703.19
446.245	698.19
446.466	670.19
446.687	573.19
446.908	544.19
447.129	523.19
447.35	517.19
447.571	512.19
447.792	501.19
448.013	519.19
448.234	521.19
448.455	565.19
448.675	657.19
448.896	755.19
449.117	649.19
449.338	592.19
449.559	684.19
449.779	787.19
450	622.19
450.221	539.19
450.442	497.19
450.662	509.19
450.883	508.19
451.104	514.19
451.324	504.19
451.545	499.19
451.766	477.19
451.986	477.19
452.207	472.19
452.428	471.19
452.648	452.19
452.869	487.19
453.089	465.19
453.31	473.19
453.53	461.19
453.751	455.19
453.971	473.19
454.192	482.19
454.412	477.19
454.633	457.19
454.853	449.19
455.073	452.19
455.294	480.19
455.514	537.19
455.734	533.19
455.955	490.19
456.175	481.19
456.395	449.19
456.616	444.19
456.836	441.19
457.056	460.19
457.276	445.19
457.497	458.19
457.717	445.19
457.937	466.19
458.157	442.19
458.377	458.19
458.598	462.19
458.818	545.19
459.038	570.19
459.258	589.19
459.478	538.19
459.698	526.19
459.918	539.19
460.138	522.19
460.358	551.19
460.578	535.19
460.798	537.19
461.018	560.19
461.238	544.19
461.458	556.19
461.678	528.19
461.898	553.19
462.118	542.19
462.338	563.19
462.558	585.19
462.777	603.19
462.997	614.19
463.217	628.19
463.437	637.19
463.657	627.19
463.876	595.19
464.096	613.19
464.316	612.19
464.536	602.19
464.755	583.19
464.975	588.19
465.195	569.19
465.414	627.19
465.634	561.19
465.854	531.19
466.073	500.19
466.293	487.19
466.512	487.19
466.732	465.19
466.951	489.19
467.171	489.19
467.391	509.19
467.61	484.19
467.829	524.19
468.049	507.19
468.268	485.19
468.488	470.19
468.707	463.19
468.927	461.19
469.146	455.19
469.365	461.19
469.585	483.19
469.804	473.19
470.023	487.19
470.243	508.19
470.462	501.19
470.681	497.19
470.901	481.19
471.12	511.19
471.339	491.19
471.558	504.19
471.777	481.19
471.997	475.19
472.216	472.19
472.435	499.19
472.654	492.19
472.873	460.19
473.092	454.19
473.311	472.19
473.53	474.19
473.749	500.19
473.968	511.19
474.187	576.19
474.406	601.19
474.625	513.19
474.844	486.19
475.063	486.19
475.282	476.19
475.501	484.19
475.72	511.19
475.939	495.19
476.158	496.19
476.377	503.19
476.596	506.19
476.814	512.19
477.033	507.19
477.252	501.19
477.471	521.19
477.69	518.19
477.908	544.19
478.127	544.19
478.346	549.19
478.564	546.19
478.783	553.19
479.002	552.19
479.22	575.19
479.439	565.19
479.658	580.19
479.876	594.19
480.095	605.19
480.313	616.19
480.532	613.19
480.751	615.19
480.969	641.19
481.188	636.19
481.406	641.19
481.624	579.19
481.843	587.19
482.061	564.19
482.28	579.19
482.498	568.19
482.717	565.19
482.935	557.19
483.153	575.19
483.372	581.19
483.59	597.19
483.808	572.19
484.027	558.19
484.245	559.19
484.463	561.19
484.681	577.19
484.9	577.19
485.118	572.19
485.336	577.19
485.554	600.19
485.772	602.19
485.99	593.19
486.209	591.19
486.427	599.19
486.645	597.19
486.863	592.19
487.081	607.19
487.299	575.19
487.517	595.19
487.735	605.19
487.953	592.19
488.171	597.19
488.389	588.19
488.607	599.19
488.825	610.19
489.043	621.19
489.261	618.19
489.479	610.19
489.696	608.19
489.914	616.19
490.132	627.19
490.35	607.19
490.568	637.19
490.786	617.19
491.003	623.19
491.221	637.19
491.439	628.19
491.657	632.19
491.874	656.19
492.092	668.19
492.31	663.19
492.527	684.19
492.745	677.19
492.963	658.19
493.18	667.19
493.398	682.19
493.615	685.19
493.833	680.19
494.05	660.19
494.268	673.19
494.485	701.19
494.703	674.19
494.92	689.19
495.138	713.19
495.355	673.19
495.573	710.19
495.79	698.19
496.008	713.19
496.225	708.19
496.442	713.19
496.66	682.19
496.877	728.19
497.094	707.19
497.312	737.19
497.529	753.19
497.746	748.19
497.963	753.19
498.181	771.19
498.398	817.19
498.615	795.19
498.832	838.19
499.049	869.19
499.267	881.19
499.484	968.19
499.701	1041.19
499.918	1061.19
500.135	1093.19
500.352	1191.19
500.569	1233.19
500.786	1259.19
501.003	1237.19
501.22	1150.19
501.437	1100.19
501.654	997.19
501.871	989.19
