Data from 1962.PennyLincolnUp.Lamp.En5.5.200Scan.071719.P1._HRD10591_13-55-33-061.txt Node
Date: Thu Jul 18 13:55:33 EDT 2019
User: cochatt
Spectrometer: HR+D1059
Trigger mode: 1
Integration Time (sec): 1.000000E-1
Scans to average: 1
Electric dark correction enabled: true
Nonlinearity correction enabled: false
Boxcar width: 0
XAxis mode: Wavelengths
Number of Pixels in Spectrum: 2048
>>>>>Begin Spectral Data<<<<<
223.165	-3.81
223.4	-3.81
223.635	-3.81
223.869	-1.81
224.104	-26.81
224.338	-27.81
224.573	-15.81
224.808	-24.81
225.042	-2.81
225.277	2.19
225.511	0.19
225.746	-12.81
225.98	6.19
226.215	11.19
226.449	21.19
226.683	21.19
226.918	32.19
227.152	22.19
227.387	22.19
227.621	53.19
227.856	42.19
228.09	37.19
228.324	47.19
228.559	56.19
228.793	71.19
229.027	93.19
229.262	101.19
229.496	100.19
229.73	117.19
229.964	140.19
230.199	115.19
230.433	109.19
230.667	105.19
230.901	101.19
231.136	102.19
231.37	104.19
231.604	103.19
231.838	114.19
232.072	104.19
232.306	114.19
232.541	107.19
232.775	107.19
233.009	115.19
233.243	117.19
233.477	113.19
233.711	114.19
233.945	115.19
234.179	121.19
234.413	119.19
234.647	114.19
234.881	122.19
235.115	121.19
235.349	114.19
235.583	114.19
235.817	116.19
236.051	114.19
236.285	116.19
236.519	121.19
236.753	134.19
236.987	134.19
237.221	146.19
237.455	200.19
237.689	170.19
237.922	148.19
238.156	121.19
238.39	134.19
238.624	107.19
238.858	113.19
239.091	110.19
239.325	128.19
239.559	121.19
239.793	128.19
240.027	115.19
240.26	130.19
240.494	135.19
240.728	138.19
240.961	138.19
241.195	132.19
241.429	137.19
241.662	128.19
241.896	128.19
242.13	120.19
242.363	139.19
242.597	150.19
242.83	154.19
243.064	126.19
243.298	126.19
243.531	137.19
243.765	132.19
243.998	143.19
244.232	131.19
244.465	156.19
244.699	153.19
244.932	136.19
245.166	143.19
245.399	160.19
245.633	136.19
245.866	124.19
246.099	126.19
246.333	141.19
246.566	146.19
246.8	140.19
247.033	148.19
247.266	140.19
247.5	161.19
247.733	162.19
247.966	172.19
248.2	151.19
248.433	156.19
248.666	170.19
248.899	164.19
249.133	177.19
249.366	192.19
249.599	185.19
249.832	182.19
250.066	164.19
250.299	179.19
250.532	191.19
250.765	179.19
250.998	198.19
251.231	200.19
251.465	194.19
251.698	197.19
251.931	190.19
252.164	180.19
252.397	171.19
252.63	173.19
252.863	189.19
253.096	194.19
253.329	205.19
253.562	206.19
253.795	196.19
254.028	213.19
254.261	191.19
254.494	218.19
254.727	212.19
254.96	231.19
255.193	234.19
255.426	208.19
255.659	205.19
255.892	191.19
256.124	203.19
256.357	199.19
256.59	199.19
256.823	193.19
257.056	206.19
257.289	201.19
257.521	208.19
257.754	184.19
257.987	190.19
258.22	202.19
258.452	191.19
258.685	188.19
258.918	204.19
259.151	209.19
259.383	197.19
259.616	204.19
259.849	221.19
260.081	224.19
260.314	233.19
260.547	249.19
260.779	232.19
261.012	222.19
261.244	224.19
261.477	229.19
261.71	211.19
261.942	215.19
262.175	213.19
262.407	199.19
262.64	201.19
262.872	192.19
263.105	196.19
263.337	202.19
263.57	201.19
263.802	211.19
264.035	223.19
264.267	208.19
264.499	208.19
264.732	211.19
264.964	212.19
265.197	197.19
265.429	211.19
265.661	205.19
265.894	212.19
266.126	219.19
266.358	210.19
266.591	212.19
266.823	223.19
267.055	234.19
267.287	229.19
267.52	218.19
267.752	227.19
267.984	213.19
268.216	226.19
268.448	189.19
268.681	229.19
268.913	242.19
269.145	240.19
269.377	268.19
269.609	256.19
269.841	264.19
270.073	257.19
270.306	268.19
270.538	284.19
270.77	311.19
271.002	291.19
271.234	266.19
271.466	288.19
271.698	292.19
271.93	305.19
272.162	289.19
272.394	281.19
272.626	270.19
272.858	270.19
273.09	249.19
273.322	266.19
273.553	263.19
273.785	241.19
274.017	265.19
274.249	269.19
274.481	260.19
274.713	250.19
274.945	268.19
275.176	266.19
275.408	263.19
275.64	262.19
275.872	261.19
276.104	270.19
276.335	235.19
276.567	258.19
276.799	269.19
277.031	282.19
277.262	301.19
277.494	293.19
277.726	288.19
277.957	285.19
278.189	270.19
278.421	264.19
278.652	263.19
278.884	247.19
279.115	268.19
279.347	276.19
279.579	301.19
279.81	266.19
280.042	267.19
280.273	265.19
280.505	276.19
280.736	261.19
280.968	251.19
281.199	272.19
281.431	272.19
281.662	270.19
281.894	266.19
282.125	278.19
282.356	284.19
282.588	295.19
282.819	296.19
283.051	265.19
283.282	261.19
283.513	284.19
283.745	286.19
283.976	288.19
284.207	299.19
284.439	288.19
284.67	284.19
284.901	278.19
285.132	290.19
285.364	273.19
285.595	286.19
285.826	280.19
286.057	296.19
286.288	294.19
286.52	301.19
286.751	280.19
286.982	311.19
287.213	292.19
287.444	287.19
287.675	300.19
287.906	319.19
288.138	317.19
288.369	315.19
288.6	300.19
288.831	315.19
289.062	309.19
289.293	292.19
289.524	316.19
289.755	302.19
289.986	306.19
290.217	292.19
290.448	312.19
290.679	315.19
290.91	287.19
291.141	297.19
291.371	313.19
291.602	317.19
291.833	297.19
292.064	297.19
292.295	285.19
292.526	288.19
292.757	288.19
292.987	297.19
293.218	290.19
293.449	303.19
293.68	321.19
293.91	307.19
294.141	293.19
294.372	295.19
294.603	316.19
294.833	318.19
295.064	279.19
295.295	304.19
295.525	299.19
295.756	294.19
295.987	310.19
296.217	320.19
296.448	330.19
296.679	313.19
296.909	302.19
297.14	318.19
297.37	326.19
297.601	316.19
297.831	313.19
298.062	292.19
298.292	302.19
298.523	307.19
298.753	330.19
298.984	318.19
299.214	327.19
299.445	304.19
299.675	321.19
299.905	332.19
300.136	326.19
300.366	333.19
300.597	339.19
300.827	326.19
301.057	343.19
301.288	337.19
301.518	347.19
301.748	348.19
301.979	344.19
302.209	347.19
302.439	328.19
302.669	343.19
302.9	347.19
303.13	330.19
303.36	324.19
303.59	344.19
303.82	346.19
304.051	336.19
304.281	338.19
304.511	344.19
304.741	330.19
304.971	342.19
305.201	328.19
305.431	322.19
305.661	321.19
305.891	324.19
306.121	315.19
306.352	355.19
306.582	340.19
306.812	344.19
307.042	362.19
307.272	355.19
307.502	347.19
307.731	334.19
307.961	340.19
308.191	329.19
308.421	339.19
308.651	344.19
308.881	324.19
309.111	348.19
309.341	351.19
309.571	352.19
309.8	353.19
310.03	352.19
310.26	368.19
310.49	366.19
310.72	380.19
310.949	367.19
311.179	388.19
311.409	369.19
311.639	350.19
311.868	361.19
312.098	370.19
312.328	380.19
312.557	401.19
312.787	380.19
313.017	384.19
313.246	388.19
313.476	374.19
313.706	371.19
313.935	376.19
314.165	368.19
314.394	395.19
314.624	388.19
314.853	386.19
315.083	361.19
315.312	380.19
315.542	364.19
315.771	374.19
316.001	386.19
316.23	381.19
316.46	382.19
316.689	390.19
316.919	392.19
317.148	383.19
317.377	379.19
317.607	384.19
317.836	368.19
318.065	368.19
318.295	380.19
318.524	378.19
318.753	378.19
318.983	366.19
319.212	375.19
319.441	402.19
319.67	390.19
319.9	399.19
320.129	374.19
320.358	366.19
320.587	388.19
320.816	388.19
321.046	380.19
321.275	398.19
321.504	391.19
321.733	396.19
321.962	387.19
322.191	398.19
322.42	398.19
322.649	433.19
322.878	434.19
323.108	438.19
323.337	433.19
323.566	445.19
323.795	469.19
324.024	506.19
324.253	568.19
324.482	728.19
324.71	1076.19
324.939	1557.19
325.168	1372.19
325.397	744.19
325.626	554.19
325.855	496.19
326.084	475.19
326.313	452.19
326.542	462.19
326.77	499.19
326.999	546.19
327.228	723.19
327.457	973.19
327.686	1205.19
327.914	861.19
328.143	605.19
328.372	545.19
328.6	498.19
328.829	498.19
329.058	509.19
329.287	505.19
329.515	491.19
329.744	462.19
329.972	450.19
330.201	469.19
330.43	485.19
330.658	513.19
330.887	524.19
331.115	506.19
331.344	493.19
331.572	458.19
331.801	461.19
332.03	466.19
332.258	458.19
332.486	474.19
332.715	464.19
332.943	453.19
333.172	472.19
333.4	482.19
333.629	477.19
333.857	510.19
334.085	484.19
334.314	526.19
334.542	528.19
334.771	524.19
334.999	490.19
335.227	487.19
335.455	453.19
335.684	459.19
335.912	476.19
336.14	468.19
336.369	474.19
336.597	475.19
336.825	462.19
337.053	439.19
337.281	464.19
337.51	455.19
337.738	441.19
337.966	452.19
338.194	441.19
338.422	441.19
338.65	439.19
338.878	425.19
339.106	450.19
339.334	430.19
339.562	430.19
339.79	424.19
340.018	440.19
340.246	411.19
340.474	432.19
340.702	446.19
340.93	427.19
341.158	441.19
341.386	417.19
341.614	438.19
341.842	436.19
342.07	442.19
342.298	426.19
342.526	425.19
342.754	417.19
342.981	424.19
343.209	417.19
343.437	455.19
343.665	446.19
343.893	455.19
344.12	457.19
344.348	465.19
344.576	439.19
344.804	448.19
345.031	441.19
345.259	452.19
345.487	441.19
345.714	443.19
345.942	446.19
346.17	421.19
346.397	402.19
346.625	424.19
346.853	412.19
347.08	403.19
347.308	395.19
347.535	402.19
347.763	417.19
347.99	420.19
348.218	421.19
348.445	394.19
348.673	406.19
348.9	410.19
349.128	410.19
349.355	399.19
349.583	412.19
349.81	406.19
350.037	397.19
350.265	407.19
350.492	418.19
350.72	406.19
350.947	406.19
351.174	402.19
351.402	420.19
351.629	413.19
351.856	410.19
352.083	408.19
352.311	414.19
352.538	405.19
352.765	405.19
352.992	426.19
353.22	407.19
353.447	392.19
353.674	410.19
353.901	420.19
354.128	402.19
354.355	395.19
354.583	404.19
354.81	392.19
355.037	387.19
355.264	390.19
355.491	392.19
355.718	396.19
355.945	391.19
356.172	404.19
356.399	416.19
356.626	380.19
356.853	407.19
357.08	375.19
357.307	392.19
357.534	390.19
357.761	396.19
357.988	390.19
358.215	396.19
358.441	414.19
358.668	404.19
358.895	395.19
359.122	408.19
359.349	390.19
359.576	398.19
359.802	390.19
360.029	425.19
360.256	439.19
360.483	430.19
360.709	412.19
360.936	403.19
361.163	422.19
361.39	398.19
361.616	398.19
361.843	394.19
362.07	378.19
362.296	390.19
362.523	408.19
362.749	425.19
362.976	410.19
363.203	408.19
363.429	395.19
363.656	396.19
363.882	408.19
364.109	396.19
364.335	404.19
364.562	396.19
364.788	406.19
365.015	402.19
365.241	386.19
365.468	402.19
365.694	403.19
365.92	409.19
366.147	393.19
366.373	403.19
366.599	400.19
366.826	407.19
367.052	388.19
367.278	387.19
367.505	397.19
367.731	395.19
367.957	397.19
368.184	385.19
368.41	416.19
368.636	402.19
368.862	404.19
369.089	400.19
369.315	397.19
369.541	416.19
369.767	419.19
369.993	417.19
370.219	405.19
370.445	397.19
370.672	427.19
370.898	392.19
371.124	402.19
371.35	406.19
371.576	412.19
371.802	395.19
372.028	409.19
372.254	416.19
372.48	416.19
372.706	403.19
372.932	428.19
373.158	396.19
373.384	422.19
373.61	417.19
373.835	408.19
374.061	418.19
374.287	430.19
374.513	435.19
374.739	413.19
374.965	420.19
375.191	421.19
375.416	426.19
375.642	416.19
375.868	424.19
376.094	404.19
376.319	414.19
376.545	401.19
376.771	412.19
376.997	418.19
377.222	392.19
377.448	429.19
377.674	398.19
377.899	407.19
378.125	402.19
378.35	398.19
378.576	394.19
378.802	392.19
379.027	398.19
379.253	413.19
379.478	413.19
379.704	414.19
379.929	404.19
380.155	394.19
380.38	416.19
380.606	416.19
380.831	410.19
381.057	417.19
381.282	422.19
381.507	405.19
381.733	405.19
381.958	423.19
382.184	432.19
382.409	425.19
382.634	396.19
382.86	401.19
383.085	433.19
383.31	434.19
383.535	406.19
383.761	451.19
383.986	425.19
384.211	460.19
384.436	436.19
384.662	442.19
384.887	444.19
385.112	452.19
385.337	460.19
385.562	446.19
385.787	468.19
386.013	468.19
386.238	471.19
386.463	452.19
386.688	442.19
386.913	446.19
387.138	448.19
387.363	450.19
387.588	461.19
387.813	455.19
388.038	435.19
388.263	472.19
388.488	453.19
388.713	475.19
388.938	463.19
389.163	460.19
389.387	448.19
389.612	479.19
389.837	468.19
390.062	466.19
390.287	457.19
390.512	474.19
390.736	458.19
390.961	472.19
391.186	462.19
391.411	484.19
391.636	474.19
391.86	485.19
392.085	481.19
392.31	515.19
392.534	477.19
392.759	462.19
392.984	489.19
393.208	456.19
393.433	464.19
393.658	466.19
393.882	492.19
394.107	482.19
394.331	500.19
394.556	478.19
394.78	460.19
395.005	463.19
395.229	477.19
395.454	487.19
395.678	504.19
395.903	490.19
396.127	511.19
396.352	490.19
396.576	483.19
396.801	486.19
397.025	510.19
397.249	502.19
397.474	513.19
397.698	490.19
397.922	531.19
398.147	527.19
398.371	538.19
398.595	530.19
398.82	541.19
399.044	559.19
399.268	588.19
399.492	645.19
399.717	676.19
399.941	685.19
400.165	693.19
400.389	696.19
400.613	654.19
400.837	604.19
401.062	569.19
401.286	541.19
401.51	558.19
401.734	548.19
401.958	551.19
402.182	562.19
402.406	562.19
402.63	550.19
402.854	558.19
403.078	594.19
403.302	573.19
403.526	579.19
403.75	584.19
403.974	594.19
404.198	580.19
404.422	580.19
404.645	577.19
404.869	571.19
405.093	614.19
405.317	636.19
405.541	666.19
405.765	628.19
405.988	591.19
406.212	596.19
406.436	602.19
406.66	613.19
406.883	603.19
407.107	634.19
407.331	690.19
407.555	744.19
407.778	740.19
408.002	677.19
408.226	632.19
408.449	635.19
408.673	608.19
408.896	619.19
409.12	657.19
409.344	627.19
409.567	590.19
409.791	602.19
410.014	584.19
410.238	584.19
410.461	574.19
410.685	566.19
410.908	591.19
411.132	598.19
411.355	636.19
411.578	610.19
411.802	588.19
412.025	565.19
412.249	579.19
412.472	594.19
412.695	620.19
412.919	593.19
413.142	548.19
413.365	544.19
413.589	575.19
413.812	527.19
414.035	530.19
414.258	553.19
414.482	531.19
414.705	521.19
414.928	542.19
415.151	544.19
415.374	540.19
415.597	536.19
415.821	533.19
416.044	551.19
416.267	541.19
416.49	547.19
416.713	502.19
416.936	552.19
417.159	532.19
417.382	545.19
417.605	538.19
417.828	539.19
418.051	540.19
418.274	530.19
418.497	527.19
418.72	533.19
418.943	537.19
419.166	565.19
419.389	570.19
419.611	591.19
419.834	584.19
420.057	583.19
420.28	564.19
420.503	557.19
420.726	542.19
420.948	556.19
421.171	594.19
421.394	608.19
421.617	568.19
421.839	564.19
422.062	538.19
422.285	547.19
422.507	609.19
422.73	665.19
422.953	655.19
423.175	589.19
423.398	568.19
423.621	589.19
423.843	582.19
424.066	596.19
424.288	565.19
424.511	597.19
424.733	618.19
424.956	682.19
425.178	661.19
425.401	643.19
425.623	672.19
425.846	609.19
426.068	557.19
426.291	564.19
426.513	547.19
426.735	568.19
426.958	613.19
427.18	659.19
427.402	768.19
427.625	808.19
427.847	693.19
428.069	644.19
428.292	590.19
428.514	546.19
428.736	542.19
428.958	549.19
429.181	536.19
429.403	532.19
429.625	528.19
429.847	553.19
430.069	588.19
430.292	612.19
430.514	538.19
430.736	528.19
430.958	520.19
431.18	513.19
431.402	491.19
431.624	491.19
431.846	502.19
432.068	496.19
432.29	518.19
432.512	513.19
432.734	509.19
432.956	493.19
433.178	501.19
433.4	514.19
433.622	520.19
433.844	506.19
434.066	491.19
434.287	502.19
434.509	505.19
434.731	518.19
434.953	536.19
435.175	543.19
435.397	568.19
435.618	554.19
435.84	585.19
436.062	677.19
436.284	692.19
436.505	616.19
436.727	552.19
436.949	529.19
437.17	511.19
437.392	513.19
437.614	543.19
437.835	550.19
438.057	622.19
438.278	675.19
438.5	689.19
438.721	760.19
438.943	731.19
439.165	598.19
439.386	566.19
439.608	538.19
439.829	550.19
440.05	549.19
440.272	590.19
440.493	564.19
440.715	548.19
440.936	530.19
441.158	551.19
441.379	525.19
441.6	557.19
441.822	570.19
442.043	602.19
442.264	658.19
442.486	701.19
442.707	600.19
442.928	602.19
443.149	594.19
443.371	603.19
443.592	609.19
443.813	706.19
444.034	750.19
444.255	629.19
444.476	602.19
444.698	604.19
444.919	606.19
445.14	733.19
445.361	661.19
445.582	628.19
445.803	657.19
446.024	684.19
446.245	710.19
446.466	660.19
446.687	589.19
446.908	557.19
447.129	545.19
447.35	515.19
447.571	532.19
447.792	515.19
448.013	510.19
448.234	504.19
448.455	553.19
448.675	653.19
448.896	726.19
449.117	609.19
449.338	604.19
449.559	682.19
449.779	785.19
450	627.19
450.221	548.19
450.442	504.19
450.662	500.19
450.883	490.19
451.104	499.19
451.324	467.19
451.545	478.19
451.766	478.19
451.986	460.19
452.207	461.19
452.428	461.19
452.648	473.19
452.869	472.19
453.089	460.19
453.31	489.19
453.53	459.19
453.751	478.19
453.971	470.19
454.192	466.19
454.412	446.19
454.633	453.19
454.853	447.19
455.073	464.19
455.294	465.19
455.514	525.19
455.734	508.19
455.955	450.19
456.175	449.19
456.395	450.19
456.616	436.19
456.836	434.19
457.056	417.19
457.276	434.19
457.497	449.19
457.717	456.19
457.937	476.19
458.157	480.19
458.377	426.19
458.598	474.19
458.818	518.19
459.038	562.19
459.258	588.19
459.478	558.19
459.698	520.19
459.918	518.19
460.138	516.19
460.358	539.19
460.578	546.19
460.798	546.19
461.018	548.19
461.238	543.19
461.458	515.19
461.678	521.19
461.898	545.19
462.118	558.19
462.338	573.19
462.558	536.19
462.777	581.19
462.997	640.19
463.217	631.19
463.437	598.19
463.657	610.19
463.876	590.19
464.096	581.19
464.316	588.19
464.536	614.19
464.755	594.19
464.975	548.19
465.195	577.19
465.414	587.19
465.634	559.19
465.854	524.19
466.073	529.19
466.293	499.19
466.512	486.19
466.732	476.19
466.951	476.19
467.171	474.19
467.391	478.19
467.61	489.19
467.829	486.19
468.049	502.19
468.268	487.19
468.488	476.19
468.707	480.19
468.927	479.19
469.146	472.19
469.365	457.19
469.585	498.19
469.804	489.19
470.023	503.19
470.243	477.19
470.462	499.19
470.681	489.19
470.901	520.19
471.12	512.19
471.339	493.19
471.558	492.19
471.777	488.19
471.997	482.19
472.216	484.19
472.435	498.19
472.654	480.19
472.873	485.19
473.092	502.19
473.311	480.19
473.53	464.19
473.749	493.19
473.968	518.19
474.187	597.19
474.406	603.19
474.625	513.19
474.844	523.19
475.063	487.19
475.282	473.19
475.501	462.19
475.72	485.19
475.939	493.19
476.158	494.19
476.377	502.19
476.596	495.19
476.814	521.19
477.033	501.19
477.252	519.19
477.471	499.19
477.69	538.19
477.908	541.19
478.127	552.19
478.346	552.19
478.564	527.19
478.783	537.19
479.002	575.19
479.22	584.19
479.439	577.19
479.658	584.19
479.876	584.19
480.095	573.19
480.313	627.19
480.532	589.19
480.751	620.19
480.969	606.19
481.188	615.19
481.406	675.19
481.624	604.19
481.843	588.19
482.061	559.19
482.28	553.19
482.498	539.19
482.717	549.19
482.935	550.19
483.153	564.19
483.372	563.19
483.59	553.19
483.808	563.19
484.027	578.19
484.245	561.19
484.463	572.19
484.681	543.19
484.9	579.19
485.118	576.19
485.336	563.19
485.554	587.19
485.772	578.19
485.99	570.19
486.209	579.19
486.427	586.19
486.645	596.19
486.863	596.19
487.081	605.19
487.299	574.19
487.517	618.19
487.735	600.19
487.953	596.19
488.171	609.19
488.389	608.19
488.607	600.19
488.825	617.19
489.043	595.19
489.261	597.19
489.479	613.19
489.696	585.19
489.914	598.19
490.132	611.19
490.35	616.19
490.568	632.19
490.786	619.19
491.003	616.19
491.221	626.19
491.439	648.19
491.657	635.19
491.874	665.19
492.092	665.19
492.31	636.19
492.527	657.19
492.745	649.19
492.963	669.19
493.18	668.19
493.398	662.19
493.615	680.19
493.833	692.19
494.05	666.19
494.268	682.19
494.485	664.19
494.703	696.19
494.92	673.19
495.138	696.19
495.355	691.19
495.573	680.19
495.79	689.19
496.008	717.19
496.225	689.19
496.442	705.19
496.66	698.19
496.877	711.19
497.094	723.19
497.312	740.19
497.529	721.19
497.746	737.19
497.963	748.19
498.181	772.19
498.398	825.19
498.615	820.19
498.832	864.19
499.049	883.19
499.267	906.19
499.484	948.19
499.701	1008.19
499.918	1068.19
500.135	1130.19
500.352	1190.19
500.569	1230.19
500.786	1252.19
501.003	1192.19
501.22	1154.19
501.437	1088.19
501.654	997.19
501.871	949.19
