Data from 1962.PennyLincolnUp.Lamp.En5.5.200Scan.071719.P1._HRD10591_13-54-40-060.txt Node
Date: Thu Jul 18 13:54:40 EDT 2019
User: cochatt
Spectrometer: HR+D1059
Trigger mode: 1
Integration Time (sec): 1.000000E-1
Scans to average: 1
Electric dark correction enabled: true
Nonlinearity correction enabled: false
Boxcar width: 0
XAxis mode: Wavelengths
Number of Pixels in Spectrum: 2048
>>>>>Begin Spectral Data<<<<<
223.165	-15.69
223.4	-15.69
223.635	-15.69
223.869	-15.69
224.104	-13.69
224.338	-5.69
224.573	-11.69
224.808	-1.69
225.042	-3.69
225.277	8.31
225.511	-11.69
225.746	-1.69
225.98	7.31
226.215	13.31
226.449	6.31
226.683	7.31
226.918	21.31
227.152	17.31
227.387	31.31
227.621	46.31
227.856	47.31
228.09	53.31
228.324	43.31
228.559	53.31
228.793	59.31
229.027	95.31
229.262	90.31
229.496	109.31
229.73	104.31
229.964	141.31
230.199	128.31
230.433	89.31
230.667	109.31
230.901	107.31
231.136	112.31
231.37	119.31
231.604	107.31
231.838	116.31
232.072	104.31
232.306	110.31
232.541	129.31
232.775	112.31
233.009	97.31
233.243	96.31
233.477	107.31
233.711	106.31
233.945	123.31
234.179	115.31
234.413	120.31
234.647	120.31
234.881	103.31
235.115	106.31
235.349	116.31
235.583	116.31
235.817	105.31
236.051	112.31
236.285	107.31
236.519	98.31
236.753	113.31
236.987	122.31
237.221	152.31
237.455	180.31
237.689	156.31
237.922	134.31
238.156	126.31
238.39	129.31
238.624	124.31
238.858	117.31
239.091	116.31
239.325	122.31
239.559	116.31
239.793	139.31
240.027	125.31
240.26	134.31
240.494	143.31
240.728	137.31
240.961	131.31
241.195	137.31
241.429	124.31
241.662	126.31
241.896	142.31
242.13	125.31
242.363	118.31
242.597	119.31
242.83	122.31
243.064	138.31
243.298	150.31
243.531	136.31
243.765	131.31
243.998	128.31
244.232	128.31
244.465	144.31
244.699	124.31
244.932	138.31
245.166	139.31
245.399	150.31
245.633	154.31
245.866	139.31
246.099	145.31
246.333	151.31
246.566	153.31
246.8	139.31
247.033	137.31
247.266	150.31
247.5	136.31
247.733	164.31
247.966	156.31
248.2	154.31
248.433	159.31
248.666	167.31
248.899	164.31
249.133	184.31
249.366	175.31
249.599	181.31
249.832	171.31
250.066	171.31
250.299	176.31
250.532	168.31
250.765	195.31
250.998	203.31
251.231	201.31
251.465	197.31
251.698	182.31
251.931	171.31
252.164	169.31
252.397	179.31
252.63	194.31
252.863	192.31
253.096	187.31
253.329	193.31
253.562	192.31
253.795	200.31
254.028	192.31
254.261	192.31
254.494	196.31
254.727	214.31
254.96	236.31
255.193	249.31
255.426	213.31
255.659	207.31
255.892	221.31
256.124	209.31
256.357	222.31
256.59	205.31
256.823	189.31
257.056	191.31
257.289	197.31
257.521	193.31
257.754	204.31
257.987	201.31
258.22	187.31
258.452	199.31
258.685	214.31
258.918	187.31
259.151	193.31
259.383	209.31
259.616	195.31
259.849	202.31
260.081	221.31
260.314	217.31
260.547	239.31
260.779	231.31
261.012	208.31
261.244	219.31
261.477	199.31
261.71	220.31
261.942	188.31
262.175	205.31
262.407	208.31
262.64	199.31
262.872	203.31
263.105	196.31
263.337	198.31
263.57	215.31
263.802	211.31
264.035	186.31
264.267	199.31
264.499	205.31
264.732	212.31
264.964	210.31
265.197	212.31
265.429	217.31
265.661	194.31
265.894	213.31
266.126	200.31
266.358	208.31
266.591	231.31
266.823	204.31
267.055	226.31
267.287	224.31
267.52	219.31
267.752	210.31
267.984	223.31
268.216	205.31
268.448	234.31
268.681	237.31
268.913	235.31
269.145	241.31
269.377	240.31
269.609	233.31
269.841	272.31
270.073	248.31
270.306	264.31
270.538	292.31
270.77	276.31
271.002	284.31
271.234	268.31
271.466	285.31
271.698	303.31
271.93	294.31
272.162	284.31
272.394	273.31
272.626	283.31
272.858	263.31
273.09	275.31
273.322	257.31
273.553	240.31
273.785	279.31
274.017	248.31
274.249	259.31
274.481	267.31
274.713	273.31
274.945	255.31
275.176	247.31
275.408	266.31
275.64	254.31
275.872	263.31
276.104	257.31
276.335	263.31
276.567	245.31
276.799	262.31
277.031	283.31
277.262	290.31
277.494	284.31
277.726	279.31
277.957	280.31
278.189	271.31
278.421	288.31
278.652	285.31
278.884	261.31
279.115	271.31
279.347	277.31
279.579	261.31
279.81	264.31
280.042	261.31
280.273	262.31
280.505	283.31
280.736	280.31
280.968	280.31
281.199	282.31
281.431	274.31
281.662	279.31
281.894	269.31
282.125	257.31
282.356	285.31
282.588	292.31
282.819	287.31
283.051	275.31
283.282	276.31
283.513	261.31
283.745	284.31
283.976	287.31
284.207	279.31
284.439	299.31
284.67	289.31
284.901	287.31
285.132	273.31
285.364	287.31
285.595	275.31
285.826	297.31
286.057	290.31
286.288	296.31
286.52	298.31
286.751	281.31
286.982	289.31
287.213	291.31
287.444	261.31
287.675	292.31
287.906	293.31
288.138	312.31
288.369	307.31
288.6	297.31
288.831	302.31
289.062	296.31
289.293	290.31
289.524	303.31
289.755	303.31
289.986	296.31
290.217	308.31
290.448	290.31
290.679	293.31
290.91	293.31
291.141	298.31
291.371	291.31
291.602	297.31
291.833	308.31
292.064	283.31
292.295	282.31
292.526	311.31
292.757	310.31
292.987	293.31
293.218	282.31
293.449	316.31
293.68	290.31
293.91	309.31
294.141	294.31
294.372	300.31
294.603	300.31
294.833	285.31
295.064	294.31
295.295	312.31
295.525	313.31
295.756	326.31
295.987	309.31
296.217	313.31
296.448	332.31
296.679	332.31
296.909	316.31
297.14	292.31
297.37	313.31
297.601	319.31
297.831	309.31
298.062	289.31
298.292	312.31
298.523	317.31
298.753	305.31
298.984	298.31
299.214	315.31
299.445	322.31
299.675	305.31
299.905	326.31
300.136	323.31
300.366	314.31
300.597	313.31
300.827	332.31
301.057	328.31
301.288	347.31
301.518	350.31
301.748	338.31
301.979	360.31
302.209	343.31
302.439	341.31
302.669	344.31
302.9	319.31
303.13	321.31
303.36	352.31
303.59	346.31
303.82	343.31
304.051	352.31
304.281	340.31
304.511	336.31
304.741	319.31
304.971	338.31
305.201	328.31
305.431	344.31
305.661	348.31
305.891	332.31
306.121	337.31
306.352	346.31
306.582	351.31
306.812	323.31
307.042	348.31
307.272	349.31
307.502	332.31
307.731	346.31
307.961	346.31
308.191	327.31
308.421	333.31
308.651	339.31
308.881	330.31
309.111	353.31
309.341	345.31
309.571	354.31
309.8	358.31
310.03	358.31
310.26	345.31
310.49	356.31
310.72	359.31
310.949	365.31
311.179	382.31
311.409	343.31
311.639	354.31
311.868	360.31
312.098	357.31
312.328	372.31
312.557	389.31
312.787	397.31
313.017	383.31
313.246	379.31
313.476	376.31
313.706	377.31
313.935	353.31
314.165	378.31
314.394	394.31
314.624	383.31
314.853	378.31
315.083	375.31
315.312	375.31
315.542	355.31
315.771	369.31
316.001	385.31
316.23	399.31
316.46	376.31
316.689	377.31
316.919	363.31
317.148	383.31
317.377	381.31
317.607	374.31
317.836	376.31
318.065	375.31
318.295	371.31
318.524	351.31
318.753	387.31
318.983	363.31
319.212	360.31
319.441	375.31
319.67	373.31
319.9	379.31
320.129	389.31
320.358	380.31
320.587	370.31
320.816	371.31
321.046	368.31
321.275	379.31
321.504	373.31
321.733	381.31
321.962	393.31
322.191	392.31
322.42	412.31
322.649	404.31
322.878	442.31
323.108	413.31
323.337	463.31
323.566	445.31
323.795	463.31
324.024	497.31
324.253	553.31
324.482	712.31
324.71	1084.31
324.939	1476.31
325.168	1324.31
325.397	727.31
325.626	550.31
325.855	504.31
326.084	460.31
326.313	454.31
326.542	454.31
326.77	457.31
326.999	533.31
327.228	687.31
327.457	975.31
327.686	1170.31
327.914	807.31
328.143	608.31
328.372	500.31
328.6	504.31
328.829	469.31
329.058	499.31
329.287	504.31
329.515	468.31
329.744	475.31
329.972	467.31
330.201	481.31
330.43	476.31
330.658	509.31
330.887	523.31
331.115	511.31
331.344	481.31
331.572	466.31
331.801	478.31
332.03	460.31
332.258	452.31
332.486	453.31
332.715	457.31
332.943	457.31
333.172	459.31
333.4	468.31
333.629	484.31
333.857	490.31
334.085	502.31
334.314	511.31
334.542	529.31
334.771	529.31
334.999	487.31
335.227	480.31
335.455	472.31
335.684	460.31
335.912	452.31
336.14	465.31
336.369	445.31
336.597	458.31
336.825	448.31
337.053	447.31
337.281	459.31
337.51	432.31
337.738	432.31
337.966	450.31
338.194	456.31
338.422	428.31
338.65	444.31
338.878	419.31
339.106	437.31
339.334	427.31
339.562	433.31
339.79	452.31
340.018	436.31
340.246	432.31
340.474	423.31
340.702	402.31
340.93	432.31
341.158	418.31
341.386	424.31
341.614	439.31
341.842	401.31
342.07	398.31
342.298	439.31
342.526	420.31
342.754	413.31
342.981	403.31
343.209	424.31
343.437	409.31
343.665	446.31
343.893	451.31
344.12	472.31
344.348	469.31
344.576	453.31
344.804	452.31
345.031	431.31
345.259	452.31
345.487	436.31
345.714	421.31
345.942	404.31
346.17	421.31
346.397	409.31
346.625	424.31
346.853	414.31
347.08	409.31
347.308	428.31
347.535	411.31
347.763	423.31
347.99	415.31
348.218	409.31
348.445	421.31
348.673	409.31
348.9	403.31
349.128	419.31
349.355	408.31
349.583	405.31
349.81	407.31
350.037	392.31
350.265	380.31
350.492	398.31
350.72	385.31
350.947	413.31
351.174	418.31
351.402	411.31
351.629	388.31
351.856	413.31
352.083	410.31
352.311	425.31
352.538	405.31
352.765	396.31
352.992	391.31
353.22	406.31
353.447	395.31
353.674	404.31
353.901	396.31
354.128	398.31
354.355	380.31
354.583	392.31
354.81	402.31
355.037	385.31
355.264	392.31
355.491	404.31
355.718	394.31
355.945	381.31
356.172	389.31
356.399	367.31
356.626	376.31
356.853	404.31
357.08	399.31
357.307	396.31
357.534	391.31
357.761	392.31
357.988	405.31
358.215	395.31
358.441	385.31
358.668	392.31
358.895	407.31
359.122	391.31
359.349	411.31
359.576	414.31
359.802	404.31
360.029	422.31
360.256	444.31
360.483	428.31
360.709	400.31
360.936	414.31
361.163	398.31
361.39	401.31
361.616	401.31
361.843	416.31
362.07	404.31
362.296	428.31
362.523	389.31
362.749	404.31
362.976	396.31
363.203	392.31
363.429	405.31
363.656	407.31
363.882	396.31
364.109	379.31
364.335	393.31
364.562	391.31
364.788	382.31
365.015	395.31
365.241	394.31
365.468	420.31
365.694	412.31
365.92	404.31
366.147	390.31
366.373	394.31
366.599	409.31
366.826	395.31
367.052	398.31
367.278	393.31
367.505	406.31
367.731	401.31
367.957	392.31
368.184	377.31
368.41	389.31
368.636	396.31
368.862	413.31
369.089	411.31
369.315	403.31
369.541	397.31
369.767	409.31
369.993	396.31
370.219	396.31
370.445	410.31
370.672	406.31
370.898	380.31
371.124	404.31
371.35	413.31
371.576	405.31
371.802	414.31
372.028	414.31
372.254	404.31
372.48	398.31
372.706	405.31
372.932	432.31
373.158	425.31
373.384	433.31
373.61	398.31
373.835	402.31
374.061	412.31
374.287	415.31
374.513	415.31
374.739	419.31
374.965	411.31
375.191	422.31
375.416	419.31
375.642	425.31
375.868	409.31
376.094	411.31
376.319	407.31
376.545	418.31
376.771	373.31
376.997	403.31
377.222	407.31
377.448	417.31
377.674	408.31
377.899	407.31
378.125	396.31
378.35	405.31
378.576	401.31
378.802	378.31
379.027	401.31
379.253	395.31
379.478	403.31
379.704	393.31
379.929	394.31
380.155	397.31
380.38	392.31
380.606	413.31
380.831	428.31
381.057	412.31
381.282	394.31
381.507	422.31
381.733	405.31
381.958	407.31
382.184	418.31
382.409	405.31
382.634	417.31
382.86	409.31
383.085	414.31
383.31	430.31
383.535	438.31
383.761	423.31
383.986	437.31
384.211	441.31
384.436	442.31
384.662	465.31
384.887	432.31
385.112	454.31
385.337	449.31
385.562	455.31
385.787	444.31
386.013	470.31
386.238	472.31
386.463	475.31
386.688	462.31
386.913	456.31
387.138	464.31
387.363	473.31
387.588	453.31
387.813	484.31
388.038	454.31
388.263	468.31
388.488	451.31
388.713	465.31
388.938	453.31
389.163	468.31
389.387	489.31
389.612	459.31
389.837	454.31
390.062	444.31
390.287	443.31
390.512	435.31
390.736	467.31
390.961	465.31
391.186	479.31
391.411	459.31
391.636	490.31
391.86	485.31
392.085	475.31
392.31	487.31
392.534	485.31
392.759	486.31
392.984	507.31
393.208	479.31
393.433	477.31
393.658	483.31
393.882	475.31
394.107	464.31
394.331	461.31
394.556	446.31
394.78	468.31
395.005	506.31
395.229	469.31
395.454	507.31
395.678	500.31
395.903	504.31
396.127	517.31
396.352	510.31
396.576	478.31
396.801	467.31
397.025	489.31
397.249	485.31
397.474	497.31
397.698	494.31
397.922	515.31
398.147	524.31
398.371	541.31
398.595	540.31
398.82	528.31
399.044	575.31
399.268	593.31
399.492	647.31
399.717	698.31
399.941	704.31
400.165	678.31
400.389	672.31
400.613	625.31
400.837	577.31
401.062	575.31
401.286	548.31
401.51	553.31
401.734	552.31
401.958	552.31
402.182	537.31
402.406	533.31
402.63	544.31
402.854	555.31
403.078	569.31
403.302	545.31
403.526	570.31
403.75	583.31
403.974	599.31
404.198	583.31
404.422	607.31
404.645	587.31
404.869	577.31
405.093	601.31
405.317	633.31
405.541	670.31
405.765	611.31
405.988	598.31
406.212	579.31
406.436	599.31
406.66	612.31
406.883	614.31
407.107	630.31
407.331	680.31
407.555	736.31
407.778	715.31
408.002	680.31
408.226	619.31
408.449	639.31
408.673	616.31
408.896	631.31
409.12	660.31
409.344	648.31
409.567	600.31
409.791	585.31
410.014	566.31
410.238	570.31
410.461	576.31
410.685	580.31
410.908	584.31
411.132	596.31
411.355	616.31
411.578	605.31
411.802	579.31
412.025	545.31
412.249	579.31
412.472	574.31
412.695	595.31
412.919	604.31
413.142	560.31
413.365	574.31
413.589	560.31
413.812	529.31
414.035	533.31
414.258	535.31
414.482	538.31
414.705	546.31
414.928	536.31
415.151	531.31
415.374	525.31
415.597	540.31
415.821	529.31
416.044	515.31
416.267	520.31
416.49	517.31
416.713	515.31
416.936	504.31
417.159	537.31
417.382	547.31
417.605	554.31
417.828	534.31
418.051	561.31
418.274	562.31
418.497	546.31
418.72	540.31
418.943	537.31
419.166	560.31
419.389	591.31
419.611	568.31
419.834	559.31
420.057	565.31
420.28	561.31
420.503	553.31
420.726	561.31
420.948	562.31
421.171	587.31
421.394	612.31
421.617	567.31
421.839	532.31
422.062	557.31
422.285	559.31
422.507	582.31
422.73	659.31
422.953	639.31
423.175	564.31
423.398	572.31
423.621	557.31
423.843	582.31
424.066	575.31
424.288	578.31
424.511	602.31
424.733	616.31
424.956	680.31
425.178	656.31
425.401	679.31
425.623	664.31
425.846	607.31
426.068	563.31
426.291	554.31
426.513	560.31
426.735	564.31
426.958	574.31
427.18	651.31
427.402	770.31
427.625	802.31
427.847	688.31
428.069	632.31
428.292	587.31
428.514	535.31
428.736	530.31
428.958	524.31
429.181	510.31
429.403	511.31
429.625	532.31
429.847	549.31
430.069	573.31
430.292	583.31
430.514	516.31
430.736	515.31
430.958	520.31
431.18	519.31
431.402	501.31
431.624	492.31
431.846	519.31
432.068	508.31
432.29	523.31
432.512	496.31
432.734	515.31
432.956	510.31
433.178	524.31
433.4	516.31
433.622	500.31
433.844	512.31
434.066	517.31
434.287	502.31
434.509	523.31
434.731	516.31
434.953	546.31
435.175	543.31
435.397	563.31
435.618	555.31
435.84	586.31
436.062	661.31
436.284	692.31
436.505	594.31
436.727	554.31
436.949	533.31
437.17	516.31
437.392	534.31
437.614	548.31
437.835	535.31
438.057	616.31
438.278	670.31
438.5	663.31
438.721	740.31
438.943	726.31
439.165	575.31
439.386	543.31
439.608	565.31
439.829	550.31
440.05	560.31
440.272	584.31
440.493	571.31
440.715	533.31
440.936	538.31
441.158	535.31
441.379	551.31
441.6	544.31
441.822	547.31
442.043	593.31
442.264	660.31
442.486	679.31
442.707	620.31
442.928	567.31
443.149	577.31
443.371	599.31
443.592	629.31
443.813	677.31
444.034	745.31
444.255	652.31
444.476	602.31
444.698	624.31
444.919	610.31
445.14	701.31
445.361	639.31
445.582	630.31
445.803	633.31
446.024	685.31
446.245	720.31
446.466	641.31
446.687	568.31
446.908	575.31
447.129	531.31
447.35	529.31
447.571	524.31
447.792	505.31
448.013	515.31
448.234	502.31
448.455	539.31
448.675	633.31
448.896	732.31
449.117	646.31
449.338	616.31
449.559	665.31
449.779	757.31
450	595.31
450.221	545.31
450.442	514.31
450.662	492.31
450.883	480.31
451.104	496.31
451.324	490.31
451.545	490.31
451.766	469.31
451.986	462.31
452.207	473.31
452.428	462.31
452.648	452.31
452.869	475.31
453.089	479.31
453.31	487.31
453.53	467.31
453.751	455.31
453.971	454.31
454.192	456.31
454.412	451.31
454.633	447.31
454.853	451.31
455.073	470.31
455.294	473.31
455.514	507.31
455.734	518.31
455.955	450.31
456.175	427.31
456.395	446.31
456.616	420.31
456.836	436.31
457.056	445.31
457.276	427.31
457.497	439.31
457.717	429.31
457.937	468.31
458.157	463.31
458.377	473.31
458.598	461.31
458.818	496.31
459.038	548.31
459.258	565.31
459.478	540.31
459.698	520.31
459.918	525.31
460.138	504.31
460.358	520.31
460.578	516.31
460.798	530.31
461.018	539.31
461.238	549.31
461.458	538.31
461.678	549.31
461.898	542.31
462.118	541.31
462.338	562.31
462.558	593.31
462.777	577.31
462.997	604.31
463.217	615.31
463.437	641.31
463.657	605.31
463.876	592.31
464.096	580.31
464.316	602.31
464.536	587.31
464.755	591.31
464.975	580.31
465.195	576.31
465.414	605.31
465.634	553.31
465.854	530.31
466.073	497.31
466.293	510.31
466.512	531.31
466.732	503.31
466.951	486.31
467.171	469.31
467.391	483.31
467.61	503.31
467.829	485.31
468.049	490.31
468.268	466.31
468.488	465.31
468.707	460.31
468.927	490.31
469.146	484.31
469.365	451.31
469.585	463.31
469.804	492.31
470.023	482.31
470.243	495.31
470.462	515.31
470.681	519.31
470.901	493.31
471.12	489.31
471.339	489.31
471.558	481.31
471.777	465.31
471.997	498.31
472.216	487.31
472.435	497.31
472.654	493.31
472.873	493.31
473.092	472.31
473.311	474.31
473.53	489.31
473.749	490.31
473.968	524.31
474.187	576.31
474.406	578.31
474.625	513.31
474.844	500.31
475.063	499.31
475.282	481.31
475.501	479.31
475.72	500.31
475.939	486.31
476.158	509.31
476.377	472.31
476.596	490.31
476.814	505.31
477.033	488.31
477.252	508.31
477.471	517.31
477.69	516.31
477.908	544.31
478.127	554.31
478.346	531.31
478.564	559.31
478.783	548.31
479.002	566.31
479.22	577.31
479.439	593.31
479.658	560.31
479.876	599.31
480.095	601.31
480.313	609.31
480.532	615.31
480.751	602.31
480.969	611.31
481.188	623.31
481.406	662.31
481.624	592.31
481.843	556.31
482.061	553.31
482.28	565.31
482.498	543.31
482.717	579.31
482.935	545.31
483.153	556.31
483.372	545.31
483.59	553.31
483.808	552.31
484.027	553.31
484.245	571.31
484.463	561.31
484.681	573.31
484.9	567.31
485.118	560.31
485.336	572.31
485.554	563.31
485.772	556.31
485.99	582.31
486.209	593.31
486.427	599.31
486.645	585.31
486.863	576.31
487.081	599.31
487.299	583.31
487.517	589.31
487.735	607.31
487.953	578.31
488.171	601.31
488.389	601.31
488.607	618.31
488.825	609.31
489.043	615.31
489.261	589.31
489.479	596.31
489.696	606.31
489.914	611.31
490.132	610.31
490.35	614.31
490.568	607.31
490.786	623.31
491.003	631.31
491.221	636.31
491.439	644.31
491.657	628.31
491.874	639.31
492.092	649.31
492.31	668.31
492.527	673.31
492.745	661.31
492.963	673.31
493.18	666.31
493.398	668.31
493.615	700.31
493.833	692.31
494.05	694.31
494.268	672.31
494.485	641.31
494.703	683.31
494.92	678.31
495.138	662.31
495.355	714.31
495.573	698.31
495.79	689.31
496.008	716.31
496.225	713.31
496.442	679.31
496.66	716.31
496.877	689.31
497.094	687.31
497.312	693.31
497.529	704.31
497.746	727.31
497.963	750.31
498.181	758.31
498.398	805.31
498.615	821.31
498.832	822.31
499.049	856.31
499.267	892.31
499.484	917.31
499.701	985.31
499.918	1064.31
500.135	1152.31
500.352	1217.31
500.569	1236.31
500.786	1212.31
501.003	1226.31
501.22	1126.31
501.437	1053.31
501.654	986.31
501.871	934.31
