Data from 1962.PennyLincolnUp.Lamp.En5.5.200Scan.071719.P1._HRD10591_13-52-59-060.txt Node
Date: Thu Jul 18 13:52:59 EDT 2019
User: cochatt
Spectrometer: HR+D1059
Trigger mode: 1
Integration Time (sec): 1.000000E-1
Scans to average: 1
Electric dark correction enabled: true
Nonlinearity correction enabled: false
Boxcar width: 0
XAxis mode: Wavelengths
Number of Pixels in Spectrum: 2048
>>>>>Begin Spectral Data<<<<<
223.165	-21.31
223.4	-21.31
223.635	-21.31
223.869	-8.31
224.104	-19.31
224.338	-9.31
224.573	-8.31
224.808	-27.31
225.042	-15.31
225.277	-10.31
225.511	-10.31
225.746	2.69
225.98	11.69
226.215	18.69
226.449	19.69
226.683	19.69
226.918	26.69
227.152	30.69
227.387	36.69
227.621	47.69
227.856	49.69
228.09	38.69
228.324	51.69
228.559	63.69
228.793	68.69
229.027	95.69
229.262	99.69
229.496	105.69
229.73	107.69
229.964	118.69
230.199	120.69
230.433	113.69
230.667	98.69
230.901	86.69
231.136	99.69
231.37	98.69
231.604	103.69
231.838	110.69
232.072	113.69
232.306	113.69
232.541	108.69
232.775	109.69
233.009	117.69
233.243	100.69
233.477	105.69
233.711	121.69
233.945	112.69
234.179	110.69
234.413	117.69
234.647	101.69
234.881	124.69
235.115	106.69
235.349	105.69
235.583	125.69
235.817	123.69
236.051	122.69
236.285	118.69
236.519	113.69
236.753	119.69
236.987	127.69
237.221	134.69
237.455	170.69
237.689	140.69
237.922	117.69
238.156	106.69
238.39	121.69
238.624	120.69
238.858	107.69
239.091	94.69
239.325	121.69
239.559	105.69
239.793	118.69
240.027	120.69
240.26	129.69
240.494	128.69
240.728	143.69
240.961	147.69
241.195	137.69
241.429	128.69
241.662	128.69
241.896	114.69
242.13	139.69
242.363	126.69
242.597	117.69
242.83	149.69
243.064	119.69
243.298	118.69
243.531	146.69
243.765	155.69
243.998	127.69
244.232	137.69
244.465	149.69
244.699	123.69
244.932	137.69
245.166	131.69
245.399	133.69
245.633	144.69
245.866	143.69
246.099	135.69
246.333	143.69
246.566	129.69
246.8	135.69
247.033	128.69
247.266	147.69
247.5	154.69
247.733	137.69
247.966	149.69
248.2	131.69
248.433	140.69
248.666	152.69
248.899	156.69
249.133	160.69
249.366	168.69
249.599	175.69
249.832	161.69
250.066	166.69
250.299	164.69
250.532	181.69
250.765	183.69
250.998	170.69
251.231	176.69
251.465	172.69
251.698	182.69
251.931	183.69
252.164	161.69
252.397	162.69
252.63	162.69
252.863	175.69
253.096	181.69
253.329	183.69
253.562	183.69
253.795	178.69
254.028	189.69
254.261	193.69
254.494	181.69
254.727	194.69
254.96	216.69
255.193	195.69
255.426	196.69
255.659	194.69
255.892	193.69
256.124	200.69
256.357	175.69
256.59	186.69
256.823	200.69
257.056	184.69
257.289	178.69
257.521	181.69
257.754	182.69
257.987	177.69
258.22	188.69
258.452	195.69
258.685	185.69
258.918	189.69
259.151	190.69
259.383	202.69
259.616	201.69
259.849	203.69
260.081	201.69
260.314	198.69
260.547	210.69
260.779	201.69
261.012	213.69
261.244	209.69
261.477	223.69
261.71	200.69
261.942	183.69
262.175	192.69
262.407	205.69
262.64	204.69
262.872	198.69
263.105	206.69
263.337	218.69
263.57	206.69
263.802	202.69
264.035	206.69
264.267	210.69
264.499	201.69
264.732	191.69
264.964	190.69
265.197	202.69
265.429	186.69
265.661	190.69
265.894	189.69
266.126	201.69
266.358	198.69
266.591	210.69
266.823	205.69
267.055	199.69
267.287	209.69
267.52	203.69
267.752	216.69
267.984	215.69
268.216	216.69
268.448	232.69
268.681	220.69
268.913	205.69
269.145	236.69
269.377	241.69
269.609	248.69
269.841	240.69
270.073	236.69
270.306	246.69
270.538	247.69
270.77	277.69
271.002	238.69
271.234	247.69
271.466	243.69
271.698	260.69
271.93	252.69
272.162	260.69
272.394	246.69
272.626	253.69
272.858	250.69
273.09	234.69
273.322	245.69
273.553	243.69
273.785	231.69
274.017	219.69
274.249	255.69
274.481	231.69
274.713	228.69
274.945	248.69
275.176	247.69
275.408	227.69
275.64	229.69
275.872	257.69
276.104	254.69
276.335	250.69
276.567	244.69
276.799	274.69
277.031	260.69
277.262	273.69
277.494	286.69
277.726	277.69
277.957	264.69
278.189	255.69
278.421	248.69
278.652	238.69
278.884	225.69
279.115	263.69
279.347	253.69
279.579	251.69
279.81	258.69
280.042	260.69
280.273	274.69
280.505	244.69
280.736	238.69
280.968	263.69
281.199	259.69
281.431	265.69
281.662	262.69
281.894	262.69
282.125	270.69
282.356	274.69
282.588	271.69
282.819	273.69
283.051	268.69
283.282	266.69
283.513	255.69
283.745	269.69
283.976	259.69
284.207	275.69
284.439	276.69
284.67	269.69
284.901	270.69
285.132	258.69
285.364	285.69
285.595	281.69
285.826	255.69
286.057	280.69
286.288	270.69
286.52	267.69
286.751	275.69
286.982	282.69
287.213	269.69
287.444	297.69
287.675	276.69
287.906	269.69
288.138	275.69
288.369	285.69
288.6	296.69
288.831	280.69
289.062	298.69
289.293	281.69
289.524	277.69
289.755	288.69
289.986	287.69
290.217	269.69
290.448	271.69
290.679	282.69
290.91	281.69
291.141	286.69
291.371	295.69
291.602	274.69
291.833	298.69
292.064	291.69
292.295	297.69
292.526	310.69
292.757	291.69
292.987	277.69
293.218	270.69
293.449	303.69
293.68	299.69
293.91	302.69
294.141	279.69
294.372	289.69
294.603	269.69
294.833	282.69
295.064	301.69
295.295	279.69
295.525	304.69
295.756	311.69
295.987	279.69
296.217	315.69
296.448	315.69
296.679	287.69
296.909	305.69
297.14	285.69
297.37	305.69
297.601	309.69
297.831	291.69
298.062	289.69
298.292	287.69
298.523	301.69
298.753	301.69
298.984	299.69
299.214	296.69
299.445	295.69
299.675	299.69
299.905	307.69
300.136	307.69
300.366	325.69
300.597	291.69
300.827	307.69
301.057	321.69
301.288	323.69
301.518	322.69
301.748	316.69
301.979	320.69
302.209	329.69
302.439	310.69
302.669	295.69
302.9	310.69
303.13	326.69
303.36	320.69
303.59	325.69
303.82	328.69
304.051	317.69
304.281	305.69
304.511	321.69
304.741	328.69
304.971	319.69
305.201	327.69
305.431	319.69
305.661	325.69
305.891	328.69
306.121	318.69
306.352	319.69
306.582	325.69
306.812	315.69
307.042	318.69
307.272	333.69
307.502	336.69
307.731	330.69
307.961	289.69
308.191	327.69
308.421	319.69
308.651	316.69
308.881	334.69
309.111	322.69
309.341	339.69
309.571	321.69
309.8	319.69
310.03	331.69
310.26	340.69
310.49	333.69
310.72	353.69
310.949	343.69
311.179	347.69
311.409	334.69
311.639	333.69
311.868	341.69
312.098	342.69
312.328	355.69
312.557	350.69
312.787	340.69
313.017	363.69
313.246	354.69
313.476	347.69
313.706	343.69
313.935	358.69
314.165	348.69
314.394	358.69
314.624	350.69
314.853	350.69
315.083	330.69
315.312	347.69
315.542	355.69
315.771	357.69
316.001	353.69
316.23	346.69
316.46	334.69
316.689	355.69
316.919	366.69
317.148	336.69
317.377	350.69
317.607	355.69
317.836	357.69
318.065	367.69
318.295	342.69
318.524	359.69
318.753	345.69
318.983	350.69
319.212	347.69
319.441	362.69
319.67	370.69
319.9	355.69
320.129	343.69
320.358	362.69
320.587	373.69
320.816	375.69
321.046	358.69
321.275	364.69
321.504	362.69
321.733	344.69
321.962	363.69
322.191	377.69
322.42	375.69
322.649	386.69
322.878	397.69
323.108	397.69
323.337	387.69
323.566	399.69
323.795	415.69
324.024	422.69
324.253	477.69
324.482	589.69
324.71	841.69
324.939	1119.69
325.168	992.69
325.397	585.69
325.626	460.69
325.855	420.69
326.084	405.69
326.313	413.69
326.542	410.69
326.77	438.69
326.999	482.69
327.228	556.69
327.457	771.69
327.686	887.69
327.914	668.69
328.143	505.69
328.372	463.69
328.6	462.69
328.829	422.69
329.058	439.69
329.287	433.69
329.515	422.69
329.744	437.69
329.972	437.69
330.201	429.69
330.43	445.69
330.658	449.69
330.887	457.69
331.115	449.69
331.344	424.69
331.572	431.69
331.801	424.69
332.03	430.69
332.258	419.69
332.486	423.69
332.715	429.69
332.943	427.69
333.172	428.69
333.4	455.69
333.629	470.69
333.857	475.69
334.085	478.69
334.314	463.69
334.542	454.69
334.771	494.69
334.999	462.69
335.227	465.69
335.455	437.69
335.684	440.69
335.912	448.69
336.14	419.69
336.369	420.69
336.597	439.69
336.825	425.69
337.053	436.69
337.281	435.69
337.51	410.69
337.738	410.69
337.966	414.69
338.194	418.69
338.422	415.69
338.65	424.69
338.878	411.69
339.106	419.69
339.334	399.69
339.562	411.69
339.79	412.69
340.018	411.69
340.246	403.69
340.474	399.69
340.702	414.69
340.93	408.69
341.158	413.69
341.386	398.69
341.614	406.69
341.842	401.69
342.07	392.69
342.298	396.69
342.526	392.69
342.754	398.69
342.981	386.69
343.209	405.69
343.437	404.69
343.665	410.69
343.893	418.69
344.12	446.69
344.348	450.69
344.576	431.69
344.804	441.69
345.031	418.69
345.259	415.69
345.487	419.69
345.714	403.69
345.942	412.69
346.17	378.69
346.397	380.69
346.625	382.69
346.853	386.69
347.08	394.69
347.308	374.69
347.535	386.69
347.763	399.69
347.99	398.69
348.218	386.69
348.445	374.69
348.673	373.69
348.9	388.69
349.128	380.69
349.355	369.69
349.583	395.69
349.81	377.69
350.037	397.69
350.265	374.69
350.492	394.69
350.72	381.69
350.947	402.69
351.174	377.69
351.402	377.69
351.629	398.69
351.856	397.69
352.083	386.69
352.311	386.69
352.538	367.69
352.765	389.69
352.992	380.69
353.22	375.69
353.447	387.69
353.674	393.69
353.901	377.69
354.128	360.69
354.355	355.69
354.583	389.69
354.81	377.69
355.037	366.69
355.264	373.69
355.491	373.69
355.718	375.69
355.945	377.69
356.172	379.69
356.399	367.69
356.626	374.69
356.853	391.69
357.08	380.69
357.307	367.69
357.534	351.69
357.761	379.69
357.988	357.69
358.215	379.69
358.441	374.69
358.668	377.69
358.895	399.69
359.122	364.69
359.349	385.69
359.576	387.69
359.802	389.69
360.029	411.69
360.256	381.69
360.483	393.69
360.709	379.69
360.936	402.69
361.163	373.69
361.39	376.69
361.616	393.69
361.843	403.69
362.07	383.69
362.296	393.69
362.523	371.69
362.749	390.69
362.976	393.69
363.203	383.69
363.429	379.69
363.656	386.69
363.882	403.69
364.109	354.69
364.335	362.69
364.562	374.69
364.788	393.69
365.015	380.69
365.241	365.69
365.468	367.69
365.694	384.69
365.92	383.69
366.147	356.69
366.373	369.69
366.599	381.69
366.826	373.69
367.052	374.69
367.278	364.69
367.505	391.69
367.731	382.69
367.957	377.69
368.184	387.69
368.41	380.69
368.636	397.69
368.862	383.69
369.089	381.69
369.315	370.69
369.541	386.69
369.767	387.69
369.993	375.69
370.219	384.69
370.445	397.69
370.672	387.69
370.898	378.69
371.124	383.69
371.35	384.69
371.576	411.69
371.802	389.69
372.028	409.69
372.254	375.69
372.48	383.69
372.706	407.69
372.932	384.69
373.158	414.69
373.384	411.69
373.61	390.69
373.835	406.69
374.061	400.69
374.287	389.69
374.513	405.69
374.739	415.69
374.965	403.69
375.191	432.69
375.416	414.69
375.642	388.69
375.868	403.69
376.094	375.69
376.319	395.69
376.545	390.69
376.771	403.69
376.997	388.69
377.222	389.69
377.448	390.69
377.674	396.69
377.899	381.69
378.125	372.69
378.35	389.69
378.576	391.69
378.802	391.69
379.027	385.69
379.253	382.69
379.478	372.69
379.704	395.69
379.929	368.69
380.155	388.69
380.38	389.69
380.606	397.69
380.831	406.69
381.057	398.69
381.282	407.69
381.507	391.69
381.733	391.69
381.958	413.69
382.184	387.69
382.409	405.69
382.634	401.69
382.86	416.69
383.085	415.69
383.31	410.69
383.535	436.69
383.761	450.69
383.986	419.69
384.211	404.69
384.436	435.69
384.662	444.69
384.887	420.69
385.112	417.69
385.337	436.69
385.562	437.69
385.787	434.69
386.013	452.69
386.238	449.69
386.463	456.69
386.688	453.69
386.913	449.69
387.138	436.69
387.363	431.69
387.588	464.69
387.813	472.69
388.038	469.69
388.263	446.69
388.488	455.69
388.713	465.69
388.938	438.69
389.163	451.69
389.387	453.69
389.612	445.69
389.837	421.69
390.062	433.69
390.287	448.69
390.512	422.69
390.736	431.69
390.961	446.69
391.186	453.69
391.411	442.69
391.636	454.69
391.86	476.69
392.085	475.69
392.31	485.69
392.534	468.69
392.759	471.69
392.984	462.69
393.208	454.69
393.433	454.69
393.658	462.69
393.882	459.69
394.107	457.69
394.331	468.69
394.556	462.69
394.78	446.69
395.005	464.69
395.229	458.69
395.454	476.69
395.678	491.69
395.903	487.69
396.127	492.69
396.352	499.69
396.576	489.69
396.801	465.69
397.025	463.69
397.249	486.69
397.474	465.69
397.698	493.69
397.922	489.69
398.147	498.69
398.371	523.69
398.595	530.69
398.82	527.69
399.044	537.69
399.268	575.69
399.492	601.69
399.717	659.69
399.941	646.69
400.165	663.69
400.389	647.69
400.613	601.69
400.837	584.69
401.062	540.69
401.286	525.69
401.51	513.69
401.734	501.69
401.958	538.69
402.182	539.69
402.406	535.69
402.63	555.69
402.854	537.69
403.078	521.69
403.302	565.69
403.526	574.69
403.75	557.69
403.974	555.69
404.198	562.69
404.422	547.69
404.645	568.69
404.869	542.69
405.093	595.69
405.317	598.69
405.541	620.69
405.765	565.69
405.988	558.69
406.212	586.69
406.436	566.69
406.66	608.69
406.883	595.69
407.107	618.69
407.331	645.69
407.555	668.69
407.778	667.69
408.002	634.69
408.226	615.69
408.449	573.69
408.673	587.69
408.896	594.69
409.12	625.69
409.344	599.69
409.567	565.69
409.791	553.69
410.014	559.69
410.238	582.69
410.461	569.69
410.685	561.69
410.908	543.69
411.132	590.69
411.355	573.69
411.578	585.69
411.802	522.69
412.025	546.69
412.249	524.69
412.472	555.69
412.695	564.69
412.919	564.69
413.142	533.69
413.365	536.69
413.589	527.69
413.812	499.69
414.035	510.69
414.258	497.69
414.482	512.69
414.705	530.69
414.928	535.69
415.151	511.69
415.374	508.69
415.597	507.69
415.821	506.69
416.044	502.69
416.267	511.69
416.49	518.69
416.713	497.69
416.936	499.69
417.159	501.69
417.382	505.69
417.605	519.69
417.828	497.69
418.051	537.69
418.274	525.69
418.497	529.69
418.72	517.69
418.943	517.69
419.166	518.69
419.389	565.69
419.611	550.69
419.834	561.69
420.057	534.69
420.28	517.69
420.503	529.69
420.726	520.69
420.948	515.69
421.171	539.69
421.394	581.69
421.617	532.69
421.839	519.69
422.062	525.69
422.285	515.69
422.507	550.69
422.73	638.69
422.953	580.69
423.175	563.69
423.398	530.69
423.621	547.69
423.843	550.69
424.066	563.69
424.288	556.69
424.511	562.69
424.733	593.69
424.956	647.69
425.178	633.69
425.401	606.69
425.623	603.69
425.846	562.69
426.068	534.69
426.291	499.69
426.513	533.69
426.735	516.69
426.958	549.69
427.18	611.69
427.402	691.69
427.625	713.69
427.847	658.69
428.069	588.69
428.292	549.69
428.514	503.69
428.736	506.69
428.958	494.69
429.181	512.69
429.403	494.69
429.625	500.69
429.847	516.69
430.069	553.69
430.292	563.69
430.514	498.69
430.736	476.69
430.958	494.69
431.18	483.69
431.402	485.69
431.624	479.69
431.846	479.69
432.068	476.69
432.29	491.69
432.512	490.69
432.734	469.69
432.956	502.69
433.178	491.69
433.4	493.69
433.622	488.69
433.844	501.69
434.066	489.69
434.287	481.69
434.509	513.69
434.731	507.69
434.953	526.69
435.175	515.69
435.397	531.69
435.618	524.69
435.84	551.69
436.062	614.69
436.284	645.69
436.505	552.69
436.727	515.69
436.949	507.69
437.17	502.69
437.392	515.69
437.614	490.69
437.835	527.69
438.057	567.69
438.278	601.69
438.5	642.69
438.721	671.69
438.943	647.69
439.165	535.69
439.386	535.69
439.608	523.69
439.829	517.69
440.05	519.69
440.272	526.69
440.493	541.69
440.715	530.69
440.936	498.69
441.158	487.69
441.379	500.69
441.6	523.69
441.822	520.69
442.043	559.69
442.264	610.69
442.486	639.69
442.707	547.69
442.928	551.69
443.149	530.69
443.371	526.69
443.592	571.69
443.813	639.69
444.034	661.69
444.255	631.69
444.476	577.69
444.698	567.69
444.919	554.69
445.14	693.69
445.361	617.69
445.582	569.69
445.803	568.69
446.024	628.69
446.245	601.69
446.466	580.69
446.687	523.69
446.908	520.69
447.129	508.69
447.35	497.69
447.571	494.69
447.792	490.69
448.013	482.69
448.234	482.69
448.455	507.69
448.675	591.69
448.896	665.69
449.117	557.69
449.338	538.69
449.559	606.69
449.779	682.69
450	569.69
450.221	506.69
450.442	486.69
450.662	470.69
450.883	483.69
451.104	458.69
451.324	457.69
451.545	455.69
451.766	438.69
451.986	449.69
452.207	430.69
452.428	429.69
452.648	442.69
452.869	407.69
453.089	440.69
453.31	435.69
453.53	455.69
453.751	446.69
453.971	431.69
454.192	439.69
454.412	417.69
454.633	421.69
454.853	421.69
455.073	413.69
455.294	442.69
455.514	482.69
455.734	456.69
455.955	426.69
456.175	465.69
456.395	442.69
456.616	417.69
456.836	420.69
457.056	420.69
457.276	423.69
457.497	436.69
457.717	429.69
457.937	437.69
458.157	438.69
458.377	438.69
458.598	441.69
458.818	467.69
459.038	514.69
459.258	507.69
459.478	503.69
459.698	492.69
459.918	487.69
460.138	516.69
460.358	509.69
460.578	504.69
460.798	491.69
461.018	513.69
461.238	524.69
461.458	526.69
461.678	519.69
461.898	538.69
462.118	528.69
462.338	541.69
462.558	550.69
462.777	574.69
462.997	605.69
463.217	612.69
463.437	620.69
463.657	593.69
463.876	595.69
464.096	574.69
464.316	569.69
464.536	545.69
464.755	547.69
464.975	534.69
465.195	556.69
465.414	548.69
465.634	530.69
465.854	505.69
466.073	497.69
466.293	475.69
466.512	452.69
466.732	470.69
466.951	470.69
467.171	463.69
467.391	459.69
467.61	457.69
467.829	468.69
468.049	451.69
468.268	462.69
468.488	445.69
468.707	454.69
468.927	450.69
469.146	433.69
469.365	462.69
469.585	436.69
469.804	436.69
470.023	458.69
470.243	461.69
470.462	451.69
470.681	467.69
470.901	466.69
471.12	457.69
471.339	457.69
471.558	460.69
471.777	471.69
471.997	462.69
472.216	434.69
472.435	489.69
472.654	452.69
472.873	468.69
473.092	442.69
473.311	456.69
473.53	464.69
473.749	446.69
473.968	482.69
474.187	527.69
474.406	540.69
474.625	473.69
474.844	474.69
475.063	444.69
475.282	453.69
475.501	457.69
475.72	470.69
475.939	471.69
476.158	470.69
476.377	469.69
476.596	470.69
476.814	462.69
477.033	482.69
477.252	471.69
477.471	478.69
477.69	500.69
477.908	492.69
478.127	519.69
478.346	522.69
478.564	525.69
478.783	533.69
479.002	558.69
479.22	554.69
479.439	536.69
479.658	539.69
479.876	551.69
480.095	553.69
480.313	605.69
480.532	597.69
480.751	599.69
480.969	574.69
481.188	577.69
481.406	595.69
481.624	556.69
481.843	535.69
482.061	541.69
482.28	527.69
482.498	510.69
482.717	537.69
482.935	537.69
483.153	530.69
483.372	519.69
483.59	569.69
483.808	545.69
484.027	555.69
484.245	552.69
484.463	565.69
484.681	601.69
484.9	557.69
485.118	542.69
485.336	554.69
485.554	577.69
485.772	551.69
485.99	549.69
486.209	563.69
486.427	566.69
486.645	525.69
486.863	565.69
487.081	572.69
487.299	568.69
487.517	569.69
487.735	569.69
487.953	558.69
488.171	577.69
488.389	550.69
488.607	572.69
488.825	561.69
489.043	569.69
489.261	574.69
489.479	570.69
489.696	600.69
489.914	590.69
490.132	604.69
490.35	595.69
490.568	605.69
490.786	568.69
491.003	593.69
491.221	574.69
491.439	593.69
491.657	575.69
491.874	606.69
492.092	609.69
492.31	618.69
492.527	620.69
492.745	598.69
492.963	622.69
493.18	629.69
493.398	637.69
493.615	612.69
493.833	633.69
494.05	622.69
494.268	626.69
494.485	611.69
494.703	648.69
494.92	641.69
495.138	623.69
495.355	627.69
495.573	634.69
495.79	638.69
496.008	627.69
496.225	650.69
496.442	660.69
496.66	664.69
496.877	637.69
497.094	670.69
497.312	668.69
497.529	671.69
497.746	691.69
497.963	712.69
498.181	706.69
498.398	761.69
498.615	791.69
498.832	782.69
499.049	820.69
499.267	847.69
499.484	899.69
499.701	947.69
499.918	998.69
500.135	1062.69
500.352	1153.69
500.569	1180.69
500.786	1187.69
501.003	1147.69
501.22	1095.69
501.437	1021.69
501.654	946.69
501.871	913.69
