Data from 1962.PennyLincolnUp.Lamp.En5.5.200Scan.071719.P1._HRD10591_13-52-53-060.txt Node
Date: Thu Jul 18 13:52:53 EDT 2019
User: cochatt
Spectrometer: HR+D1059
Trigger mode: 1
Integration Time (sec): 1.000000E-1
Scans to average: 1
Electric dark correction enabled: true
Nonlinearity correction enabled: false
Boxcar width: 0
XAxis mode: Wavelengths
Number of Pixels in Spectrum: 2048
>>>>>Begin Spectral Data<<<<<
223.165	-18.56
223.4	-18.56
223.635	-18.56
223.869	-23.56
224.104	-24.56
224.338	-20.56
224.573	-16.56
224.808	-2.56
225.042	-1.56
225.277	-7.56
225.511	-12.56
225.746	3.44
225.98	15.44
226.215	7.44
226.449	17.44
226.683	22.44
226.918	27.44
227.152	34.44
227.387	38.44
227.621	23.44
227.856	46.44
228.09	39.44
228.324	44.44
228.559	41.44
228.793	66.44
229.027	87.44
229.262	93.44
229.496	107.44
229.73	106.44
229.964	119.44
230.199	99.44
230.433	96.44
230.667	91.44
230.901	92.44
231.136	120.44
231.37	105.44
231.604	120.44
231.838	111.44
232.072	115.44
232.306	98.44
232.541	102.44
232.775	103.44
233.009	87.44
233.243	115.44
233.477	97.44
233.711	113.44
233.945	114.44
234.179	96.44
234.413	109.44
234.647	119.44
234.881	126.44
235.115	109.44
235.349	113.44
235.583	117.44
235.817	114.44
236.051	122.44
236.285	116.44
236.519	119.44
236.753	111.44
236.987	106.44
237.221	131.44
237.455	168.44
237.689	123.44
237.922	130.44
238.156	115.44
238.39	117.44
238.624	112.44
238.858	134.44
239.091	131.44
239.325	120.44
239.559	116.44
239.793	101.44
240.027	105.44
240.26	123.44
240.494	121.44
240.728	113.44
240.961	138.44
241.195	134.44
241.429	136.44
241.662	116.44
241.896	126.44
242.13	105.44
242.363	102.44
242.597	126.44
242.83	132.44
243.064	141.44
243.298	126.44
243.531	129.44
243.765	131.44
243.998	148.44
244.232	128.44
244.465	121.44
244.699	145.44
244.932	135.44
245.166	131.44
245.399	131.44
245.633	136.44
245.866	137.44
246.099	110.44
246.333	139.44
246.566	135.44
246.8	134.44
247.033	148.44
247.266	149.44
247.5	129.44
247.733	140.44
247.966	149.44
248.2	143.44
248.433	150.44
248.666	145.44
248.899	157.44
249.133	153.44
249.366	176.44
249.599	147.44
249.832	155.44
250.066	155.44
250.299	167.44
250.532	169.44
250.765	175.44
250.998	173.44
251.231	184.44
251.465	185.44
251.698	167.44
251.931	175.44
252.164	152.44
252.397	177.44
252.63	164.44
252.863	160.44
253.096	178.44
253.329	184.44
253.562	161.44
253.795	175.44
254.028	177.44
254.261	161.44
254.494	193.44
254.727	209.44
254.96	225.44
255.193	200.44
255.426	187.44
255.659	188.44
255.892	204.44
256.124	197.44
256.357	179.44
256.59	199.44
256.823	177.44
257.056	193.44
257.289	191.44
257.521	178.44
257.754	180.44
257.987	195.44
258.22	178.44
258.452	186.44
258.685	179.44
258.918	178.44
259.151	183.44
259.383	206.44
259.616	196.44
259.849	206.44
260.081	201.44
260.314	200.44
260.547	216.44
260.779	207.44
261.012	196.44
261.244	210.44
261.477	204.44
261.71	187.44
261.942	206.44
262.175	217.44
262.407	197.44
262.64	208.44
262.872	180.44
263.105	183.44
263.337	191.44
263.57	211.44
263.802	207.44
264.035	195.44
264.267	202.44
264.499	193.44
264.732	209.44
264.964	201.44
265.197	199.44
265.429	191.44
265.661	191.44
265.894	213.44
266.126	210.44
266.358	198.44
266.591	200.44
266.823	213.44
267.055	198.44
267.287	211.44
267.52	203.44
267.752	216.44
267.984	211.44
268.216	197.44
268.448	201.44
268.681	219.44
268.913	219.44
269.145	232.44
269.377	245.44
269.609	228.44
269.841	260.44
270.073	240.44
270.306	241.44
270.538	251.44
270.77	255.44
271.002	251.44
271.234	247.44
271.466	243.44
271.698	248.44
271.93	291.44
272.162	243.44
272.394	242.44
272.626	258.44
272.858	251.44
273.09	235.44
273.322	226.44
273.553	243.44
273.785	242.44
274.017	242.44
274.249	221.44
274.481	240.44
274.713	226.44
274.945	260.44
275.176	249.44
275.408	237.44
275.64	233.44
275.872	229.44
276.104	248.44
276.335	230.44
276.567	236.44
276.799	276.44
277.031	268.44
277.262	275.44
277.494	267.44
277.726	269.44
277.957	270.44
278.189	251.44
278.421	239.44
278.652	243.44
278.884	226.44
279.115	251.44
279.347	265.44
279.579	251.44
279.81	263.44
280.042	234.44
280.273	245.44
280.505	269.44
280.736	253.44
280.968	239.44
281.199	265.44
281.431	258.44
281.662	271.44
281.894	269.44
282.125	255.44
282.356	285.44
282.588	279.44
282.819	290.44
283.051	279.44
283.282	252.44
283.513	249.44
283.745	275.44
283.976	271.44
284.207	288.44
284.439	280.44
284.67	282.44
284.901	275.44
285.132	245.44
285.364	277.44
285.595	268.44
285.826	272.44
286.057	259.44
286.288	267.44
286.52	283.44
286.751	286.44
286.982	284.44
287.213	285.44
287.444	289.44
287.675	281.44
287.906	269.44
288.138	283.44
288.369	313.44
288.6	277.44
288.831	267.44
289.062	276.44
289.293	278.44
289.524	283.44
289.755	278.44
289.986	281.44
290.217	278.44
290.448	289.44
290.679	274.44
290.91	281.44
291.141	280.44
291.371	295.44
291.602	276.44
291.833	298.44
292.064	276.44
292.295	280.44
292.526	279.44
292.757	291.44
292.987	280.44
293.218	285.44
293.449	293.44
293.68	283.44
293.91	290.44
294.141	287.44
294.372	292.44
294.603	281.44
294.833	291.44
295.064	294.44
295.295	302.44
295.525	285.44
295.756	307.44
295.987	274.44
296.217	296.44
296.448	309.44
296.679	298.44
296.909	309.44
297.14	305.44
297.37	301.44
297.601	302.44
297.831	299.44
298.062	309.44
298.292	283.44
298.523	307.44
298.753	305.44
298.984	306.44
299.214	301.44
299.445	296.44
299.675	306.44
299.905	312.44
300.136	296.44
300.366	319.44
300.597	315.44
300.827	318.44
301.057	321.44
301.288	311.44
301.518	304.44
301.748	307.44
301.979	317.44
302.209	320.44
302.439	319.44
302.669	337.44
302.9	331.44
303.13	324.44
303.36	327.44
303.59	307.44
303.82	313.44
304.051	314.44
304.281	319.44
304.511	323.44
304.741	315.44
304.971	309.44
305.201	325.44
305.431	316.44
305.661	305.44
305.891	330.44
306.121	319.44
306.352	305.44
306.582	322.44
306.812	323.44
307.042	340.44
307.272	303.44
307.502	307.44
307.731	333.44
307.961	354.44
308.191	325.44
308.421	331.44
308.651	324.44
308.881	302.44
309.111	322.44
309.341	315.44
309.571	333.44
309.8	340.44
310.03	343.44
310.26	350.44
310.49	335.44
310.72	349.44
310.949	344.44
311.179	326.44
311.409	353.44
311.639	325.44
311.868	357.44
312.098	356.44
312.328	348.44
312.557	347.44
312.787	353.44
313.017	369.44
313.246	336.44
313.476	344.44
313.706	346.44
313.935	349.44
314.165	370.44
314.394	386.44
314.624	370.44
314.853	358.44
315.083	352.44
315.312	365.44
315.542	358.44
315.771	338.44
316.001	351.44
316.23	350.44
316.46	368.44
316.689	360.44
316.919	346.44
317.148	340.44
317.377	355.44
317.607	351.44
317.836	352.44
318.065	331.44
318.295	363.44
318.524	342.44
318.753	367.44
318.983	360.44
319.212	335.44
319.441	332.44
319.67	352.44
319.9	354.44
320.129	350.44
320.358	344.44
320.587	352.44
320.816	364.44
321.046	376.44
321.275	369.44
321.504	360.44
321.733	367.44
321.962	339.44
322.191	368.44
322.42	368.44
322.649	370.44
322.878	375.44
323.108	376.44
323.337	403.44
323.566	387.44
323.795	418.44
324.024	405.44
324.253	440.44
324.482	575.44
324.71	775.44
324.939	1117.44
325.168	981.44
325.397	595.44
325.626	442.44
325.855	412.44
326.084	401.44
326.313	401.44
326.542	404.44
326.77	425.44
326.999	455.44
327.228	547.44
327.457	758.44
327.686	889.44
327.914	646.44
328.143	508.44
328.372	451.44
328.6	431.44
328.829	421.44
329.058	417.44
329.287	422.44
329.515	410.44
329.744	427.44
329.972	412.44
330.201	417.44
330.43	409.44
330.658	428.44
330.887	465.44
331.115	439.44
331.344	427.44
331.572	417.44
331.801	442.44
332.03	423.44
332.258	424.44
332.486	418.44
332.715	432.44
332.943	434.44
333.172	420.44
333.4	427.44
333.629	460.44
333.857	455.44
334.085	460.44
334.314	469.44
334.542	467.44
334.771	490.44
334.999	454.44
335.227	456.44
335.455	458.44
335.684	451.44
335.912	426.44
336.14	433.44
336.369	439.44
336.597	428.44
336.825	443.44
337.053	440.44
337.281	415.44
337.51	425.44
337.738	418.44
337.966	406.44
338.194	414.44
338.422	405.44
338.65	428.44
338.878	419.44
339.106	403.44
339.334	423.44
339.562	401.44
339.79	417.44
340.018	387.44
340.246	405.44
340.474	402.44
340.702	403.44
340.93	382.44
341.158	409.44
341.386	393.44
341.614	409.44
341.842	402.44
342.07	378.44
342.298	402.44
342.526	388.44
342.754	408.44
342.981	391.44
343.209	408.44
343.437	422.44
343.665	415.44
343.893	445.44
344.12	455.44
344.348	432.44
344.576	431.44
344.804	409.44
345.031	421.44
345.259	396.44
345.487	397.44
345.714	403.44
345.942	390.44
346.17	380.44
346.397	393.44
346.625	387.44
346.853	386.44
347.08	379.44
347.308	391.44
347.535	395.44
347.763	381.44
347.99	401.44
348.218	390.44
348.445	390.44
348.673	380.44
348.9	387.44
349.128	377.44
349.355	371.44
349.583	385.44
349.81	391.44
350.037	373.44
350.265	379.44
350.492	376.44
350.72	372.44
350.947	362.44
351.174	390.44
351.402	371.44
351.629	379.44
351.856	356.44
352.083	395.44
352.311	387.44
352.538	367.44
352.765	378.44
352.992	390.44
353.22	375.44
353.447	356.44
353.674	374.44
353.901	379.44
354.128	365.44
354.355	361.44
354.583	369.44
354.81	380.44
355.037	372.44
355.264	352.44
355.491	373.44
355.718	367.44
355.945	377.44
356.172	343.44
356.399	389.44
356.626	381.44
356.853	375.44
357.08	370.44
357.307	379.44
357.534	351.44
357.761	368.44
357.988	371.44
358.215	362.44
358.441	375.44
358.668	379.44
358.895	371.44
359.122	368.44
359.349	369.44
359.576	397.44
359.802	397.44
360.029	391.44
360.256	395.44
360.483	389.44
360.709	379.44
360.936	379.44
361.163	390.44
361.39	395.44
361.616	367.44
361.843	374.44
362.07	379.44
362.296	383.44
362.523	393.44
362.749	375.44
362.976	369.44
363.203	355.44
363.429	373.44
363.656	388.44
363.882	380.44
364.109	381.44
364.335	370.44
364.562	351.44
364.788	362.44
365.015	371.44
365.241	362.44
365.468	374.44
365.694	376.44
365.92	358.44
366.147	377.44
366.373	375.44
366.599	389.44
366.826	382.44
367.052	382.44
367.278	362.44
367.505	363.44
367.731	384.44
367.957	369.44
368.184	374.44
368.41	385.44
368.636	358.44
368.862	381.44
369.089	385.44
369.315	363.44
369.541	385.44
369.767	381.44
369.993	388.44
370.219	386.44
370.445	382.44
370.672	365.44
370.898	365.44
371.124	384.44
371.35	405.44
371.576	391.44
371.802	385.44
372.028	391.44
372.254	365.44
372.48	376.44
372.706	405.44
372.932	410.44
373.158	398.44
373.384	393.44
373.61	392.44
373.835	391.44
374.061	381.44
374.287	396.44
374.513	393.44
374.739	413.44
374.965	427.44
375.191	430.44
375.416	407.44
375.642	370.44
375.868	397.44
376.094	403.44
376.319	392.44
376.545	390.44
376.771	419.44
376.997	392.44
377.222	385.44
377.448	403.44
377.674	379.44
377.899	376.44
378.125	368.44
378.35	371.44
378.576	385.44
378.802	394.44
379.027	390.44
379.253	380.44
379.478	370.44
379.704	408.44
379.929	382.44
380.155	391.44
380.38	386.44
380.606	387.44
380.831	400.44
381.057	396.44
381.282	386.44
381.507	383.44
381.733	399.44
381.958	395.44
382.184	394.44
382.409	400.44
382.634	381.44
382.86	397.44
383.085	383.44
383.31	406.44
383.535	411.44
383.761	405.44
383.986	435.44
384.211	448.44
384.436	430.44
384.662	423.44
384.887	411.44
385.112	432.44
385.337	420.44
385.562	435.44
385.787	443.44
386.013	457.44
386.238	440.44
386.463	454.44
386.688	450.44
386.913	444.44
387.138	461.44
387.363	454.44
387.588	459.44
387.813	435.44
388.038	438.44
388.263	432.44
388.488	433.44
388.713	437.44
388.938	428.44
389.163	451.44
389.387	441.44
389.612	447.44
389.837	431.44
390.062	438.44
390.287	443.44
390.512	444.44
390.736	423.44
390.961	426.44
391.186	450.44
391.411	443.44
391.636	461.44
391.86	462.44
392.085	454.44
392.31	478.44
392.534	457.44
392.759	484.44
392.984	450.44
393.208	466.44
393.433	441.44
393.658	461.44
393.882	464.44
394.107	461.44
394.331	455.44
394.556	454.44
394.78	441.44
395.005	455.44
395.229	469.44
395.454	481.44
395.678	459.44
395.903	480.44
396.127	485.44
396.352	467.44
396.576	457.44
396.801	468.44
397.025	449.44
397.249	453.44
397.474	466.44
397.698	465.44
397.922	496.44
398.147	500.44
398.371	510.44
398.595	511.44
398.82	506.44
399.044	544.44
399.268	567.44
399.492	614.44
399.717	631.44
399.941	649.44
400.165	660.44
400.389	615.44
400.613	579.44
400.837	548.44
401.062	563.44
401.286	523.44
401.51	525.44
401.734	543.44
401.958	532.44
402.182	530.44
402.406	544.44
402.63	521.44
402.854	528.44
403.078	541.44
403.302	553.44
403.526	557.44
403.75	551.44
403.974	539.44
404.198	552.44
404.422	555.44
404.645	563.44
404.869	560.44
405.093	569.44
405.317	618.44
405.541	616.44
405.765	569.44
405.988	545.44
406.212	577.44
406.436	565.44
406.66	562.44
406.883	569.44
407.107	597.44
407.331	634.44
407.555	651.44
407.778	647.44
408.002	633.44
408.226	592.44
408.449	600.44
408.673	604.44
408.896	549.44
409.12	587.44
409.344	610.44
409.567	579.44
409.791	561.44
410.014	553.44
410.238	548.44
410.461	553.44
410.685	550.44
410.908	545.44
411.132	553.44
411.355	589.44
411.578	576.44
411.802	523.44
412.025	516.44
412.249	527.44
412.472	551.44
412.695	573.44
412.919	572.44
413.142	553.44
413.365	514.44
413.589	534.44
413.812	517.44
414.035	521.44
414.258	503.44
414.482	511.44
414.705	513.44
414.928	519.44
415.151	512.44
415.374	513.44
415.597	521.44
415.821	526.44
416.044	515.44
416.267	527.44
416.49	489.44
416.713	491.44
416.936	495.44
417.159	501.44
417.382	495.44
417.605	498.44
417.828	516.44
418.051	505.44
418.274	503.44
418.497	507.44
418.72	511.44
418.943	504.44
419.166	558.44
419.389	556.44
419.611	555.44
419.834	546.44
420.057	520.44
420.28	505.44
420.503	533.44
420.726	512.44
420.948	532.44
421.171	540.44
421.394	569.44
421.617	519.44
421.839	502.44
422.062	502.44
422.285	514.44
422.507	542.44
422.73	610.44
422.953	595.44
423.175	523.44
423.398	528.44
423.621	560.44
423.843	532.44
424.066	532.44
424.288	543.44
424.511	563.44
424.733	567.44
424.956	584.44
425.178	586.44
425.401	615.44
425.623	612.44
425.846	531.44
426.068	555.44
426.291	517.44
426.513	516.44
426.735	522.44
426.958	525.44
427.18	615.44
427.402	682.44
427.625	705.44
427.847	617.44
428.069	561.44
428.292	533.44
428.514	531.44
428.736	488.44
428.958	492.44
429.181	479.44
429.403	491.44
429.625	485.44
429.847	507.44
430.069	547.44
430.292	541.44
430.514	496.44
430.736	512.44
430.958	499.44
431.18	491.44
431.402	468.44
431.624	457.44
431.846	479.44
432.068	474.44
432.29	473.44
432.512	471.44
432.734	491.44
432.956	482.44
433.178	495.44
433.4	485.44
433.622	495.44
433.844	480.44
434.066	467.44
434.287	475.44
434.509	499.44
434.731	521.44
434.953	487.44
435.175	506.44
435.397	541.44
435.618	524.44
435.84	552.44
436.062	582.44
436.284	623.44
436.505	558.44
436.727	520.44
436.949	522.44
437.17	480.44
437.392	495.44
437.614	492.44
437.835	491.44
438.057	560.44
438.278	599.44
438.5	619.44
438.721	675.44
438.943	671.44
439.165	528.44
439.386	503.44
439.608	512.44
439.829	484.44
440.05	531.44
440.272	525.44
440.493	523.44
440.715	506.44
440.936	501.44
441.158	496.44
441.379	501.44
441.6	504.44
441.822	517.44
442.043	535.44
442.264	577.44
442.486	625.44
442.707	567.44
442.928	531.44
443.149	523.44
443.371	525.44
443.592	584.44
443.813	628.44
444.034	691.44
444.255	615.44
444.476	547.44
444.698	555.44
444.919	564.44
445.14	703.44
445.361	628.44
445.582	546.44
445.803	588.44
446.024	612.44
446.245	615.44
446.466	577.44
446.687	533.44
446.908	519.44
447.129	488.44
447.35	482.44
447.571	475.44
447.792	465.44
448.013	479.44
448.234	471.44
448.455	499.44
448.675	589.44
448.896	659.44
449.117	557.44
449.338	549.44
449.559	628.44
449.779	694.44
450	565.44
450.221	509.44
450.442	466.44
450.662	453.44
450.883	467.44
451.104	450.44
451.324	467.44
451.545	464.44
451.766	449.44
451.986	423.44
452.207	432.44
452.428	433.44
452.648	448.44
452.869	425.44
453.089	434.44
453.31	441.44
453.53	458.44
453.751	418.44
453.971	434.44
454.192	439.44
454.412	435.44
454.633	414.44
454.853	415.44
455.073	424.44
455.294	430.44
455.514	461.44
455.734	473.44
455.955	409.44
456.175	423.44
456.395	424.44
456.616	408.44
456.836	422.44
457.056	425.44
457.276	401.44
457.497	419.44
457.717	409.44
457.937	444.44
458.157	438.44
458.377	422.44
458.598	438.44
458.818	462.44
459.038	510.44
459.258	509.44
459.478	486.44
459.698	481.44
459.918	490.44
460.138	488.44
460.358	509.44
460.578	522.44
460.798	518.44
461.018	531.44
461.238	542.44
461.458	514.44
461.678	526.44
461.898	528.44
462.118	516.44
462.338	553.44
462.558	537.44
462.777	566.44
462.997	582.44
463.217	585.44
463.437	597.44
463.657	588.44
463.876	555.44
464.096	575.44
464.316	555.44
464.536	565.44
464.755	560.44
464.975	533.44
465.195	534.44
465.414	545.44
465.634	511.44
465.854	501.44
466.073	507.44
466.293	465.44
466.512	459.44
466.732	448.44
466.951	465.44
467.171	461.44
467.391	475.44
467.61	438.44
467.829	453.44
468.049	456.44
468.268	433.44
468.488	441.44
468.707	444.44
468.927	432.44
469.146	434.44
469.365	445.44
469.585	468.44
469.804	455.44
470.023	444.44
470.243	459.44
470.462	437.44
470.681	469.44
470.901	461.44
471.12	472.44
471.339	474.44
471.558	479.44
471.777	453.44
471.997	456.44
472.216	450.44
472.435	457.44
472.654	470.44
472.873	433.44
473.092	455.44
473.311	444.44
473.53	439.44
473.749	455.44
473.968	451.44
474.187	516.44
474.406	525.44
474.625	477.44
474.844	472.44
475.063	451.44
475.282	452.44
475.501	456.44
475.72	473.44
475.939	477.44
476.158	464.44
476.377	465.44
476.596	464.44
476.814	459.44
477.033	482.44
477.252	473.44
477.471	476.44
477.69	483.44
477.908	499.44
478.127	519.44
478.346	544.44
478.564	541.44
478.783	528.44
479.002	538.44
479.22	547.44
479.439	521.44
479.658	541.44
479.876	551.44
480.095	575.44
480.313	580.44
480.532	575.44
480.751	587.44
480.969	583.44
481.188	585.44
481.406	599.44
481.624	554.44
481.843	543.44
482.061	541.44
482.28	551.44
482.498	535.44
482.717	531.44
482.935	534.44
483.153	520.44
483.372	524.44
483.59	540.44
483.808	516.44
484.027	533.44
484.245	561.44
484.463	537.44
484.681	567.44
484.9	554.44
485.118	546.44
485.336	548.44
485.554	553.44
485.772	561.44
485.99	543.44
486.209	563.44
486.427	557.44
486.645	563.44
486.863	562.44
487.081	553.44
487.299	573.44
487.517	555.44
487.735	562.44
487.953	573.44
488.171	567.44
488.389	574.44
488.607	572.44
488.825	550.44
489.043	552.44
489.261	591.44
489.479	565.44
489.696	569.44
489.914	588.44
490.132	590.44
490.35	565.44
490.568	572.44
490.786	574.44
491.003	589.44
491.221	595.44
491.439	558.44
491.657	595.44
491.874	598.44
492.092	615.44
492.31	596.44
492.527	587.44
492.745	600.44
492.963	616.44
493.18	603.44
493.398	611.44
493.615	613.44
493.833	611.44
494.05	624.44
494.268	614.44
494.485	628.44
494.703	639.44
494.92	642.44
495.138	626.44
495.355	629.44
495.573	617.44
495.79	629.44
496.008	639.44
496.225	655.44
496.442	664.44
496.66	661.44
496.877	636.44
497.094	639.44
497.312	675.44
497.529	693.44
497.746	677.44
497.963	699.44
498.181	719.44
498.398	745.44
498.615	767.44
498.832	798.44
499.049	820.44
499.267	826.44
499.484	873.44
499.701	956.44
499.918	1002.44
500.135	1095.44
500.352	1132.44
500.569	1190.44
500.786	1171.44
501.003	1121.44
501.22	1093.44
501.437	1027.44
501.654	953.44
501.871	913.44
502.088	881.44
