Data from 1962.PennyLincolnUp.Lamp.En5.5.200Scan.071719.P1._HRD10591_13-53-12-060.txt Node
Date: Thu Jul 18 13:53:12 EDT 2019
User: cochatt
Spectrometer: HR+D1059
Trigger mode: 1
Integration Time (sec): 1.000000E-1
Scans to average: 1
Electric dark correction enabled: true
Nonlinearity correction enabled: false
Boxcar width: 0
XAxis mode: Wavelengths
Number of Pixels in Spectrum: 2048
>>>>>Begin Spectral Data<<<<<
223.165	-7.25
223.4	-7.25
223.635	-7.25
223.869	-15.25
224.104	-16.25
224.338	-18.25
224.573	-14.25
224.808	-12.25
225.042	-0.25
225.277	-10.25
225.511	-11.25
225.746	9.75
225.98	3.75
226.215	10.75
226.449	7.75
226.683	17.75
226.918	33.75
227.152	21.75
227.387	24.75
227.621	35.75
227.856	34.75
228.09	32.75
228.324	36.75
228.559	51.75
228.793	57.75
229.027	91.75
229.262	90.75
229.496	79.75
229.73	106.75
229.964	118.75
230.199	113.75
230.433	98.75
230.667	100.75
230.901	87.75
231.136	95.75
231.37	92.75
231.604	108.75
231.838	88.75
232.072	111.75
232.306	124.75
232.541	91.75
232.775	100.75
233.009	115.75
233.243	104.75
233.477	110.75
233.711	103.75
233.945	120.75
234.179	110.75
234.413	106.75
234.647	112.75
234.881	115.75
235.115	115.75
235.349	103.75
235.583	107.75
235.817	111.75
236.051	122.75
236.285	133.75
236.519	104.75
236.753	110.75
236.987	126.75
237.221	135.75
237.455	154.75
237.689	140.75
237.922	103.75
238.156	108.75
238.39	119.75
238.624	112.75
238.858	119.75
239.091	116.75
239.325	117.75
239.559	106.75
239.793	110.75
240.027	114.75
240.26	129.75
240.494	143.75
240.728	121.75
240.961	123.75
241.195	114.75
241.429	117.75
241.662	121.75
241.896	123.75
242.13	135.75
242.363	123.75
242.597	117.75
242.83	119.75
243.064	121.75
243.298	123.75
243.531	126.75
243.765	129.75
243.998	134.75
244.232	133.75
244.465	148.75
244.699	130.75
244.932	144.75
245.166	118.75
245.399	131.75
245.633	144.75
245.866	132.75
246.099	125.75
246.333	122.75
246.566	134.75
246.8	137.75
247.033	140.75
247.266	142.75
247.5	148.75
247.733	151.75
247.966	171.75
248.2	145.75
248.433	158.75
248.666	164.75
248.899	158.75
249.133	172.75
249.366	172.75
249.599	154.75
249.832	147.75
250.066	156.75
250.299	154.75
250.532	165.75
250.765	166.75
250.998	192.75
251.231	176.75
251.465	177.75
251.698	189.75
251.931	180.75
252.164	164.75
252.397	172.75
252.63	169.75
252.863	176.75
253.096	190.75
253.329	191.75
253.562	169.75
253.795	171.75
254.028	186.75
254.261	179.75
254.494	202.75
254.727	211.75
254.96	225.75
255.193	214.75
255.426	193.75
255.659	186.75
255.892	200.75
256.124	204.75
256.357	199.75
256.59	204.75
256.823	180.75
257.056	191.75
257.289	174.75
257.521	172.75
257.754	183.75
257.987	174.75
258.22	184.75
258.452	187.75
258.685	167.75
258.918	187.75
259.151	186.75
259.383	195.75
259.616	185.75
259.849	204.75
260.081	201.75
260.314	191.75
260.547	200.75
260.779	197.75
261.012	196.75
261.244	200.75
261.477	224.75
261.71	193.75
261.942	194.75
262.175	188.75
262.407	199.75
262.64	208.75
262.872	205.75
263.105	186.75
263.337	190.75
263.57	190.75
263.802	199.75
264.035	200.75
264.267	189.75
264.499	199.75
264.732	194.75
264.964	210.75
265.197	204.75
265.429	191.75
265.661	192.75
265.894	196.75
266.126	194.75
266.358	206.75
266.591	216.75
266.823	209.75
267.055	210.75
267.287	188.75
267.52	198.75
267.752	203.75
267.984	223.75
268.216	214.75
268.448	210.75
268.681	200.75
268.913	210.75
269.145	228.75
269.377	245.75
269.609	243.75
269.841	230.75
270.073	238.75
270.306	250.75
270.538	255.75
270.77	261.75
271.002	262.75
271.234	265.75
271.466	245.75
271.698	256.75
271.93	253.75
272.162	260.75
272.394	255.75
272.626	262.75
272.858	248.75
273.09	239.75
273.322	266.75
273.553	235.75
273.785	249.75
274.017	216.75
274.249	244.75
274.481	217.75
274.713	245.75
274.945	254.75
275.176	262.75
275.408	242.75
275.64	234.75
275.872	239.75
276.104	248.75
276.335	241.75
276.567	246.75
276.799	231.75
277.031	264.75
277.262	267.75
277.494	268.75
277.726	266.75
277.957	260.75
278.189	264.75
278.421	275.75
278.652	259.75
278.884	257.75
279.115	267.75
279.347	261.75
279.579	258.75
279.81	251.75
280.042	252.75
280.273	258.75
280.505	242.75
280.736	256.75
280.968	248.75
281.199	291.75
281.431	270.75
281.662	246.75
281.894	264.75
282.125	267.75
282.356	275.75
282.588	275.75
282.819	272.75
283.051	272.75
283.282	243.75
283.513	254.75
283.745	256.75
283.976	268.75
284.207	259.75
284.439	280.75
284.67	271.75
284.901	259.75
285.132	290.75
285.364	263.75
285.595	251.75
285.826	279.75
286.057	266.75
286.288	268.75
286.52	285.75
286.751	278.75
286.982	278.75
287.213	268.75
287.444	278.75
287.675	282.75
287.906	282.75
288.138	287.75
288.369	295.75
288.6	278.75
288.831	275.75
289.062	295.75
289.293	306.75
289.524	277.75
289.755	289.75
289.986	296.75
290.217	276.75
290.448	313.75
290.679	291.75
290.91	286.75
291.141	279.75
291.371	284.75
291.602	284.75
291.833	267.75
292.064	277.75
292.295	280.75
292.526	277.75
292.757	267.75
292.987	272.75
293.218	292.75
293.449	296.75
293.68	281.75
293.91	284.75
294.141	293.75
294.372	305.75
294.603	292.75
294.833	306.75
295.064	288.75
295.295	280.75
295.525	290.75
295.756	293.75
295.987	284.75
296.217	318.75
296.448	314.75
296.679	294.75
296.909	299.75
297.14	299.75
297.37	289.75
297.601	312.75
297.831	301.75
298.062	294.75
298.292	286.75
298.523	327.75
298.753	298.75
298.984	296.75
299.214	306.75
299.445	296.75
299.675	312.75
299.905	299.75
300.136	306.75
300.366	300.75
300.597	304.75
300.827	290.75
301.057	326.75
301.288	332.75
301.518	323.75
301.748	322.75
301.979	311.75
302.209	317.75
302.439	307.75
302.669	310.75
302.9	324.75
303.13	320.75
303.36	328.75
303.59	321.75
303.82	331.75
304.051	344.75
304.281	312.75
304.511	321.75
304.741	325.75
304.971	326.75
305.201	314.75
305.431	334.75
305.661	308.75
305.891	319.75
306.121	320.75
306.352	318.75
306.582	310.75
306.812	336.75
307.042	340.75
307.272	326.75
307.502	310.75
307.731	326.75
307.961	328.75
308.191	338.75
308.421	313.75
308.651	346.75
308.881	313.75
309.111	318.75
309.341	331.75
309.571	320.75
309.8	339.75
310.03	340.75
310.26	345.75
310.49	328.75
310.72	340.75
310.949	350.75
311.179	345.75
311.409	363.75
311.639	345.75
311.868	354.75
312.098	361.75
312.328	354.75
312.557	350.75
312.787	353.75
313.017	347.75
313.246	338.75
313.476	344.75
313.706	347.75
313.935	356.75
314.165	361.75
314.394	356.75
314.624	347.75
314.853	361.75
315.083	352.75
315.312	352.75
315.542	352.75
315.771	368.75
316.001	373.75
316.23	370.75
316.46	359.75
316.689	358.75
316.919	359.75
317.148	354.75
317.377	340.75
317.607	360.75
317.836	351.75
318.065	353.75
318.295	354.75
318.524	375.75
318.753	349.75
318.983	357.75
319.212	358.75
319.441	370.75
319.67	370.75
319.9	339.75
320.129	364.75
320.358	378.75
320.587	343.75
320.816	351.75
321.046	376.75
321.275	375.75
321.504	352.75
321.733	376.75
321.962	370.75
322.191	371.75
322.42	378.75
322.649	380.75
322.878	393.75
323.108	394.75
323.337	395.75
323.566	402.75
323.795	429.75
324.024	441.75
324.253	472.75
324.482	607.75
324.71	819.75
324.939	1162.75
325.168	1027.75
325.397	612.75
325.626	447.75
325.855	400.75
326.084	424.75
326.313	413.75
326.542	414.75
326.77	438.75
326.999	477.75
327.228	563.75
327.457	763.75
327.686	933.75
327.914	669.75
328.143	518.75
328.372	475.75
328.6	450.75
328.829	427.75
329.058	440.75
329.287	442.75
329.515	433.75
329.744	422.75
329.972	423.75
330.201	425.75
330.43	450.75
330.658	464.75
330.887	467.75
331.115	444.75
331.344	417.75
331.572	430.75
331.801	413.75
332.03	423.75
332.258	420.75
332.486	429.75
332.715	423.75
332.943	434.75
333.172	441.75
333.4	451.75
333.629	446.75
333.857	458.75
334.085	446.75
334.314	489.75
334.542	478.75
334.771	474.75
334.999	462.75
335.227	444.75
335.455	425.75
335.684	459.75
335.912	438.75
336.14	424.75
336.369	427.75
336.597	441.75
336.825	435.75
337.053	423.75
337.281	402.75
337.51	442.75
337.738	397.75
337.966	412.75
338.194	424.75
338.422	424.75
338.65	408.75
338.878	408.75
339.106	418.75
339.334	423.75
339.562	418.75
339.79	399.75
340.018	395.75
340.246	394.75
340.474	409.75
340.702	397.75
340.93	422.75
341.158	417.75
341.386	402.75
341.614	411.75
341.842	410.75
342.07	391.75
342.298	386.75
342.526	406.75
342.754	378.75
342.981	398.75
343.209	415.75
343.437	399.75
343.665	411.75
343.893	436.75
344.12	443.75
344.348	443.75
344.576	421.75
344.804	430.75
345.031	443.75
345.259	423.75
345.487	412.75
345.714	394.75
345.942	399.75
346.17	409.75
346.397	394.75
346.625	398.75
346.853	374.75
347.08	377.75
347.308	386.75
347.535	382.75
347.763	393.75
347.99	379.75
348.218	372.75
348.445	395.75
348.673	381.75
348.9	386.75
349.128	395.75
349.355	377.75
349.583	378.75
349.81	386.75
350.037	364.75
350.265	392.75
350.492	390.75
350.72	367.75
350.947	390.75
351.174	392.75
351.402	396.75
351.629	371.75
351.856	379.75
352.083	372.75
352.311	394.75
352.538	382.75
352.765	371.75
352.992	400.75
353.22	376.75
353.447	386.75
353.674	389.75
353.901	402.75
354.128	378.75
354.355	359.75
354.583	366.75
354.81	368.75
355.037	387.75
355.264	374.75
355.491	372.75
355.718	371.75
355.945	377.75
356.172	377.75
356.399	376.75
356.626	375.75
356.853	369.75
357.08	373.75
357.307	383.75
357.534	376.75
357.761	388.75
357.988	377.75
358.215	378.75
358.441	363.75
358.668	374.75
358.895	386.75
359.122	373.75
359.349	388.75
359.576	384.75
359.802	379.75
360.029	394.75
360.256	398.75
360.483	395.75
360.709	399.75
360.936	384.75
361.163	375.75
361.39	377.75
361.616	371.75
361.843	391.75
362.07	387.75
362.296	369.75
362.523	388.75
362.749	382.75
362.976	376.75
363.203	382.75
363.429	377.75
363.656	376.75
363.882	371.75
364.109	385.75
364.335	383.75
364.562	373.75
364.788	384.75
365.015	368.75
365.241	386.75
365.468	366.75
365.694	400.75
365.92	375.75
366.147	378.75
366.373	375.75
366.599	397.75
366.826	378.75
367.052	369.75
367.278	368.75
367.505	390.75
367.731	384.75
367.957	403.75
368.184	378.75
368.41	410.75
368.636	381.75
368.862	382.75
369.089	379.75
369.315	383.75
369.541	374.75
369.767	375.75
369.993	386.75
370.219	377.75
370.445	369.75
370.672	393.75
370.898	397.75
371.124	398.75
371.35	375.75
371.576	382.75
371.802	388.75
372.028	378.75
372.254	390.75
372.48	393.75
372.706	386.75
372.932	366.75
373.158	408.75
373.384	410.75
373.61	402.75
373.835	386.75
374.061	378.75
374.287	416.75
374.513	390.75
374.739	407.75
374.965	396.75
375.191	409.75
375.416	412.75
375.642	397.75
375.868	379.75
376.094	393.75
376.319	399.75
376.545	406.75
376.771	388.75
376.997	388.75
377.222	388.75
377.448	376.75
377.674	393.75
377.899	380.75
378.125	388.75
378.35	406.75
378.576	394.75
378.802	385.75
379.027	391.75
379.253	406.75
379.478	369.75
379.704	390.75
379.929	388.75
380.155	362.75
380.38	388.75
380.606	377.75
380.831	389.75
381.057	397.75
381.282	383.75
381.507	393.75
381.733	407.75
381.958	390.75
382.184	403.75
382.409	408.75
382.634	407.75
382.86	410.75
383.085	414.75
383.31	410.75
383.535	402.75
383.761	415.75
383.986	431.75
384.211	432.75
384.436	405.75
384.662	442.75
384.887	421.75
385.112	453.75
385.337	417.75
385.562	394.75
385.787	446.75
386.013	460.75
386.238	464.75
386.463	466.75
386.688	425.75
386.913	422.75
387.138	442.75
387.363	453.75
387.588	454.75
387.813	450.75
388.038	439.75
388.263	437.75
388.488	454.75
388.713	438.75
388.938	435.75
389.163	440.75
389.387	457.75
389.612	460.75
389.837	457.75
390.062	417.75
390.287	435.75
390.512	423.75
390.736	438.75
390.961	452.75
391.186	457.75
391.411	456.75
391.636	449.75
391.86	478.75
392.085	481.75
392.31	455.75
392.534	467.75
392.759	478.75
392.984	443.75
393.208	455.75
393.433	452.75
393.658	447.75
393.882	472.75
394.107	449.75
394.331	463.75
394.556	425.75
394.78	476.75
395.005	475.75
395.229	472.75
395.454	449.75
395.678	467.75
395.903	484.75
396.127	510.75
396.352	506.75
396.576	455.75
396.801	459.75
397.025	467.75
397.249	474.75
397.474	491.75
397.698	498.75
397.922	508.75
398.147	492.75
398.371	505.75
398.595	501.75
398.82	520.75
399.044	535.75
399.268	578.75
399.492	617.75
399.717	670.75
399.941	677.75
400.165	638.75
400.389	639.75
400.613	593.75
400.837	558.75
401.062	545.75
401.286	526.75
401.51	534.75
401.734	536.75
401.958	549.75
402.182	525.75
402.406	538.75
402.63	520.75
402.854	538.75
403.078	519.75
403.302	533.75
403.526	554.75
403.75	550.75
403.974	539.75
404.198	570.75
404.422	543.75
404.645	563.75
404.869	546.75
405.093	588.75
405.317	607.75
405.541	612.75
405.765	578.75
405.988	583.75
406.212	576.75
406.436	566.75
406.66	593.75
406.883	578.75
407.107	579.75
407.331	627.75
407.555	683.75
407.778	697.75
408.002	615.75
408.226	609.75
408.449	602.75
408.673	586.75
408.896	592.75
409.12	604.75
409.344	601.75
409.567	550.75
409.791	551.75
410.014	557.75
410.238	547.75
410.461	537.75
410.685	550.75
410.908	563.75
411.132	551.75
411.355	571.75
411.578	575.75
411.802	553.75
412.025	536.75
412.249	560.75
412.472	537.75
412.695	579.75
412.919	554.75
413.142	543.75
413.365	539.75
413.589	521.75
413.812	509.75
414.035	522.75
414.258	495.75
414.482	512.75
414.705	511.75
414.928	498.75
415.151	513.75
415.374	513.75
415.597	486.75
415.821	489.75
416.044	519.75
416.267	481.75
416.49	514.75
416.713	485.75
416.936	527.75
417.159	525.75
417.382	502.75
417.605	484.75
417.828	512.75
418.051	510.75
418.274	534.75
418.497	528.75
418.72	531.75
418.943	524.75
419.166	525.75
419.389	577.75
419.611	547.75
419.834	522.75
420.057	522.75
420.28	539.75
420.503	514.75
420.726	530.75
420.948	532.75
421.171	548.75
421.394	583.75
421.617	534.75
421.839	529.75
422.062	517.75
422.285	521.75
422.507	551.75
422.73	594.75
422.953	606.75
423.175	542.75
423.398	546.75
423.621	530.75
423.843	568.75
424.066	574.75
424.288	554.75
424.511	535.75
424.733	568.75
424.956	618.75
425.178	616.75
425.401	600.75
425.623	636.75
425.846	554.75
426.068	539.75
426.291	518.75
426.513	521.75
426.735	530.75
426.958	568.75
427.18	591.75
427.402	690.75
427.625	750.75
427.847	659.75
428.069	598.75
428.292	552.75
428.514	512.75
428.736	488.75
428.958	522.75
429.181	499.75
429.403	499.75
429.625	497.75
429.847	532.75
430.069	544.75
430.292	551.75
430.514	481.75
430.736	499.75
430.958	508.75
431.18	487.75
431.402	475.75
431.624	480.75
431.846	458.75
432.068	450.75
432.29	485.75
432.512	508.75
432.734	495.75
432.956	468.75
433.178	477.75
433.4	482.75
433.622	479.75
433.844	490.75
434.066	490.75
434.287	483.75
434.509	494.75
434.731	494.75
434.953	503.75
435.175	520.75
435.397	518.75
435.618	528.75
435.84	533.75
436.062	594.75
436.284	631.75
436.505	574.75
436.727	518.75
436.949	523.75
437.17	499.75
437.392	496.75
437.614	512.75
437.835	507.75
438.057	534.75
438.278	615.75
438.5	628.75
438.721	650.75
438.943	644.75
439.165	566.75
439.386	535.75
439.608	499.75
439.829	508.75
440.05	547.75
440.272	552.75
440.493	536.75
440.715	499.75
440.936	499.75
441.158	491.75
441.379	487.75
441.6	548.75
441.822	529.75
442.043	558.75
442.264	588.75
442.486	623.75
442.707	556.75
442.928	550.75
443.149	565.75
443.371	543.75
443.592	562.75
443.813	626.75
444.034	673.75
444.255	604.75
444.476	585.75
444.698	557.75
444.919	544.75
445.14	678.75
445.361	616.75
445.582	597.75
445.803	578.75
446.024	640.75
446.245	628.75
446.466	605.75
446.687	535.75
446.908	502.75
447.129	483.75
447.35	496.75
447.571	498.75
447.792	473.75
448.013	487.75
448.234	478.75
448.455	507.75
448.675	575.75
448.896	678.75
449.117	561.75
449.338	579.75
449.559	626.75
449.779	680.75
450	586.75
450.221	489.75
450.442	491.75
450.662	459.75
450.883	449.75
451.104	464.75
451.324	455.75
451.545	455.75
451.766	443.75
451.986	436.75
452.207	454.75
452.428	437.75
452.648	434.75
452.869	442.75
453.089	424.75
453.31	445.75
453.53	447.75
453.751	447.75
453.971	433.75
454.192	438.75
454.412	425.75
454.633	418.75
454.853	437.75
455.073	392.75
455.294	438.75
455.514	471.75
455.734	458.75
455.955	414.75
456.175	431.75
456.395	432.75
456.616	426.75
456.836	432.75
457.056	423.75
457.276	428.75
457.497	433.75
457.717	427.75
457.937	443.75
458.157	428.75
458.377	433.75
458.598	448.75
458.818	483.75
459.038	520.75
459.258	508.75
459.478	476.75
459.698	477.75
459.918	480.75
460.138	520.75
460.358	512.75
460.578	515.75
460.798	502.75
461.018	519.75
461.238	536.75
461.458	508.75
461.678	520.75
461.898	519.75
462.118	531.75
462.338	534.75
462.558	562.75
462.777	564.75
462.997	596.75
463.217	618.75
463.437	615.75
463.657	592.75
463.876	576.75
464.096	590.75
464.316	557.75
464.536	586.75
464.755	545.75
464.975	550.75
465.195	555.75
465.414	555.75
465.634	529.75
465.854	504.75
466.073	489.75
466.293	489.75
466.512	479.75
466.732	471.75
466.951	452.75
467.171	457.75
467.391	462.75
467.61	464.75
467.829	470.75
468.049	467.75
468.268	455.75
468.488	454.75
468.707	443.75
468.927	444.75
469.146	424.75
469.365	460.75
469.585	464.75
469.804	463.75
470.023	465.75
470.243	449.75
470.462	481.75
470.681	478.75
470.901	482.75
471.12	472.75
471.339	471.75
471.558	451.75
471.777	480.75
471.997	462.75
472.216	476.75
472.435	457.75
472.654	467.75
472.873	463.75
473.092	450.75
473.311	464.75
473.53	465.75
473.749	458.75
473.968	438.75
474.187	528.75
474.406	537.75
474.625	484.75
474.844	464.75
475.063	454.75
475.282	457.75
475.501	460.75
475.72	459.75
475.939	481.75
476.158	498.75
476.377	475.75
476.596	450.75
476.814	473.75
477.033	491.75
477.252	500.75
477.471	491.75
477.69	516.75
477.908	494.75
478.127	511.75
478.346	521.75
478.564	526.75
478.783	540.75
479.002	542.75
479.22	546.75
479.439	549.75
479.658	559.75
479.876	556.75
480.095	558.75
480.313	572.75
480.532	584.75
480.751	586.75
480.969	580.75
481.188	592.75
481.406	595.75
481.624	575.75
481.843	578.75
482.061	532.75
482.28	551.75
482.498	559.75
482.717	544.75
482.935	538.75
483.153	540.75
483.372	523.75
483.59	544.75
483.808	554.75
484.027	545.75
484.245	542.75
484.463	551.75
484.681	534.75
484.9	534.75
485.118	548.75
485.336	568.75
485.554	551.75
485.772	563.75
485.99	568.75
486.209	549.75
486.427	561.75
486.645	555.75
486.863	555.75
487.081	582.75
487.299	574.75
487.517	564.75
487.735	576.75
487.953	570.75
488.171	581.75
488.389	564.75
488.607	558.75
488.825	554.75
489.043	581.75
489.261	564.75
489.479	569.75
489.696	570.75
489.914	580.75
490.132	582.75
490.35	580.75
490.568	574.75
490.786	596.75
491.003	588.75
491.221	600.75
491.439	617.75
491.657	586.75
491.874	607.75
492.092	604.75
492.31	625.75
492.527	612.75
492.745	636.75
492.963	606.75
493.18	639.75
493.398	660.75
493.615	625.75
493.833	628.75
494.05	634.75
494.268	636.75
494.485	618.75
494.703	626.75
494.92	634.75
495.138	649.75
495.355	656.75
495.573	634.75
495.79	662.75
496.008	636.75
496.225	627.75
496.442	640.75
496.66	656.75
496.877	648.75
497.094	654.75
497.312	672.75
497.529	681.75
497.746	688.75
497.963	690.75
498.181	722.75
498.398	752.75
498.615	782.75
498.832	835.75
499.049	834.75
499.267	849.75
499.484	892.75
499.701	962.75
499.918	1008.75
500.135	1102.75
500.352	1121.75
500.569	1169.75
500.786	1181.75
501.003	1164.75
501.22	1099.75
501.437	1017.75
501.654	952.75
501.871	899.75
502.088	870.75
