Data from 1962.PennyLincolnUp.Lamp.En5.5.200Scan.071719.P1._HRD10591_13-53-40-061.txt Node
Date: Thu Jul 18 13:53:40 EDT 2019
User: cochatt
Spectrometer: HR+D1059
Trigger mode: 1
Integration Time (sec): 1.000000E-1
Scans to average: 1
Electric dark correction enabled: true
Nonlinearity correction enabled: false
Boxcar width: 0
XAxis mode: Wavelengths
Number of Pixels in Spectrum: 2048
>>>>>Begin Spectral Data<<<<<
223.165	-20.5
223.4	-20.5
223.635	-20.5
223.869	-6.5
224.104	2.5
224.338	-18.5
224.573	-17.5
224.808	-3.5
225.042	-15.5
225.277	4.5
225.511	-9.5
225.746	6.5
225.98	12.5
226.215	3.5
226.449	8.5
226.683	24.5
226.918	6.5
227.152	22.5
227.387	32.5
227.621	35.5
227.856	40.5
228.09	43.5
228.324	52.5
228.559	53.5
228.793	60.5
229.027	83.5
229.262	95.5
229.496	79.5
229.73	104.5
229.964	127.5
230.199	113.5
230.433	96.5
230.667	99.5
230.901	115.5
231.136	109.5
231.37	104.5
231.604	100.5
231.838	94.5
232.072	116.5
232.306	109.5
232.541	110.5
232.775	102.5
233.009	120.5
233.243	106.5
233.477	112.5
233.711	99.5
233.945	115.5
234.179	122.5
234.413	109.5
234.647	107.5
234.881	118.5
235.115	114.5
235.349	133.5
235.583	107.5
235.817	107.5
236.051	110.5
236.285	113.5
236.519	115.5
236.753	121.5
236.987	123.5
237.221	140.5
237.455	177.5
237.689	152.5
237.922	137.5
238.156	123.5
238.39	110.5
238.624	110.5
238.858	121.5
239.091	116.5
239.325	120.5
239.559	118.5
239.793	116.5
240.027	115.5
240.26	119.5
240.494	127.5
240.728	132.5
240.961	131.5
241.195	140.5
241.429	119.5
241.662	148.5
241.896	122.5
242.13	123.5
242.363	124.5
242.597	121.5
242.83	137.5
243.064	128.5
243.298	141.5
243.531	101.5
243.765	124.5
243.998	126.5
244.232	128.5
244.465	136.5
244.699	152.5
244.932	132.5
245.166	133.5
245.399	126.5
245.633	140.5
245.866	139.5
246.099	135.5
246.333	155.5
246.566	131.5
246.8	146.5
247.033	168.5
247.266	135.5
247.5	144.5
247.733	159.5
247.966	159.5
248.2	154.5
248.433	158.5
248.666	140.5
248.899	160.5
249.133	157.5
249.366	196.5
249.599	175.5
249.832	148.5
250.066	172.5
250.299	172.5
250.532	171.5
250.765	193.5
250.998	180.5
251.231	183.5
251.465	185.5
251.698	178.5
251.931	178.5
252.164	172.5
252.397	198.5
252.63	190.5
252.863	198.5
253.096	184.5
253.329	191.5
253.562	191.5
253.795	186.5
254.028	192.5
254.261	177.5
254.494	176.5
254.727	205.5
254.96	221.5
255.193	228.5
255.426	202.5
255.659	197.5
255.892	192.5
256.124	195.5
256.357	194.5
256.59	198.5
256.823	190.5
257.056	177.5
257.289	186.5
257.521	190.5
257.754	189.5
257.987	195.5
258.22	203.5
258.452	198.5
258.685	206.5
258.918	184.5
259.151	188.5
259.383	174.5
259.616	203.5
259.849	202.5
260.081	218.5
260.314	227.5
260.547	235.5
260.779	215.5
261.012	221.5
261.244	208.5
261.477	193.5
261.71	196.5
261.942	214.5
262.175	214.5
262.407	204.5
262.64	184.5
262.872	189.5
263.105	196.5
263.337	209.5
263.57	216.5
263.802	201.5
264.035	202.5
264.267	198.5
264.499	184.5
264.732	202.5
264.964	219.5
265.197	190.5
265.429	221.5
265.661	207.5
265.894	197.5
266.126	210.5
266.358	208.5
266.591	196.5
266.823	216.5
267.055	212.5
267.287	231.5
267.52	208.5
267.752	216.5
267.984	226.5
268.216	215.5
268.448	219.5
268.681	220.5
268.913	213.5
269.145	244.5
269.377	252.5
269.609	240.5
269.841	250.5
270.073	253.5
270.306	248.5
270.538	263.5
270.77	256.5
271.002	250.5
271.234	259.5
271.466	269.5
271.698	262.5
271.93	269.5
272.162	264.5
272.394	265.5
272.626	270.5
272.858	257.5
273.09	235.5
273.322	247.5
273.553	260.5
273.785	275.5
274.017	240.5
274.249	243.5
274.481	243.5
274.713	233.5
274.945	252.5
275.176	274.5
275.408	256.5
275.64	257.5
275.872	234.5
276.104	256.5
276.335	262.5
276.567	256.5
276.799	273.5
277.031	281.5
277.262	274.5
277.494	277.5
277.726	263.5
277.957	272.5
278.189	256.5
278.421	262.5
278.652	258.5
278.884	260.5
279.115	247.5
279.347	260.5
279.579	280.5
279.81	277.5
280.042	246.5
280.273	269.5
280.505	270.5
280.736	256.5
280.968	256.5
281.199	271.5
281.431	257.5
281.662	265.5
281.894	257.5
282.125	265.5
282.356	281.5
282.588	300.5
282.819	291.5
283.051	284.5
283.282	266.5
283.513	271.5
283.745	269.5
283.976	279.5
284.207	277.5
284.439	266.5
284.67	259.5
284.901	276.5
285.132	278.5
285.364	286.5
285.595	282.5
285.826	287.5
286.057	266.5
286.288	284.5
286.52	282.5
286.751	292.5
286.982	267.5
287.213	284.5
287.444	278.5
287.675	297.5
287.906	291.5
288.138	306.5
288.369	276.5
288.6	295.5
288.831	307.5
289.062	315.5
289.293	279.5
289.524	290.5
289.755	290.5
289.986	296.5
290.217	295.5
290.448	275.5
290.679	300.5
290.91	276.5
291.141	286.5
291.371	312.5
291.602	284.5
291.833	294.5
292.064	285.5
292.295	301.5
292.526	297.5
292.757	300.5
292.987	302.5
293.218	295.5
293.449	290.5
293.68	303.5
293.91	298.5
294.141	297.5
294.372	292.5
294.603	293.5
294.833	287.5
295.064	298.5
295.295	299.5
295.525	308.5
295.756	300.5
295.987	290.5
296.217	308.5
296.448	309.5
296.679	300.5
296.909	302.5
297.14	293.5
297.37	304.5
297.601	311.5
297.831	306.5
298.062	303.5
298.292	314.5
298.523	296.5
298.753	306.5
298.984	320.5
299.214	314.5
299.445	314.5
299.675	306.5
299.905	307.5
300.136	327.5
300.366	329.5
300.597	304.5
300.827	299.5
301.057	313.5
301.288	329.5
301.518	321.5
301.748	322.5
301.979	330.5
302.209	341.5
302.439	327.5
302.669	330.5
302.9	320.5
303.13	352.5
303.36	333.5
303.59	327.5
303.82	337.5
304.051	332.5
304.281	345.5
304.511	321.5
304.741	320.5
304.971	336.5
305.201	320.5
305.431	315.5
305.661	338.5
305.891	339.5
306.121	337.5
306.352	332.5
306.582	317.5
306.812	327.5
307.042	326.5
307.272	331.5
307.502	337.5
307.731	324.5
307.961	330.5
308.191	338.5
308.421	353.5
308.651	337.5
308.881	322.5
309.111	317.5
309.341	327.5
309.571	335.5
309.8	354.5
310.03	350.5
310.26	356.5
310.49	343.5
310.72	343.5
310.949	352.5
311.179	343.5
311.409	362.5
311.639	377.5
311.868	357.5
312.098	354.5
312.328	364.5
312.557	358.5
312.787	375.5
313.017	361.5
313.246	365.5
313.476	360.5
313.706	352.5
313.935	371.5
314.165	382.5
314.394	364.5
314.624	392.5
314.853	370.5
315.083	361.5
315.312	374.5
315.542	370.5
315.771	361.5
316.001	374.5
316.23	351.5
316.46	354.5
316.689	368.5
316.919	364.5
317.148	364.5
317.377	382.5
317.607	396.5
317.836	374.5
318.065	373.5
318.295	365.5
318.524	364.5
318.753	383.5
318.983	359.5
319.212	373.5
319.441	370.5
319.67	375.5
319.9	384.5
320.129	355.5
320.358	366.5
320.587	375.5
320.816	370.5
321.046	376.5
321.275	380.5
321.504	380.5
321.733	381.5
321.962	392.5
322.191	391.5
322.42	382.5
322.649	396.5
322.878	411.5
323.108	404.5
323.337	411.5
323.566	426.5
323.795	440.5
324.024	457.5
324.253	535.5
324.482	666.5
324.71	948.5
324.939	1290.5
325.168	1164.5
325.397	642.5
325.626	501.5
325.855	454.5
326.084	435.5
326.313	427.5
326.542	450.5
326.77	445.5
326.999	480.5
327.228	648.5
327.457	871.5
327.686	1024.5
327.914	754.5
328.143	546.5
328.372	505.5
328.6	480.5
328.829	457.5
329.058	486.5
329.287	468.5
329.515	450.5
329.744	455.5
329.972	453.5
330.201	450.5
330.43	458.5
330.658	477.5
330.887	508.5
331.115	490.5
331.344	456.5
331.572	433.5
331.801	442.5
332.03	435.5
332.258	444.5
332.486	445.5
332.715	435.5
332.943	425.5
333.172	448.5
333.4	461.5
333.629	474.5
333.857	487.5
334.085	498.5
334.314	491.5
334.542	520.5
334.771	493.5
334.999	482.5
335.227	471.5
335.455	449.5
335.684	453.5
335.912	452.5
336.14	450.5
336.369	438.5
336.597	445.5
336.825	452.5
337.053	468.5
337.281	448.5
337.51	427.5
337.738	443.5
337.966	426.5
338.194	429.5
338.422	424.5
338.65	436.5
338.878	434.5
339.106	431.5
339.334	414.5
339.562	430.5
339.79	429.5
340.018	408.5
340.246	409.5
340.474	409.5
340.702	434.5
340.93	398.5
341.158	409.5
341.386	419.5
341.614	435.5
341.842	423.5
342.07	398.5
342.298	399.5
342.526	418.5
342.754	411.5
342.981	408.5
343.209	421.5
343.437	432.5
343.665	451.5
343.893	452.5
344.12	461.5
344.348	475.5
344.576	453.5
344.804	443.5
345.031	425.5
345.259	427.5
345.487	414.5
345.714	424.5
345.942	400.5
346.17	398.5
346.397	396.5
346.625	404.5
346.853	399.5
347.08	397.5
347.308	388.5
347.535	396.5
347.763	407.5
347.99	404.5
348.218	395.5
348.445	425.5
348.673	385.5
348.9	406.5
349.128	390.5
349.355	369.5
349.583	382.5
349.81	388.5
350.037	385.5
350.265	407.5
350.492	391.5
350.72	391.5
350.947	397.5
351.174	389.5
351.402	382.5
351.629	387.5
351.856	386.5
352.083	389.5
352.311	389.5
352.538	399.5
352.765	407.5
352.992	410.5
353.22	408.5
353.447	374.5
353.674	385.5
353.901	388.5
354.128	374.5
354.355	385.5
354.583	368.5
354.81	386.5
355.037	391.5
355.264	380.5
355.491	362.5
355.718	382.5
355.945	382.5
356.172	388.5
356.399	379.5
356.626	372.5
356.853	365.5
357.08	392.5
357.307	376.5
357.534	375.5
357.761	359.5
357.988	398.5
358.215	380.5
358.441	374.5
358.668	388.5
358.895	382.5
359.122	373.5
359.349	405.5
359.576	391.5
359.802	391.5
360.029	424.5
360.256	420.5
360.483	398.5
360.709	400.5
360.936	384.5
361.163	393.5
361.39	387.5
361.616	398.5
361.843	400.5
362.07	420.5
362.296	392.5
362.523	390.5
362.749	423.5
362.976	356.5
363.203	388.5
363.429	394.5
363.656	386.5
363.882	397.5
364.109	387.5
364.335	396.5
364.562	381.5
364.788	383.5
365.015	380.5
365.241	409.5
365.468	388.5
365.694	380.5
365.92	399.5
366.147	389.5
366.373	388.5
366.599	378.5
366.826	376.5
367.052	383.5
367.278	374.5
367.505	390.5
367.731	404.5
367.957	379.5
368.184	377.5
368.41	404.5
368.636	409.5
368.862	410.5
369.089	412.5
369.315	388.5
369.541	382.5
369.767	388.5
369.993	379.5
370.219	393.5
370.445	395.5
370.672	402.5
370.898	386.5
371.124	397.5
371.35	400.5
371.576	385.5
371.802	398.5
372.028	410.5
372.254	397.5
372.48	390.5
372.706	398.5
372.932	391.5
373.158	396.5
373.384	405.5
373.61	404.5
373.835	411.5
374.061	413.5
374.287	406.5
374.513	416.5
374.739	414.5
374.965	426.5
375.191	412.5
375.416	437.5
375.642	434.5
375.868	389.5
376.094	387.5
376.319	399.5
376.545	397.5
376.771	396.5
376.997	397.5
377.222	382.5
377.448	388.5
377.674	392.5
377.899	407.5
378.125	397.5
378.35	401.5
378.576	402.5
378.802	412.5
379.027	376.5
379.253	408.5
379.478	398.5
379.704	400.5
379.929	385.5
380.155	405.5
380.38	396.5
380.606	382.5
380.831	406.5
381.057	397.5
381.282	413.5
381.507	392.5
381.733	407.5
381.958	405.5
382.184	405.5
382.409	421.5
382.634	413.5
382.86	401.5
383.085	410.5
383.31	425.5
383.535	417.5
383.761	424.5
383.986	423.5
384.211	419.5
384.436	441.5
384.662	444.5
384.887	448.5
385.112	433.5
385.337	442.5
385.562	446.5
385.787	448.5
386.013	462.5
386.238	466.5
386.463	479.5
386.688	456.5
386.913	453.5
387.138	467.5
387.363	440.5
387.588	452.5
387.813	449.5
388.038	462.5
388.263	469.5
388.488	445.5
388.713	445.5
388.938	421.5
389.163	443.5
389.387	480.5
389.612	440.5
389.837	454.5
390.062	456.5
390.287	466.5
390.512	465.5
390.736	449.5
390.961	449.5
391.186	467.5
391.411	452.5
391.636	473.5
391.86	494.5
392.085	477.5
392.31	474.5
392.534	469.5
392.759	460.5
392.984	462.5
393.208	465.5
393.433	465.5
393.658	488.5
393.882	481.5
394.107	445.5
394.331	457.5
394.556	461.5
394.78	457.5
395.005	458.5
395.229	466.5
395.454	472.5
395.678	481.5
395.903	474.5
396.127	488.5
396.352	508.5
396.576	487.5
396.801	472.5
397.025	490.5
397.249	498.5
397.474	504.5
397.698	485.5
397.922	526.5
398.147	517.5
398.371	526.5
398.595	514.5
398.82	534.5
399.044	550.5
399.268	591.5
399.492	600.5
399.717	665.5
399.941	681.5
400.165	692.5
400.389	677.5
400.613	601.5
400.837	561.5
401.062	539.5
401.286	530.5
401.51	538.5
401.734	553.5
401.958	563.5
402.182	570.5
402.406	566.5
402.63	563.5
402.854	555.5
403.078	569.5
403.302	562.5
403.526	566.5
403.75	573.5
403.974	569.5
404.198	572.5
404.422	555.5
404.645	583.5
404.869	572.5
405.093	592.5
405.317	605.5
405.541	625.5
405.765	606.5
405.988	579.5
406.212	608.5
406.436	581.5
406.66	591.5
406.883	596.5
407.107	619.5
407.331	655.5
407.555	692.5
407.778	713.5
408.002	674.5
408.226	635.5
408.449	624.5
408.673	604.5
408.896	606.5
409.12	626.5
409.344	627.5
409.567	555.5
409.791	579.5
410.014	570.5
410.238	563.5
410.461	547.5
410.685	556.5
410.908	570.5
411.132	596.5
411.355	618.5
411.578	594.5
411.802	546.5
412.025	526.5
412.249	570.5
412.472	596.5
412.695	597.5
412.919	584.5
413.142	551.5
413.365	518.5
413.589	540.5
413.812	527.5
414.035	517.5
414.258	516.5
414.482	519.5
414.705	539.5
414.928	516.5
415.151	513.5
415.374	538.5
415.597	526.5
415.821	540.5
416.044	506.5
416.267	527.5
416.49	527.5
416.713	523.5
416.936	521.5
417.159	530.5
417.382	530.5
417.605	519.5
417.828	546.5
418.051	533.5
418.274	529.5
418.497	540.5
418.72	530.5
418.943	522.5
419.166	557.5
419.389	580.5
419.611	571.5
419.834	559.5
420.057	546.5
420.28	540.5
420.503	537.5
420.726	519.5
420.948	546.5
421.171	568.5
421.394	589.5
421.617	532.5
421.839	542.5
422.062	533.5
422.285	564.5
422.507	605.5
422.73	644.5
422.953	636.5
423.175	576.5
423.398	556.5
423.621	549.5
423.843	566.5
424.066	596.5
424.288	569.5
424.511	580.5
424.733	611.5
424.956	660.5
425.178	636.5
425.401	628.5
425.623	657.5
425.846	598.5
426.068	558.5
426.291	539.5
426.513	559.5
426.735	548.5
426.958	582.5
427.18	619.5
427.402	691.5
427.625	758.5
427.847	664.5
428.069	594.5
428.292	557.5
428.514	546.5
428.736	526.5
428.958	516.5
429.181	485.5
429.403	534.5
429.625	498.5
429.847	536.5
430.069	560.5
430.292	585.5
430.514	516.5
430.736	500.5
430.958	497.5
431.18	505.5
431.402	480.5
431.624	500.5
431.846	500.5
432.068	497.5
432.29	508.5
432.512	503.5
432.734	496.5
432.956	516.5
433.178	501.5
433.4	488.5
433.622	500.5
433.844	484.5
434.066	511.5
434.287	516.5
434.509	506.5
434.731	538.5
434.953	517.5
435.175	536.5
435.397	537.5
435.618	554.5
435.84	579.5
436.062	625.5
436.284	676.5
436.505	580.5
436.727	543.5
436.949	522.5
437.17	507.5
437.392	513.5
437.614	506.5
437.835	555.5
438.057	584.5
438.278	640.5
438.5	682.5
438.721	723.5
438.943	690.5
439.165	576.5
439.386	562.5
439.608	540.5
439.829	538.5
440.05	554.5
440.272	569.5
440.493	550.5
440.715	526.5
440.936	528.5
441.158	514.5
441.379	523.5
441.6	536.5
441.822	552.5
442.043	570.5
442.264	628.5
442.486	644.5
442.707	589.5
442.928	554.5
443.149	587.5
443.371	583.5
443.592	582.5
443.813	673.5
444.034	729.5
444.255	645.5
444.476	572.5
444.698	604.5
444.919	584.5
445.14	718.5
445.361	661.5
445.582	573.5
445.803	615.5
446.024	660.5
446.245	674.5
446.466	637.5
446.687	542.5
446.908	543.5
447.129	492.5
447.35	512.5
447.571	516.5
447.792	489.5
448.013	516.5
448.234	521.5
448.455	531.5
448.675	634.5
448.896	706.5
449.117	608.5
449.338	562.5
449.559	642.5
449.779	716.5
450	609.5
450.221	546.5
450.442	476.5
450.662	502.5
450.883	499.5
451.104	476.5
451.324	469.5
451.545	453.5
451.766	463.5
451.986	438.5
452.207	453.5
452.428	467.5
452.648	476.5
452.869	444.5
453.089	445.5
453.31	466.5
453.53	438.5
453.751	430.5
453.971	443.5
454.192	457.5
454.412	440.5
454.633	448.5
454.853	438.5
455.073	443.5
455.294	461.5
455.514	491.5
455.734	476.5
455.955	462.5
456.175	436.5
456.395	403.5
456.616	440.5
456.836	438.5
457.056	427.5
457.276	413.5
457.497	449.5
457.717	441.5
457.937	448.5
458.157	436.5
458.377	450.5
458.598	468.5
458.818	518.5
459.038	539.5
459.258	556.5
459.478	525.5
459.698	485.5
459.918	487.5
460.138	516.5
460.358	522.5
460.578	519.5
460.798	520.5
461.018	535.5
461.238	547.5
461.458	533.5
461.678	526.5
461.898	530.5
462.118	529.5
462.338	532.5
462.558	569.5
462.777	592.5
462.997	587.5
463.217	597.5
463.437	633.5
463.657	586.5
463.876	580.5
464.096	616.5
464.316	572.5
464.536	590.5
464.755	566.5
464.975	557.5
465.195	557.5
465.414	594.5
465.634	510.5
465.854	510.5
466.073	514.5
466.293	510.5
466.512	473.5
466.732	476.5
466.951	489.5
467.171	480.5
467.391	476.5
467.61	484.5
467.829	485.5
468.049	467.5
468.268	463.5
468.488	467.5
468.707	455.5
468.927	466.5
469.146	464.5
469.365	472.5
469.585	474.5
469.804	462.5
470.023	478.5
470.243	470.5
470.462	488.5
470.681	489.5
470.901	498.5
471.12	472.5
471.339	474.5
471.558	468.5
471.777	486.5
471.997	480.5
472.216	477.5
472.435	481.5
472.654	493.5
472.873	465.5
473.092	476.5
473.311	462.5
473.53	483.5
473.749	472.5
473.968	501.5
474.187	542.5
474.406	560.5
474.625	486.5
474.844	479.5
475.063	470.5
475.282	477.5
475.501	498.5
475.72	496.5
475.939	467.5
476.158	486.5
476.377	500.5
476.596	495.5
476.814	497.5
477.033	483.5
477.252	500.5
477.471	488.5
477.69	517.5
477.908	534.5
478.127	526.5
478.346	528.5
478.564	549.5
478.783	532.5
479.002	554.5
479.22	548.5
479.439	553.5
479.658	589.5
479.876	594.5
480.095	596.5
480.313	599.5
480.532	612.5
480.751	625.5
480.969	597.5
481.188	628.5
481.406	616.5
481.624	601.5
481.843	577.5
482.061	540.5
482.28	550.5
482.498	543.5
482.717	547.5
482.935	559.5
483.153	543.5
483.372	552.5
483.59	558.5
483.808	568.5
484.027	545.5
484.245	548.5
484.463	562.5
484.681	555.5
484.9	573.5
485.118	578.5
485.336	562.5
485.554	567.5
485.772	566.5
485.99	569.5
486.209	575.5
486.427	553.5
486.645	580.5
486.863	571.5
487.081	593.5
487.299	576.5
487.517	586.5
487.735	595.5
487.953	596.5
488.171	584.5
488.389	585.5
488.607	580.5
488.825	586.5
489.043	593.5
489.261	580.5
489.479	582.5
489.696	589.5
489.914	584.5
490.132	628.5
490.35	598.5
490.568	604.5
490.786	566.5
491.003	599.5
491.221	612.5
491.439	632.5
491.657	615.5
491.874	616.5
492.092	640.5
492.31	633.5
492.527	603.5
492.745	624.5
492.963	628.5
493.18	646.5
493.398	648.5
493.615	630.5
493.833	656.5
494.05	651.5
494.268	657.5
494.485	643.5
494.703	656.5
494.92	654.5
495.138	664.5
495.355	666.5
495.573	657.5
495.79	665.5
496.008	657.5
496.225	650.5
496.442	658.5
496.66	682.5
496.877	688.5
497.094	677.5
497.312	698.5
497.529	718.5
497.746	702.5
497.963	732.5
498.181	770.5
498.398	780.5
498.615	794.5
498.832	807.5
499.049	858.5
499.267	904.5
499.484	916.5
499.701	1006.5
499.918	1036.5
500.135	1104.5
500.352	1162.5
500.569	1227.5
500.786	1238.5
501.003	1189.5
501.22	1148.5
501.437	1041.5
501.654	995.5
501.871	946.5
502.088	888.5
502.305	861.5
502.522	837.5
502.739	786.5
502.956	794.5
503.172	743.5
503.389	755.5
503.606	722.5
503.823	730.5
504.04	740.5
504.256	717.5
504.473	699.5
504.69	722.5
504.907	696.5
505.123	676.5
505.34	651.5
505.557	661.5
505.773	633.5
505.99	639.5
506.207	624.5
506.423	619.5
506.64	619.5
506.856	619.5
507.073	602.5
507.289	613.5
507.506	594.5
507.722	623.5
507.939	624.5
508.155	589.5
508.372	571.5
508.588	588.5
508.805	584.5
509.021	578.5
509.238	618.5
509.454	602.5
509.67	571.5
509.887	577.5
510.103	596.5
510.319	585.5
510.536	646.5
510.752	872.5
510.968	703.5
511.184	570.5
511.401	567.5
511.617	551.5
511.833	572.5
512.049	543.5
512.265	540.5
512.481	561.5
512.698	532.5
512.914	546.5
513.13	544.5
513.346	521.5
513.562	571.5
513.778	528.5
513.994	518.5
514.21	556.5
514.426	566.5
514.642	600.5
514.858	592.5
515.074	610.5
515.29	660.5
515.506	834.5
515.721	747.5
515.937	608.5
516.153	590.5
516.369	585.5
516.585	602.5
516.801	604.5
517.016	616.5
517.232	630.5
517.448	624.5
517.664	636.5
517.879	636.5
518.095	644.5
518.311	638.5
518.527	610.5
518.742	609.5
518.958	622.5
519.173	588.5
519.389	597.5
519.605	553.5
519.82	568.5
520.036	560.5
