Data from 1962.PennyLincolnUp.Lamp.En5.5.200Scan.071719.P1._HRD10591_13-54-35-061.txt Node
Date: Thu Jul 18 13:54:35 EDT 2019
User: cochatt
Spectrometer: HR+D1059
Trigger mode: 1
Integration Time (sec): 1.000000E-1
Scans to average: 1
Electric dark correction enabled: true
Nonlinearity correction enabled: false
Boxcar width: 0
XAxis mode: Wavelengths
Number of Pixels in Spectrum: 2048
>>>>>Begin Spectral Data<<<<<
223.165	-19.62
223.4	-19.62
223.635	-19.62
223.869	-14.62
224.104	-19.62
224.338	-6.62
224.573	-3.62
224.808	-11.62
225.042	-10.62
225.277	-1.62
225.511	3.38
225.746	-10.62
225.98	9.38
226.215	7.38
226.449	18.38
226.683	24.38
226.918	12.38
227.152	23.38
227.387	37.38
227.621	28.38
227.856	35.38
228.09	42.38
228.324	42.38
228.559	54.38
228.793	84.38
229.027	86.38
229.262	98.38
229.496	104.38
229.73	110.38
229.964	128.38
230.199	118.38
230.433	96.38
230.667	109.38
230.901	113.38
231.136	121.38
231.37	117.38
231.604	103.38
231.838	117.38
232.072	114.38
232.306	102.38
232.541	114.38
232.775	118.38
233.009	109.38
233.243	107.38
233.477	100.38
233.711	102.38
233.945	111.38
234.179	112.38
234.413	107.38
234.647	105.38
234.881	122.38
235.115	97.38
235.349	101.38
235.583	124.38
235.817	114.38
236.051	120.38
236.285	104.38
236.519	116.38
236.753	109.38
236.987	140.38
237.221	170.38
237.455	186.38
237.689	147.38
237.922	125.38
238.156	128.38
238.39	124.38
238.624	125.38
238.858	135.38
239.091	117.38
239.325	126.38
239.559	114.38
239.793	117.38
240.027	124.38
240.26	126.38
240.494	147.38
240.728	136.38
240.961	146.38
241.195	132.38
241.429	148.38
241.662	142.38
241.896	128.38
242.13	135.38
242.363	132.38
242.597	125.38
242.83	140.38
243.064	130.38
243.298	140.38
243.531	142.38
243.765	136.38
243.998	147.38
244.232	128.38
244.465	139.38
244.699	156.38
244.932	145.38
245.166	133.38
245.399	152.38
245.633	150.38
245.866	133.38
246.099	135.38
246.333	141.38
246.566	147.38
246.8	146.38
247.033	149.38
247.266	154.38
247.5	133.38
247.733	164.38
247.966	156.38
248.2	169.38
248.433	156.38
248.666	171.38
248.899	164.38
249.133	170.38
249.366	180.38
249.599	176.38
249.832	164.38
250.066	172.38
250.299	166.38
250.532	167.38
250.765	184.38
250.998	184.38
251.231	206.38
251.465	189.38
251.698	180.38
251.931	173.38
252.164	172.38
252.397	169.38
252.63	188.38
252.863	188.38
253.096	196.38
253.329	195.38
253.562	198.38
253.795	181.38
254.028	187.38
254.261	189.38
254.494	197.38
254.727	224.38
254.96	244.38
255.193	220.38
255.426	219.38
255.659	208.38
255.892	215.38
256.124	197.38
256.357	213.38
256.59	200.38
256.823	196.38
257.056	196.38
257.289	197.38
257.521	208.38
257.754	187.38
257.987	200.38
258.22	191.38
258.452	190.38
258.685	194.38
258.918	202.38
259.151	193.38
259.383	198.38
259.616	194.38
259.849	180.38
260.081	223.38
260.314	224.38
260.547	229.38
260.779	226.38
261.012	209.38
261.244	210.38
261.477	218.38
261.71	207.38
261.942	213.38
262.175	228.38
262.407	210.38
262.64	201.38
262.872	192.38
263.105	210.38
263.337	205.38
263.57	209.38
263.802	213.38
264.035	191.38
264.267	212.38
264.499	207.38
264.732	200.38
264.964	196.38
265.197	200.38
265.429	195.38
265.661	207.38
265.894	197.38
266.126	220.38
266.358	214.38
266.591	228.38
266.823	188.38
267.055	209.38
267.287	212.38
267.52	218.38
267.752	245.38
267.984	224.38
268.216	222.38
268.448	224.38
268.681	230.38
268.913	241.38
269.145	243.38
269.377	246.38
269.609	266.38
269.841	242.38
270.073	240.38
270.306	269.38
270.538	275.38
270.77	282.38
271.002	248.38
271.234	280.38
271.466	289.38
271.698	272.38
271.93	294.38
272.162	276.38
272.394	290.38
272.626	264.38
272.858	272.38
273.09	265.38
273.322	256.38
273.553	261.38
273.785	262.38
274.017	257.38
274.249	266.38
274.481	259.38
274.713	233.38
274.945	262.38
275.176	270.38
275.408	263.38
275.64	268.38
275.872	237.38
276.104	262.38
276.335	260.38
276.567	270.38
276.799	267.38
277.031	278.38
277.262	280.38
277.494	283.38
277.726	285.38
277.957	264.38
278.189	276.38
278.421	238.38
278.652	263.38
278.884	282.38
279.115	276.38
279.347	277.38
279.579	278.38
279.81	259.38
280.042	272.38
280.273	272.38
280.505	267.38
280.736	270.38
280.968	268.38
281.199	276.38
281.431	242.38
281.662	265.38
281.894	266.38
282.125	283.38
282.356	300.38
282.588	292.38
282.819	290.38
283.051	268.38
283.282	270.38
283.513	278.38
283.745	267.38
283.976	282.38
284.207	294.38
284.439	276.38
284.67	294.38
284.901	280.38
285.132	281.38
285.364	282.38
285.595	295.38
285.826	271.38
286.057	291.38
286.288	290.38
286.52	281.38
286.751	295.38
286.982	270.38
287.213	266.38
287.444	288.38
287.675	291.38
287.906	301.38
288.138	301.38
288.369	312.38
288.6	298.38
288.831	300.38
289.062	306.38
289.293	298.38
289.524	320.38
289.755	270.38
289.986	297.38
290.217	288.38
290.448	285.38
290.679	291.38
290.91	302.38
291.141	289.38
291.371	301.38
291.602	305.38
291.833	285.38
292.064	301.38
292.295	282.38
292.526	292.38
292.757	318.38
292.987	295.38
293.218	294.38
293.449	317.38
293.68	304.38
293.91	286.38
294.141	298.38
294.372	287.38
294.603	310.38
294.833	308.38
295.064	317.38
295.295	317.38
295.525	320.38
295.756	306.38
295.987	321.38
296.217	327.38
296.448	330.38
296.679	335.38
296.909	307.38
297.14	293.38
297.37	304.38
297.601	339.38
297.831	330.38
298.062	318.38
298.292	300.38
298.523	320.38
298.753	314.38
298.984	309.38
299.214	318.38
299.445	305.38
299.675	309.38
299.905	320.38
300.136	313.38
300.366	309.38
300.597	302.38
300.827	332.38
301.057	330.38
301.288	325.38
301.518	339.38
301.748	333.38
301.979	339.38
302.209	331.38
302.439	320.38
302.669	324.38
302.9	333.38
303.13	342.38
303.36	348.38
303.59	355.38
303.82	357.38
304.051	347.38
304.281	346.38
304.511	358.38
304.741	335.38
304.971	346.38
305.201	346.38
305.431	329.38
305.661	333.38
305.891	313.38
306.121	338.38
306.352	334.38
306.582	340.38
306.812	334.38
307.042	326.38
307.272	360.38
307.502	325.38
307.731	338.38
307.961	336.38
308.191	341.38
308.421	351.38
308.651	346.38
308.881	343.38
309.111	330.38
309.341	353.38
309.571	355.38
309.8	348.38
310.03	350.38
310.26	341.38
310.49	351.38
310.72	362.38
310.949	371.38
311.179	374.38
311.409	365.38
311.639	365.38
311.868	378.38
312.098	372.38
312.328	368.38
312.557	385.38
312.787	385.38
313.017	386.38
313.246	353.38
313.476	365.38
313.706	377.38
313.935	382.38
314.165	389.38
314.394	393.38
314.624	378.38
314.853	370.38
315.083	370.38
315.312	370.38
315.542	376.38
315.771	364.38
316.001	353.38
316.23	369.38
316.46	374.38
316.689	378.38
316.919	370.38
317.148	396.38
317.377	376.38
317.607	372.38
317.836	365.38
318.065	375.38
318.295	372.38
318.524	385.38
318.753	341.38
318.983	383.38
319.212	382.38
319.441	368.38
319.67	376.38
319.9	370.38
320.129	397.38
320.358	394.38
320.587	381.38
320.816	390.38
321.046	400.38
321.275	377.38
321.504	396.38
321.733	393.38
321.962	393.38
322.191	409.38
322.42	402.38
322.649	396.38
322.878	400.38
323.108	430.38
323.337	435.38
323.566	424.38
323.795	446.38
324.024	468.38
324.253	552.38
324.482	701.38
324.71	1014.38
324.939	1381.38
325.168	1284.38
325.397	711.38
325.626	525.38
325.855	490.38
326.084	461.38
326.313	455.38
326.542	472.38
326.77	484.38
326.999	530.38
327.228	676.38
327.457	921.38
327.686	1110.38
327.914	816.38
328.143	581.38
328.372	518.38
328.6	477.38
328.829	461.38
329.058	497.38
329.287	500.38
329.515	450.38
329.744	452.38
329.972	450.38
330.201	469.38
330.43	505.38
330.658	499.38
330.887	517.38
331.115	516.38
331.344	465.38
331.572	451.38
331.801	439.38
332.03	444.38
332.258	457.38
332.486	466.38
332.715	444.38
332.943	494.38
333.172	484.38
333.4	481.38
333.629	517.38
333.857	485.38
334.085	490.38
334.314	485.38
334.542	536.38
334.771	534.38
334.999	491.38
335.227	488.38
335.455	477.38
335.684	468.38
335.912	465.38
336.14	461.38
336.369	461.38
336.597	458.38
336.825	472.38
337.053	458.38
337.281	450.38
337.51	457.38
337.738	456.38
337.966	457.38
338.194	473.38
338.422	441.38
338.65	421.38
338.878	442.38
339.106	442.38
339.334	435.38
339.562	441.38
339.79	443.38
340.018	421.38
340.246	436.38
340.474	428.38
340.702	413.38
340.93	421.38
341.158	436.38
341.386	425.38
341.614	420.38
341.842	442.38
342.07	413.38
342.298	434.38
342.526	432.38
342.754	430.38
342.981	411.38
343.209	410.38
343.437	432.38
343.665	448.38
343.893	438.38
344.12	491.38
344.348	450.38
344.576	448.38
344.804	456.38
345.031	443.38
345.259	440.38
345.487	433.38
345.714	422.38
345.942	418.38
346.17	425.38
346.397	400.38
346.625	394.38
346.853	416.38
347.08	403.38
347.308	408.38
347.535	400.38
347.763	439.38
347.99	414.38
348.218	423.38
348.445	395.38
348.673	408.38
348.9	424.38
349.128	415.38
349.355	396.38
349.583	397.38
349.81	398.38
350.037	413.38
350.265	388.38
350.492	404.38
350.72	415.38
350.947	406.38
351.174	416.38
351.402	411.38
351.629	396.38
351.856	420.38
352.083	404.38
352.311	404.38
352.538	416.38
352.765	412.38
352.992	412.38
353.22	406.38
353.447	408.38
353.674	380.38
353.901	407.38
354.128	393.38
354.355	401.38
354.583	398.38
354.81	384.38
355.037	380.38
355.264	365.38
355.491	384.38
355.718	376.38
355.945	390.38
356.172	402.38
356.399	390.38
356.626	376.38
356.853	376.38
357.08	382.38
357.307	382.38
357.534	384.38
357.761	406.38
357.988	402.38
358.215	387.38
358.441	390.38
358.668	377.38
358.895	394.38
359.122	400.38
359.349	397.38
359.576	412.38
359.802	414.38
360.029	442.38
360.256	445.38
360.483	428.38
360.709	408.38
360.936	414.38
361.163	408.38
361.39	409.38
361.616	406.38
361.843	382.38
362.07	428.38
362.296	419.38
362.523	401.38
362.749	407.38
362.976	410.38
363.203	408.38
363.429	396.38
363.656	393.38
363.882	385.38
364.109	378.38
364.335	395.38
364.562	405.38
364.788	396.38
365.015	394.38
365.241	396.38
365.468	395.38
365.694	412.38
365.92	366.38
366.147	383.38
366.373	395.38
366.599	395.38
366.826	404.38
367.052	405.38
367.278	390.38
367.505	406.38
367.731	399.38
367.957	405.38
368.184	408.38
368.41	405.38
368.636	396.38
368.862	422.38
369.089	425.38
369.315	391.38
369.541	404.38
369.767	411.38
369.993	402.38
370.219	397.38
370.445	380.38
370.672	394.38
370.898	403.38
371.124	406.38
371.35	408.38
371.576	406.38
371.802	408.38
372.028	416.38
372.254	421.38
372.48	407.38
372.706	412.38
372.932	399.38
373.158	418.38
373.384	408.38
373.61	413.38
373.835	414.38
374.061	410.38
374.287	434.38
374.513	420.38
374.739	439.38
374.965	420.38
375.191	434.38
375.416	424.38
375.642	419.38
375.868	410.38
376.094	408.38
376.319	394.38
376.545	399.38
376.771	421.38
376.997	385.38
377.222	392.38
377.448	403.38
377.674	406.38
377.899	402.38
378.125	405.38
378.35	402.38
378.576	401.38
378.802	403.38
379.027	403.38
379.253	386.38
379.478	390.38
379.704	420.38
379.929	420.38
380.155	406.38
380.38	399.38
380.606	417.38
380.831	406.38
381.057	403.38
381.282	413.38
381.507	395.38
381.733	416.38
381.958	410.38
382.184	421.38
382.409	416.38
382.634	407.38
382.86	394.38
383.085	404.38
383.31	435.38
383.535	450.38
383.761	428.38
383.986	430.38
384.211	439.38
384.436	446.38
384.662	459.38
384.887	448.38
385.112	462.38
385.337	442.38
385.562	468.38
385.787	468.38
386.013	458.38
386.238	476.38
386.463	473.38
386.688	450.38
386.913	450.38
387.138	439.38
387.363	486.38
387.588	450.38
387.813	476.38
388.038	482.38
388.263	470.38
388.488	455.38
388.713	462.38
388.938	459.38
389.163	441.38
389.387	484.38
389.612	459.38
389.837	453.38
390.062	444.38
390.287	445.38
390.512	464.38
390.736	452.38
390.961	466.38
391.186	464.38
391.411	474.38
391.636	479.38
391.86	498.38
392.085	500.38
392.31	482.38
392.534	467.38
392.759	477.38
392.984	467.38
393.208	477.38
393.433	463.38
393.658	457.38
393.882	459.38
394.107	461.38
394.331	462.38
394.556	486.38
394.78	483.38
395.005	483.38
395.229	463.38
395.454	463.38
395.678	519.38
395.903	495.38
396.127	513.38
396.352	516.38
396.576	486.38
396.801	496.38
397.025	496.38
397.249	477.38
397.474	491.38
397.698	507.38
397.922	505.38
398.147	517.38
398.371	523.38
398.595	504.38
398.82	542.38
399.044	571.38
399.268	617.38
399.492	644.38
399.717	683.38
399.941	681.38
400.165	669.38
400.389	674.38
400.613	621.38
400.837	575.38
401.062	579.38
401.286	572.38
401.51	532.38
401.734	556.38
401.958	556.38
402.182	552.38
402.406	525.38
402.63	543.38
402.854	566.38
403.078	578.38
403.302	566.38
403.526	578.38
403.75	588.38
403.974	573.38
404.198	558.38
404.422	581.38
404.645	595.38
404.869	594.38
405.093	624.38
405.317	650.38
405.541	649.38
405.765	639.38
405.988	605.38
406.212	602.38
406.436	613.38
406.66	615.38
406.883	591.38
407.107	645.38
407.331	666.38
407.555	720.38
407.778	717.38
408.002	707.38
408.226	656.38
408.449	629.38
408.673	598.38
408.896	644.38
409.12	657.38
409.344	641.38
409.567	580.38
409.791	620.38
410.014	586.38
410.238	546.38
410.461	562.38
410.685	581.38
410.908	569.38
411.132	595.38
411.355	632.38
411.578	621.38
411.802	581.38
412.025	548.38
412.249	586.38
412.472	570.38
412.695	614.38
412.919	616.38
413.142	558.38
413.365	536.38
413.589	522.38
413.812	520.38
414.035	533.38
414.258	556.38
414.482	529.38
414.705	544.38
414.928	527.38
415.151	531.38
415.374	541.38
415.597	532.38
415.821	524.38
416.044	538.38
416.267	532.38
416.49	521.38
416.713	532.38
416.936	548.38
417.159	546.38
417.382	547.38
417.605	549.38
417.828	556.38
418.051	542.38
418.274	523.38
418.497	546.38
418.72	544.38
418.943	534.38
419.166	581.38
419.389	590.38
419.611	583.38
419.834	570.38
420.057	548.38
420.28	551.38
420.503	551.38
420.726	564.38
420.948	560.38
421.171	575.38
421.394	626.38
421.617	566.38
421.839	557.38
422.062	546.38
422.285	560.38
422.507	581.38
422.73	644.38
422.953	636.38
423.175	603.38
423.398	609.38
423.621	578.38
423.843	594.38
424.066	586.38
424.288	551.38
424.511	578.38
424.733	637.38
424.956	666.38
425.178	658.38
425.401	635.38
425.623	653.38
425.846	591.38
426.068	564.38
426.291	562.38
426.513	549.38
426.735	566.38
426.958	603.38
427.18	642.38
427.402	758.38
427.625	834.38
427.847	683.38
428.069	599.38
428.292	564.38
428.514	545.38
428.736	528.38
428.958	540.38
429.181	498.38
429.403	512.38
429.625	539.38
429.847	557.38
430.069	593.38
430.292	589.38
430.514	517.38
430.736	525.38
430.958	516.38
431.18	489.38
431.402	508.38
431.624	506.38
431.846	489.38
432.068	512.38
432.29	489.38
432.512	506.38
432.734	520.38
432.956	524.38
433.178	511.38
433.4	536.38
433.622	533.38
433.844	510.38
434.066	527.38
434.287	532.38
434.509	524.38
434.731	520.38
434.953	535.38
435.175	552.38
435.397	560.38
435.618	554.38
435.84	582.38
436.062	643.38
436.284	704.38
436.505	628.38
436.727	551.38
436.949	520.38
437.17	525.38
437.392	502.38
437.614	529.38
437.835	522.38
438.057	589.38
438.278	657.38
438.5	676.38
438.721	745.38
438.943	719.38
439.165	583.38
439.386	566.38
439.608	564.38
439.829	541.38
440.05	581.38
440.272	597.38
440.493	580.38
440.715	520.38
440.936	526.38
441.158	517.38
441.379	538.38
441.6	538.38
441.822	567.38
442.043	586.38
442.264	648.38
442.486	675.38
442.707	606.38
442.928	560.38
443.149	576.38
443.371	594.38
443.592	602.38
443.813	671.38
444.034	740.38
444.255	633.38
444.476	586.38
444.698	592.38
444.919	605.38
445.14	691.38
445.361	645.38
445.582	598.38
445.803	624.38
446.024	678.38
446.245	709.38
446.466	651.38
446.687	577.38
446.908	546.38
447.129	530.38
447.35	502.38
447.571	518.38
447.792	501.38
448.013	505.38
448.234	526.38
448.455	556.38
448.675	644.38
448.896	719.38
449.117	621.38
449.338	596.38
449.559	693.38
449.779	753.38
450	634.38
450.221	541.38
450.442	506.38
450.662	480.38
450.883	497.38
451.104	500.38
451.324	485.38
451.545	504.38
451.766	455.38
451.986	469.38
452.207	450.38
452.428	467.38
452.648	455.38
452.869	454.38
453.089	460.38
453.31	485.38
453.53	457.38
453.751	473.38
453.971	457.38
454.192	453.38
454.412	452.38
454.633	454.38
454.853	456.38
455.073	460.38
455.294	474.38
455.514	518.38
455.734	506.38
455.955	448.38
456.175	437.38
456.395	430.38
456.616	419.38
456.836	463.38
457.056	427.38
457.276	440.38
457.497	436.38
457.717	432.38
457.937	456.38
458.157	460.38
458.377	452.38
458.598	480.38
458.818	482.38
459.038	542.38
459.258	560.38
459.478	534.38
459.698	559.38
459.918	502.38
460.138	516.38
460.358	545.38
460.578	533.38
460.798	555.38
461.018	544.38
461.238	554.38
461.458	530.38
461.678	547.38
461.898	545.38
462.118	561.38
462.338	544.38
462.558	592.38
462.777	578.38
462.997	608.38
463.217	629.38
463.437	642.38
463.657	615.38
463.876	618.38
464.096	587.38
464.316	579.38
464.536	581.38
464.755	596.38
464.975	590.38
465.195	584.38
465.414	604.38
465.634	552.38
465.854	519.38
466.073	531.38
466.293	502.38
466.512	481.38
466.732	496.38
466.951	484.38
467.171	488.38
467.391	483.38
467.61	480.38
467.829	498.38
468.049	514.38
468.268	462.38
468.488	477.38
468.707	475.38
468.927	492.38
469.146	447.38
469.365	473.38
469.585	465.38
469.804	472.38
470.023	485.38
470.243	499.38
470.462	506.38
470.681	510.38
470.901	514.38
471.12	508.38
471.339	469.38
471.558	485.38
471.777	478.38
471.997	473.38
472.216	486.38
472.435	497.38
472.654	476.38
472.873	474.38
473.092	481.38
473.311	475.38
473.53	480.38
473.749	473.38
473.968	537.38
474.187	577.38
474.406	598.38
474.625	500.38
474.844	497.38
475.063	492.38
475.282	468.38
475.501	480.38
475.72	500.38
475.939	498.38
476.158	494.38
476.377	494.38
476.596	496.38
476.814	497.38
477.033	500.38
477.252	514.38
477.471	527.38
477.69	522.38
477.908	512.38
478.127	535.38
478.346	530.38
478.564	551.38
478.783	567.38
479.002	579.38
479.22	572.38
479.439	586.38
479.658	583.38
479.876	598.38
480.095	591.38
480.313	631.38
480.532	630.38
480.751	610.38
480.969	595.38
481.188	627.38
481.406	646.38
481.624	584.38
481.843	598.38
482.061	557.38
482.28	576.38
482.498	545.38
482.717	562.38
482.935	548.38
483.153	573.38
483.372	554.38
483.59	577.38
483.808	562.38
484.027	562.38
484.245	565.38
484.463	566.38
484.681	562.38
484.9	580.38
485.118	573.38
485.336	602.38
485.554	597.38
485.772	587.38
485.99	570.38
486.209	572.38
486.427	589.38
486.645	568.38
486.863	586.38
487.081	589.38
487.299	585.38
487.517	580.38
487.735	592.38
487.953	606.38
488.171	609.38
488.389	585.38
488.607	602.38
488.825	602.38
489.043	585.38
489.261	572.38
489.479	598.38
489.696	637.38
489.914	596.38
490.132	624.38
490.35	618.38
490.568	615.38
490.786	641.38
491.003	624.38
491.221	616.38
491.439	654.38
491.657	628.38
491.874	653.38
492.092	653.38
492.31	645.38
492.527	668.38
492.745	650.38
492.963	657.38
493.18	666.38
493.398	698.38
493.615	673.38
493.833	692.38
494.05	674.38
494.268	682.38
494.485	683.38
494.703	657.38
494.92	694.38
495.138	686.38
495.355	669.38
495.573	682.38
495.79	681.38
496.008	673.38
496.225	705.38
496.442	685.38
496.66	726.38
496.877	715.38
497.094	708.38
497.312	699.38
497.529	725.38
497.746	752.38
497.963	772.38
498.181	794.38
498.398	788.38
498.615	825.38
498.832	871.38
499.049	850.38
499.267	907.38
499.484	958.38
499.701	993.38
499.918	1065.38
500.135	1109.38
500.352	1210.38
500.569	1256.38
500.786	1257.38
501.003	1220.38
501.22	1115.38
501.437	1088.38
501.654	1023.38
501.871	991.38
