Data from 1962.PennyLincolnUp.Lamp.En5.5.200Scan.071719.P1._HRD10591_13-54-43-061.txt Node
Date: Thu Jul 18 13:54:43 EDT 2019
User: cochatt
Spectrometer: HR+D1059
Trigger mode: 1
Integration Time (sec): 1.000000E-1
Scans to average: 1
Electric dark correction enabled: true
Nonlinearity correction enabled: false
Boxcar width: 0
XAxis mode: Wavelengths
Number of Pixels in Spectrum: 2048
>>>>>Begin Spectral Data<<<<<
223.165	-7.12
223.4	-7.12
223.635	-7.12
223.869	-17.12
224.104	-30.12
224.338	-12.12
224.573	-16.12
224.808	-9.12
225.042	-8.12
225.277	5.88
225.511	-6.12
225.746	14.88
225.98	11.88
226.215	9.88
226.449	20.88
226.683	5.88
226.918	5.88
227.152	30.88
227.387	26.88
227.621	39.88
227.856	26.88
228.09	27.88
228.324	42.88
228.559	55.88
228.793	66.88
229.027	83.88
229.262	94.88
229.496	93.88
229.73	114.88
229.964	123.88
230.199	108.88
230.433	107.88
230.667	101.88
230.901	110.88
231.136	97.88
231.37	101.88
231.604	111.88
231.838	115.88
232.072	115.88
232.306	114.88
232.541	102.88
232.775	106.88
233.009	103.88
233.243	104.88
233.477	110.88
233.711	121.88
233.945	105.88
234.179	102.88
234.413	113.88
234.647	103.88
234.881	97.88
235.115	106.88
235.349	106.88
235.583	111.88
235.817	106.88
236.051	113.88
236.285	109.88
236.519	117.88
236.753	115.88
236.987	137.88
237.221	153.88
237.455	190.88
237.689	162.88
237.922	136.88
238.156	118.88
238.39	115.88
238.624	110.88
238.858	119.88
239.091	119.88
239.325	123.88
239.559	140.88
239.793	122.88
240.027	132.88
240.26	123.88
240.494	149.88
240.728	133.88
240.961	117.88
241.195	125.88
241.429	129.88
241.662	127.88
241.896	137.88
242.13	118.88
242.363	127.88
242.597	139.88
242.83	129.88
243.064	145.88
243.298	126.88
243.531	129.88
243.765	143.88
243.998	131.88
244.232	145.88
244.465	135.88
244.699	138.88
244.932	145.88
245.166	132.88
245.399	139.88
245.633	127.88
245.866	145.88
246.099	126.88
246.333	144.88
246.566	137.88
246.8	134.88
247.033	156.88
247.266	145.88
247.5	155.88
247.733	161.88
247.966	146.88
248.2	151.88
248.433	159.88
248.666	161.88
248.899	162.88
249.133	182.88
249.366	176.88
249.599	168.88
249.832	163.88
250.066	161.88
250.299	173.88
250.532	165.88
250.765	161.88
250.998	193.88
251.231	183.88
251.465	198.88
251.698	185.88
251.931	181.88
252.164	192.88
252.397	186.88
252.63	179.88
252.863	187.88
253.096	194.88
253.329	199.88
253.562	197.88
253.795	197.88
254.028	182.88
254.261	186.88
254.494	203.88
254.727	216.88
254.96	251.88
255.193	227.88
255.426	214.88
255.659	212.88
255.892	214.88
256.124	193.88
256.357	218.88
256.59	199.88
256.823	201.88
257.056	190.88
257.289	192.88
257.521	169.88
257.754	182.88
257.987	191.88
258.22	189.88
258.452	188.88
258.685	202.88
258.918	183.88
259.151	188.88
259.383	201.88
259.616	186.88
259.849	205.88
260.081	211.88
260.314	217.88
260.547	247.88
260.779	222.88
261.012	220.88
261.244	209.88
261.477	199.88
261.71	192.88
261.942	209.88
262.175	220.88
262.407	212.88
262.64	202.88
262.872	198.88
263.105	209.88
263.337	192.88
263.57	212.88
263.802	213.88
264.035	208.88
264.267	204.88
264.499	206.88
264.732	198.88
264.964	213.88
265.197	216.88
265.429	200.88
265.661	210.88
265.894	204.88
266.126	222.88
266.358	227.88
266.591	217.88
266.823	210.88
267.055	214.88
267.287	202.88
267.52	219.88
267.752	224.88
267.984	220.88
268.216	223.88
268.448	217.88
268.681	230.88
268.913	244.88
269.145	269.88
269.377	261.88
269.609	245.88
269.841	259.88
270.073	260.88
270.306	268.88
270.538	270.88
270.77	294.88
271.002	274.88
271.234	259.88
271.466	289.88
271.698	286.88
271.93	265.88
272.162	279.88
272.394	269.88
272.626	267.88
272.858	262.88
273.09	274.88
273.322	268.88
273.553	251.88
273.785	267.88
274.017	246.88
274.249	263.88
274.481	273.88
274.713	249.88
274.945	263.88
275.176	265.88
275.408	267.88
275.64	242.88
275.872	252.88
276.104	259.88
276.335	274.88
276.567	252.88
276.799	253.88
277.031	287.88
277.262	293.88
277.494	290.88
277.726	280.88
277.957	283.88
278.189	275.88
278.421	265.88
278.652	269.88
278.884	263.88
279.115	261.88
279.347	242.88
279.579	281.88
279.81	279.88
280.042	257.88
280.273	261.88
280.505	267.88
280.736	272.88
280.968	257.88
281.199	286.88
281.431	281.88
281.662	259.88
281.894	267.88
282.125	279.88
282.356	287.88
282.588	303.88
282.819	292.88
283.051	286.88
283.282	277.88
283.513	294.88
283.745	264.88
283.976	290.88
284.207	288.88
284.439	282.88
284.67	296.88
284.901	280.88
285.132	281.88
285.364	268.88
285.595	285.88
285.826	299.88
286.057	284.88
286.288	267.88
286.52	290.88
286.751	270.88
286.982	302.88
287.213	274.88
287.444	280.88
287.675	297.88
287.906	305.88
288.138	290.88
288.369	301.88
288.6	304.88
288.831	313.88
289.062	299.88
289.293	289.88
289.524	287.88
289.755	294.88
289.986	277.88
290.217	296.88
290.448	319.88
290.679	295.88
290.91	294.88
291.141	295.88
291.371	302.88
291.602	313.88
291.833	314.88
292.064	283.88
292.295	296.88
292.526	294.88
292.757	286.88
292.987	306.88
293.218	310.88
293.449	309.88
293.68	293.88
293.91	306.88
294.141	275.88
294.372	301.88
294.603	314.88
294.833	304.88
295.064	312.88
295.295	283.88
295.525	301.88
295.756	316.88
295.987	308.88
296.217	313.88
296.448	337.88
296.679	306.88
296.909	313.88
297.14	320.88
297.37	297.88
297.601	308.88
297.831	308.88
298.062	315.88
298.292	295.88
298.523	303.88
298.753	298.88
298.984	332.88
299.214	319.88
299.445	297.88
299.675	339.88
299.905	319.88
300.136	305.88
300.366	318.88
300.597	330.88
300.827	328.88
301.057	329.88
301.288	336.88
301.518	332.88
301.748	340.88
301.979	349.88
302.209	341.88
302.439	325.88
302.669	339.88
302.9	339.88
303.13	342.88
303.36	331.88
303.59	345.88
303.82	328.88
304.051	340.88
304.281	329.88
304.511	330.88
304.741	320.88
304.971	321.88
305.201	332.88
305.431	328.88
305.661	322.88
305.891	337.88
306.121	334.88
306.352	345.88
306.582	323.88
306.812	325.88
307.042	333.88
307.272	341.88
307.502	321.88
307.731	338.88
307.961	334.88
308.191	340.88
308.421	340.88
308.651	324.88
308.881	336.88
309.111	334.88
309.341	345.88
309.571	358.88
309.8	358.88
310.03	346.88
310.26	366.88
310.49	328.88
310.72	353.88
310.949	369.88
311.179	365.88
311.409	366.88
311.639	371.88
311.868	374.88
312.098	371.88
312.328	376.88
312.557	370.88
312.787	392.88
313.017	371.88
313.246	369.88
313.476	363.88
313.706	376.88
313.935	377.88
314.165	381.88
314.394	394.88
314.624	366.88
314.853	379.88
315.083	370.88
315.312	379.88
315.542	366.88
315.771	375.88
316.001	399.88
316.23	380.88
316.46	370.88
316.689	383.88
316.919	377.88
317.148	385.88
317.377	370.88
317.607	375.88
317.836	372.88
318.065	375.88
318.295	355.88
318.524	361.88
318.753	374.88
318.983	379.88
319.212	375.88
319.441	385.88
319.67	382.88
319.9	379.88
320.129	381.88
320.358	377.88
320.587	384.88
320.816	373.88
321.046	382.88
321.275	409.88
321.504	395.88
321.733	367.88
321.962	388.88
322.191	395.88
322.42	391.88
322.649	401.88
322.878	406.88
323.108	419.88
323.337	433.88
323.566	448.88
323.795	443.88
324.024	494.88
324.253	549.88
324.482	715.88
324.71	1047.88
324.939	1459.88
325.168	1273.88
325.397	709.88
325.626	547.88
325.855	486.88
326.084	456.88
326.313	436.88
326.542	443.88
326.77	473.88
326.999	524.88
327.228	681.88
327.457	951.88
327.686	1128.88
327.914	790.88
328.143	561.88
328.372	528.88
328.6	493.88
328.829	466.88
329.058	493.88
329.287	511.88
329.515	493.88
329.744	452.88
329.972	458.88
330.201	469.88
330.43	465.88
330.658	483.88
330.887	507.88
331.115	490.88
331.344	463.88
331.572	463.88
331.801	465.88
332.03	447.88
332.258	450.88
332.486	469.88
332.715	462.88
332.943	475.88
333.172	483.88
333.4	488.88
333.629	496.88
333.857	503.88
334.085	503.88
334.314	489.88
334.542	514.88
334.771	505.88
334.999	491.88
335.227	488.88
335.455	470.88
335.684	484.88
335.912	463.88
336.14	450.88
336.369	462.88
336.597	474.88
336.825	450.88
337.053	464.88
337.281	435.88
337.51	444.88
337.738	445.88
337.966	449.88
338.194	454.88
338.422	435.88
338.65	429.88
338.878	427.88
339.106	444.88
339.334	451.88
339.562	431.88
339.79	426.88
340.018	429.88
340.246	409.88
340.474	431.88
340.702	439.88
340.93	423.88
341.158	426.88
341.386	437.88
341.614	476.88
341.842	413.88
342.07	428.88
342.298	423.88
342.526	425.88
342.754	423.88
342.981	437.88
343.209	423.88
343.437	447.88
343.665	436.88
343.893	483.88
344.12	477.88
344.348	460.88
344.576	458.88
344.804	445.88
345.031	441.88
345.259	445.88
345.487	441.88
345.714	422.88
345.942	421.88
346.17	409.88
346.397	415.88
346.625	431.88
346.853	417.88
347.08	381.88
347.308	403.88
347.535	418.88
347.763	407.88
347.99	422.88
348.218	411.88
348.445	420.88
348.673	421.88
348.9	403.88
349.128	403.88
349.355	379.88
349.583	406.88
349.81	404.88
350.037	395.88
350.265	401.88
350.492	379.88
350.72	416.88
350.947	409.88
351.174	408.88
351.402	413.88
351.629	412.88
351.856	418.88
352.083	409.88
352.311	409.88
352.538	426.88
352.765	394.88
352.992	419.88
353.22	411.88
353.447	403.88
353.674	406.88
353.901	379.88
354.128	373.88
354.355	390.88
354.583	397.88
354.81	393.88
355.037	385.88
355.264	376.88
355.491	391.88
355.718	403.88
355.945	399.88
356.172	401.88
356.399	385.88
356.626	393.88
356.853	384.88
357.08	386.88
357.307	397.88
357.534	410.88
357.761	387.88
357.988	389.88
358.215	382.88
358.441	396.88
358.668	418.88
358.895	415.88
359.122	405.88
359.349	395.88
359.576	422.88
359.802	419.88
360.029	422.88
360.256	434.88
360.483	420.88
360.709	411.88
360.936	403.88
361.163	406.88
361.39	383.88
361.616	405.88
361.843	407.88
362.07	383.88
362.296	407.88
362.523	398.88
362.749	408.88
362.976	377.88
363.203	391.88
363.429	416.88
363.656	390.88
363.882	383.88
364.109	395.88
364.335	388.88
364.562	393.88
364.788	385.88
365.015	396.88
365.241	378.88
365.468	412.88
365.694	379.88
365.92	389.88
366.147	407.88
366.373	393.88
366.599	409.88
366.826	394.88
367.052	397.88
367.278	411.88
367.505	395.88
367.731	390.88
367.957	421.88
368.184	400.88
368.41	407.88
368.636	423.88
368.862	415.88
369.089	399.88
369.315	404.88
369.541	395.88
369.767	410.88
369.993	390.88
370.219	387.88
370.445	397.88
370.672	392.88
370.898	417.88
371.124	412.88
371.35	414.88
371.576	415.88
371.802	410.88
372.028	418.88
372.254	393.88
372.48	410.88
372.706	421.88
372.932	410.88
373.158	414.88
373.384	403.88
373.61	426.88
373.835	393.88
374.061	394.88
374.287	414.88
374.513	395.88
374.739	405.88
374.965	422.88
375.191	414.88
375.416	394.88
375.642	415.88
375.868	419.88
376.094	414.88
376.319	421.88
376.545	400.88
376.771	426.88
376.997	410.88
377.222	411.88
377.448	398.88
377.674	409.88
377.899	411.88
378.125	394.88
378.35	401.88
378.576	410.88
378.802	419.88
379.027	414.88
379.253	420.88
379.478	394.88
379.704	403.88
379.929	385.88
380.155	405.88
380.38	408.88
380.606	407.88
380.831	419.88
381.057	420.88
381.282	417.88
381.507	409.88
381.733	406.88
381.958	413.88
382.184	433.88
382.409	400.88
382.634	411.88
382.86	400.88
383.085	421.88
383.31	432.88
383.535	436.88
383.761	429.88
383.986	437.88
384.211	442.88
384.436	437.88
384.662	447.88
384.887	433.88
385.112	439.88
385.337	467.88
385.562	442.88
385.787	454.88
386.013	474.88
386.238	463.88
386.463	441.88
386.688	467.88
386.913	451.88
387.138	454.88
387.363	462.88
387.588	455.88
387.813	457.88
388.038	481.88
388.263	468.88
388.488	454.88
388.713	471.88
388.938	457.88
389.163	450.88
389.387	464.88
389.612	443.88
389.837	482.88
390.062	449.88
390.287	445.88
390.512	446.88
390.736	458.88
390.961	429.88
391.186	469.88
391.411	475.88
391.636	485.88
391.86	468.88
392.085	494.88
392.31	484.88
392.534	488.88
392.759	494.88
392.984	478.88
393.208	462.88
393.433	466.88
393.658	480.88
393.882	465.88
394.107	455.88
394.331	479.88
394.556	468.88
394.78	479.88
395.005	478.88
395.229	459.88
395.454	483.88
395.678	506.88
395.903	488.88
396.127	506.88
396.352	515.88
396.576	505.88
396.801	490.88
397.025	459.88
397.249	471.88
397.474	481.88
397.698	490.88
397.922	493.88
398.147	527.88
398.371	509.88
398.595	513.88
398.82	547.88
399.044	584.88
399.268	591.88
399.492	618.88
399.717	661.88
399.941	712.88
400.165	692.88
400.389	669.88
400.613	617.88
400.837	591.88
401.062	548.88
401.286	562.88
401.51	564.88
401.734	569.88
401.958	554.88
402.182	547.88
402.406	563.88
402.63	591.88
402.854	584.88
403.078	558.88
403.302	573.88
403.526	585.88
403.75	591.88
403.974	599.88
404.198	587.88
404.422	608.88
404.645	583.88
404.869	597.88
405.093	598.88
405.317	630.88
405.541	665.88
405.765	608.88
405.988	577.88
406.212	585.88
406.436	587.88
406.66	603.88
406.883	608.88
407.107	635.88
407.331	669.88
407.555	702.88
407.778	730.88
408.002	690.88
408.226	657.88
408.449	633.88
408.673	628.88
408.896	627.88
409.12	662.88
409.344	665.88
409.567	584.88
409.791	601.88
410.014	573.88
410.238	594.88
410.461	567.88
410.685	548.88
410.908	561.88
411.132	607.88
411.355	639.88
411.578	591.88
411.802	585.88
412.025	584.88
412.249	565.88
412.472	579.88
412.695	618.88
412.919	581.88
413.142	562.88
413.365	551.88
413.589	536.88
413.812	547.88
414.035	537.88
414.258	552.88
414.482	527.88
414.705	520.88
414.928	526.88
415.151	553.88
415.374	550.88
415.597	531.88
415.821	524.88
416.044	537.88
416.267	529.88
416.49	521.88
416.713	539.88
416.936	532.88
417.159	545.88
417.382	518.88
417.605	533.88
417.828	530.88
418.051	542.88
418.274	524.88
418.497	527.88
418.72	554.88
418.943	509.88
419.166	554.88
419.389	591.88
419.611	593.88
419.834	578.88
420.057	582.88
420.28	559.88
420.503	542.88
420.726	551.88
420.948	554.88
421.171	572.88
421.394	613.88
421.617	574.88
421.839	552.88
422.062	551.88
422.285	584.88
422.507	603.88
422.73	641.88
422.953	639.88
423.175	610.88
423.398	569.88
423.621	556.88
423.843	577.88
424.066	599.88
424.288	578.88
424.511	586.88
424.733	649.88
424.956	699.88
425.178	667.88
425.401	679.88
425.623	670.88
425.846	599.88
426.068	581.88
426.291	548.88
426.513	562.88
426.735	567.88
426.958	615.88
427.18	633.88
427.402	745.88
427.625	802.88
427.847	663.88
428.069	641.88
428.292	592.88
428.514	573.88
428.736	536.88
428.958	531.88
429.181	500.88
429.403	531.88
429.625	517.88
429.847	541.88
430.069	583.88
430.292	595.88
430.514	521.88
430.736	520.88
430.958	511.88
431.18	487.88
431.402	505.88
431.624	498.88
431.846	501.88
432.068	517.88
432.29	526.88
432.512	505.88
432.734	518.88
432.956	530.88
433.178	516.88
433.4	529.88
433.622	529.88
433.844	505.88
434.066	494.88
434.287	521.88
434.509	520.88
434.731	520.88
434.953	526.88
435.175	528.88
435.397	546.88
435.618	573.88
435.84	584.88
436.062	626.88
436.284	696.88
436.505	577.88
436.727	580.88
436.949	561.88
437.17	522.88
437.392	529.88
437.614	535.88
437.835	541.88
438.057	613.88
438.278	672.88
438.5	691.88
438.721	758.88
438.943	707.88
439.165	577.88
439.386	558.88
439.608	553.88
439.829	569.88
440.05	553.88
440.272	599.88
440.493	576.88
440.715	530.88
440.936	537.88
441.158	537.88
441.379	543.88
441.6	566.88
441.822	569.88
442.043	576.88
442.264	653.88
442.486	661.88
442.707	605.88
442.928	586.88
443.149	578.88
443.371	598.88
443.592	633.88
443.813	689.88
444.034	757.88
444.255	635.88
444.476	618.88
444.698	613.88
444.919	638.88
445.14	701.88
445.361	635.88
445.582	592.88
445.803	647.88
446.024	695.88
446.245	722.88
446.466	638.88
446.687	584.88
446.908	581.88
447.129	527.88
447.35	509.88
447.571	497.88
447.792	500.88
448.013	515.88
448.234	505.88
448.455	554.88
448.675	624.88
448.896	705.88
449.117	615.88
449.338	614.88
449.559	685.88
449.779	779.88
450	608.88
450.221	542.88
450.442	500.88
450.662	504.88
450.883	479.88
451.104	493.88
451.324	464.88
451.545	484.88
451.766	458.88
451.986	471.88
452.207	465.88
452.428	457.88
452.648	459.88
452.869	438.88
453.089	449.88
453.31	474.88
453.53	464.88
453.751	474.88
453.971	460.88
454.192	464.88
454.412	458.88
454.633	442.88
454.853	464.88
455.073	447.88
455.294	462.88
455.514	521.88
455.734	513.88
455.955	460.88
456.175	452.88
456.395	447.88
456.616	429.88
456.836	453.88
457.056	418.88
457.276	445.88
457.497	461.88
457.717	451.88
457.937	440.88
458.157	457.88
458.377	453.88
458.598	472.88
458.818	513.88
459.038	571.88
459.258	579.88
459.478	524.88
459.698	515.88
459.918	533.88
460.138	528.88
460.358	547.88
460.578	549.88
460.798	551.88
461.018	537.88
461.238	536.88
461.458	519.88
461.678	541.88
461.898	538.88
462.118	549.88
462.338	568.88
462.558	557.88
462.777	577.88
462.997	607.88
463.217	648.88
463.437	655.88
463.657	606.88
463.876	594.88
464.096	608.88
464.316	598.88
464.536	573.88
464.755	581.88
464.975	559.88
465.195	591.88
465.414	610.88
465.634	561.88
465.854	531.88
466.073	481.88
466.293	490.88
466.512	497.88
466.732	509.88
466.951	501.88
467.171	458.88
467.391	497.88
467.61	478.88
467.829	491.88
468.049	511.88
468.268	488.88
468.488	496.88
468.707	481.88
468.927	483.88
469.146	446.88
469.365	458.88
469.585	459.88
469.804	469.88
470.023	488.88
470.243	493.88
470.462	493.88
470.681	522.88
470.901	508.88
471.12	471.88
471.339	463.88
471.558	485.88
471.777	485.88
471.997	474.88
472.216	479.88
472.435	481.88
472.654	479.88
472.873	479.88
473.092	474.88
473.311	467.88
473.53	484.88
473.749	479.88
473.968	527.88
474.187	568.88
474.406	597.88
474.625	509.88
474.844	503.88
475.063	480.88
475.282	488.88
475.501	504.88
475.72	487.88
475.939	498.88
476.158	488.88
476.377	512.88
476.596	499.88
476.814	488.88
477.033	489.88
477.252	507.88
477.471	527.88
477.69	523.88
477.908	521.88
478.127	539.88
478.346	543.88
478.564	546.88
478.783	556.88
479.002	573.88
479.22	573.88
479.439	577.88
479.658	592.88
479.876	598.88
480.095	600.88
480.313	626.88
480.532	617.88
480.751	618.88
480.969	587.88
481.188	648.88
481.406	632.88
481.624	584.88
481.843	581.88
482.061	591.88
482.28	568.88
482.498	568.88
482.717	587.88
482.935	568.88
483.153	560.88
483.372	564.88
483.59	552.88
483.808	562.88
484.027	568.88
484.245	566.88
484.463	551.88
484.681	578.88
484.9	569.88
485.118	574.88
485.336	591.88
485.554	567.88
485.772	604.88
485.99	597.88
486.209	577.88
486.427	587.88
486.645	589.88
486.863	621.88
487.081	594.88
487.299	601.88
487.517	584.88
487.735	595.88
487.953	592.88
488.171	596.88
488.389	604.88
488.607	591.88
488.825	600.88
489.043	596.88
489.261	584.88
489.479	590.88
489.696	584.88
489.914	597.88
490.132	643.88
490.35	619.88
490.568	625.88
490.786	613.88
491.003	649.88
491.221	660.88
491.439	647.88
491.657	646.88
491.874	647.88
492.092	648.88
492.31	651.88
492.527	663.88
492.745	655.88
492.963	668.88
493.18	652.88
493.398	680.88
493.615	673.88
493.833	667.88
494.05	667.88
494.268	676.88
494.485	673.88
494.703	677.88
494.92	690.88
495.138	683.88
495.355	677.88
495.573	701.88
495.79	664.88
496.008	685.88
496.225	678.88
496.442	704.88
496.66	705.88
496.877	704.88
497.094	701.88
497.312	704.88
497.529	729.88
497.746	742.88
497.963	738.88
498.181	773.88
498.398	783.88
498.615	808.88
498.832	832.88
499.049	857.88
499.267	909.88
499.484	945.88
499.701	983.88
499.918	1061.88
500.135	1116.88
500.352	1199.88
500.569	1286.88
500.786	1243.88
501.003	1224.88
501.22	1131.88
501.437	1094.88
501.654	1034.88
501.871	982.88
