Data from 1962.PennyLincolnUp.Lamp.En5.5.200Scan.071719.P1._HRD10591_13-53-32-060.txt Node
Date: Thu Jul 18 13:53:32 EDT 2019
User: cochatt
Spectrometer: HR+D1059
Trigger mode: 1
Integration Time (sec): 1.000000E-1
Scans to average: 1
Electric dark correction enabled: true
Nonlinearity correction enabled: false
Boxcar width: 0
XAxis mode: Wavelengths
Number of Pixels in Spectrum: 2048
>>>>>Begin Spectral Data<<<<<
223.165	-19.5
223.4	-19.5
223.635	-19.5
223.869	1.5
224.104	-12.5
224.338	-18.5
224.573	-16.5
224.808	-21.5
225.042	-13.5
225.277	5.5
225.511	2.5
225.746	-17.5
225.98	5.5
226.215	3.5
226.449	29.5
226.683	23.5
226.918	13.5
227.152	34.5
227.387	39.5
227.621	23.5
227.856	46.5
228.09	53.5
228.324	39.5
228.559	42.5
228.793	60.5
229.027	81.5
229.262	78.5
229.496	100.5
229.73	98.5
229.964	124.5
230.199	110.5
230.433	101.5
230.667	114.5
230.901	103.5
231.136	102.5
231.37	105.5
231.604	110.5
231.838	106.5
232.072	120.5
232.306	103.5
232.541	102.5
232.775	106.5
233.009	124.5
233.243	106.5
233.477	109.5
233.711	113.5
233.945	117.5
234.179	121.5
234.413	103.5
234.647	127.5
234.881	122.5
235.115	117.5
235.349	117.5
235.583	118.5
235.817	110.5
236.051	115.5
236.285	101.5
236.519	119.5
236.753	115.5
236.987	125.5
237.221	149.5
237.455	175.5
237.689	151.5
237.922	121.5
238.156	109.5
238.39	129.5
238.624	106.5
238.858	123.5
239.091	110.5
239.325	117.5
239.559	116.5
239.793	117.5
240.027	138.5
240.26	126.5
240.494	137.5
240.728	141.5
240.961	150.5
241.195	117.5
241.429	132.5
241.662	135.5
241.896	133.5
242.13	115.5
242.363	126.5
242.597	118.5
242.83	139.5
243.064	126.5
243.298	134.5
243.531	134.5
243.765	142.5
243.998	138.5
244.232	149.5
244.465	142.5
244.699	141.5
244.932	141.5
245.166	132.5
245.399	141.5
245.633	132.5
245.866	147.5
246.099	147.5
246.333	114.5
246.566	141.5
246.8	137.5
247.033	145.5
247.266	150.5
247.5	155.5
247.733	145.5
247.966	148.5
248.2	162.5
248.433	151.5
248.666	162.5
248.899	169.5
249.133	182.5
249.366	169.5
249.599	163.5
249.832	160.5
250.066	159.5
250.299	147.5
250.532	154.5
250.765	172.5
250.998	184.5
251.231	193.5
251.465	180.5
251.698	173.5
251.931	175.5
252.164	186.5
252.397	184.5
252.63	177.5
252.863	159.5
253.096	183.5
253.329	182.5
253.562	180.5
253.795	191.5
254.028	174.5
254.261	187.5
254.494	186.5
254.727	204.5
254.96	211.5
255.193	207.5
255.426	190.5
255.659	197.5
255.892	199.5
256.124	203.5
256.357	202.5
256.59	204.5
256.823	189.5
257.056	206.5
257.289	187.5
257.521	198.5
257.754	197.5
257.987	174.5
258.22	182.5
258.452	193.5
258.685	191.5
258.918	192.5
259.151	179.5
259.383	199.5
259.616	213.5
259.849	227.5
260.081	195.5
260.314	225.5
260.547	211.5
260.779	219.5
261.012	205.5
261.244	211.5
261.477	206.5
261.71	206.5
261.942	202.5
262.175	201.5
262.407	229.5
262.64	206.5
262.872	199.5
263.105	193.5
263.337	205.5
263.57	209.5
263.802	193.5
264.035	196.5
264.267	205.5
264.499	196.5
264.732	193.5
264.964	201.5
265.197	209.5
265.429	204.5
265.661	196.5
265.894	211.5
266.126	211.5
266.358	204.5
266.591	207.5
266.823	219.5
267.055	198.5
267.287	203.5
267.52	217.5
267.752	221.5
267.984	233.5
268.216	218.5
268.448	213.5
268.681	206.5
268.913	229.5
269.145	236.5
269.377	238.5
269.609	244.5
269.841	250.5
270.073	234.5
270.306	249.5
270.538	259.5
270.77	257.5
271.002	277.5
271.234	261.5
271.466	260.5
271.698	268.5
271.93	283.5
272.162	267.5
272.394	271.5
272.626	248.5
272.858	257.5
273.09	247.5
273.322	242.5
273.553	257.5
273.785	254.5
274.017	254.5
274.249	235.5
274.481	261.5
274.713	246.5
274.945	256.5
275.176	245.5
275.408	250.5
275.64	254.5
275.872	249.5
276.104	255.5
276.335	237.5
276.567	279.5
276.799	252.5
277.031	267.5
277.262	278.5
277.494	289.5
277.726	272.5
277.957	252.5
278.189	253.5
278.421	262.5
278.652	259.5
278.884	263.5
279.115	249.5
279.347	275.5
279.579	277.5
279.81	261.5
280.042	260.5
280.273	262.5
280.505	267.5
280.736	261.5
280.968	257.5
281.199	274.5
281.431	270.5
281.662	267.5
281.894	274.5
282.125	271.5
282.356	289.5
282.588	289.5
282.819	282.5
283.051	285.5
283.282	263.5
283.513	247.5
283.745	278.5
283.976	277.5
284.207	270.5
284.439	271.5
284.67	269.5
284.901	279.5
285.132	281.5
285.364	269.5
285.595	275.5
285.826	268.5
286.057	292.5
286.288	283.5
286.52	282.5
286.751	266.5
286.982	275.5
287.213	289.5
287.444	271.5
287.675	284.5
287.906	292.5
288.138	284.5
288.369	289.5
288.6	275.5
288.831	278.5
289.062	288.5
289.293	281.5
289.524	283.5
289.755	313.5
289.986	296.5
290.217	289.5
290.448	285.5
290.679	278.5
290.91	296.5
291.141	278.5
291.371	277.5
291.602	286.5
291.833	286.5
292.064	293.5
292.295	298.5
292.526	284.5
292.757	281.5
292.987	305.5
293.218	292.5
293.449	310.5
293.68	294.5
293.91	293.5
294.141	284.5
294.372	293.5
294.603	305.5
294.833	293.5
295.064	289.5
295.295	292.5
295.525	297.5
295.756	296.5
295.987	300.5
296.217	329.5
296.448	309.5
296.679	299.5
296.909	287.5
297.14	291.5
297.37	294.5
297.601	289.5
297.831	295.5
298.062	302.5
298.292	276.5
298.523	307.5
298.753	320.5
298.984	312.5
299.214	310.5
299.445	306.5
299.675	303.5
299.905	340.5
300.136	306.5
300.366	310.5
300.597	315.5
300.827	309.5
301.057	328.5
301.288	339.5
301.518	324.5
301.748	320.5
301.979	316.5
302.209	321.5
302.439	338.5
302.669	330.5
302.9	316.5
303.13	324.5
303.36	342.5
303.59	326.5
303.82	331.5
304.051	342.5
304.281	337.5
304.511	313.5
304.741	322.5
304.971	318.5
305.201	321.5
305.431	323.5
305.661	338.5
305.891	345.5
306.121	334.5
306.352	329.5
306.582	333.5
306.812	338.5
307.042	345.5
307.272	329.5
307.502	319.5
307.731	319.5
307.961	318.5
308.191	327.5
308.421	327.5
308.651	326.5
308.881	321.5
309.111	324.5
309.341	323.5
309.571	331.5
309.8	321.5
310.03	337.5
310.26	350.5
310.49	338.5
310.72	346.5
310.949	341.5
311.179	357.5
311.409	342.5
311.639	346.5
311.868	359.5
312.098	369.5
312.328	359.5
312.557	350.5
312.787	364.5
313.017	345.5
313.246	359.5
313.476	341.5
313.706	358.5
313.935	340.5
314.165	378.5
314.394	373.5
314.624	367.5
314.853	348.5
315.083	364.5
315.312	356.5
315.542	361.5
315.771	349.5
316.001	332.5
316.23	361.5
316.46	362.5
316.689	345.5
316.919	353.5
317.148	353.5
317.377	351.5
317.607	367.5
317.836	359.5
318.065	358.5
318.295	355.5
318.524	364.5
318.753	351.5
318.983	360.5
319.212	369.5
319.441	362.5
319.67	356.5
319.9	385.5
320.129	377.5
320.358	366.5
320.587	371.5
320.816	359.5
321.046	368.5
321.275	375.5
321.504	371.5
321.733	372.5
321.962	395.5
322.191	357.5
322.42	379.5
322.649	406.5
322.878	409.5
323.108	362.5
323.337	392.5
323.566	413.5
323.795	431.5
324.024	450.5
324.253	495.5
324.482	648.5
324.71	907.5
324.939	1231.5
325.168	1053.5
325.397	635.5
325.626	481.5
325.855	448.5
326.084	420.5
326.313	440.5
326.542	423.5
326.77	457.5
326.999	493.5
327.228	608.5
327.457	821.5
327.686	972.5
327.914	719.5
328.143	518.5
328.372	450.5
328.6	445.5
328.829	481.5
329.058	463.5
329.287	443.5
329.515	434.5
329.744	438.5
329.972	433.5
330.201	425.5
330.43	455.5
330.658	470.5
330.887	492.5
331.115	471.5
331.344	439.5
331.572	437.5
331.801	450.5
332.03	455.5
332.258	436.5
332.486	427.5
332.715	431.5
332.943	449.5
333.172	435.5
333.4	470.5
333.629	453.5
333.857	458.5
334.085	473.5
334.314	476.5
334.542	500.5
334.771	473.5
334.999	451.5
335.227	468.5
335.455	454.5
335.684	443.5
335.912	441.5
336.14	452.5
336.369	455.5
336.597	443.5
336.825	438.5
337.053	430.5
337.281	439.5
337.51	429.5
337.738	449.5
337.966	428.5
338.194	442.5
338.422	430.5
338.65	424.5
338.878	393.5
339.106	421.5
339.334	433.5
339.562	419.5
339.79	419.5
340.018	391.5
340.246	404.5
340.474	405.5
340.702	395.5
340.93	419.5
341.158	418.5
341.386	405.5
341.614	406.5
341.842	428.5
342.07	419.5
342.298	423.5
342.526	399.5
342.754	399.5
342.981	383.5
343.209	393.5
343.437	443.5
343.665	434.5
343.893	449.5
344.12	452.5
344.348	443.5
344.576	446.5
344.804	425.5
345.031	431.5
345.259	443.5
345.487	428.5
345.714	419.5
345.942	400.5
346.17	402.5
346.397	415.5
346.625	401.5
346.853	393.5
347.08	402.5
347.308	419.5
347.535	399.5
347.763	403.5
347.99	391.5
348.218	385.5
348.445	392.5
348.673	391.5
348.9	392.5
349.128	408.5
349.355	399.5
349.583	389.5
349.81	367.5
350.037	407.5
350.265	389.5
350.492	400.5
350.72	389.5
350.947	385.5
351.174	398.5
351.402	389.5
351.629	399.5
351.856	390.5
352.083	382.5
352.311	408.5
352.538	375.5
352.765	397.5
352.992	395.5
353.22	389.5
353.447	397.5
353.674	388.5
353.901	390.5
354.128	403.5
354.355	389.5
354.583	382.5
354.81	394.5
355.037	363.5
355.264	385.5
355.491	377.5
355.718	372.5
355.945	359.5
356.172	401.5
356.399	366.5
356.626	371.5
356.853	374.5
357.08	366.5
357.307	359.5
357.534	377.5
357.761	377.5
357.988	382.5
358.215	381.5
358.441	385.5
358.668	393.5
358.895	395.5
359.122	380.5
359.349	379.5
359.576	396.5
359.802	405.5
360.029	409.5
360.256	398.5
360.483	422.5
360.709	396.5
360.936	382.5
361.163	376.5
361.39	400.5
361.616	372.5
361.843	380.5
362.07	377.5
362.296	394.5
362.523	377.5
362.749	382.5
362.976	395.5
363.203	410.5
363.429	395.5
363.656	391.5
363.882	378.5
364.109	377.5
364.335	362.5
364.562	391.5
364.788	376.5
365.015	371.5
365.241	391.5
365.468	372.5
365.694	384.5
365.92	385.5
366.147	373.5
366.373	365.5
366.599	371.5
366.826	381.5
367.052	386.5
367.278	392.5
367.505	402.5
367.731	385.5
367.957	382.5
368.184	385.5
368.41	379.5
368.636	400.5
368.862	387.5
369.089	400.5
369.315	413.5
369.541	396.5
369.767	388.5
369.993	394.5
370.219	393.5
370.445	405.5
370.672	405.5
370.898	377.5
371.124	405.5
371.35	393.5
371.576	388.5
371.802	405.5
372.028	385.5
372.254	385.5
372.48	410.5
372.706	385.5
372.932	399.5
373.158	407.5
373.384	398.5
373.61	389.5
373.835	412.5
374.061	409.5
374.287	409.5
374.513	399.5
374.739	403.5
374.965	429.5
375.191	417.5
375.416	444.5
375.642	409.5
375.868	401.5
376.094	388.5
376.319	410.5
376.545	396.5
376.771	375.5
376.997	402.5
377.222	392.5
377.448	411.5
377.674	409.5
377.899	392.5
378.125	401.5
378.35	412.5
378.576	392.5
378.802	406.5
379.027	391.5
379.253	396.5
379.478	395.5
379.704	391.5
379.929	400.5
380.155	401.5
380.38	396.5
380.606	403.5
380.831	395.5
381.057	431.5
381.282	402.5
381.507	399.5
381.733	398.5
381.958	405.5
382.184	398.5
382.409	409.5
382.634	403.5
382.86	403.5
383.085	390.5
383.31	415.5
383.535	422.5
383.761	423.5
383.986	421.5
384.211	427.5
384.436	426.5
384.662	427.5
384.887	441.5
385.112	430.5
385.337	462.5
385.562	461.5
385.787	451.5
386.013	458.5
386.238	434.5
386.463	473.5
386.688	450.5
386.913	455.5
387.138	442.5
387.363	460.5
387.588	434.5
387.813	456.5
388.038	462.5
388.263	447.5
388.488	449.5
388.713	451.5
388.938	456.5
389.163	475.5
389.387	445.5
389.612	446.5
389.837	431.5
390.062	441.5
390.287	456.5
390.512	447.5
390.736	471.5
390.961	471.5
391.186	468.5
391.411	453.5
391.636	451.5
391.86	484.5
392.085	479.5
392.31	484.5
392.534	492.5
392.759	486.5
392.984	443.5
393.208	455.5
393.433	479.5
393.658	452.5
393.882	457.5
394.107	459.5
394.331	461.5
394.556	461.5
394.78	489.5
395.005	463.5
395.229	469.5
395.454	497.5
395.678	485.5
395.903	485.5
396.127	503.5
396.352	490.5
396.576	478.5
396.801	487.5
397.025	491.5
397.249	486.5
397.474	489.5
397.698	503.5
397.922	513.5
398.147	499.5
398.371	529.5
398.595	516.5
398.82	529.5
399.044	553.5
399.268	583.5
399.492	633.5
399.717	657.5
399.941	669.5
400.165	674.5
400.389	655.5
400.613	599.5
400.837	554.5
401.062	555.5
401.286	541.5
401.51	538.5
401.734	515.5
401.958	529.5
402.182	542.5
402.406	532.5
402.63	559.5
402.854	559.5
403.078	551.5
403.302	562.5
403.526	563.5
403.75	570.5
403.974	577.5
404.198	588.5
404.422	574.5
404.645	555.5
404.869	569.5
405.093	602.5
405.317	604.5
405.541	625.5
405.765	590.5
405.988	597.5
406.212	582.5
406.436	614.5
406.66	583.5
406.883	570.5
407.107	607.5
407.331	663.5
407.555	682.5
407.778	700.5
408.002	657.5
408.226	631.5
408.449	605.5
408.673	582.5
408.896	632.5
409.12	630.5
409.344	637.5
409.567	580.5
409.791	599.5
410.014	572.5
410.238	557.5
410.461	569.5
410.685	560.5
410.908	580.5
411.132	574.5
411.355	602.5
411.578	571.5
411.802	570.5
412.025	565.5
412.249	566.5
412.472	570.5
412.695	588.5
412.919	585.5
413.142	555.5
413.365	550.5
413.589	543.5
413.812	543.5
414.035	523.5
414.258	534.5
414.482	541.5
414.705	525.5
414.928	516.5
415.151	541.5
415.374	520.5
415.597	535.5
415.821	534.5
416.044	527.5
416.267	524.5
416.49	507.5
416.713	502.5
416.936	492.5
417.159	515.5
417.382	521.5
417.605	503.5
417.828	541.5
418.051	514.5
418.274	520.5
418.497	494.5
418.72	536.5
418.943	514.5
419.166	542.5
419.389	592.5
419.611	550.5
419.834	555.5
420.057	546.5
420.28	550.5
420.503	528.5
420.726	533.5
420.948	534.5
421.171	553.5
421.394	573.5
421.617	571.5
421.839	531.5
422.062	551.5
422.285	524.5
422.507	579.5
422.73	631.5
422.953	614.5
423.175	547.5
423.398	551.5
423.621	534.5
423.843	559.5
424.066	571.5
424.288	563.5
424.511	577.5
424.733	632.5
424.956	672.5
425.178	652.5
425.401	630.5
425.623	633.5
425.846	577.5
426.068	523.5
426.291	526.5
426.513	511.5
426.735	547.5
426.958	571.5
427.18	610.5
427.402	721.5
427.625	741.5
427.847	666.5
428.069	577.5
428.292	547.5
428.514	527.5
428.736	522.5
428.958	519.5
429.181	513.5
429.403	490.5
429.625	486.5
429.847	504.5
430.069	571.5
430.292	562.5
430.514	500.5
430.736	502.5
430.958	504.5
431.18	500.5
431.402	478.5
431.624	469.5
431.846	477.5
432.068	482.5
432.29	502.5
432.512	494.5
432.734	498.5
432.956	486.5
433.178	515.5
433.4	500.5
433.622	496.5
433.844	492.5
434.066	492.5
434.287	508.5
434.509	537.5
434.731	511.5
434.953	530.5
435.175	543.5
435.397	566.5
435.618	518.5
435.84	548.5
436.062	625.5
436.284	649.5
436.505	575.5
436.727	555.5
436.949	508.5
437.17	513.5
437.392	513.5
437.614	501.5
437.835	513.5
438.057	575.5
438.278	638.5
438.5	645.5
438.721	716.5
438.943	683.5
439.165	581.5
439.386	505.5
439.608	531.5
439.829	531.5
440.05	544.5
440.272	561.5
440.493	540.5
440.715	522.5
440.936	512.5
441.158	509.5
441.379	522.5
441.6	536.5
441.822	553.5
442.043	578.5
442.264	635.5
442.486	631.5
442.707	582.5
442.928	551.5
443.149	558.5
443.371	563.5
443.592	612.5
443.813	676.5
444.034	705.5
444.255	611.5
444.476	588.5
444.698	583.5
444.919	581.5
445.14	700.5
445.361	631.5
445.582	585.5
445.803	610.5
446.024	653.5
446.245	681.5
446.466	615.5
446.687	554.5
446.908	530.5
447.129	483.5
447.35	470.5
447.571	488.5
447.792	491.5
448.013	505.5
448.234	502.5
448.455	510.5
448.675	590.5
448.896	675.5
449.117	598.5
449.338	577.5
449.559	647.5
449.779	747.5
450	587.5
450.221	527.5
450.442	499.5
450.662	468.5
450.883	470.5
451.104	479.5
451.324	471.5
451.545	457.5
451.766	447.5
451.986	424.5
452.207	445.5
452.428	453.5
452.648	445.5
452.869	447.5
453.089	437.5
453.31	460.5
453.53	451.5
453.751	470.5
453.971	458.5
454.192	442.5
454.412	422.5
454.633	451.5
454.853	425.5
455.073	459.5
455.294	437.5
455.514	493.5
455.734	483.5
455.955	434.5
456.175	434.5
456.395	433.5
456.616	444.5
456.836	425.5
457.056	429.5
457.276	415.5
457.497	421.5
457.717	449.5
457.937	454.5
458.157	424.5
458.377	438.5
458.598	461.5
458.818	494.5
459.038	535.5
459.258	544.5
459.478	482.5
459.698	505.5
459.918	527.5
460.138	522.5
460.358	522.5
460.578	543.5
460.798	525.5
461.018	547.5
461.238	530.5
461.458	546.5
461.678	528.5
461.898	526.5
462.118	529.5
462.338	537.5
462.558	576.5
462.777	566.5
462.997	596.5
463.217	622.5
463.437	631.5
463.657	597.5
463.876	591.5
464.096	590.5
464.316	573.5
464.536	594.5
464.755	582.5
464.975	554.5
465.195	566.5
465.414	589.5
465.634	538.5
465.854	528.5
466.073	506.5
466.293	492.5
466.512	478.5
466.732	487.5
466.951	477.5
467.171	489.5
467.391	472.5
467.61	490.5
467.829	476.5
468.049	473.5
468.268	475.5
468.488	449.5
468.707	426.5
468.927	472.5
469.146	449.5
469.365	466.5
469.585	458.5
469.804	468.5
470.023	473.5
470.243	489.5
470.462	493.5
470.681	494.5
470.901	481.5
471.12	479.5
471.339	490.5
471.558	475.5
471.777	446.5
471.997	470.5
472.216	453.5
472.435	485.5
472.654	463.5
472.873	469.5
473.092	478.5
473.311	477.5
473.53	468.5
473.749	467.5
473.968	491.5
474.187	531.5
474.406	555.5
474.625	508.5
474.844	460.5
475.063	469.5
475.282	474.5
475.501	460.5
475.72	482.5
475.939	462.5
476.158	500.5
476.377	471.5
476.596	480.5
476.814	476.5
477.033	487.5
477.252	495.5
477.471	502.5
477.69	518.5
477.908	510.5
478.127	508.5
478.346	528.5
478.564	537.5
478.783	546.5
479.002	530.5
479.22	572.5
479.439	561.5
479.658	542.5
479.876	573.5
480.095	574.5
480.313	575.5
480.532	594.5
480.751	589.5
480.969	599.5
481.188	622.5
481.406	618.5
481.624	574.5
481.843	564.5
482.061	549.5
482.28	549.5
482.498	543.5
482.717	564.5
482.935	562.5
483.153	539.5
483.372	525.5
483.59	523.5
483.808	550.5
484.027	552.5
484.245	536.5
484.463	553.5
484.681	570.5
484.9	573.5
485.118	557.5
485.336	554.5
485.554	561.5
485.772	584.5
485.99	565.5
486.209	577.5
486.427	561.5
486.645	571.5
486.863	577.5
487.081	585.5
487.299	591.5
487.517	585.5
487.735	557.5
487.953	581.5
488.171	601.5
488.389	569.5
488.607	575.5
488.825	571.5
489.043	561.5
489.261	588.5
489.479	590.5
489.696	593.5
489.914	597.5
490.132	601.5
490.35	574.5
490.568	579.5
490.786	594.5
491.003	592.5
491.221	609.5
491.439	618.5
491.657	622.5
491.874	605.5
492.092	618.5
492.31	647.5
492.527	635.5
492.745	590.5
492.963	643.5
493.18	629.5
493.398	656.5
493.615	632.5
493.833	653.5
494.05	651.5
494.268	639.5
494.485	645.5
494.703	654.5
494.92	651.5
495.138	647.5
495.355	645.5
495.573	655.5
495.79	650.5
496.008	669.5
496.225	655.5
496.442	699.5
496.66	673.5
496.877	657.5
497.094	666.5
497.312	694.5
497.529	717.5
497.746	715.5
497.963	718.5
498.181	767.5
498.398	791.5
498.615	821.5
498.832	804.5
499.049	825.5
499.267	847.5
499.484	894.5
499.701	964.5
499.918	1027.5
500.135	1093.5
500.352	1155.5
500.569	1203.5
500.786	1185.5
501.003	1186.5
501.22	1123.5
501.437	1028.5
501.654	970.5
501.871	947.5
502.088	912.5
502.305	866.5
502.522	809.5
502.739	802.5
502.956	769.5
503.172	740.5
503.389	743.5
503.606	711.5
503.823	705.5
504.04	701.5
504.256	710.5
504.473	700.5
504.69	711.5
504.907	731.5
505.123	693.5
505.34	662.5
505.557	671.5
505.773	631.5
505.99	630.5
506.207	631.5
506.423	607.5
506.64	615.5
506.856	625.5
507.073	625.5
507.289	603.5
507.506	581.5
507.722	586.5
507.939	603.5
508.155	571.5
508.372	561.5
508.588	607.5
508.805	583.5
509.021	578.5
509.238	581.5
509.454	571.5
509.67	567.5
509.887	564.5
510.103	570.5
510.319	565.5
510.536	610.5
510.752	858.5
510.968	707.5
511.184	563.5
511.401	549.5
511.617	548.5
511.833	580.5
512.049	565.5
512.265	555.5
512.481	555.5
512.698	536.5
512.914	553.5
513.13	541.5
513.346	533.5
513.562	552.5
513.778	566.5
513.994	541.5
514.21	537.5
514.426	570.5
514.642	557.5
514.858	580.5
515.074	608.5
515.29	646.5
515.506	811.5
515.721	710.5
515.937	593.5
516.153	575.5
516.369	570.5
516.585	587.5
516.801	573.5
517.016	577.5
517.232	636.5
517.448	611.5
517.664	611.5
517.879	625.5
518.095	609.5
518.311	629.5
518.527	631.5
518.742	582.5
518.958	596.5
519.173	579.5
519.389	577.5
519.605	563.5
519.82	547.5
