Data from 1962.PennyLincolnUp.Lamp.En5.5.200Scan.071719.P1._HRD10591_13-54-20-060.txt Node
Date: Thu Jul 18 13:54:20 EDT 2019
User: cochatt
Spectrometer: HR+D1059
Trigger mode: 1
Integration Time (sec): 1.000000E-1
Scans to average: 1
Electric dark correction enabled: true
Nonlinearity correction enabled: false
Boxcar width: 0
XAxis mode: Wavelengths
Number of Pixels in Spectrum: 2048
>>>>>Begin Spectral Data<<<<<
223.165	-13.69
223.4	-13.69
223.635	-13.69
223.869	-13.69
224.104	-17.69
224.338	-7.69
224.573	-21.69
224.808	-13.69
225.042	-9.69
225.277	-2.69
225.511	5.31
225.746	11.31
225.98	4.31
226.215	19.31
226.449	-0.69
226.683	3.31
226.918	26.31
227.152	31.31
227.387	37.31
227.621	45.31
227.856	55.31
228.09	38.31
228.324	46.31
228.559	74.31
228.793	74.31
229.027	89.31
229.262	94.31
229.496	89.31
229.73	111.31
229.964	121.31
230.199	127.31
230.433	99.31
230.667	105.31
230.901	106.31
231.136	112.31
231.37	104.31
231.604	97.31
231.838	109.31
232.072	118.31
232.306	110.31
232.541	132.31
232.775	114.31
233.009	103.31
233.243	119.31
233.477	123.31
233.711	124.31
233.945	127.31
234.179	109.31
234.413	104.31
234.647	124.31
234.881	110.31
235.115	113.31
235.349	118.31
235.583	122.31
235.817	136.31
236.051	120.31
236.285	126.31
236.519	115.31
236.753	111.31
236.987	120.31
237.221	151.31
237.455	186.31
237.689	174.31
237.922	125.31
238.156	120.31
238.39	136.31
238.624	111.31
238.858	118.31
239.091	125.31
239.325	122.31
239.559	116.31
239.793	126.31
240.027	124.31
240.26	133.31
240.494	132.31
240.728	131.31
240.961	153.31
241.195	150.31
241.429	127.31
241.662	128.31
241.896	132.31
242.13	136.31
242.363	126.31
242.597	148.31
242.83	140.31
243.064	143.31
243.298	142.31
243.531	139.31
243.765	137.31
243.998	138.31
244.232	132.31
244.465	130.31
244.699	127.31
244.932	143.31
245.166	135.31
245.399	142.31
245.633	143.31
245.866	152.31
246.099	158.31
246.333	138.31
246.566	154.31
246.8	146.31
247.033	136.31
247.266	154.31
247.5	157.31
247.733	171.31
247.966	167.31
248.2	165.31
248.433	167.31
248.666	162.31
248.899	172.31
249.133	168.31
249.366	186.31
249.599	183.31
249.832	172.31
250.066	167.31
250.299	176.31
250.532	167.31
250.765	180.31
250.998	222.31
251.231	203.31
251.465	187.31
251.698	185.31
251.931	181.31
252.164	190.31
252.397	178.31
252.63	181.31
252.863	191.31
253.096	202.31
253.329	189.31
253.562	188.31
253.795	202.31
254.028	183.31
254.261	170.31
254.494	209.31
254.727	227.31
254.96	230.31
255.193	230.31
255.426	205.31
255.659	209.31
255.892	213.31
256.124	213.31
256.357	222.31
256.59	205.31
256.823	198.31
257.056	208.31
257.289	178.31
257.521	197.31
257.754	204.31
257.987	194.31
258.22	181.31
258.452	188.31
258.685	189.31
258.918	193.31
259.151	207.31
259.383	207.31
259.616	213.31
259.849	203.31
260.081	218.31
260.314	219.31
260.547	248.31
260.779	240.31
261.012	214.31
261.244	213.31
261.477	195.31
261.71	216.31
261.942	218.31
262.175	206.31
262.407	208.31
262.64	208.31
262.872	208.31
263.105	202.31
263.337	201.31
263.57	204.31
263.802	229.31
264.035	214.31
264.267	199.31
264.499	205.31
264.732	219.31
264.964	232.31
265.197	227.31
265.429	215.31
265.661	210.31
265.894	212.31
266.126	224.31
266.358	228.31
266.591	227.31
266.823	221.31
267.055	223.31
267.287	211.31
267.52	215.31
267.752	236.31
267.984	224.31
268.216	225.31
268.448	234.31
268.681	233.31
268.913	234.31
269.145	239.31
269.377	249.31
269.609	260.31
269.841	250.31
270.073	271.31
270.306	250.31
270.538	283.31
270.77	276.31
271.002	286.31
271.234	292.31
271.466	284.31
271.698	278.31
271.93	275.31
272.162	297.31
272.394	275.31
272.626	261.31
272.858	262.31
273.09	255.31
273.322	276.31
273.553	252.31
273.785	261.31
274.017	269.31
274.249	257.31
274.481	243.31
274.713	263.31
274.945	246.31
275.176	251.31
275.408	251.31
275.64	232.31
275.872	261.31
276.104	259.31
276.335	262.31
276.567	259.31
276.799	258.31
277.031	278.31
277.262	280.31
277.494	293.31
277.726	283.31
277.957	276.31
278.189	253.31
278.421	266.31
278.652	266.31
278.884	268.31
279.115	247.31
279.347	280.31
279.579	273.31
279.81	262.31
280.042	271.31
280.273	288.31
280.505	285.31
280.736	290.31
280.968	266.31
281.199	269.31
281.431	287.31
281.662	255.31
281.894	271.31
282.125	290.31
282.356	290.31
282.588	308.31
282.819	310.31
283.051	285.31
283.282	286.31
283.513	275.31
283.745	283.31
283.976	295.31
284.207	290.31
284.439	276.31
284.67	302.31
284.901	287.31
285.132	287.31
285.364	282.31
285.595	278.31
285.826	287.31
286.057	296.31
286.288	270.31
286.52	263.31
286.751	283.31
286.982	291.31
287.213	291.31
287.444	284.31
287.675	304.31
287.906	299.31
288.138	290.31
288.369	317.31
288.6	297.31
288.831	305.31
289.062	313.31
289.293	306.31
289.524	286.31
289.755	295.31
289.986	300.31
290.217	292.31
290.448	310.31
290.679	293.31
290.91	295.31
291.141	292.31
291.371	310.31
291.602	295.31
291.833	294.31
292.064	305.31
292.295	304.31
292.526	288.31
292.757	298.31
292.987	298.31
293.218	299.31
293.449	300.31
293.68	297.31
293.91	299.31
294.141	297.31
294.372	289.31
294.603	306.31
294.833	290.31
295.064	299.31
295.295	306.31
295.525	295.31
295.756	294.31
295.987	323.31
296.217	342.31
296.448	324.31
296.679	328.31
296.909	314.31
297.14	306.31
297.37	311.31
297.601	298.31
297.831	327.31
298.062	314.31
298.292	310.31
298.523	324.31
298.753	314.31
298.984	332.31
299.214	335.31
299.445	332.31
299.675	311.31
299.905	307.31
300.136	319.31
300.366	322.31
300.597	332.31
300.827	326.31
301.057	311.31
301.288	332.31
301.518	335.31
301.748	339.31
301.979	329.31
302.209	340.31
302.439	340.31
302.669	343.31
302.9	336.31
303.13	339.31
303.36	336.31
303.59	351.31
303.82	356.31
304.051	346.31
304.281	348.31
304.511	336.31
304.741	352.31
304.971	349.31
305.201	320.31
305.431	335.31
305.661	332.31
305.891	340.31
306.121	340.31
306.352	345.31
306.582	336.31
306.812	340.31
307.042	345.31
307.272	324.31
307.502	326.31
307.731	327.31
307.961	323.31
308.191	330.31
308.421	340.31
308.651	342.31
308.881	344.31
309.111	338.31
309.341	346.31
309.571	359.31
309.8	374.31
310.03	349.31
310.26	367.31
310.49	371.31
310.72	351.31
310.949	378.31
311.179	384.31
311.409	363.31
311.639	348.31
311.868	368.31
312.098	367.31
312.328	357.31
312.557	375.31
312.787	360.31
313.017	375.31
313.246	384.31
313.476	374.31
313.706	379.31
313.935	367.31
314.165	378.31
314.394	388.31
314.624	404.31
314.853	373.31
315.083	390.31
315.312	381.31
315.542	367.31
315.771	378.31
316.001	378.31
316.23	374.31
316.46	371.31
316.689	373.31
316.919	373.31
317.148	379.31
317.377	386.31
317.607	390.31
317.836	375.31
318.065	367.31
318.295	390.31
318.524	370.31
318.753	373.31
318.983	370.31
319.212	376.31
319.441	391.31
319.67	380.31
319.9	374.31
320.129	390.31
320.358	390.31
320.587	371.31
320.816	363.31
321.046	372.31
321.275	387.31
321.504	398.31
321.733	390.31
321.962	395.31
322.191	410.31
322.42	411.31
322.649	420.31
322.878	410.31
323.108	412.31
323.337	444.31
323.566	416.31
323.795	455.31
324.024	479.31
324.253	534.31
324.482	715.31
324.71	1021.31
324.939	1362.31
325.168	1272.31
325.397	724.31
325.626	540.31
325.855	492.31
326.084	446.31
326.313	440.31
326.542	458.31
326.77	477.31
326.999	516.31
327.228	664.31
327.457	922.31
327.686	1138.31
327.914	804.31
328.143	573.31
328.372	512.31
328.6	502.31
328.829	481.31
329.058	494.31
329.287	502.31
329.515	470.31
329.744	487.31
329.972	459.31
330.201	464.31
330.43	494.31
330.658	494.31
330.887	524.31
331.115	514.31
331.344	470.31
331.572	448.31
331.801	466.31
332.03	468.31
332.258	468.31
332.486	445.31
332.715	444.31
332.943	463.31
333.172	480.31
333.4	477.31
333.629	493.31
333.857	487.31
334.085	501.31
334.314	494.31
334.542	526.31
334.771	534.31
334.999	498.31
335.227	519.31
335.455	460.31
335.684	486.31
335.912	461.31
336.14	442.31
336.369	458.31
336.597	464.31
336.825	466.31
337.053	462.31
337.281	453.31
337.51	462.31
337.738	450.31
337.966	429.31
338.194	438.31
338.422	457.31
338.65	449.31
338.878	428.31
339.106	436.31
339.334	440.31
339.562	435.31
339.79	418.31
340.018	430.31
340.246	415.31
340.474	420.31
340.702	423.31
340.93	425.31
341.158	428.31
341.386	414.31
341.614	436.31
341.842	418.31
342.07	419.31
342.298	425.31
342.526	404.31
342.754	423.31
342.981	403.31
343.209	429.31
343.437	418.31
343.665	432.31
343.893	464.31
344.12	476.31
344.348	440.31
344.576	454.31
344.804	427.31
345.031	432.31
345.259	432.31
345.487	438.31
345.714	421.31
345.942	420.31
346.17	438.31
346.397	418.31
346.625	396.31
346.853	390.31
347.08	391.31
347.308	413.31
347.535	408.31
347.763	400.31
347.99	410.31
348.218	406.31
348.445	412.31
348.673	410.31
348.9	415.31
349.128	430.31
349.355	395.31
349.583	413.31
349.81	399.31
350.037	406.31
350.265	427.31
350.492	400.31
350.72	399.31
350.947	404.31
351.174	404.31
351.402	428.31
351.629	434.31
351.856	420.31
352.083	421.31
352.311	404.31
352.538	404.31
352.765	398.31
352.992	422.31
353.22	407.31
353.447	410.31
353.674	393.31
353.901	386.31
354.128	408.31
354.355	407.31
354.583	386.31
354.81	377.31
355.037	404.31
355.264	388.31
355.491	394.31
355.718	398.31
355.945	387.31
356.172	412.31
356.399	368.31
356.626	390.31
356.853	394.31
357.08	394.31
357.307	382.31
357.534	391.31
357.761	382.31
357.988	382.31
358.215	403.31
358.441	387.31
358.668	386.31
358.895	390.31
359.122	395.31
359.349	392.31
359.576	399.31
359.802	420.31
360.029	426.31
360.256	423.31
360.483	419.31
360.709	435.31
360.936	418.31
361.163	396.31
361.39	394.31
361.616	418.31
361.843	411.31
362.07	407.31
362.296	412.31
362.523	406.31
362.749	399.31
362.976	399.31
363.203	396.31
363.429	381.31
363.656	410.31
363.882	405.31
364.109	416.31
364.335	399.31
364.562	402.31
364.788	389.31
365.015	400.31
365.241	388.31
365.468	388.31
365.694	397.31
365.92	380.31
366.147	400.31
366.373	382.31
366.599	393.31
366.826	395.31
367.052	379.31
367.278	387.31
367.505	406.31
367.731	387.31
367.957	395.31
368.184	384.31
368.41	422.31
368.636	406.31
368.862	413.31
369.089	407.31
369.315	408.31
369.541	407.31
369.767	416.31
369.993	411.31
370.219	399.31
370.445	408.31
370.672	404.31
370.898	408.31
371.124	416.31
371.35	405.31
371.576	411.31
371.802	410.31
372.028	405.31
372.254	390.31
372.48	396.31
372.706	421.31
372.932	432.31
373.158	423.31
373.384	424.31
373.61	427.31
373.835	417.31
374.061	433.31
374.287	396.31
374.513	408.31
374.739	427.31
374.965	438.31
375.191	430.31
375.416	440.31
375.642	422.31
375.868	428.31
376.094	444.31
376.319	410.31
376.545	389.31
376.771	423.31
376.997	392.31
377.222	411.31
377.448	413.31
377.674	414.31
377.899	407.31
378.125	392.31
378.35	406.31
378.576	392.31
378.802	412.31
379.027	421.31
379.253	428.31
379.478	399.31
379.704	420.31
379.929	425.31
380.155	404.31
380.38	417.31
380.606	404.31
380.831	415.31
381.057	413.31
381.282	391.31
381.507	403.31
381.733	410.31
381.958	415.31
382.184	411.31
382.409	424.31
382.634	440.31
382.86	401.31
383.085	406.31
383.31	396.31
383.535	445.31
383.761	448.31
383.986	431.31
384.211	436.31
384.436	452.31
384.662	439.31
384.887	473.31
385.112	462.31
385.337	474.31
385.562	461.31
385.787	459.31
386.013	483.31
386.238	476.31
386.463	466.31
386.688	459.31
386.913	476.31
387.138	447.31
387.363	469.31
387.588	484.31
387.813	462.31
388.038	456.31
388.263	458.31
388.488	455.31
388.713	467.31
388.938	463.31
389.163	462.31
389.387	478.31
389.612	452.31
389.837	448.31
390.062	448.31
390.287	468.31
390.512	485.31
390.736	433.31
390.961	458.31
391.186	464.31
391.411	483.31
391.636	498.31
391.86	505.31
392.085	489.31
392.31	484.31
392.534	490.31
392.759	470.31
392.984	474.31
393.208	452.31
393.433	476.31
393.658	474.31
393.882	476.31
394.107	470.31
394.331	474.31
394.556	481.31
394.78	468.31
395.005	490.31
395.229	467.31
395.454	507.31
395.678	487.31
395.903	484.31
396.127	502.31
396.352	519.31
396.576	522.31
396.801	496.31
397.025	491.31
397.249	502.31
397.474	495.31
397.698	509.31
397.922	498.31
398.147	524.31
398.371	542.31
398.595	532.31
398.82	552.31
399.044	590.31
399.268	585.31
399.492	628.31
399.717	674.31
399.941	705.31
400.165	706.31
400.389	683.31
400.613	606.31
400.837	587.31
401.062	590.31
401.286	562.31
401.51	565.31
401.734	544.31
401.958	574.31
402.182	554.31
402.406	555.31
402.63	536.31
402.854	559.31
403.078	571.31
403.302	579.31
403.526	587.31
403.75	597.31
403.974	586.31
404.198	583.31
404.422	587.31
404.645	596.31
404.869	579.31
405.093	611.31
405.317	610.31
405.541	650.31
405.765	605.31
405.988	594.31
406.212	594.31
406.436	592.31
406.66	604.31
406.883	600.31
407.107	648.31
407.331	668.31
407.555	735.31
407.778	739.31
408.002	670.31
408.226	630.31
408.449	650.31
408.673	631.31
408.896	644.31
409.12	655.31
409.344	630.31
409.567	595.31
409.791	546.31
410.014	573.31
410.238	570.31
410.461	580.31
410.685	582.31
410.908	579.31
411.132	604.31
411.355	611.31
411.578	593.31
411.802	548.31
412.025	582.31
412.249	580.31
412.472	579.31
412.695	611.31
412.919	598.31
413.142	553.31
413.365	557.31
413.589	541.31
413.812	549.31
414.035	532.31
414.258	534.31
414.482	549.31
414.705	533.31
414.928	532.31
415.151	544.31
415.374	556.31
415.597	530.31
415.821	524.31
416.044	525.31
416.267	542.31
416.49	530.31
416.713	523.31
416.936	551.31
417.159	524.31
417.382	543.31
417.605	541.31
417.828	540.31
418.051	562.31
418.274	549.31
418.497	541.31
418.72	535.31
418.943	516.31
419.166	584.31
419.389	605.31
419.611	590.31
419.834	578.31
420.057	565.31
420.28	545.31
420.503	565.31
420.726	548.31
420.948	579.31
421.171	588.31
421.394	601.31
421.617	570.31
421.839	559.31
422.062	531.31
422.285	572.31
422.507	603.31
422.73	684.31
422.953	631.31
423.175	570.31
423.398	556.31
423.621	570.31
423.843	579.31
424.066	603.31
424.288	568.31
424.511	580.31
424.733	636.31
424.956	687.31
425.178	660.31
425.401	658.31
425.623	647.31
425.846	581.31
426.068	591.31
426.291	560.31
426.513	561.31
426.735	566.31
426.958	590.31
427.18	653.31
427.402	719.31
427.625	835.31
427.847	692.31
428.069	635.31
428.292	590.31
428.514	564.31
428.736	539.31
428.958	540.31
429.181	487.31
429.403	518.31
429.625	519.31
429.847	548.31
430.069	613.31
430.292	613.31
430.514	534.31
430.736	518.31
430.958	504.31
431.18	525.31
431.402	526.31
431.624	505.31
431.846	502.31
432.068	495.31
432.29	520.31
432.512	521.31
432.734	502.31
432.956	517.31
433.178	530.31
433.4	516.31
433.622	506.31
433.844	494.31
434.066	510.31
434.287	524.31
434.509	519.31
434.731	547.31
434.953	559.31
435.175	545.31
435.397	586.31
435.618	536.31
435.84	587.31
436.062	658.31
436.284	701.31
436.505	598.31
436.727	544.31
436.949	539.31
437.17	527.31
437.392	522.31
437.614	512.31
437.835	532.31
438.057	606.31
438.278	692.31
438.5	670.31
438.721	748.31
438.943	729.31
439.165	587.31
439.386	570.31
439.608	527.31
439.829	550.31
440.05	550.31
440.272	598.31
440.493	558.31
440.715	552.31
440.936	537.31
441.158	521.31
441.379	540.31
441.6	544.31
441.822	563.31
442.043	588.31
442.264	636.31
442.486	672.31
442.707	601.31
442.928	580.31
443.149	567.31
443.371	584.31
443.592	617.31
443.813	701.31
444.034	750.31
444.255	630.31
444.476	596.31
444.698	608.31
444.919	612.31
445.14	722.31
445.361	635.31
445.582	587.31
445.803	620.31
446.024	687.31
446.245	674.31
446.466	648.31
446.687	549.31
446.908	556.31
447.129	533.31
447.35	507.31
447.571	530.31
447.792	499.31
448.013	522.31
448.234	506.31
448.455	556.31
448.675	653.31
448.896	730.31
449.117	637.31
449.338	603.31
449.559	688.31
449.779	770.31
450	620.31
450.221	559.31
450.442	515.31
450.662	467.31
450.883	504.31
451.104	493.31
451.324	504.31
451.545	496.31
451.766	480.31
451.986	464.31
452.207	473.31
452.428	452.31
452.648	481.31
452.869	458.31
453.089	482.31
453.31	464.31
453.53	474.31
453.751	426.31
453.971	467.31
454.192	464.31
454.412	450.31
454.633	463.31
454.853	455.31
455.073	443.31
455.294	494.31
455.514	547.31
455.734	512.31
455.955	455.31
456.175	456.31
456.395	451.31
456.616	444.31
456.836	447.31
457.056	447.31
457.276	439.31
457.497	454.31
457.717	451.31
457.937	445.31
458.157	454.31
458.377	462.31
458.598	493.31
458.818	507.31
459.038	542.31
459.258	574.31
459.478	518.31
459.698	506.31
459.918	510.31
460.138	559.31
460.358	517.31
460.578	540.31
460.798	549.31
461.018	566.31
461.238	559.31
461.458	566.31
461.678	539.31
461.898	552.31
462.118	550.31
462.338	575.31
462.558	588.31
462.777	599.31
462.997	628.31
463.217	623.31
463.437	639.31
463.657	610.31
463.876	616.31
464.096	605.31
464.316	580.31
464.536	578.31
464.755	599.31
464.975	565.31
465.195	579.31
465.414	615.31
465.634	539.31
465.854	535.31
466.073	531.31
466.293	508.31
466.512	491.31
466.732	494.31
466.951	478.31
467.171	495.31
467.391	483.31
467.61	478.31
467.829	499.31
468.049	482.31
468.268	478.31
468.488	471.31
468.707	482.31
468.927	481.31
469.146	478.31
469.365	440.31
469.585	483.31
469.804	491.31
470.023	484.31
470.243	495.31
470.462	518.31
470.681	489.31
470.901	492.31
471.12	492.31
471.339	495.31
471.558	504.31
471.777	490.31
471.997	479.31
472.216	510.31
472.435	485.31
472.654	482.31
472.873	464.31
473.092	499.31
473.311	478.31
473.53	478.31
473.749	516.31
473.968	506.31
474.187	580.31
474.406	606.31
474.625	494.31
474.844	495.31
475.063	481.31
475.282	476.31
475.501	468.31
475.72	481.31
475.939	502.31
476.158	514.31
476.377	493.31
476.596	502.31
476.814	512.31
477.033	521.31
477.252	522.31
477.471	538.31
477.69	516.31
477.908	542.31
478.127	545.31
478.346	518.31
478.564	559.31
478.783	556.31
479.002	568.31
479.22	576.31
479.439	579.31
479.658	581.31
479.876	577.31
480.095	609.31
480.313	624.31
480.532	622.31
480.751	606.31
480.969	592.31
481.188	648.31
481.406	631.31
481.624	618.31
481.843	582.31
482.061	566.31
482.28	555.31
482.498	569.31
482.717	533.31
482.935	574.31
483.153	559.31
483.372	566.31
483.59	552.31
483.808	564.31
484.027	554.31
484.245	552.31
484.463	533.31
484.681	582.31
484.9	584.31
485.118	570.31
485.336	578.31
485.554	592.31
485.772	588.31
485.99	580.31
486.209	592.31
486.427	590.31
486.645	596.31
486.863	614.31
487.081	596.31
487.299	601.31
487.517	637.31
487.735	600.31
487.953	608.31
488.171	587.31
488.389	609.31
488.607	570.31
488.825	599.31
489.043	604.31
489.261	611.31
489.479	617.31
489.696	611.31
489.914	627.31
490.132	600.31
490.35	614.31
490.568	603.31
490.786	640.31
491.003	647.31
491.221	644.31
491.439	626.31
491.657	644.31
491.874	635.31
492.092	660.31
492.31	636.31
492.527	639.31
492.745	635.31
492.963	652.31
493.18	678.31
493.398	670.31
493.615	656.31
493.833	676.31
494.05	652.31
494.268	696.31
494.485	682.31
494.703	664.31
494.92	669.31
495.138	684.31
495.355	682.31
495.573	686.31
495.79	705.31
496.008	679.31
496.225	676.31
496.442	688.31
496.66	692.31
496.877	694.31
497.094	704.31
497.312	713.31
497.529	713.31
497.746	740.31
497.963	748.31
498.181	778.31
498.398	784.31
498.615	813.31
498.832	855.31
499.049	828.31
499.267	909.31
499.484	950.31
499.701	998.31
499.918	1084.31
500.135	1122.31
500.352	1196.31
500.569	1268.31
500.786	1248.31
501.003	1214.31
501.22	1143.31
501.437	1075.31
501.654	1041.31
501.871	1003.31
