Data from 1962.PennyLincolnUp.Lamp.En5.5.200Scan.071719.P1._HRD10591_13-54-27-061.txt Node
Date: Thu Jul 18 13:54:27 EDT 2019
User: cochatt
Spectrometer: HR+D1059
Trigger mode: 1
Integration Time (sec): 1.000000E-1
Scans to average: 1
Electric dark correction enabled: true
Nonlinearity correction enabled: false
Boxcar width: 0
XAxis mode: Wavelengths
Number of Pixels in Spectrum: 2048
>>>>>Begin Spectral Data<<<<<
223.165	-26.31
223.4	-26.31
223.635	-26.31
223.869	-12.31
224.104	-19.31
224.338	-18.31
224.573	-8.31
224.808	-2.31
225.042	-13.31
225.277	-0.31
225.511	2.69
225.746	2.69
225.98	6.69
226.215	-1.31
226.449	11.69
226.683	25.69
226.918	25.69
227.152	26.69
227.387	39.69
227.621	45.69
227.856	40.69
228.09	28.69
228.324	48.69
228.559	58.69
228.793	75.69
229.027	96.69
229.262	93.69
229.496	89.69
229.73	117.69
229.964	130.69
230.199	101.69
230.433	103.69
230.667	112.69
230.901	99.69
231.136	114.69
231.37	102.69
231.604	109.69
231.838	98.69
232.072	106.69
232.306	103.69
232.541	123.69
232.775	121.69
233.009	117.69
233.243	109.69
233.477	113.69
233.711	111.69
233.945	109.69
234.179	125.69
234.413	114.69
234.647	117.69
234.881	110.69
235.115	98.69
235.349	118.69
235.583	112.69
235.817	110.69
236.051	112.69
236.285	108.69
236.519	128.69
236.753	124.69
236.987	131.69
237.221	162.69
237.455	188.69
237.689	154.69
237.922	140.69
238.156	118.69
238.39	130.69
238.624	118.69
238.858	124.69
239.091	108.69
239.325	117.69
239.559	121.69
239.793	127.69
240.027	125.69
240.26	131.69
240.494	140.69
240.728	132.69
240.961	128.69
241.195	129.69
241.429	129.69
241.662	138.69
241.896	128.69
242.13	122.69
242.363	137.69
242.597	137.69
242.83	137.69
243.064	142.69
243.298	142.69
243.531	140.69
243.765	136.69
243.998	133.69
244.232	142.69
244.465	150.69
244.699	132.69
244.932	126.69
245.166	141.69
245.399	151.69
245.633	130.69
245.866	140.69
246.099	127.69
246.333	153.69
246.566	138.69
246.8	140.69
247.033	137.69
247.266	149.69
247.5	154.69
247.733	155.69
247.966	176.69
248.2	158.69
248.433	166.69
248.666	149.69
248.899	180.69
249.133	186.69
249.366	187.69
249.599	184.69
249.832	166.69
250.066	173.69
250.299	164.69
250.532	189.69
250.765	186.69
250.998	187.69
251.231	201.69
251.465	199.69
251.698	167.69
251.931	183.69
252.164	184.69
252.397	156.69
252.63	170.69
252.863	200.69
253.096	201.69
253.329	188.69
253.562	202.69
253.795	194.69
254.028	184.69
254.261	201.69
254.494	212.69
254.727	222.69
254.96	233.69
255.193	220.69
255.426	229.69
255.659	192.69
255.892	203.69
256.124	217.69
256.357	206.69
256.59	192.69
256.823	204.69
257.056	196.69
257.289	189.69
257.521	194.69
257.754	208.69
257.987	203.69
258.22	210.69
258.452	205.69
258.685	192.69
258.918	201.69
259.151	212.69
259.383	214.69
259.616	212.69
259.849	212.69
260.081	228.69
260.314	237.69
260.547	233.69
260.779	229.69
261.012	210.69
261.244	220.69
261.477	221.69
261.71	211.69
261.942	204.69
262.175	220.69
262.407	209.69
262.64	202.69
262.872	202.69
263.105	201.69
263.337	208.69
263.57	200.69
263.802	200.69
264.035	218.69
264.267	216.69
264.499	218.69
264.732	206.69
264.964	210.69
265.197	219.69
265.429	202.69
265.661	205.69
265.894	201.69
266.126	211.69
266.358	224.69
266.591	209.69
266.823	217.69
267.055	210.69
267.287	216.69
267.52	216.69
267.752	229.69
267.984	229.69
268.216	222.69
268.448	215.69
268.681	218.69
268.913	219.69
269.145	244.69
269.377	249.69
269.609	256.69
269.841	256.69
270.073	259.69
270.306	273.69
270.538	269.69
270.77	271.69
271.002	268.69
271.234	265.69
271.466	278.69
271.698	299.69
271.93	274.69
272.162	297.69
272.394	288.69
272.626	281.69
272.858	248.69
273.09	260.69
273.322	268.69
273.553	247.69
273.785	258.69
274.017	248.69
274.249	246.69
274.481	245.69
274.713	256.69
274.945	282.69
275.176	249.69
275.408	276.69
275.64	236.69
275.872	261.69
276.104	276.69
276.335	254.69
276.567	259.69
276.799	262.69
277.031	287.69
277.262	313.69
277.494	309.69
277.726	291.69
277.957	280.69
278.189	268.69
278.421	284.69
278.652	269.69
278.884	272.69
279.115	256.69
279.347	267.69
279.579	261.69
279.81	272.69
280.042	289.69
280.273	278.69
280.505	275.69
280.736	284.69
280.968	262.69
281.199	266.69
281.431	282.69
281.662	261.69
281.894	280.69
282.125	279.69
282.356	293.69
282.588	289.69
282.819	292.69
283.051	278.69
283.282	261.69
283.513	289.69
283.745	299.69
283.976	276.69
284.207	284.69
284.439	288.69
284.67	288.69
284.901	297.69
285.132	285.69
285.364	288.69
285.595	278.69
285.826	276.69
286.057	299.69
286.288	289.69
286.52	302.69
286.751	276.69
286.982	285.69
287.213	285.69
287.444	294.69
287.675	310.69
287.906	291.69
288.138	300.69
288.369	291.69
288.6	309.69
288.831	305.69
289.062	297.69
289.293	274.69
289.524	285.69
289.755	302.69
289.986	295.69
290.217	290.69
290.448	298.69
290.679	307.69
290.91	300.69
291.141	297.69
291.371	308.69
291.602	306.69
291.833	309.69
292.064	302.69
292.295	309.69
292.526	296.69
292.757	298.69
292.987	308.69
293.218	308.69
293.449	309.69
293.68	312.69
293.91	306.69
294.141	307.69
294.372	303.69
294.603	292.69
294.833	309.69
295.064	316.69
295.295	304.69
295.525	304.69
295.756	309.69
295.987	316.69
296.217	312.69
296.448	332.69
296.679	322.69
296.909	308.69
297.14	296.69
297.37	311.69
297.601	310.69
297.831	313.69
298.062	327.69
298.292	315.69
298.523	318.69
298.753	340.69
298.984	321.69
299.214	324.69
299.445	333.69
299.675	313.69
299.905	320.69
300.136	332.69
300.366	329.69
300.597	329.69
300.827	307.69
301.057	312.69
301.288	322.69
301.518	331.69
301.748	326.69
301.979	353.69
302.209	340.69
302.439	329.69
302.669	375.69
302.9	344.69
303.13	348.69
303.36	340.69
303.59	342.69
303.82	365.69
304.051	352.69
304.281	345.69
304.511	336.69
304.741	351.69
304.971	334.69
305.201	351.69
305.431	332.69
305.661	333.69
305.891	344.69
306.121	346.69
306.352	342.69
306.582	335.69
306.812	344.69
307.042	316.69
307.272	338.69
307.502	348.69
307.731	356.69
307.961	348.69
308.191	343.69
308.421	344.69
308.651	359.69
308.881	353.69
309.111	333.69
309.341	359.69
309.571	346.69
309.8	356.69
310.03	346.69
310.26	346.69
310.49	366.69
310.72	365.69
310.949	353.69
311.179	379.69
311.409	365.69
311.639	362.69
311.868	372.69
312.098	369.69
312.328	373.69
312.557	394.69
312.787	397.69
313.017	400.69
313.246	379.69
313.476	367.69
313.706	368.69
313.935	378.69
314.165	373.69
314.394	393.69
314.624	379.69
314.853	368.69
315.083	386.69
315.312	389.69
315.542	365.69
315.771	397.69
316.001	388.69
316.23	368.69
316.46	374.69
316.689	378.69
316.919	385.69
317.148	384.69
317.377	393.69
317.607	378.69
317.836	376.69
318.065	380.69
318.295	387.69
318.524	372.69
318.753	381.69
318.983	359.69
319.212	379.69
319.441	396.69
319.67	372.69
319.9	398.69
320.129	383.69
320.358	386.69
320.587	368.69
320.816	392.69
321.046	399.69
321.275	386.69
321.504	394.69
321.733	389.69
321.962	390.69
322.191	387.69
322.42	410.69
322.649	437.69
322.878	394.69
323.108	412.69
323.337	431.69
323.566	438.69
323.795	445.69
324.024	473.69
324.253	542.69
324.482	727.69
324.71	1039.69
324.939	1432.69
325.168	1234.69
325.397	708.69
325.626	539.69
325.855	480.69
326.084	451.69
326.313	419.69
326.542	459.69
326.77	462.69
326.999	521.69
327.228	672.69
327.457	938.69
327.686	1117.69
327.914	803.69
328.143	573.69
328.372	522.69
328.6	481.69
328.829	488.69
329.058	483.69
329.287	492.69
329.515	480.69
329.744	453.69
329.972	468.69
330.201	472.69
330.43	515.69
330.658	505.69
330.887	496.69
331.115	493.69
331.344	484.69
331.572	457.69
331.801	474.69
332.03	456.69
332.258	442.69
332.486	449.69
332.715	434.69
332.943	465.69
333.172	472.69
333.4	476.69
333.629	498.69
333.857	484.69
334.085	496.69
334.314	512.69
334.542	511.69
334.771	537.69
334.999	488.69
335.227	498.69
335.455	500.69
335.684	468.69
335.912	478.69
336.14	466.69
336.369	454.69
336.597	450.69
336.825	474.69
337.053	463.69
337.281	443.69
337.51	460.69
337.738	428.69
337.966	440.69
338.194	468.69
338.422	442.69
338.65	430.69
338.878	445.69
339.106	429.69
339.334	456.69
339.562	440.69
339.79	429.69
340.018	422.69
340.246	425.69
340.474	418.69
340.702	433.69
340.93	416.69
341.158	432.69
341.386	408.69
341.614	420.69
341.842	436.69
342.07	443.69
342.298	412.69
342.526	402.69
342.754	407.69
342.981	407.69
343.209	426.69
343.437	434.69
343.665	438.69
343.893	464.69
344.12	466.69
344.348	466.69
344.576	446.69
344.804	457.69
345.031	459.69
345.259	452.69
345.487	449.69
345.714	428.69
345.942	418.69
346.17	416.69
346.397	404.69
346.625	427.69
346.853	413.69
347.08	408.69
347.308	425.69
347.535	431.69
347.763	407.69
347.99	403.69
348.218	434.69
348.445	400.69
348.673	421.69
348.9	417.69
349.128	410.69
349.355	409.69
349.583	418.69
349.81	392.69
350.037	392.69
350.265	385.69
350.492	402.69
350.72	392.69
350.947	401.69
351.174	416.69
351.402	412.69
351.629	402.69
351.856	404.69
352.083	411.69
352.311	405.69
352.538	420.69
352.765	401.69
352.992	424.69
353.22	413.69
353.447	397.69
353.674	417.69
353.901	389.69
354.128	403.69
354.355	383.69
354.583	399.69
354.81	396.69
355.037	408.69
355.264	409.69
355.491	389.69
355.718	381.69
355.945	400.69
356.172	396.69
356.399	378.69
356.626	384.69
356.853	392.69
357.08	391.69
357.307	389.69
357.534	411.69
357.761	393.69
357.988	404.69
358.215	381.69
358.441	371.69
358.668	399.69
358.895	397.69
359.122	402.69
359.349	383.69
359.576	403.69
359.802	422.69
360.029	416.69
360.256	427.69
360.483	416.69
360.709	414.69
360.936	405.69
361.163	392.69
361.39	411.69
361.616	402.69
361.843	398.69
362.07	389.69
362.296	417.69
362.523	405.69
362.749	385.69
362.976	397.69
363.203	393.69
363.429	397.69
363.656	402.69
363.882	410.69
364.109	401.69
364.335	400.69
364.562	392.69
364.788	390.69
365.015	372.69
365.241	387.69
365.468	384.69
365.694	416.69
365.92	382.69
366.147	389.69
366.373	393.69
366.599	391.69
366.826	399.69
367.052	409.69
367.278	388.69
367.505	406.69
367.731	393.69
367.957	413.69
368.184	380.69
368.41	392.69
368.636	409.69
368.862	438.69
369.089	404.69
369.315	401.69
369.541	397.69
369.767	405.69
369.993	397.69
370.219	411.69
370.445	402.69
370.672	407.69
370.898	396.69
371.124	396.69
371.35	413.69
371.576	410.69
371.802	405.69
372.028	414.69
372.254	405.69
372.48	414.69
372.706	416.69
372.932	422.69
373.158	421.69
373.384	406.69
373.61	411.69
373.835	402.69
374.061	402.69
374.287	409.69
374.513	422.69
374.739	436.69
374.965	429.69
375.191	425.69
375.416	461.69
375.642	401.69
375.868	420.69
376.094	403.69
376.319	414.69
376.545	404.69
376.771	401.69
376.997	409.69
377.222	405.69
377.448	415.69
377.674	408.69
377.899	393.69
378.125	417.69
378.35	401.69
378.576	416.69
378.802	397.69
379.027	398.69
379.253	403.69
379.478	404.69
379.704	410.69
379.929	394.69
380.155	405.69
380.38	418.69
380.606	410.69
380.831	394.69
381.057	412.69
381.282	398.69
381.507	405.69
381.733	404.69
381.958	414.69
382.184	417.69
382.409	425.69
382.634	412.69
382.86	413.69
383.085	452.69
383.31	425.69
383.535	425.69
383.761	420.69
383.986	426.69
384.211	430.69
384.436	448.69
384.662	436.69
384.887	461.69
385.112	444.69
385.337	454.69
385.562	457.69
385.787	453.69
386.013	459.69
386.238	446.69
386.463	475.69
386.688	440.69
386.913	459.69
387.138	449.69
387.363	445.69
387.588	443.69
387.813	452.69
388.038	459.69
388.263	464.69
388.488	458.69
388.713	467.69
388.938	449.69
389.163	441.69
389.387	451.69
389.612	458.69
389.837	457.69
390.062	457.69
390.287	470.69
390.512	470.69
390.736	472.69
390.961	457.69
391.186	485.69
391.411	467.69
391.636	460.69
391.86	473.69
392.085	493.69
392.31	491.69
392.534	491.69
392.759	502.69
392.984	478.69
393.208	485.69
393.433	470.69
393.658	465.69
393.882	470.69
394.107	468.69
394.331	460.69
394.556	472.69
394.78	475.69
395.005	478.69
395.229	478.69
395.454	498.69
395.678	508.69
395.903	485.69
396.127	512.69
396.352	514.69
396.576	511.69
396.801	479.69
397.025	481.69
397.249	502.69
397.474	488.69
397.698	506.69
397.922	495.69
398.147	523.69
398.371	526.69
398.595	541.69
398.82	532.69
399.044	592.69
399.268	590.69
399.492	656.69
399.717	677.69
399.941	725.69
400.165	700.69
400.389	667.69
400.613	614.69
400.837	585.69
401.062	566.69
401.286	546.69
401.51	540.69
401.734	553.69
401.958	552.69
402.182	548.69
402.406	543.69
402.63	553.69
402.854	571.69
403.078	555.69
403.302	567.69
403.526	572.69
403.75	565.69
403.974	572.69
404.198	586.69
404.422	583.69
404.645	591.69
404.869	601.69
405.093	611.69
405.317	665.69
405.541	650.69
405.765	596.69
405.988	606.69
406.212	594.69
406.436	612.69
406.66	626.69
406.883	598.69
407.107	633.69
407.331	660.69
407.555	713.69
407.778	700.69
408.002	675.69
408.226	634.69
408.449	620.69
408.673	612.69
408.896	612.69
409.12	662.69
409.344	648.69
409.567	566.69
409.791	589.69
410.014	562.69
410.238	576.69
410.461	576.69
410.685	576.69
410.908	550.69
411.132	598.69
411.355	600.69
411.578	602.69
411.802	572.69
412.025	566.69
412.249	573.69
412.472	565.69
412.695	622.69
412.919	615.69
413.142	577.69
413.365	553.69
413.589	538.69
413.812	544.69
414.035	547.69
414.258	536.69
414.482	529.69
414.705	539.69
414.928	533.69
415.151	545.69
415.374	545.69
415.597	539.69
415.821	520.69
416.044	524.69
416.267	543.69
416.49	529.69
416.713	541.69
416.936	539.69
417.159	555.69
417.382	537.69
417.605	539.69
417.828	544.69
418.051	547.69
418.274	537.69
418.497	529.69
418.72	545.69
418.943	528.69
419.166	563.69
419.389	592.69
419.611	575.69
419.834	565.69
420.057	566.69
420.28	574.69
420.503	539.69
420.726	550.69
420.948	560.69
421.171	574.69
421.394	620.69
421.617	574.69
421.839	542.69
422.062	547.69
422.285	528.69
422.507	590.69
422.73	673.69
422.953	637.69
423.175	592.69
423.398	576.69
423.621	589.69
423.843	589.69
424.066	594.69
424.288	568.69
424.511	590.69
424.733	642.69
424.956	682.69
425.178	650.69
425.401	632.69
425.623	672.69
425.846	611.69
426.068	565.69
426.291	541.69
426.513	552.69
426.735	556.69
426.958	577.69
427.18	638.69
427.402	727.69
427.625	794.69
427.847	694.69
428.069	633.69
428.292	578.69
428.514	568.69
428.736	538.69
428.958	523.69
429.181	504.69
429.403	518.69
429.625	520.69
429.847	516.69
430.069	590.69
430.292	581.69
430.514	549.69
430.736	524.69
430.958	490.69
431.18	504.69
431.402	518.69
431.624	483.69
431.846	515.69
432.068	507.69
432.29	532.69
432.512	507.69
432.734	528.69
432.956	504.69
433.178	512.69
433.4	494.69
433.622	508.69
433.844	501.69
434.066	503.69
434.287	524.69
434.509	539.69
434.731	530.69
434.953	539.69
435.175	554.69
435.397	552.69
435.618	546.69
435.84	587.69
436.062	646.69
436.284	702.69
436.505	588.69
436.727	547.69
436.949	542.69
437.17	507.69
437.392	497.69
437.614	497.69
437.835	554.69
438.057	590.69
438.278	669.69
438.5	684.69
438.721	725.69
438.943	705.69
439.165	602.69
439.386	582.69
439.608	565.69
439.829	542.69
440.05	565.69
440.272	594.69
440.493	568.69
440.715	525.69
440.936	542.69
441.158	541.69
441.379	530.69
441.6	549.69
441.822	565.69
442.043	575.69
442.264	638.69
442.486	674.69
442.707	608.69
442.928	571.69
443.149	564.69
443.371	575.69
443.592	586.69
443.813	685.69
444.034	740.69
444.255	640.69
444.476	618.69
444.698	590.69
444.919	597.69
445.14	712.69
445.361	633.69
445.582	588.69
445.803	638.69
446.024	686.69
446.245	699.69
446.466	635.69
446.687	589.69
446.908	542.69
447.129	528.69
447.35	532.69
447.571	507.69
447.792	486.69
448.013	529.69
448.234	522.69
448.455	565.69
448.675	628.69
448.896	741.69
449.117	608.69
449.338	575.69
449.559	663.69
449.779	746.69
450	637.69
450.221	538.69
450.442	510.69
450.662	504.69
450.883	518.69
451.104	490.69
451.324	493.69
451.545	493.69
451.766	462.69
451.986	444.69
452.207	459.69
452.428	468.69
452.648	475.69
452.869	474.69
453.089	460.69
453.31	463.69
453.53	473.69
453.751	445.69
453.971	458.69
454.192	465.69
454.412	470.69
454.633	448.69
454.853	452.69
455.073	454.69
455.294	473.69
455.514	501.69
455.734	525.69
455.955	459.69
456.175	435.69
456.395	483.69
456.616	459.69
456.836	461.69
457.056	430.69
457.276	435.69
457.497	438.69
457.717	442.69
457.937	455.69
458.157	457.69
458.377	438.69
458.598	480.69
458.818	504.69
459.038	561.69
459.258	597.69
459.478	523.69
459.698	526.69
459.918	547.69
460.138	524.69
460.358	536.69
460.578	538.69
460.798	542.69
461.018	547.69
461.238	556.69
461.458	538.69
461.678	530.69
461.898	568.69
462.118	545.69
462.338	554.69
462.558	562.69
462.777	600.69
462.997	634.69
463.217	608.69
463.437	627.69
463.657	627.69
463.876	590.69
464.096	609.69
464.316	600.69
464.536	590.69
464.755	595.69
464.975	596.69
465.195	573.69
465.414	587.69
465.634	566.69
465.854	529.69
466.073	504.69
466.293	501.69
466.512	496.69
466.732	469.69
466.951	481.69
467.171	497.69
467.391	492.69
467.61	508.69
467.829	487.69
468.049	483.69
468.268	489.69
468.488	461.69
468.707	473.69
468.927	467.69
469.146	474.69
469.365	460.69
469.585	475.69
469.804	491.69
470.023	515.69
470.243	500.69
470.462	486.69
470.681	493.69
470.901	502.69
471.12	488.69
471.339	505.69
471.558	481.69
471.777	502.69
471.997	464.69
472.216	496.69
472.435	518.69
472.654	476.69
472.873	473.69
473.092	487.69
473.311	484.69
473.53	499.69
473.749	482.69
473.968	524.69
474.187	561.69
474.406	586.69
474.625	530.69
474.844	490.69
475.063	475.69
475.282	487.69
475.501	472.69
475.72	461.69
475.939	473.69
476.158	489.69
476.377	490.69
476.596	501.69
476.814	532.69
477.033	504.69
477.252	526.69
477.471	518.69
477.69	522.69
477.908	528.69
478.127	547.69
478.346	559.69
478.564	578.69
478.783	550.69
479.002	553.69
479.22	566.69
479.439	548.69
479.658	566.69
479.876	595.69
480.095	572.69
480.313	590.69
480.532	594.69
480.751	611.69
480.969	605.69
481.188	629.69
481.406	648.69
481.624	612.69
481.843	582.69
482.061	586.69
482.28	577.69
482.498	576.69
482.717	560.69
482.935	574.69
483.153	575.69
483.372	544.69
483.59	545.69
483.808	569.69
484.027	557.69
484.245	547.69
484.463	556.69
484.681	589.69
484.9	576.69
485.118	587.69
485.336	585.69
485.554	594.69
485.772	587.69
485.99	591.69
486.209	585.69
486.427	574.69
486.645	587.69
486.863	595.69
487.081	597.69
487.299	595.69
487.517	586.69
487.735	590.69
487.953	606.69
488.171	582.69
488.389	583.69
488.607	598.69
488.825	601.69
489.043	599.69
489.261	606.69
489.479	613.69
489.696	615.69
489.914	594.69
490.132	585.69
490.35	616.69
490.568	614.69
490.786	622.69
491.003	642.69
491.221	634.69
491.439	632.69
491.657	665.69
491.874	642.69
492.092	648.69
492.31	643.69
492.527	652.69
492.745	663.69
492.963	668.69
493.18	654.69
493.398	665.69
493.615	702.69
493.833	688.69
494.05	680.69
494.268	654.69
494.485	684.69
494.703	681.69
494.92	676.69
495.138	703.69
495.355	688.69
495.573	670.69
495.79	672.69
496.008	710.69
496.225	682.69
496.442	676.69
496.66	693.69
496.877	693.69
497.094	695.69
497.312	724.69
497.529	714.69
497.746	726.69
497.963	755.69
498.181	742.69
498.398	813.69
498.615	825.69
498.832	840.69
499.049	873.69
499.267	932.69
499.484	962.69
499.701	1001.69
499.918	1060.69
500.135	1139.69
500.352	1211.69
500.569	1258.69
500.786	1249.69
501.003	1205.69
501.22	1115.69
501.437	1051.69
501.654	1050.69
501.871	970.69
