Data from 1962.PennyLincolnUp.Lamp.En5.5.200Scan.071719.P1._HRD10591_13-54-13-061.txt Node
Date: Thu Jul 18 13:54:13 EDT 2019
User: cochatt
Spectrometer: HR+D1059
Trigger mode: 1
Integration Time (sec): 1.000000E-1
Scans to average: 1
Electric dark correction enabled: true
Nonlinearity correction enabled: false
Boxcar width: 0
XAxis mode: Wavelengths
Number of Pixels in Spectrum: 2048
>>>>>Begin Spectral Data<<<<<
223.165	-12.44
223.4	-12.44
223.635	-12.44
223.869	-31.44
224.104	-15.44
224.338	-4.44
224.573	-5.44
224.808	-1.44
225.042	-11.44
225.277	-0.44
225.511	-7.44
225.746	-12.44
225.98	8.56
226.215	8.56
226.449	12.56
226.683	28.56
226.918	25.56
227.152	18.56
227.387	22.56
227.621	33.56
227.856	39.56
228.09	51.56
228.324	40.56
228.559	49.56
228.793	66.56
229.027	93.56
229.262	106.56
229.496	104.56
229.73	111.56
229.964	119.56
230.199	107.56
230.433	100.56
230.667	111.56
230.901	100.56
231.136	96.56
231.37	94.56
231.604	103.56
231.838	116.56
232.072	109.56
232.306	118.56
232.541	91.56
232.775	114.56
233.009	102.56
233.243	106.56
233.477	99.56
233.711	111.56
233.945	127.56
234.179	117.56
234.413	105.56
234.647	104.56
234.881	118.56
235.115	126.56
235.349	112.56
235.583	120.56
235.817	111.56
236.051	117.56
236.285	123.56
236.519	130.56
236.753	121.56
236.987	120.56
237.221	159.56
237.455	178.56
237.689	156.56
237.922	131.56
238.156	116.56
238.39	115.56
238.624	112.56
238.858	117.56
239.091	116.56
239.325	122.56
239.559	116.56
239.793	123.56
240.027	121.56
240.26	146.56
240.494	126.56
240.728	136.56
240.961	145.56
241.195	136.56
241.429	118.56
241.662	121.56
241.896	117.56
242.13	123.56
242.363	124.56
242.597	134.56
242.83	132.56
243.064	144.56
243.298	130.56
243.531	126.56
243.765	134.56
243.998	136.56
244.232	137.56
244.465	130.56
244.699	140.56
244.932	137.56
245.166	138.56
245.399	141.56
245.633	152.56
245.866	135.56
246.099	126.56
246.333	130.56
246.566	135.56
246.8	146.56
247.033	136.56
247.266	145.56
247.5	141.56
247.733	151.56
247.966	142.56
248.2	173.56
248.433	148.56
248.666	166.56
248.899	174.56
249.133	174.56
249.366	170.56
249.599	186.56
249.832	158.56
250.066	171.56
250.299	161.56
250.532	167.56
250.765	190.56
250.998	183.56
251.231	198.56
251.465	182.56
251.698	192.56
251.931	178.56
252.164	176.56
252.397	181.56
252.63	181.56
252.863	191.56
253.096	199.56
253.329	195.56
253.562	193.56
253.795	194.56
254.028	183.56
254.261	180.56
254.494	203.56
254.727	229.56
254.96	239.56
255.193	224.56
255.426	200.56
255.659	210.56
255.892	198.56
256.124	212.56
256.357	208.56
256.59	206.56
256.823	185.56
257.056	198.56
257.289	211.56
257.521	190.56
257.754	202.56
257.987	177.56
258.22	193.56
258.452	196.56
258.685	198.56
258.918	192.56
259.151	183.56
259.383	209.56
259.616	201.56
259.849	188.56
260.081	195.56
260.314	212.56
260.547	204.56
260.779	208.56
261.012	217.56
261.244	211.56
261.477	201.56
261.71	216.56
261.942	214.56
262.175	212.56
262.407	220.56
262.64	197.56
262.872	207.56
263.105	200.56
263.337	204.56
263.57	200.56
263.802	217.56
264.035	180.56
264.267	209.56
264.499	199.56
264.732	203.56
264.964	213.56
265.197	208.56
265.429	209.56
265.661	201.56
265.894	208.56
266.126	206.56
266.358	215.56
266.591	210.56
266.823	204.56
267.055	217.56
267.287	219.56
267.52	209.56
267.752	213.56
267.984	217.56
268.216	214.56
268.448	208.56
268.681	224.56
268.913	227.56
269.145	251.56
269.377	248.56
269.609	267.56
269.841	257.56
270.073	239.56
270.306	269.56
270.538	279.56
270.77	269.56
271.002	266.56
271.234	270.56
271.466	268.56
271.698	282.56
271.93	294.56
272.162	263.56
272.394	278.56
272.626	262.56
272.858	270.56
273.09	271.56
273.322	262.56
273.553	242.56
273.785	254.56
274.017	257.56
274.249	252.56
274.481	240.56
274.713	254.56
274.945	266.56
275.176	266.56
275.408	259.56
275.64	239.56
275.872	268.56
276.104	273.56
276.335	268.56
276.567	256.56
276.799	274.56
277.031	297.56
277.262	300.56
277.494	292.56
277.726	283.56
277.957	287.56
278.189	279.56
278.421	258.56
278.652	262.56
278.884	283.56
279.115	278.56
279.347	255.56
279.579	262.56
279.81	262.56
280.042	270.56
280.273	263.56
280.505	282.56
280.736	282.56
280.968	269.56
281.199	275.56
281.431	255.56
281.662	276.56
281.894	248.56
282.125	259.56
282.356	283.56
282.588	288.56
282.819	293.56
283.051	282.56
283.282	286.56
283.513	302.56
283.745	274.56
283.976	286.56
284.207	289.56
284.439	286.56
284.67	284.56
284.901	282.56
285.132	271.56
285.364	273.56
285.595	275.56
285.826	278.56
286.057	288.56
286.288	270.56
286.52	297.56
286.751	275.56
286.982	297.56
287.213	279.56
287.444	282.56
287.675	293.56
287.906	290.56
288.138	298.56
288.369	307.56
288.6	282.56
288.831	294.56
289.062	310.56
289.293	303.56
289.524	284.56
289.755	296.56
289.986	283.56
290.217	281.56
290.448	317.56
290.679	300.56
290.91	299.56
291.141	295.56
291.371	290.56
291.602	297.56
291.833	288.56
292.064	286.56
292.295	300.56
292.526	296.56
292.757	294.56
292.987	306.56
293.218	290.56
293.449	302.56
293.68	302.56
293.91	279.56
294.141	308.56
294.372	310.56
294.603	302.56
294.833	311.56
295.064	295.56
295.295	298.56
295.525	285.56
295.756	303.56
295.987	315.56
296.217	316.56
296.448	310.56
296.679	310.56
296.909	314.56
297.14	307.56
297.37	294.56
297.601	316.56
297.831	315.56
298.062	313.56
298.292	304.56
298.523	289.56
298.753	302.56
298.984	320.56
299.214	312.56
299.445	321.56
299.675	319.56
299.905	318.56
300.136	315.56
300.366	319.56
300.597	318.56
300.827	316.56
301.057	329.56
301.288	335.56
301.518	339.56
301.748	332.56
301.979	336.56
302.209	313.56
302.439	316.56
302.669	342.56
302.9	326.56
303.13	337.56
303.36	333.56
303.59	329.56
303.82	339.56
304.051	354.56
304.281	344.56
304.511	354.56
304.741	347.56
304.971	336.56
305.201	333.56
305.431	339.56
305.661	354.56
305.891	328.56
306.121	315.56
306.352	328.56
306.582	330.56
306.812	345.56
307.042	322.56
307.272	327.56
307.502	329.56
307.731	339.56
307.961	342.56
308.191	336.56
308.421	331.56
308.651	342.56
308.881	341.56
309.111	344.56
309.341	338.56
309.571	356.56
309.8	351.56
310.03	335.56
310.26	329.56
310.49	338.56
310.72	338.56
310.949	372.56
311.179	382.56
311.409	359.56
311.639	356.56
311.868	355.56
312.098	359.56
312.328	359.56
312.557	366.56
312.787	376.56
313.017	356.56
313.246	377.56
313.476	389.56
313.706	370.56
313.935	363.56
314.165	376.56
314.394	394.56
314.624	397.56
314.853	381.56
315.083	380.56
315.312	368.56
315.542	354.56
315.771	360.56
316.001	371.56
316.23	378.56
316.46	379.56
316.689	360.56
316.919	370.56
317.148	390.56
317.377	378.56
317.607	370.56
317.836	373.56
318.065	367.56
318.295	366.56
318.524	375.56
318.753	359.56
318.983	368.56
319.212	373.56
319.441	355.56
319.67	364.56
319.9	388.56
320.129	367.56
320.358	380.56
320.587	386.56
320.816	382.56
321.046	392.56
321.275	378.56
321.504	371.56
321.733	372.56
321.962	393.56
322.191	383.56
322.42	408.56
322.649	410.56
322.878	409.56
323.108	399.56
323.337	402.56
323.566	437.56
323.795	456.56
324.024	487.56
324.253	544.56
324.482	696.56
324.71	1032.56
324.939	1406.56
325.168	1250.56
325.397	715.56
325.626	523.56
325.855	462.56
326.084	455.56
326.313	457.56
326.542	440.56
326.77	465.56
326.999	520.56
327.228	644.56
327.457	888.56
327.686	1098.56
327.914	767.56
328.143	562.56
328.372	535.56
328.6	487.56
328.829	475.56
329.058	460.56
329.287	482.56
329.515	483.56
329.744	455.56
329.972	472.56
330.201	450.56
330.43	488.56
330.658	495.56
330.887	514.56
331.115	502.56
331.344	457.56
331.572	460.56
331.801	445.56
332.03	467.56
332.258	448.56
332.486	458.56
332.715	458.56
332.943	440.56
333.172	455.56
333.4	494.56
333.629	476.56
333.857	499.56
334.085	488.56
334.314	499.56
334.542	530.56
334.771	509.56
334.999	503.56
335.227	460.56
335.455	446.56
335.684	449.56
335.912	457.56
336.14	452.56
336.369	451.56
336.597	458.56
336.825	482.56
337.053	442.56
337.281	439.56
337.51	423.56
337.738	430.56
337.966	466.56
338.194	437.56
338.422	429.56
338.65	442.56
338.878	431.56
339.106	426.56
339.334	423.56
339.562	423.56
339.79	434.56
340.018	426.56
340.246	420.56
340.474	427.56
340.702	423.56
340.93	431.56
341.158	425.56
341.386	422.56
341.614	400.56
341.842	413.56
342.07	397.56
342.298	414.56
342.526	413.56
342.754	400.56
342.981	395.56
343.209	422.56
343.437	434.56
343.665	428.56
343.893	443.56
344.12	461.56
344.348	434.56
344.576	446.56
344.804	454.56
345.031	453.56
345.259	446.56
345.487	440.56
345.714	425.56
345.942	434.56
346.17	404.56
346.397	394.56
346.625	406.56
346.853	378.56
347.08	402.56
347.308	406.56
347.535	415.56
347.763	411.56
347.99	407.56
348.218	407.56
348.445	415.56
348.673	388.56
348.9	361.56
349.128	397.56
349.355	400.56
349.583	406.56
349.81	395.56
350.037	403.56
350.265	401.56
350.492	391.56
350.72	396.56
350.947	399.56
351.174	392.56
351.402	390.56
351.629	400.56
351.856	412.56
352.083	394.56
352.311	405.56
352.538	406.56
352.765	380.56
352.992	408.56
353.22	391.56
353.447	401.56
353.674	396.56
353.901	417.56
354.128	390.56
354.355	382.56
354.583	363.56
354.81	384.56
355.037	394.56
355.264	393.56
355.491	380.56
355.718	384.56
355.945	387.56
356.172	406.56
356.399	396.56
356.626	381.56
356.853	385.56
357.08	374.56
357.307	378.56
357.534	383.56
357.761	387.56
357.988	407.56
358.215	387.56
358.441	387.56
358.668	387.56
358.895	407.56
359.122	394.56
359.349	398.56
359.576	390.56
359.802	397.56
360.029	408.56
360.256	424.56
360.483	413.56
360.709	402.56
360.936	421.56
361.163	387.56
361.39	400.56
361.616	410.56
361.843	386.56
362.07	413.56
362.296	402.56
362.523	403.56
362.749	400.56
362.976	393.56
363.203	380.56
363.429	387.56
363.656	397.56
363.882	386.56
364.109	378.56
364.335	387.56
364.562	388.56
364.788	406.56
365.015	407.56
365.241	405.56
365.468	412.56
365.694	402.56
365.92	384.56
366.147	414.56
366.373	383.56
366.599	377.56
366.826	400.56
367.052	374.56
367.278	415.56
367.505	405.56
367.731	395.56
367.957	382.56
368.184	407.56
368.41	391.56
368.636	378.56
368.862	397.56
369.089	410.56
369.315	399.56
369.541	399.56
369.767	398.56
369.993	395.56
370.219	395.56
370.445	391.56
370.672	391.56
370.898	385.56
371.124	408.56
371.35	404.56
371.576	387.56
371.802	410.56
372.028	406.56
372.254	397.56
372.48	399.56
372.706	404.56
372.932	417.56
373.158	435.56
373.384	402.56
373.61	394.56
373.835	396.56
374.061	403.56
374.287	397.56
374.513	400.56
374.739	438.56
374.965	426.56
375.191	424.56
375.416	408.56
375.642	440.56
375.868	405.56
376.094	415.56
376.319	409.56
376.545	415.56
376.771	414.56
376.997	405.56
377.222	420.56
377.448	382.56
377.674	413.56
377.899	391.56
378.125	411.56
378.35	383.56
378.576	386.56
378.802	393.56
379.027	398.56
379.253	379.56
379.478	398.56
379.704	416.56
379.929	397.56
380.155	398.56
380.38	403.56
380.606	419.56
380.831	404.56
381.057	413.56
381.282	409.56
381.507	392.56
381.733	412.56
381.958	401.56
382.184	414.56
382.409	390.56
382.634	406.56
382.86	426.56
383.085	413.56
383.31	406.56
383.535	418.56
383.761	432.56
383.986	423.56
384.211	434.56
384.436	441.56
384.662	452.56
384.887	455.56
385.112	459.56
385.337	438.56
385.562	459.56
385.787	463.56
386.013	444.56
386.238	470.56
386.463	494.56
386.688	464.56
386.913	442.56
387.138	458.56
387.363	475.56
387.588	477.56
387.813	448.56
388.038	429.56
388.263	465.56
388.488	470.56
388.713	466.56
388.938	464.56
389.163	459.56
389.387	451.56
389.612	441.56
389.837	441.56
390.062	448.56
390.287	466.56
390.512	443.56
390.736	455.56
390.961	458.56
391.186	477.56
391.411	451.56
391.636	473.56
391.86	475.56
392.085	486.56
392.31	481.56
392.534	467.56
392.759	471.56
392.984	461.56
393.208	482.56
393.433	465.56
393.658	478.56
393.882	484.56
394.107	465.56
394.331	469.56
394.556	485.56
394.78	466.56
395.005	466.56
395.229	496.56
395.454	472.56
395.678	487.56
395.903	480.56
396.127	513.56
396.352	498.56
396.576	494.56
396.801	477.56
397.025	482.56
397.249	481.56
397.474	500.56
397.698	506.56
397.922	503.56
398.147	494.56
398.371	511.56
398.595	546.56
398.82	524.56
399.044	553.56
399.268	601.56
399.492	644.56
399.717	670.56
399.941	706.56
400.165	663.56
400.389	664.56
400.613	604.56
400.837	606.56
401.062	563.56
401.286	552.56
401.51	535.56
401.734	552.56
401.958	564.56
402.182	543.56
402.406	566.56
402.63	540.56
402.854	573.56
403.078	566.56
403.302	583.56
403.526	555.56
403.75	574.56
403.974	607.56
404.198	589.56
404.422	580.56
404.645	584.56
404.869	582.56
405.093	588.56
405.317	636.56
405.541	634.56
405.765	603.56
405.988	595.56
406.212	585.56
406.436	612.56
406.66	607.56
406.883	620.56
407.107	620.56
407.331	660.56
407.555	729.56
407.778	715.56
408.002	664.56
408.226	642.56
408.449	633.56
408.673	603.56
408.896	624.56
409.12	670.56
409.344	619.56
409.567	571.56
409.791	586.56
410.014	560.56
410.238	565.56
410.461	553.56
410.685	586.56
410.908	595.56
411.132	594.56
411.355	595.56
411.578	615.56
411.802	566.56
412.025	564.56
412.249	571.56
412.472	578.56
412.695	603.56
412.919	601.56
413.142	583.56
413.365	566.56
413.589	567.56
413.812	541.56
414.035	512.56
414.258	518.56
414.482	532.56
414.705	533.56
414.928	554.56
415.151	542.56
415.374	551.56
415.597	537.56
415.821	544.56
416.044	540.56
416.267	531.56
416.49	513.56
416.713	530.56
416.936	524.56
417.159	523.56
417.382	521.56
417.605	526.56
417.828	545.56
418.051	549.56
418.274	542.56
418.497	528.56
418.72	558.56
418.943	561.56
419.166	582.56
419.389	599.56
419.611	586.56
419.834	568.56
420.057	545.56
420.28	554.56
420.503	530.56
420.726	543.56
420.948	539.56
421.171	595.56
421.394	600.56
421.617	562.56
421.839	531.56
422.062	516.56
422.285	553.56
422.507	593.56
422.73	640.56
422.953	630.56
423.175	577.56
423.398	566.56
423.621	556.56
423.843	579.56
424.066	586.56
424.288	559.56
424.511	564.56
424.733	636.56
424.956	697.56
425.178	662.56
425.401	656.56
425.623	675.56
425.846	608.56
426.068	587.56
426.291	566.56
426.513	539.56
426.735	574.56
426.958	580.56
427.18	623.56
427.402	737.56
427.625	802.56
427.847	680.56
428.069	608.56
428.292	563.56
428.514	541.56
428.736	530.56
428.958	535.56
429.181	512.56
429.403	500.56
429.625	519.56
429.847	539.56
430.069	589.56
430.292	618.56
430.514	522.56
430.736	523.56
430.958	508.56
431.18	487.56
431.402	520.56
431.624	502.56
431.846	484.56
432.068	487.56
432.29	511.56
432.512	504.56
432.734	489.56
432.956	520.56
433.178	512.56
433.4	519.56
433.622	532.56
433.844	492.56
434.066	491.56
434.287	491.56
434.509	518.56
434.731	532.56
434.953	527.56
435.175	550.56
435.397	576.56
435.618	564.56
435.84	581.56
436.062	635.56
436.284	684.56
436.505	593.56
436.727	564.56
436.949	535.56
437.17	509.56
437.392	539.56
437.614	506.56
437.835	526.56
438.057	591.56
438.278	663.56
438.5	686.56
438.721	740.56
438.943	702.56
439.165	592.56
439.386	560.56
439.608	555.56
439.829	556.56
440.05	556.56
440.272	580.56
440.493	555.56
440.715	518.56
440.936	528.56
441.158	526.56
441.379	518.56
441.6	534.56
441.822	570.56
442.043	599.56
442.264	626.56
442.486	671.56
442.707	592.56
442.928	576.56
443.149	566.56
443.371	578.56
443.592	616.56
443.813	675.56
444.034	719.56
444.255	645.56
444.476	590.56
444.698	590.56
444.919	596.56
445.14	718.56
445.361	647.56
445.582	590.56
445.803	610.56
446.024	674.56
446.245	672.56
446.466	665.56
446.687	568.56
446.908	568.56
447.129	542.56
447.35	510.56
447.571	498.56
447.792	508.56
448.013	504.56
448.234	505.56
448.455	524.56
448.675	613.56
448.896	698.56
449.117	631.56
449.338	573.56
449.559	638.56
449.779	742.56
450	623.56
450.221	538.56
450.442	489.56
450.662	504.56
450.883	479.56
451.104	482.56
451.324	489.56
451.545	459.56
451.766	463.56
451.986	467.56
452.207	451.56
452.428	451.56
452.648	445.56
452.869	439.56
453.089	476.56
453.31	446.56
453.53	446.56
453.751	477.56
453.971	460.56
454.192	454.56
454.412	451.56
454.633	440.56
454.853	440.56
455.073	464.56
455.294	459.56
455.514	504.56
455.734	498.56
455.955	455.56
456.175	445.56
456.395	443.56
456.616	447.56
456.836	422.56
457.056	430.56
457.276	440.56
457.497	423.56
457.717	424.56
457.937	446.56
458.157	460.56
458.377	459.56
458.598	471.56
458.818	486.56
459.038	545.56
459.258	550.56
459.478	519.56
459.698	473.56
459.918	517.56
460.138	530.56
460.358	508.56
460.578	525.56
460.798	538.56
461.018	539.56
461.238	529.56
461.458	535.56
461.678	540.56
461.898	546.56
462.118	549.56
462.338	562.56
462.558	571.56
462.777	582.56
462.997	616.56
463.217	626.56
463.437	630.56
463.657	603.56
463.876	588.56
464.096	615.56
464.316	585.56
464.536	608.56
464.755	580.56
464.975	562.56
465.195	564.56
465.414	579.56
465.634	551.56
465.854	519.56
466.073	520.56
466.293	490.56
466.512	485.56
466.732	498.56
466.951	489.56
467.171	484.56
467.391	479.56
467.61	482.56
467.829	467.56
468.049	479.56
468.268	479.56
468.488	459.56
468.707	458.56
468.927	458.56
469.146	474.56
469.365	471.56
469.585	466.56
469.804	482.56
470.023	475.56
470.243	509.56
470.462	486.56
470.681	504.56
470.901	496.56
471.12	496.56
471.339	494.56
471.558	491.56
471.777	496.56
471.997	490.56
472.216	483.56
472.435	511.56
472.654	490.56
472.873	491.56
473.092	479.56
473.311	477.56
473.53	503.56
473.749	485.56
473.968	506.56
474.187	566.56
474.406	575.56
474.625	529.56
474.844	471.56
475.063	491.56
475.282	502.56
475.501	505.56
475.72	480.56
475.939	490.56
476.158	512.56
476.377	514.56
476.596	501.56
476.814	500.56
477.033	490.56
477.252	496.56
477.471	520.56
477.69	533.56
477.908	510.56
478.127	553.56
478.346	564.56
478.564	546.56
478.783	524.56
479.002	559.56
479.22	587.56
479.439	557.56
479.658	566.56
479.876	579.56
480.095	565.56
480.313	596.56
480.532	616.56
480.751	593.56
480.969	609.56
481.188	606.56
481.406	635.56
481.624	594.56
481.843	592.56
482.061	566.56
482.28	563.56
482.498	554.56
482.717	546.56
482.935	564.56
483.153	562.56
483.372	541.56
483.59	551.56
483.808	579.56
484.027	550.56
484.245	560.56
484.463	580.56
484.681	559.56
484.9	559.56
485.118	603.56
485.336	580.56
485.554	574.56
485.772	562.56
485.99	571.56
486.209	576.56
486.427	574.56
486.645	575.56
486.863	603.56
487.081	566.56
487.299	585.56
487.517	585.56
487.735	586.56
487.953	582.56
488.171	601.56
488.389	598.56
488.607	591.56
488.825	586.56
489.043	625.56
489.261	594.56
489.479	578.56
489.696	593.56
489.914	614.56
490.132	622.56
490.35	600.56
490.568	593.56
490.786	600.56
491.003	633.56
491.221	626.56
491.439	616.56
491.657	640.56
491.874	663.56
492.092	664.56
492.31	661.56
492.527	663.56
492.745	643.56
492.963	659.56
493.18	659.56
493.398	662.56
493.615	674.56
493.833	655.56
494.05	643.56
494.268	688.56
494.485	673.56
494.703	689.56
494.92	682.56
495.138	663.56
495.355	687.56
495.573	676.56
495.79	680.56
496.008	664.56
496.225	680.56
496.442	684.56
496.66	681.56
496.877	682.56
497.094	711.56
497.312	716.56
497.529	715.56
497.746	747.56
497.963	728.56
498.181	794.56
498.398	761.56
498.615	792.56
498.832	828.56
499.049	858.56
499.267	906.56
499.484	941.56
499.701	978.56
499.918	1037.56
500.135	1118.56
500.352	1179.56
500.569	1222.56
500.786	1234.56
501.003	1206.56
501.22	1139.56
501.437	1100.56
501.654	1028.56
501.871	963.56
