Data from 1962.PennyLincolnUp.Lamp.En5.5.200Scan.071719.P1._HRD10591_13-54-16-061.txt Node
Date: Thu Jul 18 13:54:16 EDT 2019
User: cochatt
Spectrometer: HR+D1059
Trigger mode: 1
Integration Time (sec): 1.000000E-1
Scans to average: 1
Electric dark correction enabled: true
Nonlinearity correction enabled: false
Boxcar width: 0
XAxis mode: Wavelengths
Number of Pixels in Spectrum: 2048
>>>>>Begin Spectral Data<<<<<
223.165	-16.25
223.4	-16.25
223.635	-16.25
223.869	-22.25
224.104	-12.25
224.338	-17.25
224.573	-17.25
224.808	0.75
225.042	-10.25
225.277	-9.25
225.511	1.75
225.746	16.75
225.98	6.75
226.215	12.75
226.449	4.75
226.683	8.75
226.918	31.75
227.152	20.75
227.387	26.75
227.621	34.75
227.856	55.75
228.09	46.75
228.324	32.75
228.559	57.75
228.793	70.75
229.027	84.75
229.262	101.75
229.496	87.75
229.73	109.75
229.964	112.75
230.199	113.75
230.433	105.75
230.667	106.75
230.901	94.75
231.136	103.75
231.37	97.75
231.604	104.75
231.838	96.75
232.072	111.75
232.306	106.75
232.541	120.75
232.775	120.75
233.009	98.75
233.243	120.75
233.477	114.75
233.711	115.75
233.945	112.75
234.179	111.75
234.413	111.75
234.647	96.75
234.881	126.75
235.115	112.75
235.349	101.75
235.583	124.75
235.817	114.75
236.051	111.75
236.285	105.75
236.519	121.75
236.753	138.75
236.987	122.75
237.221	146.75
237.455	196.75
237.689	149.75
237.922	138.75
238.156	131.75
238.39	115.75
238.624	128.75
238.858	131.75
239.091	114.75
239.325	115.75
239.559	106.75
239.793	112.75
240.027	124.75
240.26	133.75
240.494	134.75
240.728	137.75
240.961	134.75
241.195	118.75
241.429	128.75
241.662	117.75
241.896	144.75
242.13	144.75
242.363	123.75
242.597	122.75
242.83	136.75
243.064	134.75
243.298	144.75
243.531	137.75
243.765	130.75
243.998	114.75
244.232	130.75
244.465	143.75
244.699	137.75
244.932	143.75
245.166	131.75
245.399	131.75
245.633	135.75
245.866	136.75
246.099	143.75
246.333	131.75
246.566	146.75
246.8	149.75
247.033	137.75
247.266	139.75
247.5	155.75
247.733	160.75
247.966	152.75
248.2	159.75
248.433	151.75
248.666	137.75
248.899	178.75
249.133	185.75
249.366	166.75
249.599	166.75
249.832	170.75
250.066	171.75
250.299	170.75
250.532	162.75
250.765	187.75
250.998	184.75
251.231	200.75
251.465	169.75
251.698	176.75
251.931	176.75
252.164	186.75
252.397	168.75
252.63	178.75
252.863	186.75
253.096	163.75
253.329	188.75
253.562	197.75
253.795	192.75
254.028	195.75
254.261	186.75
254.494	186.75
254.727	210.75
254.96	235.75
255.193	233.75
255.426	207.75
255.659	184.75
255.892	205.75
256.124	209.75
256.357	208.75
256.59	207.75
256.823	203.75
257.056	177.75
257.289	191.75
257.521	176.75
257.754	175.75
257.987	196.75
258.22	193.75
258.452	177.75
258.685	181.75
258.918	195.75
259.151	184.75
259.383	202.75
259.616	208.75
259.849	216.75
260.081	218.75
260.314	226.75
260.547	223.75
260.779	218.75
261.012	211.75
261.244	204.75
261.477	203.75
261.71	208.75
261.942	208.75
262.175	211.75
262.407	218.75
262.64	219.75
262.872	204.75
263.105	203.75
263.337	211.75
263.57	208.75
263.802	187.75
264.035	199.75
264.267	190.75
264.499	198.75
264.732	215.75
264.964	207.75
265.197	209.75
265.429	204.75
265.661	187.75
265.894	204.75
266.126	214.75
266.358	213.75
266.591	203.75
266.823	209.75
267.055	223.75
267.287	217.75
267.52	214.75
267.752	228.75
267.984	215.75
268.216	235.75
268.448	239.75
268.681	224.75
268.913	223.75
269.145	234.75
269.377	246.75
269.609	248.75
269.841	250.75
270.073	246.75
270.306	261.75
270.538	253.75
270.77	267.75
271.002	268.75
271.234	269.75
271.466	263.75
271.698	254.75
271.93	269.75
272.162	294.75
272.394	280.75
272.626	273.75
272.858	267.75
273.09	248.75
273.322	231.75
273.553	256.75
273.785	243.75
274.017	235.75
274.249	246.75
274.481	262.75
274.713	226.75
274.945	254.75
275.176	243.75
275.408	248.75
275.64	247.75
275.872	250.75
276.104	257.75
276.335	262.75
276.567	255.75
276.799	258.75
277.031	265.75
277.262	268.75
277.494	291.75
277.726	272.75
277.957	283.75
278.189	271.75
278.421	243.75
278.652	261.75
278.884	267.75
279.115	248.75
279.347	262.75
279.579	246.75
279.81	258.75
280.042	253.75
280.273	260.75
280.505	263.75
280.736	260.75
280.968	253.75
281.199	268.75
281.431	266.75
281.662	265.75
281.894	256.75
282.125	257.75
282.356	283.75
282.588	287.75
282.819	286.75
283.051	277.75
283.282	259.75
283.513	270.75
283.745	286.75
283.976	284.75
284.207	284.75
284.439	298.75
284.67	266.75
284.901	296.75
285.132	262.75
285.364	273.75
285.595	268.75
285.826	290.75
286.057	281.75
286.288	289.75
286.52	283.75
286.751	294.75
286.982	288.75
287.213	287.75
287.444	282.75
287.675	265.75
287.906	290.75
288.138	298.75
288.369	289.75
288.6	294.75
288.831	291.75
289.062	283.75
289.293	296.75
289.524	297.75
289.755	289.75
289.986	313.75
290.217	308.75
290.448	294.75
290.679	300.75
290.91	296.75
291.141	292.75
291.371	284.75
291.602	284.75
291.833	286.75
292.064	295.75
292.295	305.75
292.526	279.75
292.757	285.75
292.987	306.75
293.218	286.75
293.449	286.75
293.68	286.75
293.91	295.75
294.141	288.75
294.372	295.75
294.603	298.75
294.833	315.75
295.064	283.75
295.295	291.75
295.525	307.75
295.756	308.75
295.987	299.75
296.217	310.75
296.448	312.75
296.679	294.75
296.909	329.75
297.14	309.75
297.37	314.75
297.601	304.75
297.831	328.75
298.062	318.75
298.292	295.75
298.523	299.75
298.753	314.75
298.984	316.75
299.214	314.75
299.445	318.75
299.675	320.75
299.905	311.75
300.136	308.75
300.366	321.75
300.597	313.75
300.827	312.75
301.057	336.75
301.288	313.75
301.518	314.75
301.748	326.75
301.979	346.75
302.209	330.75
302.439	337.75
302.669	344.75
302.9	326.75
303.13	315.75
303.36	326.75
303.59	313.75
303.82	330.75
304.051	326.75
304.281	324.75
304.511	335.75
304.741	338.75
304.971	351.75
305.201	335.75
305.431	327.75
305.661	324.75
305.891	313.75
306.121	322.75
306.352	340.75
306.582	324.75
306.812	338.75
307.042	332.75
307.272	337.75
307.502	340.75
307.731	313.75
307.961	331.75
308.191	331.75
308.421	339.75
308.651	332.75
308.881	343.75
309.111	341.75
309.341	340.75
309.571	344.75
309.8	340.75
310.03	368.75
310.26	339.75
310.49	344.75
310.72	364.75
310.949	377.75
311.179	354.75
311.409	370.75
311.639	358.75
311.868	350.75
312.098	379.75
312.328	338.75
312.557	382.75
312.787	374.75
313.017	352.75
313.246	380.75
313.476	376.75
313.706	373.75
313.935	376.75
314.165	372.75
314.394	378.75
314.624	370.75
314.853	344.75
315.083	346.75
315.312	357.75
315.542	344.75
315.771	361.75
316.001	359.75
316.23	361.75
316.46	352.75
316.689	373.75
316.919	350.75
317.148	356.75
317.377	366.75
317.607	391.75
317.836	356.75
318.065	360.75
318.295	382.75
318.524	354.75
318.753	382.75
318.983	362.75
319.212	375.75
319.441	362.75
319.67	374.75
319.9	382.75
320.129	375.75
320.358	386.75
320.587	368.75
320.816	372.75
321.046	390.75
321.275	372.75
321.504	376.75
321.733	375.75
321.962	369.75
322.191	384.75
322.42	409.75
322.649	407.75
322.878	403.75
323.108	424.75
323.337	416.75
323.566	420.75
323.795	407.75
324.024	451.75
324.253	525.75
324.482	664.75
324.71	951.75
324.939	1328.75
325.168	1193.75
325.397	677.75
325.626	528.75
325.855	472.75
326.084	435.75
326.313	442.75
326.542	449.75
326.77	485.75
326.999	507.75
327.228	629.75
327.457	902.75
327.686	1042.75
327.914	736.75
328.143	548.75
328.372	498.75
328.6	497.75
328.829	470.75
329.058	491.75
329.287	471.75
329.515	469.75
329.744	449.75
329.972	455.75
330.201	459.75
330.43	484.75
330.658	475.75
330.887	495.75
331.115	483.75
331.344	450.75
331.572	435.75
331.801	449.75
332.03	440.75
332.258	452.75
332.486	436.75
332.715	465.75
332.943	446.75
333.172	442.75
333.4	463.75
333.629	474.75
333.857	481.75
334.085	494.75
334.314	473.75
334.542	490.75
334.771	502.75
334.999	476.75
335.227	471.75
335.455	480.75
335.684	454.75
335.912	451.75
336.14	447.75
336.369	446.75
336.597	433.75
336.825	443.75
337.053	450.75
337.281	443.75
337.51	412.75
337.738	439.75
337.966	445.75
338.194	447.75
338.422	434.75
338.65	430.75
338.878	428.75
339.106	438.75
339.334	426.75
339.562	430.75
339.79	425.75
340.018	412.75
340.246	414.75
340.474	406.75
340.702	411.75
340.93	400.75
341.158	414.75
341.386	410.75
341.614	410.75
341.842	423.75
342.07	426.75
342.298	422.75
342.526	396.75
342.754	401.75
342.981	388.75
343.209	421.75
343.437	440.75
343.665	434.75
343.893	470.75
344.12	464.75
344.348	434.75
344.576	442.75
344.804	439.75
345.031	438.75
345.259	433.75
345.487	437.75
345.714	420.75
345.942	426.75
346.17	380.75
346.397	383.75
346.625	391.75
346.853	387.75
347.08	402.75
347.308	382.75
347.535	410.75
347.763	402.75
347.99	395.75
348.218	414.75
348.445	415.75
348.673	379.75
348.9	410.75
349.128	399.75
349.355	396.75
349.583	402.75
349.81	382.75
350.037	380.75
350.265	396.75
350.492	401.75
350.72	383.75
350.947	394.75
351.174	408.75
351.402	392.75
351.629	380.75
351.856	403.75
352.083	399.75
352.311	421.75
352.538	404.75
352.765	400.75
352.992	391.75
353.22	388.75
353.447	391.75
353.674	394.75
353.901	391.75
354.128	382.75
354.355	380.75
354.583	381.75
354.81	384.75
355.037	378.75
355.264	376.75
355.491	391.75
355.718	373.75
355.945	385.75
356.172	372.75
356.399	358.75
356.626	394.75
356.853	396.75
357.08	385.75
357.307	386.75
357.534	364.75
357.761	371.75
357.988	383.75
358.215	365.75
358.441	373.75
358.668	393.75
358.895	376.75
359.122	400.75
359.349	398.75
359.576	410.75
359.802	434.75
360.029	395.75
360.256	423.75
360.483	410.75
360.709	401.75
360.936	395.75
361.163	378.75
361.39	376.75
361.616	396.75
361.843	395.75
362.07	372.75
362.296	383.75
362.523	394.75
362.749	392.75
362.976	392.75
363.203	402.75
363.429	378.75
363.656	395.75
363.882	398.75
364.109	392.75
364.335	397.75
364.562	382.75
364.788	398.75
365.015	377.75
365.241	376.75
365.468	385.75
365.694	393.75
365.92	391.75
366.147	397.75
366.373	390.75
366.599	385.75
366.826	399.75
367.052	388.75
367.278	387.75
367.505	380.75
367.731	392.75
367.957	387.75
368.184	408.75
368.41	410.75
368.636	384.75
368.862	390.75
369.089	417.75
369.315	400.75
369.541	391.75
369.767	395.75
369.993	391.75
370.219	390.75
370.445	386.75
370.672	384.75
370.898	392.75
371.124	385.75
371.35	397.75
371.576	386.75
371.802	393.75
372.028	410.75
372.254	404.75
372.48	420.75
372.706	396.75
372.932	409.75
373.158	423.75
373.384	394.75
373.61	383.75
373.835	400.75
374.061	390.75
374.287	397.75
374.513	390.75
374.739	412.75
374.965	420.75
375.191	427.75
375.416	442.75
375.642	414.75
375.868	417.75
376.094	410.75
376.319	410.75
376.545	409.75
376.771	405.75
376.997	397.75
377.222	375.75
377.448	408.75
377.674	405.75
377.899	388.75
378.125	382.75
378.35	406.75
378.576	397.75
378.802	387.75
379.027	400.75
379.253	413.75
379.478	402.75
379.704	388.75
379.929	406.75
380.155	411.75
380.38	389.75
380.606	405.75
380.831	377.75
381.057	411.75
381.282	394.75
381.507	387.75
381.733	396.75
381.958	405.75
382.184	405.75
382.409	409.75
382.634	403.75
382.86	420.75
383.085	419.75
383.31	414.75
383.535	419.75
383.761	413.75
383.986	401.75
384.211	423.75
384.436	423.75
384.662	422.75
384.887	453.75
385.112	421.75
385.337	443.75
385.562	443.75
385.787	438.75
386.013	456.75
386.238	454.75
386.463	460.75
386.688	453.75
386.913	424.75
387.138	455.75
387.363	441.75
387.588	445.75
387.813	456.75
388.038	447.75
388.263	449.75
388.488	454.75
388.713	460.75
388.938	465.75
389.163	432.75
389.387	451.75
389.612	438.75
389.837	434.75
390.062	446.75
390.287	433.75
390.512	444.75
390.736	457.75
390.961	463.75
391.186	451.75
391.411	463.75
391.636	483.75
391.86	471.75
392.085	480.75
392.31	486.75
392.534	470.75
392.759	473.75
392.984	481.75
393.208	470.75
393.433	456.75
393.658	461.75
393.882	461.75
394.107	447.75
394.331	473.75
394.556	465.75
394.78	483.75
395.005	471.75
395.229	463.75
395.454	467.75
395.678	501.75
395.903	501.75
396.127	501.75
396.352	516.75
396.576	472.75
396.801	460.75
397.025	473.75
397.249	482.75
397.474	507.75
397.698	492.75
397.922	485.75
398.147	521.75
398.371	547.75
398.595	534.75
398.82	545.75
399.044	552.75
399.268	554.75
399.492	630.75
399.717	676.75
399.941	683.75
400.165	682.75
400.389	651.75
400.613	597.75
400.837	568.75
401.062	550.75
401.286	534.75
401.51	544.75
401.734	529.75
401.958	526.75
402.182	530.75
402.406	544.75
402.63	546.75
402.854	555.75
403.078	551.75
403.302	575.75
403.526	552.75
403.75	571.75
403.974	572.75
404.198	572.75
404.422	579.75
404.645	588.75
404.869	589.75
405.093	601.75
405.317	601.75
405.541	635.75
405.765	586.75
405.988	582.75
406.212	569.75
406.436	585.75
406.66	576.75
406.883	590.75
407.107	621.75
407.331	659.75
407.555	679.75
407.778	717.75
408.002	682.75
408.226	630.75
408.449	601.75
408.673	604.75
408.896	615.75
409.12	662.75
409.344	622.75
409.567	579.75
409.791	581.75
410.014	555.75
410.238	578.75
410.461	554.75
410.685	559.75
410.908	577.75
411.132	580.75
411.355	584.75
411.578	586.75
411.802	548.75
412.025	531.75
412.249	548.75
412.472	585.75
412.695	613.75
412.919	584.75
413.142	553.75
413.365	555.75
413.589	537.75
413.812	525.75
414.035	538.75
414.258	528.75
414.482	522.75
414.705	541.75
414.928	528.75
415.151	524.75
415.374	520.75
415.597	524.75
415.821	517.75
416.044	515.75
416.267	522.75
416.49	545.75
416.713	511.75
416.936	537.75
417.159	522.75
417.382	529.75
417.605	508.75
417.828	529.75
418.051	537.75
418.274	524.75
418.497	518.75
418.72	531.75
418.943	531.75
419.166	548.75
419.389	584.75
419.611	562.75
419.834	548.75
420.057	537.75
420.28	540.75
420.503	539.75
420.726	538.75
420.948	543.75
421.171	573.75
421.394	596.75
421.617	533.75
421.839	551.75
422.062	531.75
422.285	518.75
422.507	591.75
422.73	645.75
422.953	632.75
423.175	574.75
423.398	544.75
423.621	531.75
423.843	560.75
424.066	570.75
424.288	569.75
424.511	596.75
424.733	618.75
424.956	680.75
425.178	646.75
425.401	631.75
425.623	652.75
425.846	575.75
426.068	534.75
426.291	543.75
426.513	550.75
426.735	549.75
426.958	604.75
427.18	624.75
427.402	729.75
427.625	772.75
427.847	686.75
428.069	578.75
428.292	567.75
428.514	538.75
428.736	517.75
428.958	538.75
429.181	515.75
429.403	521.75
429.625	514.75
429.847	522.75
430.069	565.75
430.292	553.75
430.514	531.75
430.736	530.75
430.958	492.75
431.18	490.75
431.402	498.75
431.624	485.75
431.846	482.75
432.068	494.75
432.29	499.75
432.512	488.75
432.734	479.75
432.956	496.75
433.178	489.75
433.4	494.75
433.622	486.75
433.844	495.75
434.066	478.75
434.287	491.75
434.509	496.75
434.731	524.75
434.953	533.75
435.175	525.75
435.397	528.75
435.618	540.75
435.84	564.75
436.062	643.75
436.284	664.75
436.505	575.75
436.727	534.75
436.949	517.75
437.17	512.75
437.392	507.75
437.614	487.75
437.835	567.75
438.057	568.75
438.278	643.75
438.5	672.75
438.721	712.75
438.943	690.75
439.165	594.75
439.386	527.75
439.608	526.75
439.829	527.75
440.05	550.75
440.272	577.75
440.493	574.75
440.715	547.75
440.936	501.75
441.158	520.75
441.379	518.75
441.6	541.75
441.822	563.75
442.043	568.75
442.264	635.75
442.486	641.75
442.707	590.75
442.928	557.75
443.149	568.75
443.371	563.75
443.592	592.75
443.813	666.75
444.034	711.75
444.255	630.75
444.476	579.75
444.698	593.75
444.919	573.75
445.14	678.75
445.361	626.75
445.582	585.75
445.803	613.75
446.024	670.75
446.245	688.75
446.466	620.75
446.687	570.75
446.908	523.75
447.129	516.75
447.35	518.75
447.571	526.75
447.792	472.75
448.013	499.75
448.234	502.75
448.455	535.75
448.675	619.75
448.896	706.75
449.117	625.75
449.338	597.75
449.559	651.75
449.779	728.75
450	619.75
450.221	549.75
450.442	485.75
450.662	477.75
450.883	484.75
451.104	490.75
451.324	477.75
451.545	479.75
451.766	469.75
451.986	438.75
452.207	443.75
452.428	439.75
452.648	441.75
452.869	455.75
453.089	456.75
453.31	439.75
453.53	455.75
453.751	444.75
453.971	451.75
454.192	459.75
454.412	453.75
454.633	466.75
454.853	434.75
455.073	434.75
455.294	455.75
455.514	474.75
455.734	487.75
455.955	451.75
456.175	448.75
456.395	437.75
456.616	432.75
456.836	430.75
457.056	409.75
457.276	420.75
457.497	434.75
457.717	424.75
457.937	428.75
458.157	423.75
458.377	451.75
458.598	460.75
458.818	500.75
459.038	544.75
459.258	545.75
459.478	501.75
459.698	505.75
459.918	491.75
460.138	534.75
460.358	532.75
460.578	514.75
460.798	520.75
461.018	562.75
461.238	525.75
461.458	534.75
461.678	524.75
461.898	542.75
462.118	534.75
462.338	544.75
462.558	544.75
462.777	549.75
462.997	595.75
463.217	610.75
463.437	592.75
463.657	583.75
463.876	568.75
464.096	578.75
464.316	569.75
464.536	589.75
464.755	574.75
464.975	555.75
465.195	577.75
465.414	576.75
465.634	554.75
465.854	511.75
466.073	506.75
466.293	474.75
466.512	487.75
466.732	470.75
466.951	485.75
467.171	469.75
467.391	487.75
467.61	471.75
467.829	450.75
468.049	476.75
468.268	461.75
468.488	473.75
468.707	467.75
468.927	451.75
469.146	467.75
469.365	464.75
469.585	483.75
469.804	491.75
470.023	481.75
470.243	483.75
470.462	479.75
470.681	491.75
470.901	483.75
471.12	484.75
471.339	477.75
471.558	491.75
471.777	456.75
471.997	469.75
472.216	481.75
472.435	498.75
472.654	488.75
472.873	471.75
473.092	470.75
473.311	464.75
473.53	478.75
473.749	465.75
473.968	486.75
474.187	565.75
474.406	564.75
474.625	502.75
474.844	472.75
475.063	458.75
475.282	483.75
475.501	461.75
475.72	481.75
475.939	458.75
476.158	491.75
476.377	486.75
476.596	488.75
476.814	519.75
477.033	492.75
477.252	512.75
477.471	518.75
477.69	518.75
477.908	520.75
478.127	539.75
478.346	544.75
478.564	545.75
478.783	540.75
479.002	551.75
479.22	540.75
479.439	559.75
479.658	573.75
479.876	564.75
480.095	592.75
480.313	607.75
480.532	608.75
480.751	611.75
480.969	607.75
481.188	610.75
481.406	637.75
481.624	574.75
481.843	568.75
482.061	563.75
482.28	546.75
482.498	538.75
482.717	550.75
482.935	539.75
483.153	548.75
483.372	538.75
483.59	566.75
483.808	569.75
484.027	547.75
484.245	550.75
484.463	546.75
484.681	568.75
484.9	560.75
485.118	534.75
485.336	560.75
485.554	571.75
485.772	558.75
485.99	584.75
486.209	577.75
486.427	571.75
486.645	592.75
486.863	572.75
487.081	554.75
487.299	590.75
487.517	600.75
487.735	597.75
487.953	574.75
488.171	565.75
488.389	590.75
488.607	576.75
488.825	583.75
489.043	593.75
489.261	560.75
489.479	585.75
489.696	595.75
489.914	606.75
490.132	600.75
490.35	610.75
490.568	587.75
490.786	612.75
491.003	610.75
491.221	612.75
491.439	631.75
491.657	637.75
491.874	634.75
492.092	637.75
492.31	642.75
492.527	658.75
492.745	636.75
492.963	638.75
493.18	642.75
493.398	651.75
493.615	687.75
493.833	640.75
494.05	649.75
494.268	636.75
494.485	659.75
494.703	662.75
494.92	665.75
495.138	661.75
495.355	655.75
495.573	667.75
495.79	661.75
496.008	659.75
496.225	660.75
496.442	659.75
496.66	697.75
496.877	662.75
497.094	673.75
497.312	694.75
497.529	713.75
497.746	711.75
497.963	753.75
498.181	739.75
498.398	765.75
498.615	816.75
498.832	845.75
499.049	873.75
499.267	889.75
499.484	924.75
499.701	1014.75
499.918	1033.75
500.135	1128.75
500.352	1192.75
500.569	1227.75
500.786	1201.75
501.003	1175.75
501.22	1124.75
501.437	1072.75
501.654	987.75
501.871	963.75
