Data from 1962.PennyLincolnUp.Lamp.En5.5.200Scan.071719.P1._HRD10591_13-55-09-061.txt Node
Date: Thu Jul 18 13:55:09 EDT 2019
User: cochatt
Spectrometer: HR+D1059
Trigger mode: 1
Integration Time (sec): 1.000000E-1
Scans to average: 1
Electric dark correction enabled: true
Nonlinearity correction enabled: false
Boxcar width: 0
XAxis mode: Wavelengths
Number of Pixels in Spectrum: 2048
>>>>>Begin Spectral Data<<<<<
223.165	-22.38
223.4	-22.38
223.635	-22.38
223.869	-6.38
224.104	-14.38
224.338	-10.38
224.573	-10.38
224.808	-16.38
225.042	-4.38
225.277	-0.38
225.511	-4.38
225.746	-5.38
225.98	4.62
226.215	-5.38
226.449	17.62
226.683	19.62
226.918	21.62
227.152	36.62
227.387	28.62
227.621	32.62
227.856	45.62
228.09	27.62
228.324	52.62
228.559	53.62
228.793	72.62
229.027	94.62
229.262	116.62
229.496	93.62
229.73	119.62
229.964	119.62
230.199	122.62
230.433	119.62
230.667	105.62
230.901	106.62
231.136	98.62
231.37	108.62
231.604	112.62
231.838	120.62
232.072	104.62
232.306	107.62
232.541	109.62
232.775	119.62
233.009	120.62
233.243	111.62
233.477	116.62
233.711	105.62
233.945	125.62
234.179	127.62
234.413	122.62
234.647	107.62
234.881	101.62
235.115	99.62
235.349	114.62
235.583	129.62
235.817	114.62
236.051	113.62
236.285	120.62
236.519	123.62
236.753	120.62
236.987	134.62
237.221	165.62
237.455	185.62
237.689	160.62
237.922	141.62
238.156	121.62
238.39	126.62
238.624	131.62
238.858	116.62
239.091	137.62
239.325	112.62
239.559	140.62
239.793	108.62
240.027	131.62
240.26	131.62
240.494	149.62
240.728	145.62
240.961	145.62
241.195	137.62
241.429	128.62
241.662	126.62
241.896	123.62
242.13	121.62
242.363	123.62
242.597	127.62
242.83	137.62
243.064	133.62
243.298	137.62
243.531	125.62
243.765	132.62
243.998	131.62
244.232	153.62
244.465	148.62
244.699	144.62
244.932	127.62
245.166	137.62
245.399	135.62
245.633	138.62
245.866	154.62
246.099	152.62
246.333	151.62
246.566	146.62
246.8	149.62
247.033	156.62
247.266	164.62
247.5	153.62
247.733	151.62
247.966	146.62
248.2	154.62
248.433	147.62
248.666	163.62
248.899	166.62
249.133	172.62
249.366	189.62
249.599	179.62
249.832	158.62
250.066	167.62
250.299	177.62
250.532	172.62
250.765	187.62
250.998	190.62
251.231	199.62
251.465	191.62
251.698	193.62
251.931	180.62
252.164	189.62
252.397	183.62
252.63	201.62
252.863	182.62
253.096	210.62
253.329	197.62
253.562	198.62
253.795	187.62
254.028	188.62
254.261	192.62
254.494	209.62
254.727	231.62
254.96	249.62
255.193	229.62
255.426	234.62
255.659	204.62
255.892	209.62
256.124	197.62
256.357	198.62
256.59	204.62
256.823	200.62
257.056	224.62
257.289	190.62
257.521	177.62
257.754	195.62
257.987	185.62
258.22	192.62
258.452	183.62
258.685	188.62
258.918	194.62
259.151	204.62
259.383	208.62
259.616	208.62
259.849	214.62
260.081	222.62
260.314	231.62
260.547	235.62
260.779	218.62
261.012	228.62
261.244	215.62
261.477	229.62
261.71	209.62
261.942	209.62
262.175	221.62
262.407	227.62
262.64	201.62
262.872	210.62
263.105	207.62
263.337	210.62
263.57	218.62
263.802	217.62
264.035	209.62
264.267	209.62
264.499	211.62
264.732	211.62
264.964	191.62
265.197	216.62
265.429	209.62
265.661	217.62
265.894	216.62
266.126	220.62
266.358	210.62
266.591	226.62
266.823	226.62
267.055	216.62
267.287	223.62
267.52	220.62
267.752	218.62
267.984	215.62
268.216	223.62
268.448	228.62
268.681	229.62
268.913	233.62
269.145	264.62
269.377	265.62
269.609	261.62
269.841	243.62
270.073	238.62
270.306	268.62
270.538	281.62
270.77	275.62
271.002	284.62
271.234	271.62
271.466	283.62
271.698	284.62
271.93	276.62
272.162	293.62
272.394	293.62
272.626	276.62
272.858	274.62
273.09	277.62
273.322	258.62
273.553	243.62
273.785	250.62
274.017	260.62
274.249	266.62
274.481	265.62
274.713	247.62
274.945	267.62
275.176	261.62
275.408	257.62
275.64	261.62
275.872	273.62
276.104	263.62
276.335	233.62
276.567	260.62
276.799	273.62
277.031	287.62
277.262	296.62
277.494	293.62
277.726	287.62
277.957	263.62
278.189	289.62
278.421	271.62
278.652	280.62
278.884	287.62
279.115	284.62
279.347	271.62
279.579	271.62
279.81	261.62
280.042	272.62
280.273	277.62
280.505	273.62
280.736	269.62
280.968	260.62
281.199	258.62
281.431	268.62
281.662	285.62
281.894	277.62
282.125	262.62
282.356	305.62
282.588	292.62
282.819	293.62
283.051	288.62
283.282	277.62
283.513	287.62
283.745	292.62
283.976	275.62
284.207	295.62
284.439	287.62
284.67	290.62
284.901	292.62
285.132	293.62
285.364	277.62
285.595	286.62
285.826	286.62
286.057	300.62
286.288	289.62
286.52	298.62
286.751	293.62
286.982	292.62
287.213	295.62
287.444	297.62
287.675	308.62
287.906	303.62
288.138	295.62
288.369	313.62
288.6	318.62
288.831	319.62
289.062	305.62
289.293	299.62
289.524	289.62
289.755	301.62
289.986	309.62
290.217	290.62
290.448	306.62
290.679	305.62
290.91	298.62
291.141	298.62
291.371	293.62
291.602	299.62
291.833	299.62
292.064	300.62
292.295	295.62
292.526	311.62
292.757	289.62
292.987	292.62
293.218	300.62
293.449	297.62
293.68	307.62
293.91	289.62
294.141	301.62
294.372	321.62
294.603	300.62
294.833	307.62
295.064	303.62
295.295	315.62
295.525	306.62
295.756	304.62
295.987	317.62
296.217	312.62
296.448	312.62
296.679	328.62
296.909	303.62
297.14	307.62
297.37	316.62
297.601	310.62
297.831	299.62
298.062	311.62
298.292	314.62
298.523	319.62
298.753	298.62
298.984	305.62
299.214	315.62
299.445	310.62
299.675	325.62
299.905	340.62
300.136	341.62
300.366	319.62
300.597	325.62
300.827	343.62
301.057	329.62
301.288	322.62
301.518	325.62
301.748	328.62
301.979	334.62
302.209	335.62
302.439	333.62
302.669	345.62
302.9	373.62
303.13	347.62
303.36	340.62
303.59	327.62
303.82	326.62
304.051	365.62
304.281	348.62
304.511	345.62
304.741	319.62
304.971	327.62
305.201	339.62
305.431	339.62
305.661	323.62
305.891	334.62
306.121	343.62
306.352	342.62
306.582	362.62
306.812	337.62
307.042	335.62
307.272	333.62
307.502	345.62
307.731	329.62
307.961	353.62
308.191	341.62
308.421	354.62
308.651	344.62
308.881	324.62
309.111	330.62
309.341	347.62
309.571	345.62
309.8	391.62
310.03	351.62
310.26	366.62
310.49	377.62
310.72	363.62
310.949	349.62
311.179	376.62
311.409	357.62
311.639	375.62
311.868	377.62
312.098	374.62
312.328	378.62
312.557	381.62
312.787	385.62
313.017	381.62
313.246	369.62
313.476	374.62
313.706	379.62
313.935	379.62
314.165	384.62
314.394	385.62
314.624	390.62
314.853	402.62
315.083	381.62
315.312	371.62
315.542	379.62
315.771	382.62
316.001	367.62
316.23	392.62
316.46	388.62
316.689	379.62
316.919	370.62
317.148	376.62
317.377	382.62
317.607	376.62
317.836	387.62
318.065	376.62
318.295	371.62
318.524	384.62
318.753	369.62
318.983	391.62
319.212	371.62
319.441	377.62
319.67	384.62
319.9	386.62
320.129	373.62
320.358	408.62
320.587	381.62
320.816	396.62
321.046	390.62
321.275	396.62
321.504	401.62
321.733	399.62
321.962	392.62
322.191	383.62
322.42	411.62
322.649	416.62
322.878	420.62
323.108	430.62
323.337	436.62
323.566	435.62
323.795	461.62
324.024	505.62
324.253	572.62
324.482	748.62
324.71	1096.62
324.939	1536.62
325.168	1351.62
325.397	754.62
325.626	561.62
325.855	495.62
326.084	461.62
326.313	447.62
326.542	464.62
326.77	495.62
326.999	548.62
327.228	663.62
327.457	997.62
327.686	1207.62
327.914	847.62
328.143	597.62
328.372	552.62
328.6	500.62
328.829	475.62
329.058	486.62
329.287	479.62
329.515	493.62
329.744	474.62
329.972	456.62
330.201	478.62
330.43	488.62
330.658	484.62
330.887	521.62
331.115	539.62
331.344	474.62
331.572	475.62
331.801	465.62
332.03	455.62
332.258	459.62
332.486	472.62
332.715	474.62
332.943	487.62
333.172	456.62
333.4	486.62
333.629	492.62
333.857	485.62
334.085	509.62
334.314	531.62
334.542	545.62
334.771	536.62
334.999	495.62
335.227	473.62
335.455	454.62
335.684	453.62
335.912	457.62
336.14	463.62
336.369	466.62
336.597	460.62
336.825	464.62
337.053	441.62
337.281	456.62
337.51	455.62
337.738	446.62
337.966	445.62
338.194	452.62
338.422	421.62
338.65	438.62
338.878	440.62
339.106	447.62
339.334	444.62
339.562	446.62
339.79	407.62
340.018	423.62
340.246	404.62
340.474	404.62
340.702	427.62
340.93	413.62
341.158	420.62
341.386	421.62
341.614	436.62
341.842	446.62
342.07	435.62
342.298	423.62
342.526	417.62
342.754	414.62
342.981	429.62
343.209	415.62
343.437	434.62
343.665	430.62
343.893	452.62
344.12	495.62
344.348	457.62
344.576	473.62
344.804	458.62
345.031	442.62
345.259	459.62
345.487	447.62
345.714	425.62
345.942	422.62
346.17	415.62
346.397	433.62
346.625	440.62
346.853	398.62
347.08	399.62
347.308	420.62
347.535	420.62
347.763	425.62
347.99	416.62
348.218	434.62
348.445	412.62
348.673	407.62
348.9	413.62
349.128	386.62
349.355	402.62
349.583	399.62
349.81	412.62
350.037	386.62
350.265	394.62
350.492	420.62
350.72	414.62
350.947	403.62
351.174	417.62
351.402	407.62
351.629	405.62
351.856	396.62
352.083	419.62
352.311	431.62
352.538	431.62
352.765	411.62
352.992	421.62
353.22	401.62
353.447	430.62
353.674	413.62
353.901	403.62
354.128	409.62
354.355	388.62
354.583	412.62
354.81	388.62
355.037	403.62
355.264	405.62
355.491	393.62
355.718	394.62
355.945	387.62
356.172	389.62
356.399	403.62
356.626	388.62
356.853	371.62
357.08	389.62
357.307	383.62
357.534	392.62
357.761	405.62
357.988	393.62
358.215	383.62
358.441	392.62
358.668	391.62
358.895	413.62
359.122	378.62
359.349	407.62
359.576	409.62
359.802	416.62
360.029	434.62
360.256	431.62
360.483	417.62
360.709	424.62
360.936	423.62
361.163	407.62
361.39	420.62
361.616	415.62
361.843	426.62
362.07	402.62
362.296	408.62
362.523	417.62
362.749	419.62
362.976	410.62
363.203	410.62
363.429	408.62
363.656	406.62
363.882	408.62
364.109	396.62
364.335	371.62
364.562	374.62
364.788	404.62
365.015	390.62
365.241	395.62
365.468	393.62
365.694	383.62
365.92	405.62
366.147	397.62
366.373	403.62
366.599	399.62
366.826	395.62
367.052	403.62
367.278	405.62
367.505	404.62
367.731	411.62
367.957	399.62
368.184	425.62
368.41	414.62
368.636	415.62
368.862	408.62
369.089	398.62
369.315	402.62
369.541	407.62
369.767	396.62
369.993	409.62
370.219	399.62
370.445	415.62
370.672	414.62
370.898	398.62
371.124	383.62
371.35	421.62
371.576	407.62
371.802	420.62
372.028	396.62
372.254	417.62
372.48	389.62
372.706	417.62
372.932	412.62
373.158	427.62
373.384	408.62
373.61	427.62
373.835	408.62
374.061	427.62
374.287	400.62
374.513	415.62
374.739	444.62
374.965	443.62
375.191	428.62
375.416	438.62
375.642	448.62
375.868	415.62
376.094	418.62
376.319	416.62
376.545	412.62
376.771	412.62
376.997	421.62
377.222	403.62
377.448	405.62
377.674	415.62
377.899	394.62
378.125	398.62
378.35	414.62
378.576	411.62
378.802	399.62
379.027	409.62
379.253	421.62
379.478	401.62
379.704	392.62
379.929	402.62
380.155	413.62
380.38	389.62
380.606	423.62
380.831	435.62
381.057	431.62
381.282	404.62
381.507	397.62
381.733	408.62
381.958	420.62
382.184	415.62
382.409	441.62
382.634	438.62
382.86	411.62
383.085	427.62
383.31	448.62
383.535	455.62
383.761	438.62
383.986	436.62
384.211	446.62
384.436	445.62
384.662	466.62
384.887	453.62
385.112	461.62
385.337	486.62
385.562	476.62
385.787	468.62
386.013	462.62
386.238	466.62
386.463	476.62
386.688	471.62
386.913	451.62
387.138	454.62
387.363	442.62
387.588	462.62
387.813	464.62
388.038	461.62
388.263	466.62
388.488	473.62
388.713	469.62
388.938	448.62
389.163	456.62
389.387	466.62
389.612	461.62
389.837	471.62
390.062	470.62
390.287	461.62
390.512	450.62
390.736	475.62
390.961	451.62
391.186	473.62
391.411	480.62
391.636	491.62
391.86	497.62
392.085	498.62
392.31	495.62
392.534	501.62
392.759	508.62
392.984	495.62
393.208	477.62
393.433	457.62
393.658	473.62
393.882	470.62
394.107	479.62
394.331	481.62
394.556	475.62
394.78	485.62
395.005	486.62
395.229	491.62
395.454	498.62
395.678	483.62
395.903	511.62
396.127	512.62
396.352	535.62
396.576	513.62
396.801	478.62
397.025	491.62
397.249	496.62
397.474	487.62
397.698	489.62
397.922	536.62
398.147	539.62
398.371	532.62
398.595	528.62
398.82	531.62
399.044	580.62
399.268	569.62
399.492	653.62
399.717	679.62
399.941	709.62
400.165	690.62
400.389	691.62
400.613	629.62
400.837	578.62
401.062	567.62
401.286	579.62
401.51	542.62
401.734	568.62
401.958	555.62
402.182	561.62
402.406	569.62
402.63	546.62
402.854	549.62
403.078	582.62
403.302	578.62
403.526	566.62
403.75	603.62
403.974	583.62
404.198	588.62
404.422	591.62
404.645	599.62
404.869	592.62
405.093	613.62
405.317	657.62
405.541	645.62
405.765	607.62
405.988	587.62
406.212	590.62
406.436	613.62
406.66	626.62
406.883	589.62
407.107	641.62
407.331	668.62
407.555	744.62
407.778	723.62
408.002	703.62
408.226	659.62
408.449	615.62
408.673	643.62
408.896	659.62
409.12	651.62
409.344	632.62
409.567	601.62
409.791	588.62
410.014	608.62
410.238	605.62
410.461	589.62
410.685	585.62
410.908	582.62
411.132	604.62
411.355	638.62
411.578	616.62
411.802	587.62
412.025	574.62
412.249	600.62
412.472	591.62
412.695	624.62
412.919	609.62
413.142	619.62
413.365	564.62
413.589	549.62
413.812	550.62
414.035	555.62
414.258	563.62
414.482	545.62
414.705	558.62
414.928	534.62
415.151	556.62
415.374	555.62
415.597	524.62
415.821	561.62
416.044	555.62
416.267	545.62
416.49	546.62
416.713	549.62
416.936	530.62
417.159	552.62
417.382	543.62
417.605	524.62
417.828	544.62
418.051	561.62
418.274	559.62
418.497	542.62
418.72	545.62
418.943	525.62
419.166	589.62
419.389	577.62
419.611	575.62
419.834	569.62
420.057	565.62
420.28	557.62
420.503	535.62
420.726	541.62
420.948	567.62
421.171	593.62
421.394	615.62
421.617	589.62
421.839	562.62
422.062	569.62
422.285	548.62
422.507	592.62
422.73	644.62
422.953	671.62
423.175	593.62
423.398	591.62
423.621	587.62
423.843	575.62
424.066	594.62
424.288	588.62
424.511	590.62
424.733	637.62
424.956	708.62
425.178	663.62
425.401	636.62
425.623	690.62
425.846	613.62
426.068	573.62
426.291	606.62
426.513	571.62
426.735	584.62
426.958	602.62
427.18	710.62
427.402	775.62
427.625	791.62
427.847	704.62
428.069	648.62
428.292	579.62
428.514	575.62
428.736	542.62
428.958	537.62
429.181	544.62
429.403	502.62
429.625	515.62
429.847	547.62
430.069	629.62
430.292	628.62
430.514	543.62
430.736	531.62
430.958	530.62
431.18	518.62
431.402	533.62
431.624	498.62
431.846	497.62
432.068	522.62
432.29	520.62
432.512	492.62
432.734	501.62
432.956	514.62
433.178	519.62
433.4	520.62
433.622	516.62
433.844	518.62
434.066	499.62
434.287	491.62
434.509	523.62
434.731	548.62
434.953	565.62
435.175	549.62
435.397	575.62
435.618	568.62
435.84	586.62
436.062	657.62
436.284	722.62
436.505	597.62
436.727	582.62
436.949	529.62
437.17	533.62
437.392	524.62
437.614	543.62
437.835	529.62
438.057	598.62
438.278	686.62
438.5	713.62
438.721	785.62
438.943	736.62
439.165	611.62
439.386	588.62
439.608	546.62
439.829	547.62
440.05	571.62
440.272	623.62
440.493	557.62
440.715	555.62
440.936	547.62
441.158	535.62
441.379	537.62
441.6	536.62
441.822	546.62
442.043	611.62
442.264	653.62
442.486	706.62
442.707	628.62
442.928	573.62
443.149	591.62
443.371	614.62
443.592	624.62
443.813	713.62
444.034	743.62
444.255	655.62
444.476	597.62
444.698	588.62
444.919	628.62
445.14	730.62
445.361	672.62
445.582	625.62
445.803	645.62
446.024	717.62
446.245	705.62
446.466	666.62
446.687	607.62
446.908	537.62
447.129	537.62
447.35	515.62
447.571	533.62
447.792	519.62
448.013	513.62
448.234	506.62
448.455	562.62
448.675	645.62
448.896	756.62
449.117	635.62
449.338	597.62
449.559	696.62
449.779	764.62
450	628.62
450.221	554.62
450.442	519.62
450.662	485.62
450.883	494.62
451.104	495.62
451.324	498.62
451.545	490.62
451.766	495.62
451.986	489.62
452.207	472.62
452.428	461.62
452.648	480.62
452.869	455.62
453.089	452.62
453.31	467.62
453.53	456.62
453.751	445.62
453.971	479.62
454.192	481.62
454.412	463.62
454.633	483.62
454.853	487.62
455.073	457.62
455.294	488.62
455.514	518.62
455.734	517.62
455.955	467.62
456.175	467.62
456.395	452.62
456.616	450.62
456.836	455.62
457.056	444.62
457.276	424.62
457.497	450.62
457.717	455.62
457.937	445.62
458.157	468.62
458.377	470.62
458.598	478.62
458.818	517.62
459.038	572.62
459.258	575.62
459.478	536.62
459.698	515.62
459.918	531.62
460.138	545.62
460.358	537.62
460.578	545.62
460.798	536.62
461.018	556.62
461.238	539.62
461.458	546.62
461.678	542.62
461.898	554.62
462.118	551.62
462.338	560.62
462.558	582.62
462.777	610.62
462.997	605.62
463.217	630.62
463.437	637.62
463.657	612.62
463.876	585.62
464.096	610.62
464.316	586.62
464.536	587.62
464.755	591.62
464.975	570.62
465.195	601.62
465.414	623.62
465.634	544.62
465.854	500.62
466.073	527.62
466.293	510.62
466.512	492.62
466.732	505.62
466.951	517.62
467.171	515.62
467.391	491.62
467.61	493.62
467.829	490.62
468.049	486.62
468.268	490.62
468.488	466.62
468.707	479.62
468.927	475.62
469.146	482.62
469.365	457.62
469.585	465.62
469.804	487.62
470.023	500.62
470.243	505.62
470.462	519.62
470.681	515.62
470.901	516.62
471.12	501.62
471.339	501.62
471.558	493.62
471.777	482.62
471.997	467.62
472.216	479.62
472.435	494.62
472.654	488.62
472.873	483.62
473.092	494.62
473.311	471.62
473.53	477.62
473.749	474.62
473.968	509.62
474.187	569.62
474.406	603.62
474.625	520.62
474.844	480.62
475.063	483.62
475.282	478.62
475.501	484.62
475.72	487.62
475.939	503.62
476.158	484.62
476.377	499.62
476.596	497.62
476.814	523.62
477.033	498.62
477.252	508.62
477.471	532.62
477.69	534.62
477.908	561.62
478.127	547.62
478.346	529.62
478.564	575.62
478.783	568.62
479.002	554.62
479.22	565.62
479.439	559.62
479.658	579.62
479.876	603.62
480.095	603.62
480.313	639.62
480.532	604.62
480.751	593.62
480.969	605.62
481.188	653.62
481.406	639.62
481.624	595.62
481.843	586.62
482.061	588.62
482.28	576.62
482.498	575.62
482.717	564.62
482.935	560.62
483.153	583.62
483.372	536.62
483.59	536.62
483.808	570.62
484.027	566.62
484.245	565.62
484.463	577.62
484.681	581.62
484.9	588.62
485.118	583.62
485.336	570.62
485.554	580.62
485.772	586.62
485.99	598.62
486.209	600.62
486.427	588.62
486.645	592.62
486.863	601.62
487.081	597.62
487.299	600.62
487.517	596.62
487.735	596.62
487.953	610.62
488.171	592.62
488.389	606.62
488.607	590.62
488.825	610.62
489.043	589.62
489.261	613.62
489.479	592.62
489.696	593.62
489.914	636.62
490.132	621.62
490.35	620.62
490.568	607.62
490.786	634.62
491.003	654.62
491.221	647.62
491.439	656.62
491.657	671.62
491.874	635.62
492.092	674.62
492.31	653.62
492.527	663.62
492.745	679.62
492.963	687.62
493.18	681.62
493.398	675.62
493.615	677.62
493.833	687.62
494.05	699.62
494.268	689.62
494.485	699.62
494.703	681.62
494.92	695.62
495.138	684.62
495.355	723.62
495.573	695.62
495.79	700.62
496.008	667.62
496.225	689.62
496.442	695.62
496.66	710.62
496.877	711.62
497.094	716.62
497.312	744.62
497.529	748.62
497.746	743.62
497.963	743.62
498.181	808.62
498.398	820.62
498.615	843.62
498.832	842.62
499.049	891.62
499.267	927.62
499.484	973.62
499.701	1015.62
499.918	1063.62
500.135	1153.62
500.352	1227.62
500.569	1248.62
500.786	1259.62
501.003	1219.62
501.22	1187.62
501.437	1086.62
501.654	1019.62
501.871	999.62
