Data from 1962.PennyLincolnUp.Lamp.En5.5.200Scan.071719.P1._HRD10591_13-55-24-061.txt Node
Date: Thu Jul 18 13:55:24 EDT 2019
User: cochatt
Spectrometer: HR+D1059
Trigger mode: 1
Integration Time (sec): 1.000000E-1
Scans to average: 1
Electric dark correction enabled: true
Nonlinearity correction enabled: false
Boxcar width: 0
XAxis mode: Wavelengths
Number of Pixels in Spectrum: 2048
>>>>>Begin Spectral Data<<<<<
223.165	-5.69
223.4	-5.69
223.635	-5.69
223.869	-12.69
224.104	-1.69
224.338	-9.69
224.573	-5.69
224.808	-15.69
225.042	-6.69
225.277	-4.69
225.511	-12.69
225.746	3.31
225.98	-0.69
226.215	11.31
226.449	22.31
226.683	-1.69
226.918	12.31
227.152	28.31
227.387	23.31
227.621	43.31
227.856	36.31
228.09	45.31
228.324	48.31
228.559	40.31
228.793	50.31
229.027	90.31
229.262	100.31
229.496	110.31
229.73	118.31
229.964	138.31
230.199	111.31
230.433	104.31
230.667	84.31
230.901	102.31
231.136	95.31
231.37	104.31
231.604	112.31
231.838	120.31
232.072	103.31
232.306	108.31
232.541	110.31
232.775	109.31
233.009	98.31
233.243	109.31
233.477	107.31
233.711	116.31
233.945	119.31
234.179	107.31
234.413	111.31
234.647	120.31
234.881	112.31
235.115	127.31
235.349	112.31
235.583	121.31
235.817	114.31
236.051	119.31
236.285	121.31
236.519	124.31
236.753	121.31
236.987	121.31
237.221	136.31
237.455	195.31
237.689	167.31
237.922	120.31
238.156	121.31
238.39	119.31
238.624	119.31
238.858	123.31
239.091	123.31
239.325	127.31
239.559	127.31
239.793	120.31
240.027	120.31
240.26	123.31
240.494	151.31
240.728	131.31
240.961	144.31
241.195	141.31
241.429	132.31
241.662	106.31
241.896	134.31
242.13	129.31
242.363	140.31
242.597	135.31
242.83	132.31
243.064	146.31
243.298	129.31
243.531	144.31
243.765	149.31
243.998	143.31
244.232	138.31
244.465	133.31
244.699	146.31
244.932	130.31
245.166	142.31
245.399	139.31
245.633	138.31
245.866	145.31
246.099	140.31
246.333	152.31
246.566	143.31
246.8	142.31
247.033	143.31
247.266	159.31
247.5	152.31
247.733	167.31
247.966	166.31
248.2	160.31
248.433	153.31
248.666	180.31
248.899	168.31
249.133	176.31
249.366	183.31
249.599	178.31
249.832	171.31
250.066	156.31
250.299	175.31
250.532	162.31
250.765	178.31
250.998	186.31
251.231	200.31
251.465	192.31
251.698	197.31
251.931	168.31
252.164	171.31
252.397	179.31
252.63	182.31
252.863	193.31
253.096	203.31
253.329	200.31
253.562	200.31
253.795	194.31
254.028	194.31
254.261	193.31
254.494	222.31
254.727	232.31
254.96	233.31
255.193	227.31
255.426	218.31
255.659	208.31
255.892	216.31
256.124	213.31
256.357	218.31
256.59	204.31
256.823	193.31
257.056	210.31
257.289	188.31
257.521	193.31
257.754	190.31
257.987	202.31
258.22	193.31
258.452	188.31
258.685	199.31
258.918	186.31
259.151	185.31
259.383	196.31
259.616	203.31
259.849	207.31
260.081	212.31
260.314	236.31
260.547	233.31
260.779	247.31
261.012	220.31
261.244	230.31
261.477	197.31
261.71	207.31
261.942	203.31
262.175	205.31
262.407	214.31
262.64	202.31
262.872	199.31
263.105	199.31
263.337	204.31
263.57	204.31
263.802	203.31
264.035	245.31
264.267	198.31
264.499	196.31
264.732	197.31
264.964	214.31
265.197	207.31
265.429	217.31
265.661	190.31
265.894	199.31
266.126	206.31
266.358	219.31
266.591	199.31
266.823	208.31
267.055	214.31
267.287	231.31
267.52	227.31
267.752	217.31
267.984	226.31
268.216	245.31
268.448	228.31
268.681	237.31
268.913	234.31
269.145	258.31
269.377	282.31
269.609	269.31
269.841	271.31
270.073	269.31
270.306	258.31
270.538	281.31
270.77	278.31
271.002	265.31
271.234	287.31
271.466	281.31
271.698	291.31
271.93	284.31
272.162	266.31
272.394	270.31
272.626	297.31
272.858	268.31
273.09	268.31
273.322	259.31
273.553	252.31
273.785	252.31
274.017	239.31
274.249	255.31
274.481	266.31
274.713	252.31
274.945	255.31
275.176	258.31
275.408	260.31
275.64	259.31
275.872	244.31
276.104	273.31
276.335	261.31
276.567	246.31
276.799	268.31
277.031	290.31
277.262	305.31
277.494	289.31
277.726	282.31
277.957	297.31
278.189	278.31
278.421	258.31
278.652	264.31
278.884	264.31
279.115	262.31
279.347	256.31
279.579	266.31
279.81	274.31
280.042	274.31
280.273	274.31
280.505	263.31
280.736	264.31
280.968	293.31
281.199	264.31
281.431	287.31
281.662	274.31
281.894	274.31
282.125	261.31
282.356	302.31
282.588	292.31
282.819	277.31
283.051	278.31
283.282	276.31
283.513	273.31
283.745	277.31
283.976	277.31
284.207	278.31
284.439	286.31
284.67	274.31
284.901	268.31
285.132	277.31
285.364	278.31
285.595	268.31
285.826	290.31
286.057	273.31
286.288	276.31
286.52	285.31
286.751	304.31
286.982	302.31
287.213	287.31
287.444	280.31
287.675	295.31
287.906	310.31
288.138	291.31
288.369	310.31
288.6	290.31
288.831	313.31
289.062	304.31
289.293	307.31
289.524	294.31
289.755	307.31
289.986	318.31
290.217	308.31
290.448	316.31
290.679	292.31
290.91	288.31
291.141	312.31
291.371	308.31
291.602	315.31
291.833	300.31
292.064	307.31
292.295	296.31
292.526	282.31
292.757	302.31
292.987	305.31
293.218	301.31
293.449	314.31
293.68	322.31
293.91	307.31
294.141	290.31
294.372	308.31
294.603	304.31
294.833	316.31
295.064	307.31
295.295	292.31
295.525	296.31
295.756	318.31
295.987	317.31
296.217	320.31
296.448	327.31
296.679	316.31
296.909	311.31
297.14	303.31
297.37	325.31
297.601	309.31
297.831	310.31
298.062	284.31
298.292	320.31
298.523	314.31
298.753	310.31
298.984	323.31
299.214	316.31
299.445	306.31
299.675	326.31
299.905	311.31
300.136	303.31
300.366	329.31
300.597	333.31
300.827	337.31
301.057	342.31
301.288	350.31
301.518	313.31
301.748	318.31
301.979	353.31
302.209	349.31
302.439	352.31
302.669	339.31
302.9	329.31
303.13	330.31
303.36	339.31
303.59	322.31
303.82	355.31
304.051	342.31
304.281	340.31
304.511	322.31
304.741	332.31
304.971	330.31
305.201	330.31
305.431	343.31
305.661	339.31
305.891	330.31
306.121	319.31
306.352	347.31
306.582	332.31
306.812	339.31
307.042	347.31
307.272	331.31
307.502	325.31
307.731	361.31
307.961	361.31
308.191	329.31
308.421	336.31
308.651	326.31
308.881	338.31
309.111	331.31
309.341	339.31
309.571	358.31
309.8	349.31
310.03	351.31
310.26	364.31
310.49	377.31
310.72	362.31
310.949	374.31
311.179	375.31
311.409	355.31
311.639	366.31
311.868	372.31
312.098	354.31
312.328	377.31
312.557	376.31
312.787	394.31
313.017	386.31
313.246	377.31
313.476	377.31
313.706	387.31
313.935	372.31
314.165	388.31
314.394	387.31
314.624	370.31
314.853	378.31
315.083	386.31
315.312	380.31
315.542	396.31
315.771	366.31
316.001	365.31
316.23	374.31
316.46	411.31
316.689	397.31
316.919	394.31
317.148	386.31
317.377	384.31
317.607	373.31
317.836	371.31
318.065	376.31
318.295	379.31
318.524	372.31
318.753	367.31
318.983	370.31
319.212	360.31
319.441	380.31
319.67	397.31
319.9	366.31
320.129	385.31
320.358	397.31
320.587	380.31
320.816	372.31
321.046	369.31
321.275	389.31
321.504	401.31
321.733	404.31
321.962	393.31
322.191	388.31
322.42	410.31
322.649	431.31
322.878	412.31
323.108	424.31
323.337	444.31
323.566	455.31
323.795	463.31
324.024	495.31
324.253	570.31
324.482	733.31
324.71	1078.31
324.939	1495.31
325.168	1358.31
325.397	744.31
325.626	550.31
325.855	476.31
326.084	482.31
326.313	507.31
326.542	457.31
326.77	487.31
326.999	548.31
327.228	688.31
327.457	974.31
327.686	1190.31
327.914	819.31
328.143	592.31
328.372	533.31
328.6	494.31
328.829	500.31
329.058	480.31
329.287	491.31
329.515	469.31
329.744	464.31
329.972	464.31
330.201	486.31
330.43	484.31
330.658	512.31
330.887	522.31
331.115	517.31
331.344	476.31
331.572	472.31
331.801	451.31
332.03	477.31
332.258	459.31
332.486	466.31
332.715	468.31
332.943	467.31
333.172	460.31
333.4	467.31
333.629	483.31
333.857	499.31
334.085	504.31
334.314	504.31
334.542	504.31
334.771	558.31
334.999	523.31
335.227	482.31
335.455	464.31
335.684	472.31
335.912	483.31
336.14	477.31
336.369	470.31
336.597	443.31
336.825	472.31
337.053	458.31
337.281	458.31
337.51	446.31
337.738	446.31
337.966	441.31
338.194	438.31
338.422	430.31
338.65	439.31
338.878	431.31
339.106	422.31
339.334	434.31
339.562	442.31
339.79	440.31
340.018	412.31
340.246	426.31
340.474	420.31
340.702	446.31
340.93	415.31
341.158	422.31
341.386	412.31
341.614	437.31
341.842	436.31
342.07	435.31
342.298	425.31
342.526	402.31
342.754	422.31
342.981	425.31
343.209	423.31
343.437	440.31
343.665	430.31
343.893	463.31
344.12	462.31
344.348	459.31
344.576	461.31
344.804	436.31
345.031	440.31
345.259	439.31
345.487	435.31
345.714	418.31
345.942	424.31
346.17	415.31
346.397	422.31
346.625	408.31
346.853	419.31
347.08	394.31
347.308	389.31
347.535	432.31
347.763	402.31
347.99	404.31
348.218	410.31
348.445	416.31
348.673	411.31
348.9	429.31
349.128	412.31
349.355	418.31
349.583	420.31
349.81	411.31
350.037	405.31
350.265	385.31
350.492	402.31
350.72	388.31
350.947	412.31
351.174	416.31
351.402	398.31
351.629	408.31
351.856	419.31
352.083	405.31
352.311	404.31
352.538	410.31
352.765	427.31
352.992	410.31
353.22	394.31
353.447	402.31
353.674	409.31
353.901	391.31
354.128	382.31
354.355	399.31
354.583	375.31
354.81	391.31
355.037	394.31
355.264	385.31
355.491	381.31
355.718	393.31
355.945	399.31
356.172	408.31
356.399	388.31
356.626	392.31
356.853	384.31
357.08	376.31
357.307	386.31
357.534	394.31
357.761	404.31
357.988	403.31
358.215	401.31
358.441	386.31
358.668	388.31
358.895	388.31
359.122	400.31
359.349	408.31
359.576	396.31
359.802	435.31
360.029	427.31
360.256	425.31
360.483	435.31
360.709	415.31
360.936	409.31
361.163	421.31
361.39	404.31
361.616	396.31
361.843	401.31
362.07	388.31
362.296	396.31
362.523	389.31
362.749	407.31
362.976	405.31
363.203	412.31
363.429	400.31
363.656	424.31
363.882	385.31
364.109	408.31
364.335	382.31
364.562	405.31
364.788	379.31
365.015	397.31
365.241	387.31
365.468	411.31
365.694	389.31
365.92	425.31
366.147	388.31
366.373	398.31
366.599	376.31
366.826	395.31
367.052	402.31
367.278	392.31
367.505	400.31
367.731	415.31
367.957	412.31
368.184	401.31
368.41	386.31
368.636	393.31
368.862	393.31
369.089	379.31
369.315	394.31
369.541	416.31
369.767	407.31
369.993	405.31
370.219	399.31
370.445	398.31
370.672	394.31
370.898	399.31
371.124	391.31
371.35	428.31
371.576	394.31
371.802	401.31
372.028	406.31
372.254	399.31
372.48	405.31
372.706	401.31
372.932	402.31
373.158	419.31
373.384	411.31
373.61	424.31
373.835	415.31
374.061	396.31
374.287	427.31
374.513	430.31
374.739	430.31
374.965	412.31
375.191	414.31
375.416	404.31
375.642	428.31
375.868	421.31
376.094	412.31
376.319	412.31
376.545	405.31
376.771	404.31
376.997	406.31
377.222	416.31
377.448	419.31
377.674	402.31
377.899	419.31
378.125	383.31
378.35	385.31
378.576	408.31
378.802	403.31
379.027	410.31
379.253	406.31
379.478	418.31
379.704	415.31
379.929	400.31
380.155	389.31
380.38	392.31
380.606	400.31
380.831	397.31
381.057	410.31
381.282	403.31
381.507	414.31
381.733	409.31
381.958	404.31
382.184	419.31
382.409	407.31
382.634	412.31
382.86	429.31
383.085	405.31
383.31	436.31
383.535	432.31
383.761	426.31
383.986	424.31
384.211	436.31
384.436	451.31
384.662	444.31
384.887	457.31
385.112	453.31
385.337	456.31
385.562	448.31
385.787	470.31
386.013	478.31
386.238	463.31
386.463	455.31
386.688	454.31
386.913	457.31
387.138	453.31
387.363	473.31
387.588	475.31
387.813	459.31
388.038	463.31
388.263	438.31
388.488	452.31
388.713	446.31
388.938	465.31
389.163	442.31
389.387	455.31
389.612	455.31
389.837	443.31
390.062	456.31
390.287	449.31
390.512	454.31
390.736	459.31
390.961	471.31
391.186	436.31
391.411	475.31
391.636	482.31
391.86	493.31
392.085	502.31
392.31	500.31
392.534	482.31
392.759	486.31
392.984	480.31
393.208	466.31
393.433	462.31
393.658	464.31
393.882	460.31
394.107	474.31
394.331	472.31
394.556	466.31
394.78	490.31
395.005	498.31
395.229	471.31
395.454	472.31
395.678	479.31
395.903	501.31
396.127	499.31
396.352	508.31
396.576	482.31
396.801	494.31
397.025	477.31
397.249	515.31
397.474	522.31
397.698	510.31
397.922	517.31
398.147	524.31
398.371	504.31
398.595	529.31
398.82	552.31
399.044	568.31
399.268	580.31
399.492	666.31
399.717	682.31
399.941	716.31
400.165	680.31
400.389	641.31
400.613	608.31
400.837	570.31
401.062	556.31
401.286	572.31
401.51	558.31
401.734	540.31
401.958	567.31
402.182	557.31
402.406	534.31
402.63	543.31
402.854	549.31
403.078	570.31
403.302	560.31
403.526	585.31
403.75	594.31
403.974	596.31
404.198	582.31
404.422	597.31
404.645	598.31
404.869	591.31
405.093	574.31
405.317	615.31
405.541	658.31
405.765	602.31
405.988	592.31
406.212	588.31
406.436	598.31
406.66	616.31
406.883	622.31
407.107	640.31
407.331	684.31
407.555	734.31
407.778	727.31
408.002	677.31
408.226	626.31
408.449	630.31
408.673	609.31
408.896	658.31
409.12	658.31
409.344	609.31
409.567	576.31
409.791	571.31
410.014	565.31
410.238	560.31
410.461	555.31
410.685	576.31
410.908	579.31
411.132	606.31
411.355	613.31
411.578	629.31
411.802	592.31
412.025	572.31
412.249	558.31
412.472	563.31
412.695	609.31
412.919	607.31
413.142	578.31
413.365	566.31
413.589	565.31
413.812	538.31
414.035	560.31
414.258	548.31
414.482	546.31
414.705	529.31
414.928	529.31
415.151	529.31
415.374	541.31
415.597	538.31
415.821	535.31
416.044	531.31
416.267	538.31
416.49	520.31
416.713	538.31
416.936	522.31
417.159	549.31
417.382	533.31
417.605	522.31
417.828	517.31
418.051	538.31
418.274	550.31
418.497	525.31
418.72	533.31
418.943	552.31
419.166	553.31
419.389	569.31
419.611	568.31
419.834	570.31
420.057	569.31
420.28	567.31
420.503	553.31
420.726	566.31
420.948	535.31
421.171	580.31
421.394	615.31
421.617	595.31
421.839	548.31
422.062	536.31
422.285	530.31
422.507	594.31
422.73	641.31
422.953	648.31
423.175	586.31
423.398	566.31
423.621	584.31
423.843	578.31
424.066	583.31
424.288	580.31
424.511	607.31
424.733	636.31
424.956	672.31
425.178	639.31
425.401	667.31
425.623	670.31
425.846	609.31
426.068	574.31
426.291	556.31
426.513	543.31
426.735	578.31
426.958	610.31
427.18	673.31
427.402	769.31
427.625	814.31
427.847	706.31
428.069	623.31
428.292	581.31
428.514	550.31
428.736	511.31
428.958	522.31
429.181	522.31
429.403	521.31
429.625	521.31
429.847	558.31
430.069	615.31
430.292	614.31
430.514	530.31
430.736	519.31
430.958	536.31
431.18	502.31
431.402	515.31
431.624	488.31
431.846	486.31
432.068	513.31
432.29	514.31
432.512	494.31
432.734	511.31
432.956	516.31
433.178	519.31
433.4	510.31
433.622	507.31
433.844	506.31
434.066	529.31
434.287	530.31
434.509	523.31
434.731	544.31
434.953	517.31
435.175	537.31
435.397	557.31
435.618	570.31
435.84	581.31
436.062	663.31
436.284	723.31
436.505	631.31
436.727	558.31
436.949	528.31
437.17	514.31
437.392	532.31
437.614	513.31
437.835	547.31
438.057	588.31
438.278	666.31
438.5	669.31
438.721	754.31
438.943	740.31
439.165	621.31
439.386	554.31
439.608	570.31
439.829	554.31
440.05	560.31
440.272	604.31
440.493	568.31
440.715	543.31
440.936	534.31
441.158	544.31
441.379	529.31
441.6	536.31
441.822	552.31
442.043	598.31
442.264	671.31
442.486	690.31
442.707	584.31
442.928	608.31
443.149	584.31
443.371	591.31
443.592	614.31
443.813	723.31
444.034	744.31
444.255	666.31
444.476	596.31
444.698	607.31
444.919	587.31
445.14	714.31
445.361	644.31
445.582	603.31
445.803	632.31
446.024	709.31
446.245	721.31
446.466	672.31
446.687	595.31
446.908	542.31
447.129	534.31
447.35	524.31
447.571	510.31
447.792	507.31
448.013	523.31
448.234	537.31
448.455	531.31
448.675	645.31
448.896	725.31
449.117	656.31
449.338	599.31
449.559	696.31
449.779	768.31
450	627.31
450.221	532.31
450.442	522.31
450.662	494.31
450.883	509.31
451.104	502.31
451.324	498.31
451.545	502.31
451.766	472.31
451.986	460.31
452.207	474.31
452.428	473.31
452.648	470.31
452.869	443.31
453.089	464.31
453.31	460.31
453.53	484.31
453.751	467.31
453.971	487.31
454.192	450.31
454.412	454.31
454.633	466.31
454.853	457.31
455.073	449.31
455.294	475.31
455.514	520.31
455.734	511.31
455.955	473.31
456.175	453.31
456.395	437.31
456.616	445.31
456.836	459.31
457.056	424.31
457.276	427.31
457.497	458.31
457.717	450.31
457.937	444.31
458.157	465.31
458.377	459.31
458.598	487.31
458.818	510.31
459.038	559.31
459.258	572.31
459.478	530.31
459.698	522.31
459.918	517.31
460.138	501.31
460.358	539.31
460.578	530.31
460.798	551.31
461.018	528.31
461.238	547.31
461.458	525.31
461.678	545.31
461.898	565.31
462.118	538.31
462.338	558.31
462.558	586.31
462.777	569.31
462.997	603.31
463.217	617.31
463.437	619.31
463.657	610.31
463.876	604.31
464.096	588.31
464.316	600.31
464.536	607.31
464.755	570.31
464.975	570.31
465.195	577.31
465.414	593.31
465.634	546.31
465.854	536.31
466.073	515.31
466.293	523.31
466.512	476.31
466.732	490.31
466.951	513.31
467.171	489.31
467.391	469.31
467.61	485.31
467.829	467.31
468.049	499.31
468.268	486.31
468.488	466.31
468.707	490.31
468.927	481.31
469.146	456.31
469.365	471.31
469.585	467.31
469.804	486.31
470.023	498.31
470.243	495.31
470.462	489.31
470.681	508.31
470.901	501.31
471.12	497.31
471.339	500.31
471.558	490.31
471.777	494.31
471.997	488.31
472.216	497.31
472.435	504.31
472.654	484.31
472.873	474.31
473.092	490.31
473.311	481.31
473.53	471.31
473.749	499.31
473.968	514.31
474.187	558.31
474.406	611.31
474.625	508.31
474.844	494.31
475.063	481.31
475.282	491.31
475.501	500.31
475.72	507.31
475.939	496.31
476.158	495.31
476.377	494.31
476.596	515.31
476.814	476.31
477.033	519.31
477.252	486.31
477.471	523.31
477.69	501.31
477.908	541.31
478.127	526.31
478.346	550.31
478.564	570.31
478.783	548.31
479.002	579.31
479.22	576.31
479.439	594.31
479.658	593.31
479.876	555.31
480.095	577.31
480.313	604.31
480.532	605.31
480.751	601.31
480.969	604.31
481.188	633.31
481.406	667.31
481.624	600.31
481.843	595.31
482.061	582.31
482.28	576.31
482.498	562.31
482.717	571.31
482.935	564.31
483.153	562.31
483.372	553.31
483.59	542.31
483.808	542.31
484.027	530.31
484.245	561.31
484.463	549.31
484.681	584.31
484.9	589.31
485.118	572.31
485.336	597.31
485.554	582.31
485.772	596.31
485.99	572.31
486.209	563.31
486.427	595.31
486.645	596.31
486.863	607.31
487.081	616.31
487.299	617.31
487.517	618.31
487.735	589.31
487.953	608.31
488.171	609.31
488.389	603.31
488.607	600.31
488.825	595.31
489.043	607.31
489.261	608.31
489.479	593.31
489.696	596.31
489.914	601.31
490.132	623.31
490.35	643.31
490.568	601.31
490.786	615.31
491.003	630.31
491.221	660.31
491.439	644.31
491.657	643.31
491.874	655.31
492.092	683.31
492.31	663.31
492.527	675.31
492.745	681.31
492.963	672.31
493.18	670.31
493.398	676.31
493.615	698.31
493.833	678.31
494.05	673.31
494.268	662.31
494.485	696.31
494.703	659.31
494.92	682.31
495.138	666.31
495.355	691.31
495.573	675.31
495.79	667.31
496.008	696.31
496.225	658.31
496.442	689.31
496.66	692.31
496.877	666.31
497.094	683.31
497.312	725.31
497.529	727.31
497.746	751.31
497.963	763.31
498.181	792.31
498.398	804.31
498.615	822.31
498.832	857.31
499.049	878.31
499.267	904.31
499.484	953.31
499.701	1022.31
499.918	1053.31
500.135	1115.31
500.352	1204.31
500.569	1242.31
500.786	1248.31
501.003	1204.31
501.22	1153.31
501.437	1110.31
501.654	1067.31
501.871	964.31
