Data from 1962.PennyLincolnUp.Lamp.En5.5.200Scan.071719.P1._HRD10591_13-52-36-060.txt Node
Date: Thu Jul 18 13:52:36 EDT 2019
User: cochatt
Spectrometer: HR+D1059
Trigger mode: 1
Integration Time (sec): 1.000000E-1
Scans to average: 1
Electric dark correction enabled: true
Nonlinearity correction enabled: false
Boxcar width: 0
XAxis mode: Wavelengths
Number of Pixels in Spectrum: 2048
>>>>>Begin Spectral Data<<<<<
223.165	-19.19
223.4	-19.19
223.635	-19.19
223.869	-18.19
224.104	-14.19
224.338	-10.19
224.573	-17.19
224.808	-6.19
225.042	-10.19
225.277	-9.19
225.511	2.81
225.746	3.81
225.98	9.81
226.215	15.81
226.449	20.81
226.683	5.81
226.918	14.81
227.152	30.81
227.387	29.81
227.621	31.81
227.856	47.81
228.09	28.81
228.324	41.81
228.559	56.81
228.793	56.81
229.027	80.81
229.262	83.81
229.496	82.81
229.73	108.81
229.964	109.81
230.199	98.81
230.433	109.81
230.667	98.81
230.901	107.81
231.136	102.81
231.37	100.81
231.604	109.81
231.838	107.81
232.072	94.81
232.306	124.81
232.541	115.81
232.775	105.81
233.009	106.81
233.243	110.81
233.477	104.81
233.711	101.81
233.945	109.81
234.179	96.81
234.413	111.81
234.647	102.81
234.881	110.81
235.115	111.81
235.349	121.81
235.583	125.81
235.817	116.81
236.051	115.81
236.285	114.81
236.519	121.81
236.753	122.81
236.987	119.81
237.221	137.81
237.455	146.81
237.689	133.81
237.922	101.81
238.156	118.81
238.39	115.81
238.624	108.81
238.858	108.81
239.091	105.81
239.325	130.81
239.559	121.81
239.793	113.81
240.027	125.81
240.26	126.81
240.494	130.81
240.728	123.81
240.961	123.81
241.195	118.81
241.429	139.81
241.662	121.81
241.896	128.81
242.13	137.81
242.363	128.81
242.597	122.81
242.83	123.81
243.064	120.81
243.298	135.81
243.531	118.81
243.765	124.81
243.998	141.81
244.232	147.81
244.465	124.81
244.699	126.81
244.932	126.81
245.166	125.81
245.399	143.81
245.633	134.81
245.866	129.81
246.099	130.81
246.333	134.81
246.566	132.81
246.8	143.81
247.033	141.81
247.266	143.81
247.5	148.81
247.733	141.81
247.966	148.81
248.2	150.81
248.433	143.81
248.666	130.81
248.899	148.81
249.133	160.81
249.366	158.81
249.599	161.81
249.832	140.81
250.066	163.81
250.299	157.81
250.532	158.81
250.765	169.81
250.998	177.81
251.231	174.81
251.465	168.81
251.698	156.81
251.931	162.81
252.164	167.81
252.397	183.81
252.63	155.81
252.863	171.81
253.096	165.81
253.329	182.81
253.562	172.81
253.795	162.81
254.028	164.81
254.261	185.81
254.494	183.81
254.727	189.81
254.96	190.81
255.193	202.81
255.426	191.81
255.659	185.81
255.892	179.81
256.124	193.81
256.357	182.81
256.59	170.81
256.823	181.81
257.056	170.81
257.289	177.81
257.521	191.81
257.754	172.81
257.987	169.81
258.22	189.81
258.452	190.81
258.685	176.81
258.918	189.81
259.151	181.81
259.383	179.81
259.616	181.81
259.849	184.81
260.081	202.81
260.314	187.81
260.547	196.81
260.779	204.81
261.012	194.81
261.244	192.81
261.477	199.81
261.71	187.81
261.942	188.81
262.175	199.81
262.407	176.81
262.64	198.81
262.872	194.81
263.105	212.81
263.337	188.81
263.57	188.81
263.802	190.81
264.035	193.81
264.267	179.81
264.499	195.81
264.732	190.81
264.964	188.81
265.197	188.81
265.429	193.81
265.661	185.81
265.894	177.81
266.126	197.81
266.358	207.81
266.591	201.81
266.823	206.81
267.055	211.81
267.287	204.81
267.52	184.81
267.752	210.81
267.984	192.81
268.216	205.81
268.448	202.81
268.681	209.81
268.913	220.81
269.145	213.81
269.377	226.81
269.609	229.81
269.841	224.81
270.073	214.81
270.306	229.81
270.538	232.81
270.77	231.81
271.002	235.81
271.234	243.81
271.466	238.81
271.698	232.81
271.93	234.81
272.162	241.81
272.394	238.81
272.626	242.81
272.858	226.81
273.09	232.81
273.322	220.81
273.553	219.81
273.785	218.81
274.017	218.81
274.249	247.81
274.481	221.81
274.713	239.81
274.945	248.81
275.176	221.81
275.408	227.81
275.64	235.81
275.872	235.81
276.104	225.81
276.335	245.81
276.567	227.81
276.799	225.81
277.031	252.81
277.262	256.81
277.494	264.81
277.726	239.81
277.957	249.81
278.189	241.81
278.421	243.81
278.652	236.81
278.884	245.81
279.115	230.81
279.347	237.81
279.579	233.81
279.81	234.81
280.042	251.81
280.273	236.81
280.505	244.81
280.736	234.81
280.968	240.81
281.199	234.81
281.431	237.81
281.662	235.81
281.894	231.81
282.125	250.81
282.356	257.81
282.588	263.81
282.819	252.81
283.051	238.81
283.282	258.81
283.513	265.81
283.745	254.81
283.976	260.81
284.207	255.81
284.439	245.81
284.67	262.81
284.901	271.81
285.132	259.81
285.364	270.81
285.595	260.81
285.826	269.81
286.057	263.81
286.288	262.81
286.52	257.81
286.751	258.81
286.982	273.81
287.213	259.81
287.444	277.81
287.675	262.81
287.906	241.81
288.138	267.81
288.369	269.81
288.6	276.81
288.831	263.81
289.062	274.81
289.293	267.81
289.524	268.81
289.755	281.81
289.986	273.81
290.217	277.81
290.448	283.81
290.679	276.81
290.91	288.81
291.141	244.81
291.371	279.81
291.602	284.81
291.833	262.81
292.064	263.81
292.295	255.81
292.526	262.81
292.757	283.81
292.987	285.81
293.218	287.81
293.449	282.81
293.68	278.81
293.91	275.81
294.141	276.81
294.372	275.81
294.603	279.81
294.833	282.81
295.064	285.81
295.295	273.81
295.525	292.81
295.756	276.81
295.987	287.81
296.217	297.81
296.448	295.81
296.679	282.81
296.909	295.81
297.14	285.81
297.37	298.81
297.601	287.81
297.831	285.81
298.062	307.81
298.292	306.81
298.523	312.81
298.753	307.81
298.984	277.81
299.214	275.81
299.445	279.81
299.675	293.81
299.905	277.81
300.136	301.81
300.366	288.81
300.597	292.81
300.827	320.81
301.057	301.81
301.288	323.81
301.518	300.81
301.748	295.81
301.979	291.81
302.209	325.81
302.439	296.81
302.669	295.81
302.9	302.81
303.13	307.81
303.36	293.81
303.59	294.81
303.82	322.81
304.051	316.81
304.281	322.81
304.511	312.81
304.741	308.81
304.971	288.81
305.201	307.81
305.431	313.81
305.661	311.81
305.891	320.81
306.121	315.81
306.352	297.81
306.582	311.81
306.812	307.81
307.042	295.81
307.272	303.81
307.502	312.81
307.731	307.81
307.961	313.81
308.191	300.81
308.421	303.81
308.651	302.81
308.881	311.81
309.111	293.81
309.341	293.81
309.571	321.81
309.8	311.81
310.03	326.81
310.26	333.81
310.49	323.81
310.72	331.81
310.949	326.81
311.179	327.81
311.409	323.81
311.639	322.81
311.868	323.81
312.098	362.81
312.328	323.81
312.557	328.81
312.787	324.81
313.017	341.81
313.246	337.81
313.476	326.81
313.706	315.81
313.935	340.81
314.165	350.81
314.394	331.81
314.624	328.81
314.853	333.81
315.083	360.81
315.312	338.81
315.542	327.81
315.771	323.81
316.001	332.81
316.23	353.81
316.46	316.81
316.689	342.81
316.919	345.81
317.148	325.81
317.377	339.81
317.607	331.81
317.836	336.81
318.065	339.81
318.295	350.81
318.524	342.81
318.753	324.81
318.983	337.81
319.212	340.81
319.441	339.81
319.67	345.81
319.9	342.81
320.129	347.81
320.358	320.81
320.587	335.81
320.816	340.81
321.046	354.81
321.275	357.81
321.504	346.81
321.733	335.81
321.962	346.81
322.191	334.81
322.42	349.81
322.649	377.81
322.878	372.81
323.108	363.81
323.337	373.81
323.566	371.81
323.795	379.81
324.024	405.81
324.253	443.81
324.482	584.81
324.71	867.81
324.939	1190.81
325.168	1035.81
325.397	583.81
325.626	440.81
325.855	406.81
326.084	389.81
326.313	383.81
326.542	396.81
326.77	394.81
326.999	471.81
327.228	563.81
327.457	781.81
327.686	943.81
327.914	655.81
328.143	478.81
328.372	453.81
328.6	409.81
328.829	395.81
329.058	422.81
329.287	406.81
329.515	409.81
329.744	405.81
329.972	401.81
330.201	403.81
330.43	429.81
330.658	441.81
330.887	423.81
331.115	419.81
331.344	408.81
331.572	370.81
331.801	383.81
332.03	384.81
332.258	400.81
332.486	397.81
332.715	415.81
332.943	409.81
333.172	409.81
333.4	418.81
333.629	399.81
333.857	430.81
334.085	415.81
334.314	451.81
334.542	435.81
334.771	447.81
334.999	442.81
335.227	438.81
335.455	413.81
335.684	422.81
335.912	392.81
336.14	395.81
336.369	400.81
336.597	417.81
336.825	388.81
337.053	405.81
337.281	404.81
337.51	398.81
337.738	397.81
337.966	390.81
338.194	392.81
338.422	399.81
338.65	410.81
338.878	387.81
339.106	375.81
339.334	397.81
339.562	385.81
339.79	386.81
340.018	382.81
340.246	397.81
340.474	382.81
340.702	413.81
340.93	375.81
341.158	382.81
341.386	386.81
341.614	397.81
341.842	394.81
342.07	381.81
342.298	376.81
342.526	356.81
342.754	362.81
342.981	363.81
343.209	375.81
343.437	397.81
343.665	393.81
343.893	398.81
344.12	421.81
344.348	408.81
344.576	403.81
344.804	398.81
345.031	402.81
345.259	375.81
345.487	374.81
345.714	389.81
345.942	353.81
346.17	379.81
346.397	373.81
346.625	372.81
346.853	382.81
347.08	365.81
347.308	377.81
347.535	379.81
347.763	378.81
347.99	374.81
348.218	376.81
348.445	373.81
348.673	352.81
348.9	371.81
349.128	364.81
349.355	349.81
349.583	359.81
349.81	362.81
350.037	362.81
350.265	351.81
350.492	331.81
350.72	354.81
350.947	378.81
351.174	363.81
351.402	373.81
351.629	348.81
351.856	341.81
352.083	344.81
352.311	346.81
352.538	359.81
352.765	365.81
352.992	370.81
353.22	358.81
353.447	357.81
353.674	361.81
353.901	367.81
354.128	353.81
354.355	341.81
354.583	347.81
354.81	343.81
355.037	373.81
355.264	357.81
355.491	373.81
355.718	377.81
355.945	373.81
356.172	352.81
356.399	341.81
356.626	373.81
356.853	353.81
357.08	355.81
357.307	367.81
357.534	351.81
357.761	357.81
357.988	361.81
358.215	341.81
358.441	352.81
358.668	354.81
358.895	358.81
359.122	361.81
359.349	376.81
359.576	363.81
359.802	371.81
360.029	385.81
360.256	371.81
360.483	390.81
360.709	371.81
360.936	367.81
361.163	350.81
361.39	342.81
361.616	356.81
361.843	376.81
362.07	376.81
362.296	364.81
362.523	345.81
362.749	373.81
362.976	353.81
363.203	358.81
363.429	362.81
363.656	355.81
363.882	350.81
364.109	361.81
364.335	358.81
364.562	352.81
364.788	374.81
365.015	379.81
365.241	348.81
365.468	346.81
365.694	372.81
365.92	369.81
366.147	356.81
366.373	361.81
366.599	362.81
366.826	367.81
367.052	345.81
367.278	358.81
367.505	351.81
367.731	342.81
367.957	353.81
368.184	357.81
368.41	366.81
368.636	383.81
368.862	372.81
369.089	377.81
369.315	361.81
369.541	346.81
369.767	367.81
369.993	352.81
370.219	375.81
370.445	360.81
370.672	348.81
370.898	362.81
371.124	366.81
371.35	379.81
371.576	375.81
371.802	395.81
372.028	381.81
372.254	366.81
372.48	393.81
372.706	375.81
372.932	361.81
373.158	377.81
373.384	402.81
373.61	385.81
373.835	374.81
374.061	360.81
374.287	369.81
374.513	363.81
374.739	386.81
374.965	387.81
375.191	386.81
375.416	397.81
375.642	390.81
375.868	398.81
376.094	348.81
376.319	365.81
376.545	375.81
376.771	387.81
376.997	375.81
377.222	374.81
377.448	381.81
377.674	374.81
377.899	363.81
378.125	379.81
378.35	379.81
378.576	382.81
378.802	391.81
379.027	378.81
379.253	373.81
379.478	358.81
379.704	359.81
379.929	370.81
380.155	372.81
380.38	370.81
380.606	382.81
380.831	386.81
381.057	375.81
381.282	385.81
381.507	386.81
381.733	382.81
381.958	379.81
382.184	377.81
382.409	393.81
382.634	404.81
382.86	386.81
383.085	380.81
383.31	412.81
383.535	405.81
383.761	400.81
383.986	403.81
384.211	418.81
384.436	421.81
384.662	418.81
384.887	437.81
385.112	428.81
385.337	423.81
385.562	421.81
385.787	431.81
386.013	434.81
386.238	430.81
386.463	448.81
386.688	434.81
386.913	421.81
387.138	423.81
387.363	453.81
387.588	437.81
387.813	449.81
388.038	433.81
388.263	427.81
388.488	418.81
388.713	422.81
388.938	400.81
389.163	409.81
389.387	415.81
389.612	425.81
389.837	421.81
390.062	427.81
390.287	418.81
390.512	433.81
390.736	423.81
390.961	426.81
391.186	447.81
391.411	442.81
391.636	441.81
391.86	431.81
392.085	447.81
392.31	467.81
392.534	445.81
392.759	433.81
392.984	441.81
393.208	468.81
393.433	466.81
393.658	462.81
393.882	440.81
394.107	425.81
394.331	430.81
394.556	444.81
394.78	438.81
395.005	444.81
395.229	454.81
395.454	447.81
395.678	449.81
395.903	462.81
396.127	473.81
396.352	442.81
396.576	451.81
396.801	448.81
397.025	468.81
397.249	456.81
397.474	458.81
397.698	487.81
397.922	474.81
398.147	470.81
398.371	486.81
398.595	470.81
398.82	482.81
399.044	507.81
399.268	527.81
399.492	589.81
399.717	595.81
399.941	628.81
400.165	642.81
400.389	610.81
400.613	563.81
400.837	528.81
401.062	503.81
401.286	496.81
401.51	488.81
401.734	479.81
401.958	501.81
402.182	522.81
402.406	504.81
402.63	501.81
402.854	502.81
403.078	508.81
403.302	493.81
403.526	519.81
403.75	559.81
403.974	517.81
404.198	524.81
404.422	537.81
404.645	532.81
404.869	498.81
405.093	523.81
405.317	545.81
405.541	581.81
405.765	552.81
405.988	533.81
406.212	533.81
406.436	543.81
406.66	554.81
406.883	551.81
407.107	582.81
407.331	607.81
407.555	612.81
407.778	623.81
408.002	599.81
408.226	572.81
408.449	595.81
408.673	547.81
408.896	565.81
409.12	589.81
409.344	571.81
409.567	527.81
409.791	519.81
410.014	518.81
410.238	521.81
410.461	529.81
410.685	528.81
410.908	533.81
411.132	535.81
411.355	566.81
411.578	531.81
411.802	513.81
412.025	509.81
412.249	526.81
412.472	540.81
412.695	538.81
412.919	516.81
413.142	485.81
413.365	501.81
413.589	499.81
413.812	503.81
414.035	481.81
414.258	478.81
414.482	499.81
414.705	482.81
414.928	514.81
415.151	490.81
415.374	462.81
415.597	477.81
415.821	479.81
416.044	485.81
416.267	469.81
416.49	472.81
416.713	482.81
416.936	487.81
417.159	472.81
417.382	483.81
417.605	492.81
417.828	474.81
418.051	489.81
418.274	466.81
418.497	492.81
418.72	487.81
418.943	471.81
419.166	510.81
419.389	559.81
419.611	539.81
419.834	508.81
420.057	536.81
420.28	503.81
420.503	482.81
420.726	491.81
420.948	502.81
421.171	519.81
421.394	539.81
421.617	502.81
421.839	486.81
422.062	501.81
422.285	508.81
422.507	539.81
422.73	589.81
422.953	559.81
423.175	521.81
423.398	524.81
423.621	505.81
423.843	506.81
424.066	488.81
424.288	507.81
424.511	522.81
424.733	525.81
424.956	571.81
425.178	569.81
425.401	568.81
425.623	585.81
425.846	531.81
426.068	506.81
426.291	482.81
426.513	493.81
426.735	484.81
426.958	500.81
427.18	541.81
427.402	634.81
427.625	694.81
427.847	614.81
428.069	538.81
428.292	519.81
428.514	475.81
428.736	480.81
428.958	482.81
429.181	465.81
429.403	470.81
429.625	461.81
429.847	474.81
430.069	525.81
430.292	521.81
430.514	490.81
430.736	451.81
430.958	476.81
431.18	446.81
431.402	458.81
431.624	455.81
431.846	435.81
432.068	449.81
432.29	469.81
432.512	470.81
432.734	490.81
432.956	483.81
433.178	467.81
433.4	474.81
433.622	449.81
433.844	479.81
434.066	451.81
434.287	465.81
434.509	478.81
434.731	485.81
434.953	474.81
435.175	518.81
435.397	511.81
435.618	512.81
435.84	501.81
436.062	573.81
436.284	602.81
436.505	526.81
436.727	484.81
436.949	477.81
437.17	471.81
437.392	471.81
437.614	486.81
437.835	466.81
438.057	517.81
438.278	559.81
438.5	566.81
438.721	623.81
438.943	618.81
439.165	558.81
439.386	500.81
439.608	494.81
439.829	488.81
440.05	471.81
440.272	510.81
440.493	508.81
440.715	476.81
440.936	464.81
441.158	485.81
441.379	495.81
441.6	475.81
441.822	496.81
442.043	521.81
442.264	545.81
442.486	565.81
442.707	523.81
442.928	495.81
443.149	505.81
443.371	519.81
443.592	544.81
443.813	596.81
444.034	630.81
444.255	552.81
444.476	523.81
444.698	551.81
444.919	560.81
445.14	689.81
445.361	588.81
445.582	547.81
445.803	547.81
446.024	588.81
446.245	590.81
446.466	563.81
446.687	496.81
446.908	492.81
447.129	466.81
447.35	478.81
447.571	476.81
447.792	466.81
448.013	456.81
448.234	469.81
448.455	481.81
448.675	526.81
448.896	615.81
449.117	538.81
449.338	486.81
449.559	562.81
449.779	627.81
450	537.81
450.221	473.81
450.442	456.81
450.662	434.81
450.883	445.81
451.104	440.81
451.324	450.81
451.545	433.81
451.766	422.81
451.986	409.81
452.207	441.81
452.428	397.81
452.648	409.81
452.869	400.81
453.089	417.81
453.31	427.81
453.53	427.81
453.751	410.81
453.971	420.81
454.192	415.81
454.412	407.81
454.633	402.81
454.853	403.81
455.073	414.81
455.294	411.81
455.514	444.81
455.734	459.81
455.955	407.81
456.175	421.81
456.395	410.81
456.616	389.81
456.836	411.81
457.056	405.81
457.276	382.81
457.497	392.81
457.717	408.81
457.937	428.81
458.157	418.81
458.377	418.81
458.598	427.81
458.818	453.81
459.038	490.81
459.258	493.81
459.478	469.81
459.698	455.81
459.918	482.81
460.138	471.81
460.358	498.81
460.578	494.81
460.798	495.81
461.018	511.81
461.238	496.81
461.458	502.81
461.678	473.81
461.898	502.81
462.118	500.81
462.338	533.81
462.558	527.81
462.777	519.81
462.997	550.81
463.217	584.81
463.437	585.81
463.657	548.81
463.876	531.81
464.096	537.81
464.316	541.81
464.536	545.81
464.755	537.81
464.975	522.81
465.195	512.81
465.414	525.81
465.634	512.81
465.854	474.81
466.073	476.81
466.293	467.81
466.512	457.81
466.732	435.81
466.951	441.81
467.171	453.81
467.391	431.81
467.61	459.81
467.829	447.81
468.049	443.81
468.268	430.81
468.488	427.81
468.707	428.81
468.927	439.81
469.146	452.81
469.365	459.81
469.585	431.81
469.804	439.81
470.023	439.81
470.243	444.81
470.462	459.81
470.681	459.81
470.901	446.81
471.12	454.81
471.339	429.81
471.558	435.81
471.777	415.81
471.997	445.81
472.216	461.81
472.435	458.81
472.654	439.81
472.873	450.81
473.092	449.81
473.311	452.81
473.53	445.81
473.749	436.81
473.968	461.81
474.187	499.81
474.406	505.81
474.625	453.81
474.844	465.81
475.063	444.81
475.282	460.81
475.501	414.81
475.72	452.81
475.939	457.81
476.158	460.81
476.377	452.81
476.596	456.81
476.814	489.81
477.033	452.81
477.252	487.81
477.471	472.81
477.69	493.81
477.908	478.81
478.127	489.81
478.346	510.81
478.564	525.81
478.783	525.81
479.002	517.81
479.22	515.81
479.439	539.81
479.658	514.81
479.876	558.81
480.095	573.81
480.313	551.81
480.532	571.81
480.751	567.81
480.969	547.81
481.188	570.81
481.406	575.81
481.624	558.81
481.843	522.81
482.061	535.81
482.28	551.81
482.498	534.81
482.717	516.81
482.935	536.81
483.153	536.81
483.372	532.81
483.59	534.81
483.808	540.81
484.027	505.81
484.245	521.81
484.463	531.81
484.681	542.81
484.9	535.81
485.118	540.81
485.336	548.81
485.554	548.81
485.772	566.81
485.99	543.81
486.209	557.81
486.427	535.81
486.645	547.81
486.863	567.81
487.081	574.81
487.299	541.81
487.517	543.81
487.735	547.81
487.953	563.81
488.171	557.81
488.389	541.81
488.607	561.81
488.825	545.81
489.043	576.81
489.261	557.81
489.479	567.81
489.696	559.81
489.914	545.81
490.132	534.81
490.35	537.81
490.568	577.81
490.786	579.81
491.003	573.81
491.221	576.81
491.439	555.81
491.657	584.81
491.874	579.81
492.092	596.81
492.31	592.81
492.527	599.81
492.745	584.81
492.963	585.81
493.18	573.81
493.398	597.81
493.615	604.81
493.833	590.81
494.05	607.81
494.268	602.81
494.485	616.81
494.703	606.81
494.92	606.81
495.138	595.81
495.355	605.81
495.573	617.81
495.79	608.81
496.008	647.81
496.225	613.81
496.442	617.81
496.66	644.81
496.877	624.81
497.094	647.81
497.312	667.81
497.529	649.81
497.746	681.81
497.963	690.81
498.181	697.81
498.398	687.81
498.615	756.81
498.832	746.81
499.049	790.81
499.267	841.81
499.484	850.81
499.701	921.81
499.918	957.81
500.135	1006.81
500.352	1082.81
500.569	1138.81
500.786	1090.81
501.003	1083.81
501.22	1034.81
501.437	981.81
501.654	907.81
501.871	872.81
502.088	832.81
