Data from 1962.PennyLincolnUp.Lamp.En5.5.200Scan.071719.P1._HRD10591_13-55-47-061.txt Node
Date: Thu Jul 18 13:55:47 EDT 2019
User: cochatt
Spectrometer: HR+D1059
Trigger mode: 1
Integration Time (sec): 1.000000E-1
Scans to average: 1
Electric dark correction enabled: true
Nonlinearity correction enabled: false
Boxcar width: 0
XAxis mode: Wavelengths
Number of Pixels in Spectrum: 2048
>>>>>Begin Spectral Data<<<<<
223.165	-10.69
223.4	-10.69
223.635	-10.69
223.869	-19.69
224.104	-13.69
224.338	-1.69
224.573	-5.69
224.808	-28.69
225.042	-14.69
225.277	10.31
225.511	-3.69
225.746	-9.69
225.98	7.31
226.215	10.31
226.449	11.31
226.683	24.31
226.918	23.31
227.152	21.31
227.387	29.31
227.621	33.31
227.856	45.31
228.09	44.31
228.324	55.31
228.559	64.31
228.793	66.31
229.027	93.31
229.262	109.31
229.496	98.31
229.73	121.31
229.964	130.31
230.199	100.31
230.433	98.31
230.667	122.31
230.901	97.31
231.136	104.31
231.37	99.31
231.604	100.31
231.838	113.31
232.072	96.31
232.306	86.31
232.541	112.31
232.775	135.31
233.009	114.31
233.243	105.31
233.477	107.31
233.711	118.31
233.945	116.31
234.179	109.31
234.413	124.31
234.647	105.31
234.881	121.31
235.115	116.31
235.349	120.31
235.583	112.31
235.817	128.31
236.051	104.31
236.285	124.31
236.519	102.31
236.753	119.31
236.987	132.31
237.221	146.31
237.455	188.31
237.689	152.31
237.922	141.31
238.156	125.31
238.39	119.31
238.624	122.31
238.858	125.31
239.091	121.31
239.325	127.31
239.559	122.31
239.793	125.31
240.027	121.31
240.26	151.31
240.494	154.31
240.728	141.31
240.961	144.31
241.195	143.31
241.429	136.31
241.662	127.31
241.896	152.31
242.13	142.31
242.363	126.31
242.597	135.31
242.83	139.31
243.064	117.31
243.298	133.31
243.531	122.31
243.765	143.31
243.998	129.31
244.232	125.31
244.465	128.31
244.699	142.31
244.932	136.31
245.166	136.31
245.399	158.31
245.633	133.31
245.866	148.31
246.099	146.31
246.333	148.31
246.566	130.31
246.8	144.31
247.033	138.31
247.266	150.31
247.5	165.31
247.733	168.31
247.966	163.31
248.2	154.31
248.433	159.31
248.666	158.31
248.899	160.31
249.133	178.31
249.366	192.31
249.599	178.31
249.832	169.31
250.066	170.31
250.299	173.31
250.532	187.31
250.765	195.31
250.998	192.31
251.231	200.31
251.465	186.31
251.698	197.31
251.931	177.31
252.164	179.31
252.397	191.31
252.63	194.31
252.863	189.31
253.096	204.31
253.329	212.31
253.562	203.31
253.795	189.31
254.028	203.31
254.261	197.31
254.494	197.31
254.727	227.31
254.96	249.31
255.193	237.31
255.426	216.31
255.659	198.31
255.892	213.31
256.124	216.31
256.357	228.31
256.59	198.31
256.823	203.31
257.056	201.31
257.289	199.31
257.521	197.31
257.754	193.31
257.987	202.31
258.22	191.31
258.452	208.31
258.685	194.31
258.918	208.31
259.151	188.31
259.383	203.31
259.616	206.31
259.849	209.31
260.081	213.31
260.314	231.31
260.547	217.31
260.779	253.31
261.012	221.31
261.244	225.31
261.477	212.31
261.71	211.31
261.942	201.31
262.175	225.31
262.407	204.31
262.64	202.31
262.872	201.31
263.105	199.31
263.337	221.31
263.57	222.31
263.802	210.31
264.035	206.31
264.267	202.31
264.499	197.31
264.732	207.31
264.964	212.31
265.197	211.31
265.429	202.31
265.661	201.31
265.894	221.31
266.126	215.31
266.358	219.31
266.591	216.31
266.823	210.31
267.055	224.31
267.287	220.31
267.52	203.31
267.752	222.31
267.984	228.31
268.216	211.31
268.448	228.31
268.681	229.31
268.913	242.31
269.145	246.31
269.377	261.31
269.609	241.31
269.841	258.31
270.073	245.31
270.306	274.31
270.538	279.31
270.77	283.31
271.002	291.31
271.234	269.31
271.466	282.31
271.698	281.31
271.93	310.31
272.162	300.31
272.394	291.31
272.626	270.31
272.858	269.31
273.09	272.31
273.322	266.31
273.553	266.31
273.785	257.31
274.017	260.31
274.249	261.31
274.481	246.31
274.713	261.31
274.945	257.31
275.176	245.31
275.408	268.31
275.64	245.31
275.872	270.31
276.104	263.31
276.335	245.31
276.567	250.31
276.799	276.31
277.031	295.31
277.262	290.31
277.494	290.31
277.726	280.31
277.957	281.31
278.189	273.31
278.421	270.31
278.652	264.31
278.884	278.31
279.115	258.31
279.347	271.31
279.579	253.31
279.81	253.31
280.042	265.31
280.273	249.31
280.505	279.31
280.736	281.31
280.968	278.31
281.199	285.31
281.431	267.31
281.662	274.31
281.894	282.31
282.125	274.31
282.356	284.31
282.588	296.31
282.819	282.31
283.051	279.31
283.282	290.31
283.513	291.31
283.745	293.31
283.976	309.31
284.207	299.31
284.439	280.31
284.67	285.31
284.901	282.31
285.132	267.31
285.364	275.31
285.595	283.31
285.826	293.31
286.057	290.31
286.288	299.31
286.52	289.31
286.751	295.31
286.982	277.31
287.213	294.31
287.444	297.31
287.675	318.31
287.906	300.31
288.138	302.31
288.369	310.31
288.6	308.31
288.831	312.31
289.062	299.31
289.293	294.31
289.524	316.31
289.755	304.31
289.986	308.31
290.217	313.31
290.448	304.31
290.679	293.31
290.91	299.31
291.141	297.31
291.371	304.31
291.602	307.31
291.833	303.31
292.064	309.31
292.295	292.31
292.526	289.31
292.757	294.31
292.987	296.31
293.218	299.31
293.449	327.31
293.68	308.31
293.91	316.31
294.141	318.31
294.372	301.31
294.603	307.31
294.833	317.31
295.064	298.31
295.295	305.31
295.525	304.31
295.756	310.31
295.987	297.31
296.217	318.31
296.448	338.31
296.679	328.31
296.909	317.31
297.14	314.31
297.37	302.31
297.601	318.31
297.831	330.31
298.062	306.31
298.292	307.31
298.523	313.31
298.753	326.31
298.984	324.31
299.214	331.31
299.445	317.31
299.675	348.31
299.905	340.31
300.136	309.31
300.366	328.31
300.597	329.31
300.827	342.31
301.057	335.31
301.288	339.31
301.518	334.31
301.748	334.31
301.979	349.31
302.209	338.31
302.439	348.31
302.669	352.31
302.9	339.31
303.13	334.31
303.36	355.31
303.59	326.31
303.82	357.31
304.051	338.31
304.281	316.31
304.511	351.31
304.741	346.31
304.971	306.31
305.201	333.31
305.431	329.31
305.661	315.31
305.891	337.31
306.121	324.31
306.352	342.31
306.582	344.31
306.812	347.31
307.042	343.31
307.272	333.31
307.502	329.31
307.731	349.31
307.961	352.31
308.191	353.31
308.421	331.31
308.651	356.31
308.881	322.31
309.111	351.31
309.341	356.31
309.571	355.31
309.8	344.31
310.03	352.31
310.26	359.31
310.49	374.31
310.72	372.31
310.949	374.31
311.179	363.31
311.409	376.31
311.639	381.31
311.868	387.31
312.098	376.31
312.328	361.31
312.557	369.31
312.787	380.31
313.017	402.31
313.246	380.31
313.476	358.31
313.706	392.31
313.935	387.31
314.165	378.31
314.394	400.31
314.624	376.31
314.853	372.31
315.083	379.31
315.312	368.31
315.542	394.31
315.771	385.31
316.001	371.31
316.23	380.31
316.46	362.31
316.689	368.31
316.919	388.31
317.148	390.31
317.377	374.31
317.607	375.31
317.836	392.31
318.065	378.31
318.295	376.31
318.524	397.31
318.753	368.31
318.983	367.31
319.212	362.31
319.441	372.31
319.67	388.31
319.9	371.31
320.129	399.31
320.358	385.31
320.587	385.31
320.816	373.31
321.046	394.31
321.275	382.31
321.504	390.31
321.733	402.31
321.962	406.31
322.191	428.31
322.42	419.31
322.649	430.31
322.878	412.31
323.108	416.31
323.337	436.31
323.566	450.31
323.795	464.31
324.024	493.31
324.253	561.31
324.482	761.31
324.71	1073.31
324.939	1578.31
325.168	1376.31
325.397	741.31
325.626	585.31
325.855	499.31
326.084	477.31
326.313	465.31
326.542	474.31
326.77	509.31
326.999	520.31
327.228	692.31
327.457	1002.31
327.686	1224.31
327.914	836.31
328.143	612.31
328.372	541.31
328.6	522.31
328.829	484.31
329.058	516.31
329.287	496.31
329.515	487.31
329.744	468.31
329.972	459.31
330.201	488.31
330.43	486.31
330.658	503.31
330.887	530.31
331.115	510.31
331.344	481.31
331.572	479.31
331.801	466.31
332.03	487.31
332.258	434.31
332.486	450.31
332.715	470.31
332.943	476.31
333.172	472.31
333.4	461.31
333.629	495.31
333.857	508.31
334.085	513.31
334.314	524.31
334.542	536.31
334.771	540.31
334.999	510.31
335.227	491.31
335.455	486.31
335.684	499.31
335.912	465.31
336.14	450.31
336.369	456.31
336.597	461.31
336.825	457.31
337.053	448.31
337.281	432.31
337.51	436.31
337.738	436.31
337.966	447.31
338.194	433.31
338.422	436.31
338.65	427.31
338.878	430.31
339.106	432.31
339.334	472.31
339.562	455.31
339.79	426.31
340.018	436.31
340.246	453.31
340.474	417.31
340.702	408.31
340.93	434.31
341.158	420.31
341.386	437.31
341.614	412.31
341.842	428.31
342.07	410.31
342.298	405.31
342.526	422.31
342.754	416.31
342.981	419.31
343.209	439.31
343.437	446.31
343.665	451.31
343.893	468.31
344.12	472.31
344.348	450.31
344.576	469.31
344.804	448.31
345.031	441.31
345.259	437.31
345.487	448.31
345.714	421.31
345.942	439.31
346.17	433.31
346.397	443.31
346.625	426.31
346.853	410.31
347.08	418.31
347.308	413.31
347.535	415.31
347.763	430.31
347.99	421.31
348.218	408.31
348.445	406.31
348.673	425.31
348.9	413.31
349.128	415.31
349.355	397.31
349.583	387.31
349.81	401.31
350.037	399.31
350.265	411.31
350.492	382.31
350.72	385.31
350.947	402.31
351.174	416.31
351.402	429.31
351.629	411.31
351.856	420.31
352.083	410.31
352.311	435.31
352.538	420.31
352.765	402.31
352.992	407.31
353.22	404.31
353.447	408.31
353.674	428.31
353.901	391.31
354.128	395.31
354.355	401.31
354.583	395.31
354.81	398.31
355.037	409.31
355.264	395.31
355.491	389.31
355.718	384.31
355.945	384.31
356.172	378.31
356.399	380.31
356.626	393.31
356.853	394.31
357.08	405.31
357.307	385.31
357.534	403.31
357.761	396.31
357.988	384.31
358.215	386.31
358.441	403.31
358.668	404.31
358.895	399.31
359.122	383.31
359.349	386.31
359.576	398.31
359.802	417.31
360.029	432.31
360.256	430.31
360.483	434.31
360.709	388.31
360.936	411.31
361.163	404.31
361.39	394.31
361.616	420.31
361.843	421.31
362.07	414.31
362.296	403.31
362.523	391.31
362.749	407.31
362.976	405.31
363.203	411.31
363.429	380.31
363.656	398.31
363.882	404.31
364.109	406.31
364.335	381.31
364.562	395.31
364.788	389.31
365.015	411.31
365.241	415.31
365.468	392.31
365.694	404.31
365.92	409.31
366.147	403.31
366.373	393.31
366.599	402.31
366.826	387.31
367.052	398.31
367.278	393.31
367.505	418.31
367.731	404.31
367.957	398.31
368.184	413.31
368.41	398.31
368.636	423.31
368.862	408.31
369.089	399.31
369.315	418.31
369.541	404.31
369.767	387.31
369.993	417.31
370.219	404.31
370.445	419.31
370.672	409.31
370.898	407.31
371.124	402.31
371.35	400.31
371.576	416.31
371.802	408.31
372.028	406.31
372.254	408.31
372.48	415.31
372.706	421.31
372.932	407.31
373.158	428.31
373.384	418.31
373.61	403.31
373.835	413.31
374.061	412.31
374.287	407.31
374.513	409.31
374.739	432.31
374.965	404.31
375.191	428.31
375.416	437.31
375.642	433.31
375.868	417.31
376.094	418.31
376.319	410.31
376.545	401.31
376.771	410.31
376.997	403.31
377.222	394.31
377.448	396.31
377.674	406.31
377.899	393.31
378.125	390.31
378.35	398.31
378.576	424.31
378.802	400.31
379.027	411.31
379.253	397.31
379.478	391.31
379.704	410.31
379.929	413.31
380.155	399.31
380.38	395.31
380.606	406.31
380.831	410.31
381.057	417.31
381.282	413.31
381.507	430.31
381.733	410.31
381.958	409.31
382.184	419.31
382.409	406.31
382.634	418.31
382.86	417.31
383.085	420.31
383.31	405.31
383.535	429.31
383.761	432.31
383.986	453.31
384.211	421.31
384.436	434.31
384.662	463.31
384.887	458.31
385.112	452.31
385.337	457.31
385.562	456.31
385.787	464.31
386.013	460.31
386.238	468.31
386.463	455.31
386.688	458.31
386.913	468.31
387.138	465.31
387.363	468.31
387.588	473.31
387.813	456.31
388.038	467.31
388.263	447.31
388.488	456.31
388.713	475.31
388.938	449.31
389.163	483.31
389.387	464.31
389.612	446.31
389.837	461.31
390.062	462.31
390.287	476.31
390.512	465.31
390.736	466.31
390.961	461.31
391.186	474.31
391.411	471.31
391.636	477.31
391.86	472.31
392.085	468.31
392.31	472.31
392.534	481.31
392.759	466.31
392.984	478.31
393.208	465.31
393.433	473.31
393.658	454.31
393.882	480.31
394.107	492.31
394.331	481.31
394.556	457.31
394.78	457.31
395.005	470.31
395.229	483.31
395.454	464.31
395.678	480.31
395.903	489.31
396.127	498.31
396.352	505.31
396.576	476.31
396.801	492.31
397.025	474.31
397.249	502.31
397.474	480.31
397.698	521.31
397.922	525.31
398.147	513.31
398.371	525.31
398.595	537.31
398.82	565.31
399.044	564.31
399.268	606.31
399.492	638.31
399.717	683.31
399.941	685.31
400.165	716.31
400.389	678.31
400.613	614.31
400.837	564.31
401.062	568.31
401.286	538.31
401.51	578.31
401.734	540.31
401.958	538.31
402.182	537.31
402.406	573.31
402.63	563.31
402.854	565.31
403.078	575.31
403.302	565.31
403.526	589.31
403.75	589.31
403.974	585.31
404.198	576.31
404.422	590.31
404.645	626.31
404.869	587.31
405.093	599.31
405.317	634.31
405.541	690.31
405.765	610.31
405.988	603.31
406.212	601.31
406.436	601.31
406.66	647.31
406.883	626.31
407.107	632.31
407.331	666.31
407.555	760.31
407.778	742.31
408.002	679.31
408.226	633.31
408.449	650.31
408.673	604.31
408.896	628.31
409.12	660.31
409.344	660.31
409.567	596.31
409.791	574.31
410.014	576.31
410.238	567.31
410.461	540.31
410.685	584.31
410.908	589.31
411.132	602.31
411.355	612.31
411.578	609.31
411.802	566.31
412.025	577.31
412.249	571.31
412.472	606.31
412.695	630.31
412.919	607.31
413.142	546.31
413.365	552.31
413.589	540.31
413.812	530.31
414.035	552.31
414.258	526.31
414.482	542.31
414.705	551.31
414.928	526.31
415.151	524.31
415.374	537.31
415.597	542.31
415.821	534.31
416.044	532.31
416.267	525.31
416.49	524.31
416.713	508.31
416.936	517.31
417.159	535.31
417.382	547.31
417.605	524.31
417.828	562.31
418.051	541.31
418.274	572.31
418.497	547.31
418.72	545.31
418.943	524.31
419.166	555.31
419.389	579.31
419.611	590.31
419.834	584.31
420.057	564.31
420.28	548.31
420.503	547.31
420.726	572.31
420.948	567.31
421.171	595.31
421.394	600.31
421.617	576.31
421.839	561.31
422.062	547.31
422.285	567.31
422.507	598.31
422.73	655.31
422.953	648.31
423.175	585.31
423.398	577.31
423.621	598.31
423.843	596.31
424.066	588.31
424.288	590.31
424.511	584.31
424.733	649.31
424.956	711.31
425.178	667.31
425.401	654.31
425.623	678.31
425.846	611.31
426.068	600.31
426.291	557.31
426.513	556.31
426.735	570.31
426.958	621.31
427.18	664.31
427.402	789.31
427.625	817.31
427.847	710.31
428.069	638.31
428.292	586.31
428.514	559.31
428.736	536.31
428.958	548.31
429.181	530.31
429.403	526.31
429.625	530.31
429.847	556.31
430.069	600.31
430.292	603.31
430.514	511.31
430.736	527.31
430.958	533.31
431.18	517.31
431.402	519.31
431.624	491.31
431.846	519.31
432.068	515.31
432.29	518.31
432.512	505.31
432.734	512.31
432.956	503.31
433.178	516.31
433.4	519.31
433.622	528.31
433.844	517.31
434.066	516.31
434.287	504.31
434.509	527.31
434.731	546.31
434.953	548.31
435.175	560.31
435.397	567.31
435.618	562.31
435.84	591.31
436.062	676.31
436.284	706.31
436.505	610.31
436.727	580.31
436.949	531.31
437.17	513.31
437.392	521.31
437.614	541.31
437.835	521.31
438.057	610.31
438.278	684.31
438.5	698.31
438.721	784.31
438.943	763.31
439.165	614.31
439.386	561.31
439.608	540.31
439.829	548.31
440.05	571.31
440.272	627.31
440.493	586.31
440.715	544.31
440.936	531.31
441.158	526.31
441.379	534.31
441.6	539.31
441.822	568.31
442.043	588.31
442.264	678.31
442.486	692.31
442.707	612.31
442.928	580.31
443.149	568.31
443.371	601.31
443.592	613.31
443.813	722.31
444.034	762.31
444.255	665.31
444.476	612.31
444.698	604.31
444.919	596.31
445.14	740.31
445.361	653.31
445.582	600.31
445.803	630.31
446.024	712.31
446.245	708.31
446.466	663.31
446.687	619.31
446.908	549.31
447.129	533.31
447.35	526.31
447.571	521.31
447.792	501.31
448.013	505.31
448.234	516.31
448.455	553.31
448.675	636.31
448.896	738.31
449.117	650.31
449.338	613.31
449.559	709.31
449.779	796.31
450	630.31
450.221	548.31
450.442	518.31
450.662	496.31
450.883	492.31
451.104	492.31
451.324	482.31
451.545	505.31
451.766	479.31
451.986	464.31
452.207	443.31
452.428	462.31
452.648	458.31
452.869	454.31
453.089	473.31
453.31	464.31
453.53	462.31
453.751	452.31
453.971	480.31
454.192	475.31
454.412	459.31
454.633	471.31
454.853	480.31
455.073	472.31
455.294	478.31
455.514	536.31
455.734	529.31
455.955	462.31
456.175	432.31
456.395	430.31
456.616	452.31
456.836	440.31
457.056	443.31
457.276	445.31
457.497	451.31
457.717	449.31
457.937	449.31
458.157	441.31
458.377	466.31
458.598	473.31
458.818	512.31
459.038	560.31
459.258	585.31
459.478	530.31
459.698	522.31
459.918	518.31
460.138	523.31
460.358	523.31
460.578	530.31
460.798	549.31
461.018	534.31
461.238	552.31
461.458	544.31
461.678	530.31
461.898	560.31
462.118	518.31
462.338	568.31
462.558	561.31
462.777	582.31
462.997	590.31
463.217	642.31
463.437	627.31
463.657	619.31
463.876	581.31
464.096	600.31
464.316	586.31
464.536	585.31
464.755	591.31
464.975	599.31
465.195	577.31
465.414	608.31
465.634	565.31
465.854	528.31
466.073	526.31
466.293	514.31
466.512	484.31
466.732	487.31
466.951	477.31
467.171	474.31
467.391	483.31
467.61	476.31
467.829	489.31
468.049	486.31
468.268	498.31
468.488	477.31
468.707	477.31
468.927	445.31
469.146	475.31
469.365	469.31
469.585	463.31
469.804	474.31
470.023	488.31
470.243	507.31
470.462	492.31
470.681	499.31
470.901	488.31
471.12	478.31
471.339	499.31
471.558	482.31
471.777	510.31
471.997	481.31
472.216	469.31
472.435	514.31
472.654	506.31
472.873	486.31
473.092	482.31
473.311	480.31
473.53	478.31
473.749	486.31
473.968	526.31
474.187	599.31
474.406	594.31
474.625	530.31
474.844	474.31
475.063	496.31
475.282	500.31
475.501	481.31
475.72	491.31
475.939	502.31
476.158	502.31
476.377	513.31
476.596	508.31
476.814	526.31
477.033	517.31
477.252	505.31
477.471	520.31
477.69	524.31
477.908	547.31
478.127	550.31
478.346	560.31
478.564	553.31
478.783	545.31
479.002	569.31
479.22	562.31
479.439	597.31
479.658	579.31
479.876	577.31
480.095	615.31
480.313	608.31
480.532	637.31
480.751	621.31
480.969	600.31
481.188	640.31
481.406	629.31
481.624	618.31
481.843	574.31
482.061	587.31
482.28	585.31
482.498	565.31
482.717	573.31
482.935	560.31
483.153	564.31
483.372	561.31
483.59	554.31
483.808	571.31
484.027	550.31
484.245	560.31
484.463	569.31
484.681	579.31
484.9	582.31
485.118	573.31
485.336	561.31
485.554	586.31
485.772	576.31
485.99	598.31
486.209	602.31
486.427	589.31
486.645	588.31
486.863	585.31
487.081	604.31
487.299	612.31
487.517	609.31
487.735	601.31
487.953	593.31
488.171	601.31
488.389	595.31
488.607	595.31
488.825	616.31
489.043	596.31
489.261	598.31
489.479	604.31
489.696	613.31
489.914	601.31
490.132	606.31
490.35	616.31
490.568	617.31
490.786	627.31
491.003	610.31
491.221	625.31
491.439	632.31
491.657	631.31
491.874	653.31
492.092	646.31
492.31	650.31
492.527	674.31
492.745	659.31
492.963	655.31
493.18	672.31
493.398	678.31
493.615	676.31
493.833	662.31
494.05	704.31
494.268	681.31
494.485	698.31
494.703	684.31
494.92	705.31
495.138	678.31
495.355	682.31
495.573	698.31
495.79	694.31
496.008	709.31
496.225	713.31
496.442	701.31
496.66	692.31
496.877	722.31
497.094	710.31
497.312	729.31
497.529	733.31
497.746	775.31
497.963	769.31
498.181	792.31
498.398	790.31
498.615	827.31
498.832	856.31
499.049	878.31
499.267	892.31
499.484	953.31
499.701	1001.31
499.918	1028.31
500.135	1109.31
500.352	1218.31
500.569	1234.31
500.786	1222.31
501.003	1226.31
501.22	1120.31
501.437	1090.31
501.654	1010.31
501.871	1004.31
