Data from 1962.PennyLincolnUp.Lamp.En5.5.200Scan.071719.P1._HRD10591_13-52-40-060.txt Node
Date: Thu Jul 18 13:52:40 EDT 2019
User: cochatt
Spectrometer: HR+D1059
Trigger mode: 1
Integration Time (sec): 1.000000E-1
Scans to average: 1
Electric dark correction enabled: true
Nonlinearity correction enabled: false
Boxcar width: 0
XAxis mode: Wavelengths
Number of Pixels in Spectrum: 2048
>>>>>Begin Spectral Data<<<<<
223.165	-10.81
223.4	-10.81
223.635	-10.81
223.869	-33.81
224.104	-22.81
224.338	-25.81
224.573	-1.81
224.808	-15.81
225.042	-3.81
225.277	-16.81
225.511	2.19
225.746	6.19
225.98	5.19
226.215	17.19
226.449	21.19
226.683	13.19
226.918	30.19
227.152	36.19
227.387	35.19
227.621	41.19
227.856	42.19
228.09	45.19
228.324	43.19
228.559	55.19
228.793	67.19
229.027	88.19
229.262	87.19
229.496	91.19
229.73	89.19
229.964	109.19
230.199	97.19
230.433	105.19
230.667	92.19
230.901	103.19
231.136	101.19
231.37	106.19
231.604	101.19
231.838	96.19
232.072	105.19
232.306	105.19
232.541	97.19
232.775	101.19
233.009	104.19
233.243	111.19
233.477	103.19
233.711	106.19
233.945	105.19
234.179	96.19
234.413	100.19
234.647	108.19
234.881	121.19
235.115	121.19
235.349	117.19
235.583	103.19
235.817	113.19
236.051	120.19
236.285	105.19
236.519	112.19
236.753	108.19
236.987	124.19
237.221	128.19
237.455	156.19
237.689	136.19
237.922	120.19
238.156	108.19
238.39	116.19
238.624	108.19
238.858	126.19
239.091	103.19
239.325	105.19
239.559	105.19
239.793	123.19
240.027	98.19
240.26	122.19
240.494	139.19
240.728	135.19
240.961	114.19
241.195	124.19
241.429	124.19
241.662	123.19
241.896	129.19
242.13	118.19
242.363	123.19
242.597	118.19
242.83	130.19
243.064	116.19
243.298	121.19
243.531	138.19
243.765	126.19
243.998	114.19
244.232	130.19
244.465	148.19
244.699	152.19
244.932	130.19
245.166	138.19
245.399	125.19
245.633	140.19
245.866	126.19
246.099	131.19
246.333	130.19
246.566	137.19
246.8	133.19
247.033	139.19
247.266	136.19
247.5	146.19
247.733	146.19
247.966	148.19
248.2	150.19
248.433	157.19
248.666	145.19
248.899	150.19
249.133	167.19
249.366	159.19
249.599	157.19
249.832	160.19
250.066	157.19
250.299	156.19
250.532	170.19
250.765	148.19
250.998	164.19
251.231	169.19
251.465	170.19
251.698	153.19
251.931	154.19
252.164	164.19
252.397	182.19
252.63	171.19
252.863	166.19
253.096	174.19
253.329	180.19
253.562	171.19
253.795	170.19
254.028	174.19
254.261	170.19
254.494	173.19
254.727	178.19
254.96	197.19
255.193	195.19
255.426	174.19
255.659	195.19
255.892	171.19
256.124	176.19
256.357	164.19
256.59	171.19
256.823	180.19
257.056	184.19
257.289	177.19
257.521	177.19
257.754	163.19
257.987	169.19
258.22	179.19
258.452	178.19
258.685	172.19
258.918	181.19
259.151	178.19
259.383	190.19
259.616	186.19
259.849	195.19
260.081	188.19
260.314	197.19
260.547	203.19
260.779	194.19
261.012	184.19
261.244	179.19
261.477	196.19
261.71	186.19
261.942	183.19
262.175	190.19
262.407	191.19
262.64	193.19
262.872	179.19
263.105	190.19
263.337	186.19
263.57	193.19
263.802	211.19
264.035	194.19
264.267	196.19
264.499	193.19
264.732	186.19
264.964	195.19
265.197	179.19
265.429	208.19
265.661	196.19
265.894	202.19
266.126	184.19
266.358	209.19
266.591	217.19
266.823	204.19
267.055	205.19
267.287	204.19
267.52	197.19
267.752	200.19
267.984	193.19
268.216	200.19
268.448	202.19
268.681	205.19
268.913	214.19
269.145	206.19
269.377	219.19
269.609	220.19
269.841	209.19
270.073	229.19
270.306	233.19
270.538	254.19
270.77	237.19
271.002	238.19
271.234	228.19
271.466	239.19
271.698	260.19
271.93	245.19
272.162	243.19
272.394	252.19
272.626	232.19
272.858	228.19
273.09	250.19
273.322	242.19
273.553	230.19
273.785	214.19
274.017	225.19
274.249	228.19
274.481	234.19
274.713	242.19
274.945	237.19
275.176	221.19
275.408	229.19
275.64	217.19
275.872	237.19
276.104	248.19
276.335	233.19
276.567	238.19
276.799	263.19
277.031	242.19
277.262	252.19
277.494	252.19
277.726	247.19
277.957	259.19
278.189	277.19
278.421	241.19
278.652	239.19
278.884	229.19
279.115	245.19
279.347	229.19
279.579	243.19
279.81	242.19
280.042	236.19
280.273	238.19
280.505	237.19
280.736	251.19
280.968	246.19
281.199	241.19
281.431	257.19
281.662	240.19
281.894	248.19
282.125	261.19
282.356	262.19
282.588	269.19
282.819	281.19
283.051	276.19
283.282	268.19
283.513	264.19
283.745	224.19
283.976	246.19
284.207	272.19
284.439	267.19
284.67	273.19
284.901	258.19
285.132	261.19
285.364	260.19
285.595	275.19
285.826	274.19
286.057	256.19
286.288	262.19
286.52	248.19
286.751	261.19
286.982	272.19
287.213	262.19
287.444	259.19
287.675	265.19
287.906	262.19
288.138	264.19
288.369	272.19
288.6	280.19
288.831	278.19
289.062	274.19
289.293	281.19
289.524	288.19
289.755	283.19
289.986	268.19
290.217	246.19
290.448	280.19
290.679	276.19
290.91	281.19
291.141	274.19
291.371	269.19
291.602	271.19
291.833	290.19
292.064	281.19
292.295	273.19
292.526	275.19
292.757	261.19
292.987	272.19
293.218	280.19
293.449	296.19
293.68	278.19
293.91	270.19
294.141	271.19
294.372	280.19
294.603	268.19
294.833	266.19
295.064	299.19
295.295	298.19
295.525	276.19
295.756	272.19
295.987	289.19
296.217	308.19
296.448	288.19
296.679	303.19
296.909	292.19
297.14	282.19
297.37	284.19
297.601	296.19
297.831	288.19
298.062	285.19
298.292	286.19
298.523	295.19
298.753	281.19
298.984	290.19
299.214	294.19
299.445	298.19
299.675	295.19
299.905	301.19
300.136	281.19
300.366	284.19
300.597	305.19
300.827	301.19
301.057	313.19
301.288	329.19
301.518	307.19
301.748	305.19
301.979	316.19
302.209	314.19
302.439	296.19
302.669	316.19
302.9	290.19
303.13	310.19
303.36	312.19
303.59	308.19
303.82	304.19
304.051	313.19
304.281	304.19
304.511	309.19
304.741	302.19
304.971	305.19
305.201	315.19
305.431	295.19
305.661	297.19
305.891	310.19
306.121	308.19
306.352	319.19
306.582	315.19
306.812	291.19
307.042	305.19
307.272	305.19
307.502	300.19
307.731	325.19
307.961	312.19
308.191	310.19
308.421	329.19
308.651	330.19
308.881	308.19
309.111	322.19
309.341	295.19
309.571	316.19
309.8	300.19
310.03	349.19
310.26	329.19
310.49	338.19
310.72	320.19
310.949	332.19
311.179	326.19
311.409	321.19
311.639	331.19
311.868	333.19
312.098	324.19
312.328	333.19
312.557	333.19
312.787	337.19
313.017	346.19
313.246	348.19
313.476	332.19
313.706	331.19
313.935	346.19
314.165	347.19
314.394	345.19
314.624	340.19
314.853	324.19
315.083	341.19
315.312	340.19
315.542	339.19
315.771	327.19
316.001	339.19
316.23	344.19
316.46	333.19
316.689	338.19
316.919	330.19
317.148	341.19
317.377	339.19
317.607	345.19
317.836	331.19
318.065	348.19
318.295	348.19
318.524	339.19
318.753	322.19
318.983	349.19
319.212	338.19
319.441	349.19
319.67	349.19
319.9	338.19
320.129	337.19
320.358	345.19
320.587	353.19
320.816	348.19
321.046	348.19
321.275	325.19
321.504	349.19
321.733	350.19
321.962	344.19
322.191	365.19
322.42	359.19
322.649	375.19
322.878	371.19
323.108	371.19
323.337	374.19
323.566	390.19
323.795	379.19
324.024	402.19
324.253	452.19
324.482	554.19
324.71	741.19
324.939	1054.19
325.168	914.19
325.397	533.19
325.626	440.19
325.855	392.19
326.084	380.19
326.313	396.19
326.542	384.19
326.77	401.19
326.999	454.19
327.228	552.19
327.457	717.19
327.686	831.19
327.914	626.19
328.143	455.19
328.372	404.19
328.6	408.19
328.829	409.19
329.058	412.19
329.287	398.19
329.515	409.19
329.744	391.19
329.972	382.19
330.201	413.19
330.43	394.19
330.658	404.19
330.887	427.19
331.115	421.19
331.344	411.19
331.572	394.19
331.801	397.19
332.03	401.19
332.258	412.19
332.486	384.19
332.715	414.19
332.943	416.19
333.172	422.19
333.4	439.19
333.629	418.19
333.857	444.19
334.085	434.19
334.314	457.19
334.542	452.19
334.771	458.19
334.999	453.19
335.227	426.19
335.455	422.19
335.684	436.19
335.912	446.19
336.14	403.19
336.369	421.19
336.597	418.19
336.825	398.19
337.053	393.19
337.281	423.19
337.51	397.19
337.738	405.19
337.966	380.19
338.194	407.19
338.422	405.19
338.65	390.19
338.878	407.19
339.106	397.19
339.334	387.19
339.562	395.19
339.79	389.19
340.018	398.19
340.246	376.19
340.474	386.19
340.702	380.19
340.93	380.19
341.158	397.19
341.386	394.19
341.614	380.19
341.842	392.19
342.07	378.19
342.298	375.19
342.526	404.19
342.754	360.19
342.981	380.19
343.209	372.19
343.437	400.19
343.665	406.19
343.893	418.19
344.12	434.19
344.348	428.19
344.576	413.19
344.804	407.19
345.031	416.19
345.259	396.19
345.487	387.19
345.714	382.19
345.942	392.19
346.17	380.19
346.397	374.19
346.625	373.19
346.853	357.19
347.08	368.19
347.308	360.19
347.535	368.19
347.763	389.19
347.99	376.19
348.218	374.19
348.445	380.19
348.673	365.19
348.9	365.19
349.128	377.19
349.355	370.19
349.583	377.19
349.81	363.19
350.037	348.19
350.265	361.19
350.492	372.19
350.72	354.19
350.947	370.19
351.174	367.19
351.402	353.19
351.629	348.19
351.856	342.19
352.083	338.19
352.311	374.19
352.538	368.19
352.765	361.19
352.992	356.19
353.22	379.19
353.447	352.19
353.674	361.19
353.901	373.19
354.128	359.19
354.355	384.19
354.583	358.19
354.81	351.19
355.037	359.19
355.264	370.19
355.491	363.19
355.718	357.19
355.945	347.19
356.172	359.19
356.399	344.19
356.626	357.19
356.853	358.19
357.08	352.19
357.307	370.19
357.534	346.19
357.761	376.19
357.988	364.19
358.215	368.19
358.441	341.19
358.668	358.19
358.895	370.19
359.122	356.19
359.349	353.19
359.576	369.19
359.802	374.19
360.029	373.19
360.256	370.19
360.483	355.19
360.709	358.19
360.936	365.19
361.163	374.19
361.39	374.19
361.616	362.19
361.843	362.19
362.07	373.19
362.296	387.19
362.523	356.19
362.749	375.19
362.976	378.19
363.203	356.19
363.429	350.19
363.656	348.19
363.882	340.19
364.109	369.19
364.335	338.19
364.562	366.19
364.788	348.19
365.015	368.19
365.241	362.19
365.468	364.19
365.694	366.19
365.92	348.19
366.147	379.19
366.373	377.19
366.599	353.19
366.826	360.19
367.052	365.19
367.278	368.19
367.505	382.19
367.731	373.19
367.957	373.19
368.184	364.19
368.41	329.19
368.636	362.19
368.862	370.19
369.089	362.19
369.315	354.19
369.541	371.19
369.767	357.19
369.993	382.19
370.219	373.19
370.445	380.19
370.672	342.19
370.898	366.19
371.124	378.19
371.35	378.19
371.576	370.19
371.802	382.19
372.028	363.19
372.254	388.19
372.48	376.19
372.706	381.19
372.932	380.19
373.158	376.19
373.384	379.19
373.61	364.19
373.835	407.19
374.061	380.19
374.287	364.19
374.513	376.19
374.739	380.19
374.965	376.19
375.191	386.19
375.416	389.19
375.642	375.19
375.868	383.19
376.094	370.19
376.319	399.19
376.545	389.19
376.771	376.19
376.997	380.19
377.222	383.19
377.448	378.19
377.674	370.19
377.899	386.19
378.125	377.19
378.35	372.19
378.576	388.19
378.802	374.19
379.027	366.19
379.253	380.19
379.478	385.19
379.704	376.19
379.929	370.19
380.155	388.19
380.38	392.19
380.606	379.19
380.831	369.19
381.057	378.19
381.282	380.19
381.507	397.19
381.733	377.19
381.958	379.19
382.184	386.19
382.409	383.19
382.634	394.19
382.86	384.19
383.085	399.19
383.31	399.19
383.535	408.19
383.761	404.19
383.986	398.19
384.211	420.19
384.436	400.19
384.662	418.19
384.887	437.19
385.112	431.19
385.337	438.19
385.562	452.19
385.787	434.19
386.013	449.19
386.238	448.19
386.463	439.19
386.688	447.19
386.913	438.19
387.138	429.19
387.363	440.19
387.588	438.19
387.813	429.19
388.038	427.19
388.263	430.19
388.488	414.19
388.713	438.19
388.938	439.19
389.163	438.19
389.387	419.19
389.612	410.19
389.837	442.19
390.062	442.19
390.287	433.19
390.512	424.19
390.736	418.19
390.961	422.19
391.186	450.19
391.411	433.19
391.636	445.19
391.86	446.19
392.085	438.19
392.31	444.19
392.534	451.19
392.759	445.19
392.984	433.19
393.208	464.19
393.433	449.19
393.658	460.19
393.882	442.19
394.107	445.19
394.331	427.19
394.556	460.19
394.78	432.19
395.005	430.19
395.229	440.19
395.454	441.19
395.678	444.19
395.903	451.19
396.127	452.19
396.352	446.19
396.576	447.19
396.801	448.19
397.025	457.19
397.249	443.19
397.474	461.19
397.698	466.19
397.922	478.19
398.147	482.19
398.371	485.19
398.595	475.19
398.82	491.19
399.044	534.19
399.268	552.19
399.492	591.19
399.717	632.19
399.941	640.19
400.165	632.19
400.389	626.19
400.613	566.19
400.837	500.19
401.062	529.19
401.286	514.19
401.51	492.19
401.734	514.19
401.958	492.19
402.182	500.19
402.406	514.19
402.63	512.19
402.854	512.19
403.078	506.19
403.302	510.19
403.526	521.19
403.75	525.19
403.974	519.19
404.198	524.19
404.422	536.19
404.645	533.19
404.869	550.19
405.093	546.19
405.317	537.19
405.541	585.19
405.765	548.19
405.988	513.19
406.212	540.19
406.436	549.19
406.66	543.19
406.883	571.19
407.107	588.19
407.331	601.19
407.555	652.19
407.778	646.19
408.002	617.19
408.226	607.19
408.449	571.19
408.673	565.19
408.896	565.19
409.12	598.19
409.344	572.19
409.567	557.19
409.791	532.19
410.014	536.19
410.238	534.19
410.461	514.19
410.685	530.19
410.908	531.19
411.132	562.19
411.355	566.19
411.578	532.19
411.802	522.19
412.025	514.19
412.249	514.19
412.472	545.19
412.695	530.19
412.919	535.19
413.142	515.19
413.365	502.19
413.589	510.19
413.812	508.19
414.035	509.19
414.258	486.19
414.482	490.19
414.705	482.19
414.928	512.19
415.151	499.19
415.374	501.19
415.597	485.19
415.821	467.19
416.044	512.19
416.267	486.19
416.49	481.19
416.713	484.19
416.936	515.19
417.159	478.19
417.382	486.19
417.605	501.19
417.828	479.19
418.051	499.19
418.274	497.19
418.497	498.19
418.72	493.19
418.943	468.19
419.166	489.19
419.389	533.19
419.611	527.19
419.834	520.19
420.057	514.19
420.28	516.19
420.503	483.19
420.726	492.19
420.948	498.19
421.171	522.19
421.394	540.19
421.617	500.19
421.839	484.19
422.062	489.19
422.285	479.19
422.507	542.19
422.73	596.19
422.953	566.19
423.175	521.19
423.398	514.19
423.621	508.19
423.843	506.19
424.066	536.19
424.288	521.19
424.511	524.19
424.733	568.19
424.956	586.19
425.178	580.19
425.401	573.19
425.623	598.19
425.846	548.19
426.068	518.19
426.291	504.19
426.513	493.19
426.735	532.19
426.958	539.19
427.18	575.19
427.402	646.19
427.625	672.19
427.847	585.19
428.069	546.19
428.292	528.19
428.514	487.19
428.736	495.19
428.958	473.19
429.181	469.19
429.403	461.19
429.625	456.19
429.847	501.19
430.069	523.19
430.292	519.19
430.514	486.19
430.736	473.19
430.958	473.19
431.18	446.19
431.402	436.19
431.624	450.19
431.846	468.19
432.068	454.19
432.29	478.19
432.512	466.19
432.734	452.19
432.956	461.19
433.178	471.19
433.4	467.19
433.622	468.19
433.844	469.19
434.066	453.19
434.287	456.19
434.509	479.19
434.731	476.19
434.953	489.19
435.175	486.19
435.397	487.19
435.618	494.19
435.84	523.19
436.062	582.19
436.284	625.19
436.505	548.19
436.727	478.19
436.949	496.19
437.17	466.19
437.392	457.19
437.614	450.19
437.835	478.19
438.057	535.19
438.278	563.19
438.5	588.19
438.721	632.19
438.943	624.19
439.165	547.19
439.386	479.19
439.608	501.19
439.829	498.19
440.05	484.19
440.272	516.19
440.493	492.19
440.715	486.19
440.936	486.19
441.158	481.19
441.379	485.19
441.6	501.19
441.822	489.19
442.043	528.19
442.264	593.19
442.486	578.19
442.707	508.19
442.928	500.19
443.149	542.19
443.371	558.19
443.592	544.19
443.813	604.19
444.034	638.19
444.255	564.19
444.476	551.19
444.698	552.19
444.919	550.19
445.14	666.19
445.361	588.19
445.582	540.19
445.803	542.19
446.024	588.19
446.245	598.19
446.466	565.19
446.687	504.19
446.908	496.19
447.129	467.19
447.35	463.19
447.571	459.19
447.792	466.19
448.013	444.19
448.234	463.19
448.455	489.19
448.675	553.19
448.896	593.19
449.117	544.19
449.338	513.19
449.559	576.19
449.779	651.19
450	501.19
450.221	488.19
450.442	452.19
450.662	446.19
450.883	441.19
451.104	451.19
451.324	429.19
451.545	436.19
451.766	415.19
451.986	424.19
452.207	413.19
452.428	426.19
452.648	419.19
452.869	434.19
453.089	384.19
453.31	409.19
453.53	424.19
453.751	421.19
453.971	425.19
454.192	438.19
454.412	410.19
454.633	383.19
454.853	404.19
455.073	424.19
455.294	430.19
455.514	444.19
455.734	452.19
455.955	407.19
456.175	399.19
456.395	405.19
456.616	423.19
456.836	412.19
457.056	389.19
457.276	404.19
457.497	423.19
457.717	384.19
457.937	427.19
458.157	402.19
458.377	425.19
458.598	417.19
458.818	471.19
459.038	478.19
459.258	503.19
459.478	461.19
459.698	455.19
459.918	458.19
460.138	484.19
460.358	502.19
460.578	498.19
460.798	508.19
461.018	503.19
461.238	483.19
461.458	508.19
461.678	485.19
461.898	502.19
462.118	516.19
462.338	549.19
462.558	538.19
462.777	557.19
462.997	558.19
463.217	580.19
463.437	590.19
463.657	570.19
463.876	545.19
464.096	560.19
464.316	568.19
464.536	559.19
464.755	554.19
464.975	525.19
465.195	509.19
465.414	526.19
465.634	488.19
465.854	452.19
466.073	464.19
466.293	455.19
466.512	470.19
466.732	448.19
466.951	450.19
467.171	427.19
467.391	428.19
467.61	449.19
467.829	460.19
468.049	436.19
468.268	435.19
468.488	449.19
468.707	432.19
468.927	419.19
469.146	436.19
469.365	450.19
469.585	438.19
469.804	414.19
470.023	458.19
470.243	451.19
470.462	447.19
470.681	468.19
470.901	456.19
471.12	451.19
471.339	428.19
471.558	450.19
471.777	438.19
471.997	430.19
472.216	432.19
472.435	434.19
472.654	426.19
472.873	453.19
473.092	436.19
473.311	421.19
473.53	444.19
473.749	440.19
473.968	457.19
474.187	475.19
474.406	519.19
474.625	456.19
474.844	460.19
475.063	456.19
475.282	444.19
475.501	439.19
475.72	454.19
475.939	427.19
476.158	467.19
476.377	472.19
476.596	441.19
476.814	482.19
477.033	461.19
477.252	485.19
477.471	498.19
477.69	486.19
477.908	479.19
478.127	498.19
478.346	488.19
478.564	502.19
478.783	514.19
479.002	537.19
479.22	541.19
479.439	535.19
479.658	546.19
479.876	534.19
480.095	537.19
480.313	568.19
480.532	556.19
480.751	562.19
480.969	538.19
481.188	566.19
481.406	588.19
481.624	544.19
481.843	525.19
482.061	521.19
482.28	528.19
482.498	513.19
482.717	535.19
482.935	500.19
483.153	532.19
483.372	525.19
483.59	532.19
483.808	518.19
484.027	517.19
484.245	544.19
484.463	547.19
484.681	534.19
484.9	529.19
485.118	541.19
485.336	531.19
485.554	579.19
485.772	559.19
485.99	556.19
486.209	566.19
486.427	543.19
486.645	552.19
486.863	556.19
487.081	545.19
487.299	556.19
487.517	541.19
487.735	562.19
487.953	548.19
488.171	575.19
488.389	550.19
488.607	544.19
488.825	558.19
489.043	541.19
489.261	550.19
489.479	556.19
489.696	561.19
489.914	584.19
490.132	553.19
490.35	552.19
490.568	564.19
490.786	584.19
491.003	571.19
491.221	565.19
491.439	575.19
491.657	588.19
491.874	603.19
492.092	581.19
492.31	574.19
492.527	583.19
492.745	593.19
492.963	596.19
493.18	604.19
493.398	593.19
493.615	604.19
493.833	597.19
494.05	595.19
494.268	606.19
494.485	597.19
494.703	599.19
494.92	589.19
495.138	605.19
495.355	621.19
495.573	617.19
495.79	616.19
496.008	601.19
496.225	615.19
496.442	616.19
496.66	618.19
496.877	613.19
497.094	627.19
497.312	635.19
497.529	653.19
497.746	666.19
497.963	680.19
498.181	701.19
498.398	716.19
498.615	752.19
498.832	772.19
499.049	790.19
499.267	859.19
499.484	857.19
499.701	940.19
499.918	965.19
500.135	1056.19
500.352	1109.19
500.569	1144.19
500.786	1156.19
501.003	1120.19
501.22	1062.19
501.437	1003.19
501.654	940.19
501.871	898.19
502.088	865.19
