Data from 1962.PennyLincolnUp.Lamp.En5.5.200Scan.071719.P1._HRD10591_13-55-39-061.txt Node
Date: Thu Jul 18 13:55:39 EDT 2019
User: cochatt
Spectrometer: HR+D1059
Trigger mode: 1
Integration Time (sec): 1.000000E-1
Scans to average: 1
Electric dark correction enabled: true
Nonlinearity correction enabled: false
Boxcar width: 0
XAxis mode: Wavelengths
Number of Pixels in Spectrum: 2048
>>>>>Begin Spectral Data<<<<<
223.165	-15.75
223.4	-15.75
223.635	-15.75
223.869	-0.75
224.104	-16.75
224.338	-5.75
224.573	-6.75
224.808	-10.75
225.042	-18.75
225.277	4.25
225.511	2.25
225.746	-10.75
225.98	8.25
226.215	1.25
226.449	18.25
226.683	8.25
226.918	16.25
227.152	27.25
227.387	25.25
227.621	17.25
227.856	41.25
228.09	38.25
228.324	36.25
228.559	54.25
228.793	61.25
229.027	96.25
229.262	101.25
229.496	106.25
229.73	115.25
229.964	122.25
230.199	95.25
230.433	93.25
230.667	105.25
230.901	114.25
231.136	98.25
231.37	102.25
231.604	105.25
231.838	102.25
232.072	109.25
232.306	104.25
232.541	107.25
232.775	113.25
233.009	113.25
233.243	112.25
233.477	116.25
233.711	113.25
233.945	114.25
234.179	118.25
234.413	112.25
234.647	106.25
234.881	104.25
235.115	104.25
235.349	107.25
235.583	110.25
235.817	106.25
236.051	118.25
236.285	117.25
236.519	120.25
236.753	102.25
236.987	126.25
237.221	174.25
237.455	198.25
237.689	170.25
237.922	136.25
238.156	111.25
238.39	113.25
238.624	113.25
238.858	112.25
239.091	113.25
239.325	104.25
239.559	114.25
239.793	133.25
240.027	130.25
240.26	152.25
240.494	140.25
240.728	146.25
240.961	139.25
241.195	134.25
241.429	132.25
241.662	135.25
241.896	126.25
242.13	126.25
242.363	133.25
242.597	120.25
242.83	129.25
243.064	135.25
243.298	142.25
243.531	134.25
243.765	139.25
243.998	135.25
244.232	128.25
244.465	140.25
244.699	127.25
244.932	147.25
245.166	138.25
245.399	140.25
245.633	132.25
245.866	133.25
246.099	132.25
246.333	145.25
246.566	141.25
246.8	156.25
247.033	142.25
247.266	155.25
247.5	166.25
247.733	147.25
247.966	165.25
248.2	151.25
248.433	174.25
248.666	161.25
248.899	169.25
249.133	192.25
249.366	199.25
249.599	167.25
249.832	171.25
250.066	157.25
250.299	180.25
250.532	189.25
250.765	185.25
250.998	204.25
251.231	198.25
251.465	188.25
251.698	187.25
251.931	162.25
252.164	179.25
252.397	170.25
252.63	178.25
252.863	195.25
253.096	171.25
253.329	197.25
253.562	199.25
253.795	189.25
254.028	185.25
254.261	186.25
254.494	191.25
254.727	216.25
254.96	245.25
255.193	240.25
255.426	234.25
255.659	189.25
255.892	207.25
256.124	217.25
256.357	221.25
256.59	198.25
256.823	208.25
257.056	185.25
257.289	202.25
257.521	192.25
257.754	199.25
257.987	193.25
258.22	176.25
258.452	187.25
258.685	194.25
258.918	213.25
259.151	201.25
259.383	189.25
259.616	186.25
259.849	199.25
260.081	212.25
260.314	231.25
260.547	216.25
260.779	211.25
261.012	214.25
261.244	191.25
261.477	213.25
261.71	221.25
261.942	211.25
262.175	207.25
262.407	209.25
262.64	204.25
262.872	202.25
263.105	208.25
263.337	201.25
263.57	182.25
263.802	187.25
264.035	202.25
264.267	212.25
264.499	203.25
264.732	192.25
264.964	213.25
265.197	220.25
265.429	213.25
265.661	211.25
265.894	216.25
266.126	224.25
266.358	203.25
266.591	207.25
266.823	190.25
267.055	215.25
267.287	240.25
267.52	215.25
267.752	231.25
267.984	218.25
268.216	230.25
268.448	231.25
268.681	233.25
268.913	225.25
269.145	241.25
269.377	271.25
269.609	265.25
269.841	246.25
270.073	253.25
270.306	254.25
270.538	287.25
270.77	290.25
271.002	285.25
271.234	272.25
271.466	284.25
271.698	282.25
271.93	285.25
272.162	284.25
272.394	282.25
272.626	271.25
272.858	261.25
273.09	247.25
273.322	278.25
273.553	256.25
273.785	242.25
274.017	261.25
274.249	258.25
274.481	249.25
274.713	262.25
274.945	255.25
275.176	256.25
275.408	251.25
275.64	258.25
275.872	261.25
276.104	242.25
276.335	265.25
276.567	255.25
276.799	250.25
277.031	298.25
277.262	292.25
277.494	311.25
277.726	281.25
277.957	256.25
278.189	252.25
278.421	269.25
278.652	271.25
278.884	256.25
279.115	289.25
279.347	267.25
279.579	266.25
279.81	268.25
280.042	264.25
280.273	258.25
280.505	280.25
280.736	264.25
280.968	274.25
281.199	277.25
281.431	265.25
281.662	273.25
281.894	277.25
282.125	265.25
282.356	282.25
282.588	309.25
282.819	298.25
283.051	282.25
283.282	282.25
283.513	281.25
283.745	268.25
283.976	273.25
284.207	276.25
284.439	288.25
284.67	285.25
284.901	291.25
285.132	276.25
285.364	290.25
285.595	273.25
285.826	289.25
286.057	288.25
286.288	295.25
286.52	287.25
286.751	292.25
286.982	290.25
287.213	303.25
287.444	296.25
287.675	293.25
287.906	282.25
288.138	303.25
288.369	305.25
288.6	301.25
288.831	285.25
289.062	322.25
289.293	287.25
289.524	291.25
289.755	296.25
289.986	295.25
290.217	291.25
290.448	313.25
290.679	308.25
290.91	305.25
291.141	276.25
291.371	301.25
291.602	293.25
291.833	293.25
292.064	294.25
292.295	299.25
292.526	295.25
292.757	305.25
292.987	283.25
293.218	300.25
293.449	281.25
293.68	289.25
293.91	276.25
294.141	292.25
294.372	319.25
294.603	299.25
294.833	292.25
295.064	291.25
295.295	281.25
295.525	296.25
295.756	296.25
295.987	305.25
296.217	318.25
296.448	323.25
296.679	302.25
296.909	302.25
297.14	309.25
297.37	307.25
297.601	317.25
297.831	315.25
298.062	311.25
298.292	309.25
298.523	320.25
298.753	320.25
298.984	328.25
299.214	306.25
299.445	295.25
299.675	321.25
299.905	338.25
300.136	337.25
300.366	333.25
300.597	315.25
300.827	319.25
301.057	327.25
301.288	345.25
301.518	351.25
301.748	322.25
301.979	334.25
302.209	336.25
302.439	336.25
302.669	339.25
302.9	340.25
303.13	320.25
303.36	336.25
303.59	324.25
303.82	337.25
304.051	337.25
304.281	346.25
304.511	338.25
304.741	347.25
304.971	344.25
305.201	338.25
305.431	320.25
305.661	326.25
305.891	324.25
306.121	322.25
306.352	351.25
306.582	329.25
306.812	326.25
307.042	329.25
307.272	348.25
307.502	332.25
307.731	340.25
307.961	357.25
308.191	353.25
308.421	334.25
308.651	341.25
308.881	340.25
309.111	330.25
309.341	339.25
309.571	345.25
309.8	354.25
310.03	334.25
310.26	359.25
310.49	383.25
310.72	350.25
310.949	361.25
311.179	375.25
311.409	363.25
311.639	354.25
311.868	375.25
312.098	373.25
312.328	377.25
312.557	374.25
312.787	377.25
313.017	385.25
313.246	362.25
313.476	389.25
313.706	385.25
313.935	370.25
314.165	371.25
314.394	379.25
314.624	372.25
314.853	385.25
315.083	383.25
315.312	376.25
315.542	356.25
315.771	387.25
316.001	374.25
316.23	377.25
316.46	376.25
316.689	375.25
316.919	396.25
317.148	379.25
317.377	381.25
317.607	394.25
317.836	386.25
318.065	365.25
318.295	373.25
318.524	360.25
318.753	361.25
318.983	366.25
319.212	366.25
319.441	371.25
319.67	379.25
319.9	386.25
320.129	368.25
320.358	383.25
320.587	388.25
320.816	385.25
321.046	378.25
321.275	393.25
321.504	394.25
321.733	376.25
321.962	398.25
322.191	395.25
322.42	401.25
322.649	424.25
322.878	427.25
323.108	416.25
323.337	440.25
323.566	445.25
323.795	482.25
324.024	503.25
324.253	565.25
324.482	738.25
324.71	1092.25
324.939	1599.25
325.168	1393.25
325.397	761.25
325.626	559.25
325.855	489.25
326.084	465.25
326.313	472.25
326.542	448.25
326.77	491.25
326.999	557.25
327.228	695.25
327.457	1009.25
327.686	1215.25
327.914	839.25
328.143	579.25
328.372	535.25
328.6	511.25
328.829	499.25
329.058	518.25
329.287	518.25
329.515	480.25
329.744	455.25
329.972	483.25
330.201	467.25
330.43	498.25
330.658	501.25
330.887	535.25
331.115	508.25
331.344	469.25
331.572	474.25
331.801	467.25
332.03	478.25
332.258	495.25
332.486	447.25
332.715	456.25
332.943	471.25
333.172	451.25
333.4	467.25
333.629	491.25
333.857	507.25
334.085	505.25
334.314	521.25
334.542	515.25
334.771	536.25
334.999	498.25
335.227	456.25
335.455	459.25
335.684	465.25
335.912	450.25
336.14	474.25
336.369	439.25
336.597	469.25
336.825	443.25
337.053	433.25
337.281	445.25
337.51	445.25
337.738	447.25
337.966	462.25
338.194	452.25
338.422	444.25
338.65	453.25
338.878	443.25
339.106	445.25
339.334	455.25
339.562	431.25
339.79	443.25
340.018	434.25
340.246	434.25
340.474	415.25
340.702	433.25
340.93	409.25
341.158	430.25
341.386	412.25
341.614	436.25
341.842	448.25
342.07	430.25
342.298	422.25
342.526	437.25
342.754	421.25
342.981	403.25
343.209	416.25
343.437	430.25
343.665	434.25
343.893	434.25
344.12	460.25
344.348	468.25
344.576	452.25
344.804	425.25
345.031	441.25
345.259	449.25
345.487	437.25
345.714	429.25
345.942	416.25
346.17	429.25
346.397	410.25
346.625	383.25
346.853	422.25
347.08	409.25
347.308	409.25
347.535	425.25
347.763	408.25
347.99	423.25
348.218	398.25
348.445	410.25
348.673	410.25
348.9	413.25
349.128	410.25
349.355	390.25
349.583	385.25
349.81	406.25
350.037	395.25
350.265	384.25
350.492	405.25
350.72	383.25
350.947	414.25
351.174	416.25
351.402	408.25
351.629	392.25
351.856	399.25
352.083	396.25
352.311	410.25
352.538	404.25
352.765	414.25
352.992	396.25
353.22	404.25
353.447	410.25
353.674	386.25
353.901	395.25
354.128	387.25
354.355	401.25
354.583	399.25
354.81	396.25
355.037	378.25
355.264	400.25
355.491	375.25
355.718	411.25
355.945	390.25
356.172	374.25
356.399	387.25
356.626	388.25
356.853	375.25
357.08	383.25
357.307	391.25
357.534	379.25
357.761	398.25
357.988	395.25
358.215	390.25
358.441	387.25
358.668	382.25
358.895	382.25
359.122	405.25
359.349	397.25
359.576	417.25
359.802	415.25
360.029	442.25
360.256	423.25
360.483	421.25
360.709	445.25
360.936	414.25
361.163	385.25
361.39	405.25
361.616	396.25
361.843	392.25
362.07	405.25
362.296	410.25
362.523	406.25
362.749	413.25
362.976	395.25
363.203	391.25
363.429	406.25
363.656	407.25
363.882	393.25
364.109	387.25
364.335	409.25
364.562	402.25
364.788	417.25
365.015	391.25
365.241	404.25
365.468	410.25
365.694	411.25
365.92	402.25
366.147	402.25
366.373	385.25
366.599	382.25
366.826	385.25
367.052	386.25
367.278	402.25
367.505	399.25
367.731	416.25
367.957	392.25
368.184	393.25
368.41	392.25
368.636	401.25
368.862	399.25
369.089	399.25
369.315	398.25
369.541	389.25
369.767	391.25
369.993	394.25
370.219	384.25
370.445	395.25
370.672	386.25
370.898	402.25
371.124	395.25
371.35	388.25
371.576	397.25
371.802	401.25
372.028	416.25
372.254	409.25
372.48	414.25
372.706	407.25
372.932	417.25
373.158	401.25
373.384	415.25
373.61	403.25
373.835	423.25
374.061	416.25
374.287	421.25
374.513	426.25
374.739	440.25
374.965	420.25
375.191	412.25
375.416	418.25
375.642	413.25
375.868	391.25
376.094	404.25
376.319	415.25
376.545	401.25
376.771	404.25
376.997	395.25
377.222	397.25
377.448	415.25
377.674	408.25
377.899	390.25
378.125	385.25
378.35	407.25
378.576	391.25
378.802	394.25
379.027	423.25
379.253	389.25
379.478	410.25
379.704	381.25
379.929	406.25
380.155	413.25
380.38	414.25
380.606	418.25
380.831	407.25
381.057	421.25
381.282	432.25
381.507	417.25
381.733	412.25
381.958	410.25
382.184	405.25
382.409	409.25
382.634	408.25
382.86	409.25
383.085	409.25
383.31	402.25
383.535	418.25
383.761	408.25
383.986	431.25
384.211	434.25
384.436	431.25
384.662	461.25
384.887	455.25
385.112	452.25
385.337	440.25
385.562	441.25
385.787	439.25
386.013	455.25
386.238	450.25
386.463	460.25
386.688	438.25
386.913	457.25
387.138	472.25
387.363	473.25
387.588	461.25
387.813	458.25
388.038	464.25
388.263	445.25
388.488	459.25
388.713	435.25
388.938	452.25
389.163	464.25
389.387	452.25
389.612	449.25
389.837	445.25
390.062	438.25
390.287	453.25
390.512	449.25
390.736	441.25
390.961	458.25
391.186	460.25
391.411	449.25
391.636	482.25
391.86	490.25
392.085	499.25
392.31	509.25
392.534	497.25
392.759	479.25
392.984	485.25
393.208	476.25
393.433	472.25
393.658	469.25
393.882	461.25
394.107	466.25
394.331	477.25
394.556	475.25
394.78	465.25
395.005	463.25
395.229	448.25
395.454	474.25
395.678	501.25
395.903	481.25
396.127	514.25
396.352	517.25
396.576	477.25
396.801	467.25
397.025	488.25
397.249	484.25
397.474	521.25
397.698	493.25
397.922	506.25
398.147	518.25
398.371	517.25
398.595	522.25
398.82	525.25
399.044	564.25
399.268	600.25
399.492	643.25
399.717	682.25
399.941	707.25
400.165	705.25
400.389	675.25
400.613	602.25
400.837	574.25
401.062	576.25
401.286	549.25
401.51	550.25
401.734	542.25
401.958	538.25
402.182	540.25
402.406	563.25
402.63	540.25
402.854	549.25
403.078	559.25
403.302	572.25
403.526	573.25
403.75	570.25
403.974	588.25
404.198	579.25
404.422	563.25
404.645	581.25
404.869	568.25
405.093	608.25
405.317	643.25
405.541	671.25
405.765	625.25
405.988	587.25
406.212	593.25
406.436	606.25
406.66	620.25
406.883	585.25
407.107	655.25
407.331	695.25
407.555	746.25
407.778	746.25
408.002	695.25
408.226	636.25
408.449	628.25
408.673	617.25
408.896	619.25
409.12	653.25
409.344	615.25
409.567	606.25
409.791	563.25
410.014	586.25
410.238	565.25
410.461	582.25
410.685	573.25
410.908	555.25
411.132	607.25
411.355	631.25
411.578	599.25
411.802	551.25
412.025	565.25
412.249	545.25
412.472	588.25
412.695	635.25
412.919	599.25
413.142	569.25
413.365	576.25
413.589	570.25
413.812	531.25
414.035	548.25
414.258	536.25
414.482	540.25
414.705	544.25
414.928	575.25
415.151	537.25
415.374	546.25
415.597	519.25
415.821	519.25
416.044	549.25
416.267	522.25
416.49	528.25
416.713	525.25
416.936	526.25
417.159	544.25
417.382	513.25
417.605	538.25
417.828	552.25
418.051	564.25
418.274	538.25
418.497	542.25
418.72	552.25
418.943	533.25
419.166	546.25
419.389	592.25
419.611	583.25
419.834	584.25
420.057	562.25
420.28	548.25
420.503	549.25
420.726	551.25
420.948	559.25
421.171	599.25
421.394	595.25
421.617	563.25
421.839	547.25
422.062	534.25
422.285	541.25
422.507	607.25
422.73	647.25
422.953	646.25
423.175	585.25
423.398	583.25
423.621	561.25
423.843	605.25
424.066	568.25
424.288	582.25
424.511	591.25
424.733	630.25
424.956	687.25
425.178	674.25
425.401	677.25
425.623	679.25
425.846	615.25
426.068	548.25
426.291	561.25
426.513	577.25
426.735	576.25
426.958	598.25
427.18	663.25
427.402	769.25
427.625	842.25
427.847	739.25
428.069	626.25
428.292	601.25
428.514	543.25
428.736	546.25
428.958	531.25
429.181	523.25
429.403	518.25
429.625	532.25
429.847	558.25
430.069	617.25
430.292	598.25
430.514	521.25
430.736	511.25
430.958	526.25
431.18	504.25
431.402	514.25
431.624	481.25
431.846	491.25
432.068	503.25
432.29	512.25
432.512	524.25
432.734	491.25
432.956	502.25
433.178	510.25
433.4	513.25
433.622	506.25
433.844	502.25
434.066	501.25
434.287	489.25
434.509	511.25
434.731	533.25
434.953	567.25
435.175	553.25
435.397	552.25
435.618	564.25
435.84	586.25
436.062	682.25
436.284	739.25
436.505	602.25
436.727	555.25
436.949	532.25
437.17	501.25
437.392	530.25
437.614	547.25
437.835	542.25
438.057	615.25
438.278	712.25
438.5	685.25
438.721	767.25
438.943	717.25
439.165	591.25
439.386	541.25
439.608	549.25
439.829	539.25
440.05	572.25
440.272	597.25
440.493	576.25
440.715	552.25
440.936	534.25
441.158	517.25
441.379	534.25
441.6	571.25
441.822	575.25
442.043	606.25
442.264	659.25
442.486	701.25
442.707	618.25
442.928	579.25
443.149	604.25
443.371	603.25
443.592	631.25
443.813	732.25
444.034	779.25
444.255	641.25
444.476	603.25
444.698	598.25
444.919	601.25
445.14	757.25
445.361	661.25
445.582	634.25
445.803	637.25
446.024	719.25
446.245	723.25
446.466	670.25
446.687	598.25
446.908	554.25
447.129	533.25
447.35	523.25
447.571	513.25
447.792	514.25
448.013	528.25
448.234	515.25
448.455	555.25
448.675	656.25
448.896	759.25
449.117	635.25
449.338	627.25
449.559	718.25
449.779	790.25
450	639.25
450.221	537.25
450.442	515.25
450.662	504.25
450.883	479.25
451.104	524.25
451.324	490.25
451.545	503.25
451.766	474.25
451.986	478.25
452.207	454.25
452.428	462.25
452.648	480.25
452.869	458.25
453.089	481.25
453.31	483.25
453.53	466.25
453.751	467.25
453.971	500.25
454.192	472.25
454.412	462.25
454.633	470.25
454.853	456.25
455.073	452.25
455.294	465.25
455.514	541.25
455.734	510.25
455.955	439.25
456.175	467.25
456.395	437.25
456.616	426.25
456.836	425.25
457.056	451.25
457.276	425.25
457.497	441.25
457.717	456.25
457.937	459.25
458.157	467.25
458.377	479.25
458.598	458.25
458.818	507.25
459.038	555.25
459.258	609.25
459.478	518.25
459.698	519.25
459.918	496.25
460.138	514.25
460.358	543.25
460.578	533.25
460.798	552.25
461.018	552.25
461.238	526.25
461.458	549.25
461.678	549.25
461.898	543.25
462.118	562.25
462.338	563.25
462.558	581.25
462.777	583.25
462.997	615.25
463.217	629.25
463.437	631.25
463.657	622.25
463.876	577.25
464.096	597.25
464.316	583.25
464.536	625.25
464.755	586.25
464.975	582.25
465.195	585.25
465.414	590.25
465.634	551.25
465.854	532.25
466.073	523.25
466.293	501.25
466.512	470.25
466.732	467.25
466.951	472.25
467.171	482.25
467.391	462.25
467.61	494.25
467.829	497.25
468.049	502.25
468.268	484.25
468.488	479.25
468.707	467.25
468.927	466.25
469.146	474.25
469.365	479.25
469.585	486.25
469.804	481.25
470.023	476.25
470.243	495.25
470.462	483.25
470.681	507.25
470.901	498.25
471.12	495.25
471.339	468.25
471.558	489.25
471.777	485.25
471.997	490.25
472.216	482.25
472.435	496.25
472.654	490.25
472.873	484.25
473.092	459.25
473.311	464.25
473.53	481.25
473.749	489.25
473.968	519.25
474.187	580.25
474.406	629.25
474.625	548.25
474.844	496.25
475.063	488.25
475.282	488.25
475.501	482.25
475.72	500.25
475.939	483.25
476.158	500.25
476.377	483.25
476.596	509.25
476.814	490.25
477.033	506.25
477.252	510.25
477.471	518.25
477.69	526.25
477.908	535.25
478.127	540.25
478.346	544.25
478.564	534.25
478.783	573.25
479.002	582.25
479.22	553.25
479.439	585.25
479.658	573.25
479.876	585.25
480.095	597.25
480.313	624.25
480.532	597.25
480.751	598.25
480.969	586.25
481.188	613.25
481.406	643.25
481.624	608.25
481.843	550.25
482.061	571.25
482.28	585.25
482.498	565.25
482.717	547.25
482.935	565.25
483.153	568.25
483.372	568.25
483.59	543.25
483.808	563.25
484.027	573.25
484.245	563.25
484.463	574.25
484.681	591.25
484.9	571.25
485.118	578.25
485.336	578.25
485.554	565.25
485.772	581.25
485.99	586.25
486.209	577.25
486.427	562.25
486.645	595.25
486.863	613.25
487.081	571.25
487.299	594.25
487.517	599.25
487.735	583.25
487.953	598.25
488.171	624.25
488.389	601.25
488.607	588.25
488.825	622.25
489.043	576.25
489.261	608.25
489.479	617.25
489.696	606.25
489.914	618.25
490.132	610.25
490.35	592.25
490.568	606.25
490.786	625.25
491.003	637.25
491.221	635.25
491.439	623.25
491.657	649.25
491.874	655.25
492.092	656.25
492.31	658.25
492.527	652.25
492.745	673.25
492.963	666.25
493.18	664.25
493.398	681.25
493.615	660.25
493.833	666.25
494.05	679.25
494.268	669.25
494.485	678.25
494.703	685.25
494.92	687.25
495.138	687.25
495.355	693.25
495.573	670.25
495.79	665.25
496.008	702.25
496.225	695.25
496.442	709.25
496.66	697.25
496.877	697.25
497.094	689.25
497.312	727.25
497.529	760.25
497.746	741.25
497.963	764.25
498.181	789.25
498.398	814.25
498.615	797.25
498.832	824.25
499.049	852.25
499.267	905.25
499.484	959.25
499.701	993.25
499.918	1072.25
500.135	1126.25
500.352	1201.25
500.569	1226.25
500.786	1201.25
501.003	1220.25
501.22	1127.25
501.437	1056.25
501.654	1037.25
501.871	963.25
