Data from 1962.PennyLincolnUp.Lamp.En5.5.200Scan.071719.P1._HRD10591_13-55-08-061.txt Node
Date: Thu Jul 18 13:55:08 EDT 2019
User: cochatt
Spectrometer: HR+D1059
Trigger mode: 1
Integration Time (sec): 1.000000E-1
Scans to average: 1
Electric dark correction enabled: true
Nonlinearity correction enabled: false
Boxcar width: 0
XAxis mode: Wavelengths
Number of Pixels in Spectrum: 2048
>>>>>Begin Spectral Data<<<<<
223.165	-16.69
223.4	-16.69
223.635	-16.69
223.869	-9.69
224.104	-4.69
224.338	-16.69
224.573	-18.69
224.808	-10.69
225.042	-2.69
225.277	-22.69
225.511	3.31
225.746	-3.69
225.98	17.31
226.215	-4.69
226.449	28.31
226.683	19.31
226.918	23.31
227.152	19.31
227.387	19.31
227.621	38.31
227.856	46.31
228.09	54.31
228.324	40.31
228.559	50.31
228.793	72.31
229.027	107.31
229.262	106.31
229.496	104.31
229.73	116.31
229.964	122.31
230.199	124.31
230.433	115.31
230.667	114.31
230.901	115.31
231.136	103.31
231.37	112.31
231.604	106.31
231.838	111.31
232.072	115.31
232.306	117.31
232.541	103.31
232.775	128.31
233.009	116.31
233.243	118.31
233.477	116.31
233.711	112.31
233.945	117.31
234.179	108.31
234.413	104.31
234.647	116.31
234.881	110.31
235.115	130.31
235.349	115.31
235.583	119.31
235.817	110.31
236.051	123.31
236.285	130.31
236.519	114.31
236.753	123.31
236.987	132.31
237.221	142.31
237.455	206.31
237.689	146.31
237.922	134.31
238.156	124.31
238.39	119.31
238.624	106.31
238.858	122.31
239.091	120.31
239.325	110.31
239.559	117.31
239.793	146.31
240.027	131.31
240.26	128.31
240.494	147.31
240.728	135.31
240.961	133.31
241.195	139.31
241.429	141.31
241.662	122.31
241.896	139.31
242.13	112.31
242.363	132.31
242.597	130.31
242.83	143.31
243.064	132.31
243.298	136.31
243.531	131.31
243.765	116.31
243.998	130.31
244.232	152.31
244.465	138.31
244.699	139.31
244.932	148.31
245.166	145.31
245.399	129.31
245.633	147.31
245.866	139.31
246.099	148.31
246.333	150.31
246.566	160.31
246.8	148.31
247.033	151.31
247.266	149.31
247.5	174.31
247.733	155.31
247.966	174.31
248.2	165.31
248.433	159.31
248.666	165.31
248.899	160.31
249.133	191.31
249.366	213.31
249.599	195.31
249.832	161.31
250.066	178.31
250.299	172.31
250.532	178.31
250.765	202.31
250.998	218.31
251.231	209.31
251.465	194.31
251.698	192.31
251.931	181.31
252.164	184.31
252.397	206.31
252.63	177.31
252.863	181.31
253.096	208.31
253.329	195.31
253.562	196.31
253.795	183.31
254.028	200.31
254.261	192.31
254.494	207.31
254.727	221.31
254.96	253.31
255.193	244.31
255.426	225.31
255.659	212.31
255.892	192.31
256.124	213.31
256.357	203.31
256.59	206.31
256.823	183.31
257.056	194.31
257.289	200.31
257.521	188.31
257.754	206.31
257.987	200.31
258.22	187.31
258.452	196.31
258.685	203.31
258.918	195.31
259.151	202.31
259.383	182.31
259.616	207.31
259.849	214.31
260.081	214.31
260.314	222.31
260.547	227.31
260.779	199.31
261.012	221.31
261.244	223.31
261.477	206.31
261.71	201.31
261.942	208.31
262.175	212.31
262.407	223.31
262.64	214.31
262.872	214.31
263.105	215.31
263.337	194.31
263.57	221.31
263.802	212.31
264.035	208.31
264.267	202.31
264.499	211.31
264.732	202.31
264.964	199.31
265.197	211.31
265.429	224.31
265.661	199.31
265.894	221.31
266.126	208.31
266.358	210.31
266.591	206.31
266.823	224.31
267.055	223.31
267.287	221.31
267.52	230.31
267.752	214.31
267.984	238.31
268.216	243.31
268.448	230.31
268.681	220.31
268.913	237.31
269.145	266.31
269.377	275.31
269.609	242.31
269.841	259.31
270.073	238.31
270.306	250.31
270.538	289.31
270.77	285.31
271.002	267.31
271.234	271.31
271.466	274.31
271.698	294.31
271.93	308.31
272.162	295.31
272.394	290.31
272.626	299.31
272.858	284.31
273.09	270.31
273.322	282.31
273.553	281.31
273.785	237.31
274.017	255.31
274.249	259.31
274.481	264.31
274.713	262.31
274.945	255.31
275.176	265.31
275.408	247.31
275.64	262.31
275.872	272.31
276.104	262.31
276.335	260.31
276.567	285.31
276.799	260.31
277.031	294.31
277.262	282.31
277.494	296.31
277.726	281.31
277.957	292.31
278.189	266.31
278.421	258.31
278.652	292.31
278.884	278.31
279.115	286.31
279.347	260.31
279.579	268.31
279.81	266.31
280.042	261.31
280.273	274.31
280.505	264.31
280.736	275.31
280.968	278.31
281.199	291.31
281.431	275.31
281.662	279.31
281.894	294.31
282.125	262.31
282.356	287.31
282.588	308.31
282.819	294.31
283.051	269.31
283.282	269.31
283.513	282.31
283.745	282.31
283.976	288.31
284.207	293.31
284.439	292.31
284.67	286.31
284.901	299.31
285.132	292.31
285.364	285.31
285.595	281.31
285.826	284.31
286.057	308.31
286.288	281.31
286.52	290.31
286.751	311.31
286.982	298.31
287.213	284.31
287.444	287.31
287.675	314.31
287.906	302.31
288.138	320.31
288.369	318.31
288.6	310.31
288.831	315.31
289.062	308.31
289.293	278.31
289.524	290.31
289.755	303.31
289.986	290.31
290.217	274.31
290.448	311.31
290.679	314.31
290.91	301.31
291.141	303.31
291.371	290.31
291.602	302.31
291.833	315.31
292.064	315.31
292.295	298.31
292.526	286.31
292.757	308.31
292.987	304.31
293.218	317.31
293.449	320.31
293.68	300.31
293.91	323.31
294.141	326.31
294.372	298.31
294.603	303.31
294.833	308.31
295.064	303.31
295.295	310.31
295.525	302.31
295.756	319.31
295.987	307.31
296.217	339.31
296.448	330.31
296.679	323.31
296.909	319.31
297.14	300.31
297.37	301.31
297.601	309.31
297.831	304.31
298.062	317.31
298.292	310.31
298.523	328.31
298.753	332.31
298.984	335.31
299.214	320.31
299.445	302.31
299.675	318.31
299.905	331.31
300.136	312.31
300.366	313.31
300.597	324.31
300.827	329.31
301.057	336.31
301.288	342.31
301.518	331.31
301.748	338.31
301.979	342.31
302.209	335.31
302.439	335.31
302.669	330.31
302.9	334.31
303.13	348.31
303.36	328.31
303.59	337.31
303.82	354.31
304.051	336.31
304.281	336.31
304.511	331.31
304.741	347.31
304.971	351.31
305.201	334.31
305.431	339.31
305.661	342.31
305.891	340.31
306.121	329.31
306.352	325.31
306.582	339.31
306.812	342.31
307.042	346.31
307.272	315.31
307.502	341.31
307.731	319.31
307.961	328.31
308.191	348.31
308.421	322.31
308.651	346.31
308.881	347.31
309.111	356.31
309.341	338.31
309.571	357.31
309.8	341.31
310.03	362.31
310.26	354.31
310.49	352.31
310.72	370.31
310.949	372.31
311.179	386.31
311.409	377.31
311.639	366.31
311.868	362.31
312.098	366.31
312.328	367.31
312.557	396.31
312.787	382.31
313.017	400.31
313.246	391.31
313.476	365.31
313.706	366.31
313.935	359.31
314.165	377.31
314.394	388.31
314.624	390.31
314.853	392.31
315.083	356.31
315.312	366.31
315.542	376.31
315.771	370.31
316.001	388.31
316.23	384.31
316.46	380.31
316.689	379.31
316.919	376.31
317.148	372.31
317.377	390.31
317.607	372.31
317.836	384.31
318.065	372.31
318.295	355.31
318.524	406.31
318.753	374.31
318.983	378.31
319.212	383.31
319.441	373.31
319.67	381.31
319.9	384.31
320.129	390.31
320.358	377.31
320.587	398.31
320.816	399.31
321.046	397.31
321.275	385.31
321.504	410.31
321.733	382.31
321.962	394.31
322.191	423.31
322.42	411.31
322.649	406.31
322.878	430.31
323.108	420.31
323.337	451.31
323.566	445.31
323.795	462.31
324.024	467.31
324.253	568.31
324.482	745.31
324.71	1076.31
324.939	1518.31
325.168	1360.31
325.397	727.31
325.626	542.31
325.855	478.31
326.084	463.31
326.313	459.31
326.542	476.31
326.77	491.31
326.999	540.31
327.228	701.31
327.457	952.31
327.686	1187.31
327.914	811.31
328.143	594.31
328.372	528.31
328.6	511.31
328.829	485.31
329.058	495.31
329.287	494.31
329.515	484.31
329.744	452.31
329.972	486.31
330.201	480.31
330.43	492.31
330.658	510.31
330.887	529.31
331.115	524.31
331.344	498.31
331.572	475.31
331.801	465.31
332.03	477.31
332.258	460.31
332.486	464.31
332.715	462.31
332.943	469.31
333.172	466.31
333.4	475.31
333.629	487.31
333.857	496.31
334.085	479.31
334.314	505.31
334.542	537.31
334.771	531.31
334.999	513.31
335.227	489.31
335.455	472.31
335.684	476.31
335.912	474.31
336.14	449.31
336.369	455.31
336.597	477.31
336.825	439.31
337.053	442.31
337.281	458.31
337.51	463.31
337.738	453.31
337.966	436.31
338.194	446.31
338.422	456.31
338.65	459.31
338.878	428.31
339.106	445.31
339.334	436.31
339.562	435.31
339.79	428.31
340.018	434.31
340.246	425.31
340.474	418.31
340.702	427.31
340.93	408.31
341.158	423.31
341.386	408.31
341.614	420.31
341.842	431.31
342.07	430.31
342.298	424.31
342.526	430.31
342.754	416.31
342.981	421.31
343.209	418.31
343.437	442.31
343.665	441.31
343.893	469.31
344.12	475.31
344.348	459.31
344.576	431.31
344.804	453.31
345.031	443.31
345.259	451.31
345.487	438.31
345.714	421.31
345.942	439.31
346.17	417.31
346.397	409.31
346.625	435.31
346.853	434.31
347.08	416.31
347.308	421.31
347.535	422.31
347.763	435.31
347.99	434.31
348.218	423.31
348.445	407.31
348.673	428.31
348.9	417.31
349.128	436.31
349.355	420.31
349.583	405.31
349.81	392.31
350.037	390.31
350.265	407.31
350.492	392.31
350.72	394.31
350.947	400.31
351.174	413.31
351.402	422.31
351.629	414.31
351.856	410.31
352.083	423.31
352.311	402.31
352.538	410.31
352.765	423.31
352.992	396.31
353.22	410.31
353.447	402.31
353.674	409.31
353.901	401.31
354.128	421.31
354.355	403.31
354.583	390.31
354.81	415.31
355.037	403.31
355.264	384.31
355.491	386.31
355.718	395.31
355.945	400.31
356.172	403.31
356.399	395.31
356.626	386.31
356.853	398.31
357.08	388.31
357.307	399.31
357.534	407.31
357.761	402.31
357.988	409.31
358.215	390.31
358.441	388.31
358.668	397.31
358.895	386.31
359.122	407.31
359.349	403.31
359.576	413.31
359.802	422.31
360.029	433.31
360.256	456.31
360.483	407.31
360.709	413.31
360.936	415.31
361.163	416.31
361.39	423.31
361.616	390.31
361.843	405.31
362.07	412.31
362.296	407.31
362.523	400.31
362.749	401.31
362.976	391.31
363.203	406.31
363.429	372.31
363.656	393.31
363.882	402.31
364.109	382.31
364.335	415.31
364.562	412.31
364.788	392.31
365.015	406.31
365.241	400.31
365.468	395.31
365.694	413.31
365.92	402.31
366.147	394.31
366.373	400.31
366.599	393.31
366.826	386.31
367.052	393.31
367.278	399.31
367.505	404.31
367.731	403.31
367.957	403.31
368.184	400.31
368.41	421.31
368.636	414.31
368.862	400.31
369.089	406.31
369.315	402.31
369.541	399.31
369.767	414.31
369.993	389.31
370.219	405.31
370.445	407.31
370.672	405.31
370.898	411.31
371.124	418.31
371.35	420.31
371.576	415.31
371.802	408.31
372.028	407.31
372.254	428.31
372.48	391.31
372.706	420.31
372.932	406.31
373.158	415.31
373.384	421.31
373.61	412.31
373.835	423.31
374.061	417.31
374.287	423.31
374.513	401.31
374.739	422.31
374.965	438.31
375.191	423.31
375.416	418.31
375.642	418.31
375.868	415.31
376.094	401.31
376.319	414.31
376.545	404.31
376.771	405.31
376.997	412.31
377.222	378.31
377.448	396.31
377.674	394.31
377.899	403.31
378.125	404.31
378.35	406.31
378.576	395.31
378.802	378.31
379.027	399.31
379.253	392.31
379.478	403.31
379.704	400.31
379.929	396.31
380.155	420.31
380.38	406.31
380.606	399.31
380.831	416.31
381.057	424.31
381.282	415.31
381.507	418.31
381.733	410.31
381.958	407.31
382.184	431.31
382.409	423.31
382.634	433.31
382.86	413.31
383.085	420.31
383.31	428.31
383.535	447.31
383.761	430.31
383.986	438.31
384.211	444.31
384.436	455.31
384.662	446.31
384.887	442.31
385.112	445.31
385.337	453.31
385.562	451.31
385.787	461.31
386.013	479.31
386.238	462.31
386.463	466.31
386.688	457.31
386.913	473.31
387.138	467.31
387.363	458.31
387.588	454.31
387.813	462.31
388.038	461.31
388.263	440.31
388.488	442.31
388.713	460.31
388.938	458.31
389.163	458.31
389.387	450.31
389.612	432.31
389.837	462.31
390.062	455.31
390.287	466.31
390.512	463.31
390.736	479.31
390.961	487.31
391.186	477.31
391.411	478.31
391.636	487.31
391.86	482.31
392.085	491.31
392.31	488.31
392.534	497.31
392.759	482.31
392.984	477.31
393.208	477.31
393.433	486.31
393.658	476.31
393.882	474.31
394.107	461.31
394.331	468.31
394.556	466.31
394.78	470.31
395.005	488.31
395.229	501.31
395.454	502.31
395.678	488.31
395.903	515.31
396.127	524.31
396.352	483.31
396.576	495.31
396.801	488.31
397.025	491.31
397.249	482.31
397.474	500.31
397.698	506.31
397.922	534.31
398.147	527.31
398.371	506.31
398.595	508.31
398.82	535.31
399.044	566.31
399.268	601.31
399.492	626.31
399.717	668.31
399.941	716.31
400.165	672.31
400.389	667.31
400.613	619.31
400.837	588.31
401.062	578.31
401.286	530.31
401.51	553.31
401.734	543.31
401.958	565.31
402.182	569.31
402.406	554.31
402.63	546.31
402.854	546.31
403.078	584.31
403.302	584.31
403.526	567.31
403.75	603.31
403.974	584.31
404.198	580.31
404.422	581.31
404.645	584.31
404.869	593.31
405.093	603.31
405.317	629.31
405.541	654.31
405.765	615.31
405.988	610.31
406.212	600.31
406.436	578.31
406.66	630.31
406.883	598.31
407.107	633.31
407.331	686.31
407.555	730.31
407.778	717.31
408.002	670.31
408.226	623.31
408.449	646.31
408.673	619.31
408.896	656.31
409.12	669.31
409.344	641.31
409.567	582.31
409.791	585.31
410.014	605.31
410.238	559.31
410.461	586.31
410.685	577.31
410.908	578.31
411.132	606.31
411.355	644.31
411.578	605.31
411.802	590.31
412.025	549.31
412.249	574.31
412.472	600.31
412.695	622.31
412.919	599.31
413.142	549.31
413.365	550.31
413.589	553.31
413.812	555.31
414.035	526.31
414.258	553.31
414.482	528.31
414.705	544.31
414.928	571.31
415.151	508.31
415.374	529.31
415.597	534.31
415.821	528.31
416.044	537.31
416.267	550.31
416.49	534.31
416.713	519.31
416.936	536.31
417.159	535.31
417.382	539.31
417.605	537.31
417.828	540.31
418.051	567.31
418.274	549.31
418.497	540.31
418.72	544.31
418.943	540.31
419.166	559.31
419.389	606.31
419.611	565.31
419.834	581.31
420.057	587.31
420.28	580.31
420.503	557.31
420.726	538.31
420.948	542.31
421.171	598.31
421.394	591.31
421.617	554.31
421.839	536.31
422.062	539.31
422.285	548.31
422.507	582.31
422.73	677.31
422.953	654.31
423.175	596.31
423.398	590.31
423.621	558.31
423.843	598.31
424.066	595.31
424.288	570.31
424.511	594.31
424.733	624.31
424.956	673.31
425.178	670.31
425.401	667.31
425.623	655.31
425.846	592.31
426.068	574.31
426.291	567.31
426.513	563.31
426.735	589.31
426.958	606.31
427.18	659.31
427.402	741.31
427.625	829.31
427.847	708.31
428.069	617.31
428.292	585.31
428.514	558.31
428.736	525.31
428.958	529.31
429.181	520.31
429.403	549.31
429.625	522.31
429.847	549.31
430.069	605.31
430.292	595.31
430.514	546.31
430.736	501.31
430.958	529.31
431.18	509.31
431.402	504.31
431.624	512.31
431.846	511.31
432.068	502.31
432.29	512.31
432.512	514.31
432.734	516.31
432.956	525.31
433.178	526.31
433.4	510.31
433.622	499.31
433.844	496.31
434.066	519.31
434.287	516.31
434.509	517.31
434.731	543.31
434.953	553.31
435.175	533.31
435.397	580.31
435.618	574.31
435.84	596.31
436.062	651.31
436.284	710.31
436.505	598.31
436.727	559.31
436.949	540.31
437.17	533.31
437.392	520.31
437.614	527.31
437.835	547.31
438.057	614.31
438.278	692.31
438.5	698.31
438.721	755.31
438.943	736.31
439.165	591.31
439.386	568.31
439.608	558.31
439.829	550.31
440.05	578.31
440.272	614.31
440.493	588.31
440.715	548.31
440.936	534.31
441.158	546.31
441.379	535.31
441.6	561.31
441.822	584.31
442.043	594.31
442.264	658.31
442.486	689.31
442.707	610.31
442.928	576.31
443.149	559.31
443.371	590.31
443.592	616.31
443.813	694.31
444.034	747.31
444.255	668.31
444.476	611.31
444.698	594.31
444.919	602.31
445.14	739.31
445.361	659.31
445.582	631.31
445.803	641.31
446.024	710.31
446.245	721.31
446.466	674.31
446.687	601.31
446.908	558.31
447.129	536.31
447.35	518.31
447.571	513.31
447.792	516.31
448.013	525.31
448.234	532.31
448.455	574.31
448.675	634.31
448.896	724.31
449.117	625.31
449.338	606.31
449.559	706.31
449.779	759.31
450	610.31
450.221	538.31
450.442	512.31
450.662	513.31
450.883	492.31
451.104	502.31
451.324	485.31
451.545	485.31
451.766	488.31
451.986	473.31
452.207	477.31
452.428	465.31
452.648	467.31
452.869	462.31
453.089	458.31
453.31	482.31
453.53	475.31
453.751	479.31
453.971	453.31
454.192	468.31
454.412	463.31
454.633	458.31
454.853	434.31
455.073	449.31
455.294	464.31
455.514	508.31
455.734	530.31
455.955	473.31
456.175	438.31
456.395	443.31
456.616	450.31
456.836	427.31
457.056	459.31
457.276	434.31
457.497	443.31
457.717	450.31
457.937	452.31
458.157	460.31
458.377	453.31
458.598	518.31
458.818	528.31
459.038	553.31
459.258	587.31
459.478	510.31
459.698	539.31
459.918	521.31
460.138	507.31
460.358	555.31
460.578	543.31
460.798	560.31
461.018	540.31
461.238	546.31
461.458	543.31
461.678	537.31
461.898	546.31
462.118	550.31
462.338	567.31
462.558	584.31
462.777	588.31
462.997	631.31
463.217	628.31
463.437	620.31
463.657	619.31
463.876	622.31
464.096	599.31
464.316	568.31
464.536	588.31
464.755	586.31
464.975	585.31
465.195	575.31
465.414	590.31
465.634	557.31
465.854	544.31
466.073	552.31
466.293	516.31
466.512	505.31
466.732	493.31
466.951	498.31
467.171	464.31
467.391	496.31
467.61	490.31
467.829	516.31
468.049	502.31
468.268	490.31
468.488	501.31
468.707	464.31
468.927	479.31
469.146	476.31
469.365	464.31
469.585	474.31
469.804	492.31
470.023	501.31
470.243	494.31
470.462	496.31
470.681	524.31
470.901	507.31
471.12	495.31
471.339	498.31
471.558	499.31
471.777	512.31
471.997	489.31
472.216	490.31
472.435	489.31
472.654	502.31
472.873	501.31
473.092	472.31
473.311	462.31
473.53	479.31
473.749	478.31
473.968	498.31
474.187	569.31
474.406	612.31
474.625	526.31
474.844	502.31
475.063	488.31
475.282	514.31
475.501	487.31
475.72	484.31
475.939	495.31
476.158	502.31
476.377	490.31
476.596	506.31
476.814	512.31
477.033	501.31
477.252	519.31
477.471	521.31
477.69	514.31
477.908	546.31
478.127	545.31
478.346	560.31
478.564	550.31
478.783	568.31
479.002	572.31
479.22	559.31
479.439	566.31
479.658	576.31
479.876	599.31
480.095	589.31
480.313	598.31
480.532	623.31
480.751	616.31
480.969	611.31
481.188	631.31
481.406	635.31
481.624	619.31
481.843	596.31
482.061	586.31
482.28	570.31
482.498	565.31
482.717	570.31
482.935	567.31
483.153	567.31
483.372	575.31
483.59	560.31
483.808	554.31
484.027	566.31
484.245	572.31
484.463	566.31
484.681	595.31
484.9	587.31
485.118	594.31
485.336	593.31
485.554	588.31
485.772	578.31
485.99	586.31
486.209	578.31
486.427	598.31
486.645	606.31
486.863	590.31
487.081	569.31
487.299	607.31
487.517	608.31
487.735	588.31
487.953	596.31
488.171	602.31
488.389	596.31
488.607	603.31
488.825	630.31
489.043	597.31
489.261	615.31
489.479	609.31
489.696	589.31
489.914	597.31
490.132	605.31
490.35	615.31
490.568	607.31
490.786	613.31
491.003	627.31
491.221	627.31
491.439	635.31
491.657	668.31
491.874	638.31
492.092	656.31
492.31	654.31
492.527	649.31
492.745	663.31
492.963	683.31
493.18	671.31
493.398	699.31
493.615	682.31
493.833	692.31
494.05	666.31
494.268	675.31
494.485	643.31
494.703	680.31
494.92	688.31
495.138	668.31
495.355	668.31
495.573	694.31
495.79	702.31
496.008	691.31
496.225	712.31
496.442	716.31
496.66	720.31
496.877	711.31
497.094	718.31
497.312	697.31
497.529	719.31
497.746	761.31
497.963	730.31
498.181	768.31
498.398	814.31
498.615	783.31
498.832	855.31
499.049	861.31
499.267	908.31
499.484	976.31
499.701	1003.31
499.918	1056.31
500.135	1136.31
500.352	1190.31
500.569	1216.31
500.786	1232.31
501.003	1205.31
501.22	1162.31
501.437	1087.31
501.654	1015.31
501.871	985.31
