Data from 1962.PennyLincolnUp.Lamp.En5.5.200Scan.071719.P1._HRD10591_13-54-51-061.txt Node
Date: Thu Jul 18 13:54:51 EDT 2019
User: cochatt
Spectrometer: HR+D1059
Trigger mode: 1
Integration Time (sec): 1.000000E-1
Scans to average: 1
Electric dark correction enabled: true
Nonlinearity correction enabled: false
Boxcar width: 0
XAxis mode: Wavelengths
Number of Pixels in Spectrum: 2048
>>>>>Begin Spectral Data<<<<<
223.165	-19.75
223.4	-19.75
223.635	-19.75
223.869	-7.75
224.104	-28.75
224.338	-8.75
224.573	-14.75
224.808	-12.75
225.042	-11.75
225.277	-8.75
225.511	3.25
225.746	13.25
225.98	5.25
226.215	10.25
226.449	22.25
226.683	7.25
226.918	25.25
227.152	26.25
227.387	31.25
227.621	29.25
227.856	40.25
228.09	44.25
228.324	65.25
228.559	42.25
228.793	60.25
229.027	90.25
229.262	97.25
229.496	96.25
229.73	115.25
229.964	135.25
230.199	115.25
230.433	97.25
230.667	113.25
230.901	115.25
231.136	113.25
231.37	106.25
231.604	104.25
231.838	99.25
232.072	93.25
232.306	107.25
232.541	102.25
232.775	106.25
233.009	104.25
233.243	108.25
233.477	116.25
233.711	108.25
233.945	123.25
234.179	100.25
234.413	111.25
234.647	116.25
234.881	124.25
235.115	107.25
235.349	119.25
235.583	115.25
235.817	124.25
236.051	106.25
236.285	120.25
236.519	131.25
236.753	130.25
236.987	132.25
237.221	150.25
237.455	195.25
237.689	171.25
237.922	128.25
238.156	122.25
238.39	119.25
238.624	107.25
238.858	113.25
239.091	120.25
239.325	124.25
239.559	121.25
239.793	114.25
240.027	114.25
240.26	145.25
240.494	130.25
240.728	142.25
240.961	130.25
241.195	140.25
241.429	135.25
241.662	138.25
241.896	124.25
242.13	120.25
242.363	111.25
242.597	123.25
242.83	136.25
243.064	125.25
243.298	139.25
243.531	133.25
243.765	135.25
243.998	131.25
244.232	140.25
244.465	139.25
244.699	146.25
244.932	138.25
245.166	154.25
245.399	134.25
245.633	127.25
245.866	133.25
246.099	154.25
246.333	147.25
246.566	140.25
246.8	155.25
247.033	152.25
247.266	155.25
247.5	166.25
247.733	154.25
247.966	144.25
248.2	151.25
248.433	159.25
248.666	155.25
248.899	166.25
249.133	178.25
249.366	192.25
249.599	180.25
249.832	165.25
250.066	170.25
250.299	172.25
250.532	159.25
250.765	179.25
250.998	208.25
251.231	194.25
251.465	203.25
251.698	169.25
251.931	193.25
252.164	172.25
252.397	176.25
252.63	185.25
252.863	188.25
253.096	201.25
253.329	186.25
253.562	190.25
253.795	181.25
254.028	197.25
254.261	192.25
254.494	204.25
254.727	229.25
254.96	244.25
255.193	241.25
255.426	195.25
255.659	199.25
255.892	213.25
256.124	198.25
256.357	193.25
256.59	210.25
256.823	212.25
257.056	202.25
257.289	194.25
257.521	195.25
257.754	184.25
257.987	194.25
258.22	196.25
258.452	189.25
258.685	202.25
258.918	186.25
259.151	204.25
259.383	201.25
259.616	201.25
259.849	213.25
260.081	225.25
260.314	227.25
260.547	227.25
260.779	217.25
261.012	205.25
261.244	206.25
261.477	218.25
261.71	204.25
261.942	204.25
262.175	211.25
262.407	216.25
262.64	208.25
262.872	196.25
263.105	217.25
263.337	208.25
263.57	208.25
263.802	195.25
264.035	186.25
264.267	189.25
264.499	202.25
264.732	210.25
264.964	209.25
265.197	210.25
265.429	209.25
265.661	203.25
265.894	217.25
266.126	192.25
266.358	217.25
266.591	211.25
266.823	240.25
267.055	209.25
267.287	206.25
267.52	209.25
267.752	208.25
267.984	217.25
268.216	212.25
268.448	213.25
268.681	220.25
268.913	226.25
269.145	252.25
269.377	236.25
269.609	243.25
269.841	255.25
270.073	252.25
270.306	270.25
270.538	299.25
270.77	293.25
271.002	284.25
271.234	259.25
271.466	277.25
271.698	269.25
271.93	282.25
272.162	275.25
272.394	296.25
272.626	293.25
272.858	275.25
273.09	243.25
273.322	269.25
273.553	258.25
273.785	248.25
274.017	268.25
274.249	273.25
274.481	244.25
274.713	269.25
274.945	247.25
275.176	263.25
275.408	259.25
275.64	246.25
275.872	234.25
276.104	269.25
276.335	250.25
276.567	273.25
276.799	282.25
277.031	287.25
277.262	279.25
277.494	290.25
277.726	271.25
277.957	262.25
278.189	266.25
278.421	270.25
278.652	272.25
278.884	260.25
279.115	286.25
279.347	244.25
279.579	290.25
279.81	274.25
280.042	270.25
280.273	272.25
280.505	259.25
280.736	252.25
280.968	271.25
281.199	262.25
281.431	279.25
281.662	285.25
281.894	295.25
282.125	281.25
282.356	288.25
282.588	310.25
282.819	295.25
283.051	258.25
283.282	284.25
283.513	278.25
283.745	289.25
283.976	282.25
284.207	273.25
284.439	289.25
284.67	299.25
284.901	276.25
285.132	291.25
285.364	282.25
285.595	268.25
285.826	279.25
286.057	287.25
286.288	282.25
286.52	287.25
286.751	292.25
286.982	298.25
287.213	290.25
287.444	305.25
287.675	279.25
287.906	286.25
288.138	308.25
288.369	311.25
288.6	316.25
288.831	299.25
289.062	282.25
289.293	305.25
289.524	307.25
289.755	288.25
289.986	309.25
290.217	305.25
290.448	283.25
290.679	296.25
290.91	296.25
291.141	298.25
291.371	298.25
291.602	282.25
291.833	281.25
292.064	298.25
292.295	299.25
292.526	291.25
292.757	312.25
292.987	283.25
293.218	281.25
293.449	298.25
293.68	301.25
293.91	317.25
294.141	289.25
294.372	309.25
294.603	310.25
294.833	307.25
295.064	289.25
295.295	288.25
295.525	307.25
295.756	307.25
295.987	300.25
296.217	326.25
296.448	321.25
296.679	306.25
296.909	291.25
297.14	318.25
297.37	313.25
297.601	311.25
297.831	314.25
298.062	296.25
298.292	322.25
298.523	315.25
298.753	314.25
298.984	290.25
299.214	307.25
299.445	331.25
299.675	330.25
299.905	316.25
300.136	317.25
300.366	297.25
300.597	316.25
300.827	313.25
301.057	324.25
301.288	328.25
301.518	316.25
301.748	319.25
301.979	334.25
302.209	343.25
302.439	346.25
302.669	341.25
302.9	345.25
303.13	338.25
303.36	331.25
303.59	345.25
303.82	327.25
304.051	355.25
304.281	342.25
304.511	339.25
304.741	324.25
304.971	319.25
305.201	343.25
305.431	344.25
305.661	345.25
305.891	323.25
306.121	342.25
306.352	325.25
306.582	322.25
306.812	331.25
307.042	336.25
307.272	321.25
307.502	328.25
307.731	327.25
307.961	331.25
308.191	336.25
308.421	333.25
308.651	337.25
308.881	330.25
309.111	339.25
309.341	346.25
309.571	346.25
309.8	372.25
310.03	351.25
310.26	356.25
310.49	358.25
310.72	365.25
310.949	359.25
311.179	362.25
311.409	385.25
311.639	385.25
311.868	383.25
312.098	373.25
312.328	340.25
312.557	364.25
312.787	374.25
313.017	375.25
313.246	375.25
313.476	379.25
313.706	370.25
313.935	383.25
314.165	378.25
314.394	383.25
314.624	372.25
314.853	374.25
315.083	374.25
315.312	352.25
315.542	356.25
315.771	353.25
316.001	373.25
316.23	379.25
316.46	362.25
316.689	372.25
316.919	380.25
317.148	383.25
317.377	391.25
317.607	367.25
317.836	384.25
318.065	371.25
318.295	358.25
318.524	377.25
318.753	373.25
318.983	379.25
319.212	373.25
319.441	381.25
319.67	372.25
319.9	375.25
320.129	371.25
320.358	380.25
320.587	380.25
320.816	378.25
321.046	373.25
321.275	400.25
321.504	384.25
321.733	381.25
321.962	388.25
322.191	369.25
322.42	395.25
322.649	402.25
322.878	423.25
323.108	407.25
323.337	428.25
323.566	435.25
323.795	454.25
324.024	495.25
324.253	563.25
324.482	701.25
324.71	1029.25
324.939	1446.25
325.168	1260.25
325.397	723.25
325.626	535.25
325.855	472.25
326.084	457.25
326.313	438.25
326.542	453.25
326.77	461.25
326.999	546.25
327.228	693.25
327.457	930.25
327.686	1129.25
327.914	799.25
328.143	581.25
328.372	515.25
328.6	492.25
328.829	467.25
329.058	497.25
329.287	500.25
329.515	477.25
329.744	445.25
329.972	464.25
330.201	480.25
330.43	471.25
330.658	488.25
330.887	507.25
331.115	506.25
331.344	453.25
331.572	449.25
331.801	465.25
332.03	471.25
332.258	457.25
332.486	467.25
332.715	468.25
332.943	469.25
333.172	467.25
333.4	457.25
333.629	470.25
333.857	477.25
334.085	484.25
334.314	500.25
334.542	513.25
334.771	520.25
334.999	483.25
335.227	482.25
335.455	473.25
335.684	477.25
335.912	467.25
336.14	450.25
336.369	438.25
336.597	445.25
336.825	465.25
337.053	480.25
337.281	465.25
337.51	443.25
337.738	434.25
337.966	444.25
338.194	460.25
338.422	427.25
338.65	428.25
338.878	412.25
339.106	415.25
339.334	457.25
339.562	429.25
339.79	440.25
340.018	433.25
340.246	415.25
340.474	434.25
340.702	421.25
340.93	403.25
341.158	409.25
341.386	422.25
341.614	442.25
341.842	409.25
342.07	417.25
342.298	423.25
342.526	426.25
342.754	412.25
342.981	412.25
343.209	420.25
343.437	452.25
343.665	435.25
343.893	452.25
344.12	466.25
344.348	469.25
344.576	461.25
344.804	452.25
345.031	450.25
345.259	449.25
345.487	429.25
345.714	436.25
345.942	435.25
346.17	429.25
346.397	403.25
346.625	420.25
346.853	423.25
347.08	404.25
347.308	401.25
347.535	403.25
347.763	405.25
347.99	395.25
348.218	425.25
348.445	394.25
348.673	409.25
348.9	407.25
349.128	409.25
349.355	388.25
349.583	400.25
349.81	407.25
350.037	413.25
350.265	405.25
350.492	400.25
350.72	398.25
350.947	426.25
351.174	402.25
351.402	423.25
351.629	402.25
351.856	409.25
352.083	415.25
352.311	434.25
352.538	435.25
352.765	412.25
352.992	401.25
353.22	404.25
353.447	386.25
353.674	404.25
353.901	386.25
354.128	405.25
354.355	407.25
354.583	390.25
354.81	385.25
355.037	407.25
355.264	379.25
355.491	388.25
355.718	371.25
355.945	391.25
356.172	371.25
356.399	397.25
356.626	385.25
356.853	388.25
357.08	382.25
357.307	389.25
357.534	393.25
357.761	385.25
357.988	387.25
358.215	384.25
358.441	376.25
358.668	382.25
358.895	381.25
359.122	401.25
359.349	397.25
359.576	383.25
359.802	402.25
360.029	410.25
360.256	411.25
360.483	409.25
360.709	419.25
360.936	395.25
361.163	396.25
361.39	410.25
361.616	418.25
361.843	397.25
362.07	407.25
362.296	395.25
362.523	415.25
362.749	415.25
362.976	407.25
363.203	403.25
363.429	385.25
363.656	378.25
363.882	400.25
364.109	394.25
364.335	414.25
364.562	404.25
364.788	404.25
365.015	415.25
365.241	407.25
365.468	407.25
365.694	395.25
365.92	415.25
366.147	371.25
366.373	396.25
366.599	401.25
366.826	408.25
367.052	378.25
367.278	400.25
367.505	371.25
367.731	396.25
367.957	388.25
368.184	404.25
368.41	406.25
368.636	399.25
368.862	397.25
369.089	419.25
369.315	401.25
369.541	411.25
369.767	377.25
369.993	395.25
370.219	415.25
370.445	404.25
370.672	378.25
370.898	397.25
371.124	394.25
371.35	386.25
371.576	412.25
371.802	389.25
372.028	410.25
372.254	412.25
372.48	395.25
372.706	420.25
372.932	407.25
373.158	428.25
373.384	417.25
373.61	409.25
373.835	405.25
374.061	406.25
374.287	414.25
374.513	421.25
374.739	411.25
374.965	412.25
375.191	430.25
375.416	411.25
375.642	405.25
375.868	402.25
376.094	408.25
376.319	392.25
376.545	401.25
376.771	403.25
376.997	416.25
377.222	410.25
377.448	423.25
377.674	393.25
377.899	390.25
378.125	405.25
378.35	411.25
378.576	412.25
378.802	383.25
379.027	422.25
379.253	425.25
379.478	382.25
379.704	397.25
379.929	406.25
380.155	419.25
380.38	433.25
380.606	402.25
380.831	393.25
381.057	424.25
381.282	409.25
381.507	400.25
381.733	407.25
381.958	405.25
382.184	422.25
382.409	392.25
382.634	437.25
382.86	419.25
383.085	435.25
383.31	434.25
383.535	433.25
383.761	415.25
383.986	429.25
384.211	439.25
384.436	421.25
384.662	443.25
384.887	458.25
385.112	447.25
385.337	465.25
385.562	443.25
385.787	452.25
386.013	435.25
386.238	458.25
386.463	461.25
386.688	473.25
386.913	464.25
387.138	483.25
387.363	473.25
387.588	460.25
387.813	459.25
388.038	447.25
388.263	459.25
388.488	469.25
388.713	482.25
388.938	454.25
389.163	459.25
389.387	457.25
389.612	456.25
389.837	461.25
390.062	459.25
390.287	461.25
390.512	453.25
390.736	451.25
390.961	455.25
391.186	465.25
391.411	463.25
391.636	466.25
391.86	487.25
392.085	484.25
392.31	497.25
392.534	472.25
392.759	497.25
392.984	470.25
393.208	473.25
393.433	464.25
393.658	454.25
393.882	466.25
394.107	465.25
394.331	482.25
394.556	476.25
394.78	484.25
395.005	476.25
395.229	479.25
395.454	499.25
395.678	509.25
395.903	485.25
396.127	505.25
396.352	499.25
396.576	484.25
396.801	467.25
397.025	483.25
397.249	509.25
397.474	501.25
397.698	503.25
397.922	540.25
398.147	514.25
398.371	535.25
398.595	533.25
398.82	530.25
399.044	585.25
399.268	597.25
399.492	645.25
399.717	668.25
399.941	692.25
400.165	688.25
400.389	674.25
400.613	626.25
400.837	589.25
401.062	544.25
401.286	577.25
401.51	563.25
401.734	571.25
401.958	563.25
402.182	548.25
402.406	559.25
402.63	554.25
402.854	552.25
403.078	585.25
403.302	551.25
403.526	567.25
403.75	571.25
403.974	601.25
404.198	575.25
404.422	602.25
404.645	585.25
404.869	582.25
405.093	587.25
405.317	651.25
405.541	682.25
405.765	616.25
405.988	590.25
406.212	580.25
406.436	597.25
406.66	625.25
406.883	603.25
407.107	645.25
407.331	651.25
407.555	708.25
407.778	727.25
408.002	675.25
408.226	656.25
408.449	623.25
408.673	616.25
408.896	635.25
409.12	643.25
409.344	637.25
409.567	611.25
409.791	588.25
410.014	566.25
410.238	543.25
410.461	552.25
410.685	579.25
410.908	575.25
411.132	610.25
411.355	638.25
411.578	608.25
411.802	569.25
412.025	571.25
412.249	576.25
412.472	573.25
412.695	610.25
412.919	603.25
413.142	597.25
413.365	573.25
413.589	553.25
413.812	556.25
414.035	544.25
414.258	551.25
414.482	554.25
414.705	539.25
414.928	531.25
415.151	522.25
415.374	534.25
415.597	552.25
415.821	533.25
416.044	515.25
416.267	512.25
416.49	538.25
416.713	532.25
416.936	539.25
417.159	529.25
417.382	520.25
417.605	515.25
417.828	524.25
418.051	549.25
418.274	560.25
418.497	523.25
418.72	549.25
418.943	535.25
419.166	559.25
419.389	595.25
419.611	584.25
419.834	547.25
420.057	561.25
420.28	548.25
420.503	543.25
420.726	556.25
420.948	569.25
421.171	585.25
421.394	616.25
421.617	568.25
421.839	524.25
422.062	560.25
422.285	569.25
422.507	627.25
422.73	653.25
422.953	632.25
423.175	588.25
423.398	568.25
423.621	580.25
423.843	578.25
424.066	596.25
424.288	585.25
424.511	604.25
424.733	619.25
424.956	679.25
425.178	650.25
425.401	662.25
425.623	685.25
425.846	606.25
426.068	544.25
426.291	541.25
426.513	576.25
426.735	559.25
426.958	604.25
427.18	639.25
427.402	744.25
427.625	852.25
427.847	708.25
428.069	645.25
428.292	588.25
428.514	556.25
428.736	528.25
428.958	536.25
429.181	514.25
429.403	523.25
429.625	525.25
429.847	543.25
430.069	584.25
430.292	570.25
430.514	549.25
430.736	517.25
430.958	538.25
431.18	488.25
431.402	507.25
431.624	510.25
431.846	509.25
432.068	511.25
432.29	503.25
432.512	519.25
432.734	500.25
432.956	531.25
433.178	489.25
433.4	504.25
433.622	499.25
433.844	507.25
434.066	499.25
434.287	512.25
434.509	499.25
434.731	515.25
434.953	532.25
435.175	573.25
435.397	561.25
435.618	548.25
435.84	605.25
436.062	664.25
436.284	709.25
436.505	603.25
436.727	569.25
436.949	535.25
437.17	528.25
437.392	535.25
437.614	531.25
437.835	531.25
438.057	615.25
438.278	667.25
438.5	681.25
438.721	740.25
438.943	699.25
439.165	585.25
439.386	575.25
439.608	552.25
439.829	517.25
440.05	531.25
440.272	579.25
440.493	553.25
440.715	556.25
440.936	541.25
441.158	531.25
441.379	527.25
441.6	532.25
441.822	551.25
442.043	605.25
442.264	662.25
442.486	673.25
442.707	601.25
442.928	555.25
443.149	544.25
443.371	586.25
443.592	614.25
443.813	696.25
444.034	730.25
444.255	635.25
444.476	593.25
444.698	617.25
444.919	585.25
445.14	704.25
445.361	637.25
445.582	603.25
445.803	628.25
446.024	693.25
446.245	681.25
446.466	650.25
446.687	573.25
446.908	529.25
447.129	539.25
447.35	532.25
447.571	504.25
447.792	521.25
448.013	518.25
448.234	521.25
448.455	539.25
448.675	641.25
448.896	719.25
449.117	641.25
449.338	604.25
449.559	663.25
449.779	739.25
450	617.25
450.221	544.25
450.442	489.25
450.662	481.25
450.883	476.25
451.104	509.25
451.324	498.25
451.545	460.25
451.766	469.25
451.986	457.25
452.207	475.25
452.428	452.25
452.648	466.25
452.869	441.25
453.089	458.25
453.31	476.25
453.53	479.25
453.751	463.25
453.971	473.25
454.192	465.25
454.412	456.25
454.633	464.25
454.853	476.25
455.073	444.25
455.294	467.25
455.514	501.25
455.734	495.25
455.955	481.25
456.175	440.25
456.395	428.25
456.616	440.25
456.836	451.25
457.056	444.25
457.276	440.25
457.497	451.25
457.717	450.25
457.937	455.25
458.157	456.25
458.377	444.25
458.598	472.25
458.818	499.25
459.038	539.25
459.258	559.25
459.478	521.25
459.698	504.25
459.918	533.25
460.138	515.25
460.358	550.25
460.578	534.25
460.798	546.25
461.018	554.25
461.238	547.25
461.458	546.25
461.678	523.25
461.898	564.25
462.118	532.25
462.338	553.25
462.558	556.25
462.777	571.25
462.997	617.25
463.217	643.25
463.437	628.25
463.657	599.25
463.876	610.25
464.096	589.25
464.316	590.25
464.536	593.25
464.755	594.25
464.975	558.25
465.195	584.25
465.414	614.25
465.634	566.25
465.854	531.25
466.073	507.25
466.293	512.25
466.512	483.25
466.732	489.25
466.951	475.25
467.171	476.25
467.391	497.25
467.61	483.25
467.829	480.25
468.049	463.25
468.268	480.25
468.488	467.25
468.707	475.25
468.927	450.25
469.146	457.25
469.365	452.25
469.585	491.25
469.804	487.25
470.023	476.25
470.243	467.25
470.462	506.25
470.681	511.25
470.901	498.25
471.12	505.25
471.339	486.25
471.558	480.25
471.777	473.25
471.997	482.25
472.216	479.25
472.435	500.25
472.654	481.25
472.873	459.25
473.092	482.25
473.311	472.25
473.53	463.25
473.749	473.25
473.968	508.25
474.187	577.25
474.406	597.25
474.625	505.25
474.844	473.25
475.063	491.25
475.282	470.25
475.501	487.25
475.72	482.25
475.939	483.25
476.158	491.25
476.377	485.25
476.596	480.25
476.814	501.25
477.033	500.25
477.252	516.25
477.471	526.25
477.69	515.25
477.908	547.25
478.127	533.25
478.346	544.25
478.564	530.25
478.783	577.25
479.002	543.25
479.22	552.25
479.439	557.25
479.658	570.25
479.876	596.25
480.095	609.25
480.313	598.25
480.532	617.25
480.751	611.25
480.969	601.25
481.188	619.25
481.406	636.25
481.624	605.25
481.843	556.25
482.061	593.25
482.28	585.25
482.498	550.25
482.717	574.25
482.935	563.25
483.153	552.25
483.372	543.25
483.59	565.25
483.808	546.25
484.027	568.25
484.245	585.25
484.463	569.25
484.681	583.25
484.9	582.25
485.118	577.25
485.336	610.25
485.554	577.25
485.772	567.25
485.99	594.25
486.209	577.25
486.427	590.25
486.645	590.25
486.863	578.25
487.081	608.25
487.299	567.25
487.517	610.25
487.735	589.25
487.953	592.25
488.171	591.25
488.389	605.25
488.607	588.25
488.825	591.25
489.043	574.25
489.261	599.25
489.479	580.25
489.696	620.25
489.914	598.25
490.132	597.25
490.35	604.25
490.568	613.25
490.786	600.25
491.003	631.25
491.221	644.25
491.439	639.25
491.657	637.25
491.874	648.25
492.092	661.25
492.31	653.25
492.527	659.25
492.745	672.25
492.963	657.25
493.18	667.25
493.398	665.25
493.615	678.25
493.833	664.25
494.05	659.25
494.268	666.25
494.485	669.25
494.703	650.25
494.92	664.25
495.138	669.25
495.355	694.25
495.573	665.25
495.79	675.25
496.008	693.25
496.225	712.25
496.442	700.25
496.66	708.25
496.877	708.25
497.094	709.25
497.312	698.25
497.529	719.25
497.746	720.25
497.963	758.25
498.181	770.25
498.398	813.25
498.615	835.25
498.832	843.25
499.049	880.25
499.267	897.25
499.484	973.25
499.701	998.25
499.918	1048.25
500.135	1122.25
500.352	1191.25
500.569	1231.25
500.786	1229.25
501.003	1193.25
501.22	1144.25
501.437	1083.25
501.654	1013.25
501.871	982.25
