Data from 1962.PennyLincolnUp.Lamp.En5.5.200Scan.071719.P1._HRD10591_13-53-21-061.txt Node
Date: Thu Jul 18 13:53:21 EDT 2019
User: cochatt
Spectrometer: HR+D1059
Trigger mode: 1
Integration Time (sec): 1.000000E-1
Scans to average: 1
Electric dark correction enabled: true
Nonlinearity correction enabled: false
Boxcar width: 0
XAxis mode: Wavelengths
Number of Pixels in Spectrum: 2048
>>>>>Begin Spectral Data<<<<<
223.165	-17.75
223.4	-17.75
223.635	-17.75
223.869	-16.75
224.104	-5.75
224.338	-15.75
224.573	-21.75
224.808	-15.75
225.042	-15.75
225.277	-7.75
225.511	-4.75
225.746	8.25
225.98	3.25
226.215	13.25
226.449	18.25
226.683	20.25
226.918	24.25
227.152	34.25
227.387	53.25
227.621	45.25
227.856	50.25
228.09	44.25
228.324	58.25
228.559	63.25
228.793	75.25
229.027	84.25
229.262	98.25
229.496	88.25
229.73	90.25
229.964	112.25
230.199	103.25
230.433	101.25
230.667	116.25
230.901	108.25
231.136	104.25
231.37	110.25
231.604	106.25
231.838	120.25
232.072	108.25
232.306	116.25
232.541	116.25
232.775	109.25
233.009	112.25
233.243	108.25
233.477	110.25
233.711	117.25
233.945	103.25
234.179	116.25
234.413	108.25
234.647	106.25
234.881	118.25
235.115	111.25
235.349	103.25
235.583	112.25
235.817	94.25
236.051	116.25
236.285	115.25
236.519	126.25
236.753	116.25
236.987	139.25
237.221	146.25
237.455	170.25
237.689	163.25
237.922	121.25
238.156	123.25
238.39	108.25
238.624	116.25
238.858	108.25
239.091	116.25
239.325	110.25
239.559	120.25
239.793	108.25
240.027	132.25
240.26	129.25
240.494	138.25
240.728	136.25
240.961	131.25
241.195	120.25
241.429	135.25
241.662	125.25
241.896	121.25
242.13	125.25
242.363	134.25
242.597	122.25
242.83	139.25
243.064	128.25
243.298	156.25
243.531	138.25
243.765	131.25
243.998	145.25
244.232	139.25
244.465	150.25
244.699	133.25
244.932	128.25
245.166	141.25
245.399	152.25
245.633	138.25
245.866	123.25
246.099	145.25
246.333	144.25
246.566	151.25
246.8	154.25
247.033	154.25
247.266	141.25
247.5	151.25
247.733	154.25
247.966	148.25
248.2	163.25
248.433	158.25
248.666	181.25
248.899	159.25
249.133	179.25
249.366	181.25
249.599	157.25
249.832	174.25
250.066	165.25
250.299	163.25
250.532	179.25
250.765	193.25
250.998	184.25
251.231	186.25
251.465	198.25
251.698	185.25
251.931	186.25
252.164	155.25
252.397	182.25
252.63	180.25
252.863	175.25
253.096	172.25
253.329	216.25
253.562	212.25
253.795	191.25
254.028	162.25
254.261	180.25
254.494	192.25
254.727	203.25
254.96	218.25
255.193	212.25
255.426	206.25
255.659	195.25
255.892	207.25
256.124	189.25
256.357	213.25
256.59	192.25
256.823	188.25
257.056	189.25
257.289	187.25
257.521	197.25
257.754	189.25
257.987	186.25
258.22	188.25
258.452	191.25
258.685	201.25
258.918	208.25
259.151	196.25
259.383	206.25
259.616	202.25
259.849	206.25
260.081	206.25
260.314	212.25
260.547	218.25
260.779	212.25
261.012	215.25
261.244	198.25
261.477	202.25
261.71	199.25
261.942	194.25
262.175	196.25
262.407	199.25
262.64	188.25
262.872	194.25
263.105	186.25
263.337	209.25
263.57	193.25
263.802	210.25
264.035	202.25
264.267	191.25
264.499	188.25
264.732	202.25
264.964	208.25
265.197	198.25
265.429	207.25
265.661	207.25
265.894	191.25
266.126	201.25
266.358	190.25
266.591	205.25
266.823	200.25
267.055	208.25
267.287	202.25
267.52	205.25
267.752	228.25
267.984	218.25
268.216	216.25
268.448	203.25
268.681	236.25
268.913	232.25
269.145	229.25
269.377	249.25
269.609	267.25
269.841	253.25
270.073	250.25
270.306	259.25
270.538	262.25
270.77	243.25
271.002	257.25
271.234	250.25
271.466	250.25
271.698	264.25
271.93	267.25
272.162	285.25
272.394	255.25
272.626	274.25
272.858	248.25
273.09	252.25
273.322	245.25
273.553	246.25
273.785	265.25
274.017	246.25
274.249	233.25
274.481	244.25
274.713	248.25
274.945	222.25
275.176	239.25
275.408	258.25
275.64	237.25
275.872	260.25
276.104	248.25
276.335	237.25
276.567	262.25
276.799	263.25
277.031	254.25
277.262	268.25
277.494	268.25
277.726	265.25
277.957	260.25
278.189	265.25
278.421	243.25
278.652	260.25
278.884	246.25
279.115	260.25
279.347	246.25
279.579	249.25
279.81	261.25
280.042	251.25
280.273	276.25
280.505	254.25
280.736	261.25
280.968	264.25
281.199	250.25
281.431	267.25
281.662	255.25
281.894	272.25
282.125	269.25
282.356	283.25
282.588	292.25
282.819	284.25
283.051	266.25
283.282	273.25
283.513	270.25
283.745	260.25
283.976	277.25
284.207	275.25
284.439	264.25
284.67	273.25
284.901	280.25
285.132	291.25
285.364	274.25
285.595	278.25
285.826	285.25
286.057	280.25
286.288	285.25
286.52	257.25
286.751	287.25
286.982	280.25
287.213	278.25
287.444	285.25
287.675	273.25
287.906	285.25
288.138	296.25
288.369	290.25
288.6	286.25
288.831	280.25
289.062	277.25
289.293	287.25
289.524	284.25
289.755	308.25
289.986	303.25
290.217	304.25
290.448	300.25
290.679	299.25
290.91	285.25
291.141	307.25
291.371	285.25
291.602	283.25
291.833	299.25
292.064	292.25
292.295	278.25
292.526	288.25
292.757	287.25
292.987	288.25
293.218	280.25
293.449	294.25
293.68	303.25
293.91	299.25
294.141	301.25
294.372	286.25
294.603	299.25
294.833	304.25
295.064	299.25
295.295	296.25
295.525	307.25
295.756	291.25
295.987	310.25
296.217	301.25
296.448	285.25
296.679	289.25
296.909	290.25
297.14	315.25
297.37	300.25
297.601	287.25
297.831	315.25
298.062	301.25
298.292	302.25
298.523	314.25
298.753	305.25
298.984	298.25
299.214	306.25
299.445	303.25
299.675	303.25
299.905	311.25
300.136	308.25
300.366	306.25
300.597	314.25
300.827	314.25
301.057	322.25
301.288	321.25
301.518	324.25
301.748	329.25
301.979	335.25
302.209	316.25
302.439	314.25
302.669	310.25
302.9	318.25
303.13	323.25
303.36	352.25
303.59	337.25
303.82	324.25
304.051	333.25
304.281	312.25
304.511	326.25
304.741	319.25
304.971	332.25
305.201	323.25
305.431	339.25
305.661	316.25
305.891	341.25
306.121	346.25
306.352	338.25
306.582	329.25
306.812	334.25
307.042	329.25
307.272	325.25
307.502	323.25
307.731	332.25
307.961	308.25
308.191	340.25
308.421	307.25
308.651	319.25
308.881	330.25
309.111	345.25
309.341	346.25
309.571	334.25
309.8	335.25
310.03	344.25
310.26	343.25
310.49	348.25
310.72	351.25
310.949	356.25
311.179	336.25
311.409	341.25
311.639	356.25
311.868	342.25
312.098	352.25
312.328	366.25
312.557	370.25
312.787	363.25
313.017	373.25
313.246	348.25
313.476	370.25
313.706	362.25
313.935	378.25
314.165	361.25
314.394	376.25
314.624	386.25
314.853	371.25
315.083	374.25
315.312	351.25
315.542	353.25
315.771	357.25
316.001	363.25
316.23	358.25
316.46	355.25
316.689	363.25
316.919	358.25
317.148	367.25
317.377	381.25
317.607	356.25
317.836	384.25
318.065	343.25
318.295	365.25
318.524	382.25
318.753	370.25
318.983	363.25
319.212	346.25
319.441	366.25
319.67	375.25
319.9	356.25
320.129	367.25
320.358	371.25
320.587	359.25
320.816	344.25
321.046	392.25
321.275	392.25
321.504	375.25
321.733	389.25
321.962	372.25
322.191	380.25
322.42	378.25
322.649	376.25
322.878	390.25
323.108	390.25
323.337	392.25
323.566	394.25
323.795	412.25
324.024	438.25
324.253	482.25
324.482	612.25
324.71	865.25
324.939	1219.25
325.168	1087.25
325.397	596.25
325.626	479.25
325.855	431.25
326.084	409.25
326.313	416.25
326.542	398.25
326.77	452.25
326.999	506.25
327.228	612.25
327.457	820.25
327.686	962.25
327.914	698.25
328.143	526.25
328.372	499.25
328.6	463.25
328.829	445.25
329.058	450.25
329.287	450.25
329.515	442.25
329.744	440.25
329.972	421.25
330.201	454.25
330.43	454.25
330.658	463.25
330.887	455.25
331.115	487.25
331.344	435.25
331.572	431.25
331.801	438.25
332.03	434.25
332.258	426.25
332.486	409.25
332.715	456.25
332.943	439.25
333.172	443.25
333.4	437.25
333.629	471.25
333.857	449.25
334.085	463.25
334.314	479.25
334.542	482.25
334.771	487.25
334.999	471.25
335.227	461.25
335.455	469.25
335.684	461.25
335.912	438.25
336.14	426.25
336.369	430.25
336.597	447.25
336.825	446.25
337.053	430.25
337.281	431.25
337.51	432.25
337.738	421.25
337.966	435.25
338.194	421.25
338.422	430.25
338.65	449.25
338.878	428.25
339.106	410.25
339.334	429.25
339.562	427.25
339.79	422.25
340.018	419.25
340.246	395.25
340.474	407.25
340.702	439.25
340.93	411.25
341.158	402.25
341.386	416.25
341.614	424.25
341.842	404.25
342.07	427.25
342.298	396.25
342.526	384.25
342.754	391.25
342.981	396.25
343.209	387.25
343.437	408.25
343.665	432.25
343.893	439.25
344.12	448.25
344.348	453.25
344.576	422.25
344.804	447.25
345.031	425.25
345.259	420.25
345.487	429.25
345.714	415.25
345.942	418.25
346.17	398.25
346.397	412.25
346.625	414.25
346.853	397.25
347.08	395.25
347.308	417.25
347.535	412.25
347.763	418.25
347.99	414.25
348.218	404.25
348.445	398.25
348.673	391.25
348.9	404.25
349.128	396.25
349.355	388.25
349.583	378.25
349.81	378.25
350.037	398.25
350.265	368.25
350.492	386.25
350.72	388.25
350.947	396.25
351.174	393.25
351.402	391.25
351.629	408.25
351.856	407.25
352.083	375.25
352.311	393.25
352.538	403.25
352.765	391.25
352.992	397.25
353.22	386.25
353.447	397.25
353.674	382.25
353.901	384.25
354.128	376.25
354.355	395.25
354.583	386.25
354.81	377.25
355.037	389.25
355.264	372.25
355.491	366.25
355.718	370.25
355.945	378.25
356.172	387.25
356.399	391.25
356.626	395.25
356.853	379.25
357.08	388.25
357.307	386.25
357.534	388.25
357.761	375.25
357.988	386.25
358.215	373.25
358.441	377.25
358.668	371.25
358.895	378.25
359.122	370.25
359.349	393.25
359.576	387.25
359.802	389.25
360.029	393.25
360.256	401.25
360.483	402.25
360.709	372.25
360.936	404.25
361.163	410.25
361.39	410.25
361.616	399.25
361.843	397.25
362.07	391.25
362.296	371.25
362.523	384.25
362.749	396.25
362.976	369.25
363.203	396.25
363.429	386.25
363.656	388.25
363.882	389.25
364.109	392.25
364.335	394.25
364.562	371.25
364.788	367.25
365.015	374.25
365.241	380.25
365.468	386.25
365.694	401.25
365.92	386.25
366.147	367.25
366.373	380.25
366.599	380.25
366.826	392.25
367.052	367.25
367.278	397.25
367.505	379.25
367.731	382.25
367.957	370.25
368.184	380.25
368.41	388.25
368.636	394.25
368.862	386.25
369.089	393.25
369.315	373.25
369.541	392.25
369.767	378.25
369.993	400.25
370.219	387.25
370.445	399.25
370.672	392.25
370.898	402.25
371.124	397.25
371.35	390.25
371.576	400.25
371.802	393.25
372.028	391.25
372.254	390.25
372.48	386.25
372.706	408.25
372.932	397.25
373.158	399.25
373.384	408.25
373.61	413.25
373.835	403.25
374.061	420.25
374.287	398.25
374.513	413.25
374.739	416.25
374.965	418.25
375.191	413.25
375.416	408.25
375.642	410.25
375.868	398.25
376.094	390.25
376.319	409.25
376.545	411.25
376.771	406.25
376.997	404.25
377.222	391.25
377.448	389.25
377.674	378.25
377.899	390.25
378.125	384.25
378.35	391.25
378.576	385.25
378.802	393.25
379.027	419.25
379.253	408.25
379.478	412.25
379.704	395.25
379.929	390.25
380.155	390.25
380.38	400.25
380.606	380.25
380.831	383.25
381.057	392.25
381.282	399.25
381.507	410.25
381.733	403.25
381.958	418.25
382.184	416.25
382.409	394.25
382.634	410.25
382.86	434.25
383.085	403.25
383.31	422.25
383.535	404.25
383.761	427.25
383.986	421.25
384.211	437.25
384.436	425.25
384.662	421.25
384.887	443.25
385.112	450.25
385.337	441.25
385.562	436.25
385.787	447.25
386.013	441.25
386.238	450.25
386.463	454.25
386.688	455.25
386.913	483.25
387.138	442.25
387.363	452.25
387.588	447.25
387.813	465.25
388.038	454.25
388.263	441.25
388.488	451.25
388.713	462.25
388.938	450.25
389.163	458.25
389.387	432.25
389.612	444.25
389.837	453.25
390.062	452.25
390.287	441.25
390.512	431.25
390.736	444.25
390.961	455.25
391.186	457.25
391.411	472.25
391.636	482.25
391.86	461.25
392.085	464.25
392.31	478.25
392.534	469.25
392.759	479.25
392.984	468.25
393.208	476.25
393.433	471.25
393.658	456.25
393.882	453.25
394.107	453.25
394.331	475.25
394.556	461.25
394.78	460.25
395.005	463.25
395.229	464.25
395.454	459.25
395.678	472.25
395.903	498.25
396.127	499.25
396.352	494.25
396.576	473.25
396.801	471.25
397.025	469.25
397.249	499.25
397.474	486.25
397.698	485.25
397.922	490.25
398.147	508.25
398.371	503.25
398.595	510.25
398.82	529.25
399.044	550.25
399.268	580.25
399.492	627.25
399.717	648.25
399.941	685.25
400.165	666.25
400.389	647.25
400.613	612.25
400.837	548.25
401.062	562.25
401.286	546.25
401.51	540.25
401.734	533.25
401.958	544.25
402.182	542.25
402.406	538.25
402.63	547.25
402.854	532.25
403.078	542.25
403.302	554.25
403.526	554.25
403.75	576.25
403.974	565.25
404.198	560.25
404.422	574.25
404.645	575.25
404.869	552.25
405.093	588.25
405.317	622.25
405.541	640.25
405.765	573.25
405.988	557.25
406.212	575.25
406.436	574.25
406.66	597.25
406.883	581.25
407.107	623.25
407.331	643.25
407.555	695.25
407.778	685.25
408.002	638.25
408.226	607.25
408.449	597.25
408.673	617.25
408.896	605.25
409.12	645.25
409.344	611.25
409.567	559.25
409.791	555.25
410.014	569.25
410.238	551.25
410.461	558.25
410.685	540.25
410.908	559.25
411.132	570.25
411.355	590.25
411.578	583.25
411.802	555.25
412.025	555.25
412.249	560.25
412.472	548.25
412.695	582.25
412.919	572.25
413.142	550.25
413.365	556.25
413.589	560.25
413.812	519.25
414.035	538.25
414.258	508.25
414.482	531.25
414.705	534.25
414.928	531.25
415.151	538.25
415.374	528.25
415.597	500.25
415.821	509.25
416.044	522.25
416.267	528.25
416.49	524.25
416.713	519.25
416.936	538.25
417.159	502.25
417.382	511.25
417.605	528.25
417.828	539.25
418.051	539.25
418.274	502.25
418.497	512.25
418.72	519.25
418.943	525.25
419.166	549.25
419.389	567.25
419.611	577.25
419.834	551.25
420.057	552.25
420.28	550.25
420.503	522.25
420.726	539.25
420.948	519.25
421.171	546.25
421.394	589.25
421.617	542.25
421.839	533.25
422.062	497.25
422.285	535.25
422.507	554.25
422.73	616.25
422.953	607.25
423.175	554.25
423.398	566.25
423.621	554.25
423.843	580.25
424.066	571.25
424.288	552.25
424.511	574.25
424.733	604.25
424.956	654.25
425.178	628.25
425.401	616.25
425.623	627.25
425.846	572.25
426.068	556.25
426.291	538.25
426.513	531.25
426.735	529.25
426.958	572.25
427.18	601.25
427.402	706.25
427.625	755.25
427.847	652.25
428.069	603.25
428.292	570.25
428.514	518.25
428.736	514.25
428.958	494.25
429.181	508.25
429.403	482.25
429.625	519.25
429.847	515.25
430.069	578.25
430.292	552.25
430.514	501.25
430.736	506.25
430.958	476.25
431.18	487.25
431.402	480.25
431.624	489.25
431.846	486.25
432.068	470.25
432.29	486.25
432.512	485.25
432.734	498.25
432.956	502.25
433.178	504.25
433.4	498.25
433.622	477.25
433.844	525.25
434.066	498.25
434.287	493.25
434.509	483.25
434.731	499.25
434.953	518.25
435.175	516.25
435.397	539.25
435.618	549.25
435.84	580.25
436.062	631.25
436.284	666.25
436.505	583.25
436.727	520.25
436.949	517.25
437.17	517.25
437.392	503.25
437.614	499.25
437.835	511.25
438.057	558.25
438.278	646.25
438.5	639.25
438.721	711.25
438.943	676.25
439.165	549.25
439.386	523.25
439.608	499.25
439.829	519.25
440.05	517.25
440.272	537.25
440.493	546.25
440.715	506.25
440.936	506.25
441.158	498.25
441.379	494.25
441.6	523.25
441.822	548.25
442.043	558.25
442.264	614.25
442.486	616.25
442.707	571.25
442.928	562.25
443.149	575.25
443.371	566.25
443.592	575.25
443.813	657.25
444.034	699.25
444.255	617.25
444.476	590.25
444.698	591.25
444.919	604.25
445.14	708.25
445.361	603.25
445.582	570.25
445.803	597.25
446.024	642.25
446.245	632.25
446.466	602.25
446.687	534.25
446.908	523.25
447.129	516.25
447.35	516.25
447.571	504.25
447.792	488.25
448.013	494.25
448.234	480.25
448.455	527.25
448.675	586.25
448.896	649.25
449.117	600.25
449.338	554.25
449.559	638.25
449.779	701.25
450	610.25
450.221	524.25
450.442	478.25
450.662	470.25
450.883	465.25
451.104	476.25
451.324	453.25
451.545	455.25
451.766	461.25
451.986	444.25
452.207	428.25
452.428	446.25
452.648	444.25
452.869	457.25
453.089	450.25
453.31	450.25
453.53	456.25
453.751	460.25
453.971	437.25
454.192	458.25
454.412	426.25
454.633	461.25
454.853	430.25
455.073	424.25
455.294	451.25
455.514	479.25
455.734	479.25
455.955	445.25
456.175	447.25
456.395	428.25
456.616	408.25
456.836	442.25
457.056	429.25
457.276	412.25
457.497	427.25
457.717	429.25
457.937	429.25
458.157	430.25
458.377	437.25
458.598	446.25
458.818	498.25
459.038	517.25
459.258	538.25
459.478	511.25
459.698	500.25
459.918	519.25
460.138	532.25
460.358	526.25
460.578	518.25
460.798	514.25
461.018	527.25
461.238	530.25
461.458	539.25
461.678	527.25
461.898	518.25
462.118	519.25
462.338	555.25
462.558	576.25
462.777	573.25
462.997	624.25
463.217	619.25
463.437	628.25
463.657	592.25
463.876	592.25
464.096	562.25
464.316	590.25
464.536	583.25
464.755	570.25
464.975	572.25
465.195	578.25
465.414	557.25
465.634	530.25
465.854	522.25
466.073	498.25
466.293	463.25
466.512	473.25
466.732	470.25
466.951	471.25
467.171	467.25
467.391	468.25
467.61	461.25
467.829	465.25
468.049	467.25
468.268	465.25
468.488	449.25
468.707	446.25
468.927	447.25
469.146	462.25
469.365	445.25
469.585	443.25
469.804	457.25
470.023	480.25
470.243	484.25
470.462	471.25
470.681	474.25
470.901	482.25
471.12	477.25
471.339	468.25
471.558	471.25
471.777	464.25
471.997	458.25
472.216	460.25
472.435	466.25
472.654	481.25
472.873	446.25
473.092	467.25
473.311	445.25
473.53	454.25
473.749	454.25
473.968	483.25
474.187	535.25
474.406	554.25
474.625	491.25
474.844	468.25
475.063	480.25
475.282	452.25
475.501	483.25
475.72	473.25
475.939	467.25
476.158	488.25
476.377	485.25
476.596	463.25
476.814	476.25
477.033	506.25
477.252	477.25
477.471	502.25
477.69	498.25
477.908	513.25
478.127	522.25
478.346	524.25
478.564	558.25
478.783	516.25
479.002	538.25
479.22	538.25
479.439	553.25
479.658	547.25
479.876	577.25
480.095	574.25
480.313	601.25
480.532	613.25
480.751	575.25
480.969	583.25
481.188	591.25
481.406	607.25
481.624	578.25
481.843	558.25
482.061	571.25
482.28	554.25
482.498	551.25
482.717	559.25
482.935	540.25
483.153	531.25
483.372	538.25
483.59	546.25
483.808	531.25
484.027	546.25
484.245	570.25
484.463	556.25
484.681	558.25
484.9	573.25
485.118	572.25
485.336	567.25
485.554	543.25
485.772	573.25
485.99	570.25
486.209	576.25
486.427	578.25
486.645	557.25
486.863	564.25
487.081	582.25
487.299	590.25
487.517	590.25
487.735	555.25
487.953	582.25
488.171	556.25
488.389	560.25
488.607	586.25
488.825	577.25
489.043	564.25
489.261	575.25
489.479	578.25
489.696	573.25
489.914	584.25
490.132	610.25
490.35	579.25
490.568	567.25
490.786	595.25
491.003	591.25
491.221	596.25
491.439	596.25
491.657	604.25
491.874	596.25
492.092	597.25
492.31	610.25
492.527	625.25
492.745	608.25
492.963	628.25
493.18	634.25
493.398	667.25
493.615	627.25
493.833	633.25
494.05	638.25
494.268	638.25
494.485	607.25
494.703	650.25
494.92	658.25
495.138	654.25
495.355	637.25
495.573	638.25
495.79	635.25
496.008	667.25
496.225	641.25
496.442	665.25
496.66	657.25
496.877	664.25
497.094	708.25
497.312	686.25
497.529	706.25
497.746	707.25
497.963	687.25
498.181	752.25
498.398	757.25
498.615	770.25
498.832	803.25
499.049	824.25
499.267	856.25
499.484	917.25
499.701	946.25
499.918	1019.25
500.135	1079.25
500.352	1146.25
500.569	1198.25
500.786	1197.25
501.003	1176.25
501.22	1097.25
501.437	1048.25
501.654	961.25
501.871	922.25
