Data from 1962.PennyLincolnUp.Lamp.En5.5.200Scan.071719.P1._HRD10591_13-53-44-060.txt Node
Date: Thu Jul 18 13:53:44 EDT 2019
User: cochatt
Spectrometer: HR+D1059
Trigger mode: 1
Integration Time (sec): 1.000000E-1
Scans to average: 1
Electric dark correction enabled: true
Nonlinearity correction enabled: false
Boxcar width: 0
XAxis mode: Wavelengths
Number of Pixels in Spectrum: 2048
>>>>>Begin Spectral Data<<<<<
223.165	-7.75
223.4	-7.75
223.635	-7.75
223.869	-15.75
224.104	-15.75
224.338	-16.75
224.573	-13.75
224.808	-21.75
225.042	8.25
225.277	7.25
225.511	-11.75
225.746	-2.75
225.98	-3.75
226.215	16.25
226.449	14.25
226.683	13.25
226.918	20.25
227.152	30.25
227.387	27.25
227.621	36.25
227.856	51.25
228.09	42.25
228.324	53.25
228.559	44.25
228.793	64.25
229.027	81.25
229.262	81.25
229.496	92.25
229.73	113.25
229.964	126.25
230.199	103.25
230.433	116.25
230.667	107.25
230.901	106.25
231.136	114.25
231.37	103.25
231.604	102.25
231.838	119.25
232.072	108.25
232.306	114.25
232.541	113.25
232.775	109.25
233.009	120.25
233.243	116.25
233.477	104.25
233.711	122.25
233.945	122.25
234.179	120.25
234.413	121.25
234.647	134.25
234.881	108.25
235.115	116.25
235.349	109.25
235.583	119.25
235.817	114.25
236.051	116.25
236.285	113.25
236.519	112.25
236.753	99.25
236.987	130.25
237.221	142.25
237.455	182.25
237.689	142.25
237.922	122.25
238.156	118.25
238.39	112.25
238.624	126.25
238.858	120.25
239.091	114.25
239.325	110.25
239.559	118.25
239.793	130.25
240.027	132.25
240.26	128.25
240.494	150.25
240.728	143.25
240.961	140.25
241.195	135.25
241.429	131.25
241.662	124.25
241.896	107.25
242.13	124.25
242.363	127.25
242.597	133.25
242.83	143.25
243.064	148.25
243.298	126.25
243.531	126.25
243.765	140.25
243.998	135.25
244.232	138.25
244.465	136.25
244.699	143.25
244.932	127.25
245.166	136.25
245.399	148.25
245.633	136.25
245.866	143.25
246.099	147.25
246.333	141.25
246.566	153.25
246.8	152.25
247.033	139.25
247.266	130.25
247.5	148.25
247.733	141.25
247.966	150.25
248.2	150.25
248.433	147.25
248.666	171.25
248.899	179.25
249.133	164.25
249.366	169.25
249.599	161.25
249.832	167.25
250.066	165.25
250.299	152.25
250.532	159.25
250.765	185.25
250.998	178.25
251.231	186.25
251.465	194.25
251.698	165.25
251.931	185.25
252.164	166.25
252.397	173.25
252.63	174.25
252.863	186.25
253.096	190.25
253.329	195.25
253.562	188.25
253.795	186.25
254.028	196.25
254.261	196.25
254.494	201.25
254.727	216.25
254.96	225.25
255.193	210.25
255.426	189.25
255.659	184.25
255.892	186.25
256.124	204.25
256.357	206.25
256.59	195.25
256.823	190.25
257.056	190.25
257.289	190.25
257.521	196.25
257.754	202.25
257.987	203.25
258.22	191.25
258.452	193.25
258.685	192.25
258.918	182.25
259.151	184.25
259.383	190.25
259.616	188.25
259.849	196.25
260.081	215.25
260.314	217.25
260.547	237.25
260.779	215.25
261.012	210.25
261.244	201.25
261.477	218.25
261.71	198.25
261.942	195.25
262.175	228.25
262.407	203.25
262.64	199.25
262.872	206.25
263.105	189.25
263.337	214.25
263.57	220.25
263.802	192.25
264.035	190.25
264.267	200.25
264.499	212.25
264.732	219.25
264.964	207.25
265.197	195.25
265.429	206.25
265.661	210.25
265.894	211.25
266.126	215.25
266.358	225.25
266.591	209.25
266.823	217.25
267.055	210.25
267.287	217.25
267.52	222.25
267.752	214.25
267.984	217.25
268.216	223.25
268.448	204.25
268.681	233.25
268.913	241.25
269.145	243.25
269.377	240.25
269.609	253.25
269.841	235.25
270.073	244.25
270.306	256.25
270.538	275.25
270.77	272.25
271.002	271.25
271.234	272.25
271.466	268.25
271.698	267.25
271.93	266.25
272.162	273.25
272.394	263.25
272.626	286.25
272.858	262.25
273.09	262.25
273.322	258.25
273.553	251.25
273.785	264.25
274.017	257.25
274.249	231.25
274.481	241.25
274.713	249.25
274.945	248.25
275.176	256.25
275.408	243.25
275.64	261.25
275.872	256.25
276.104	251.25
276.335	253.25
276.567	265.25
276.799	276.25
277.031	272.25
277.262	261.25
277.494	274.25
277.726	275.25
277.957	274.25
278.189	277.25
278.421	270.25
278.652	263.25
278.884	253.25
279.115	256.25
279.347	262.25
279.579	262.25
279.81	271.25
280.042	269.25
280.273	237.25
280.505	258.25
280.736	256.25
280.968	250.25
281.199	245.25
281.431	266.25
281.662	277.25
281.894	276.25
282.125	286.25
282.356	268.25
282.588	275.25
282.819	279.25
283.051	268.25
283.282	278.25
283.513	265.25
283.745	268.25
283.976	275.25
284.207	278.25
284.439	271.25
284.67	266.25
284.901	280.25
285.132	276.25
285.364	294.25
285.595	284.25
285.826	266.25
286.057	268.25
286.288	282.25
286.52	297.25
286.751	289.25
286.982	288.25
287.213	291.25
287.444	274.25
287.675	306.25
287.906	296.25
288.138	294.25
288.369	277.25
288.6	288.25
288.831	301.25
289.062	271.25
289.293	295.25
289.524	288.25
289.755	306.25
289.986	293.25
290.217	283.25
290.448	276.25
290.679	289.25
290.91	296.25
291.141	288.25
291.371	313.25
291.602	299.25
291.833	294.25
292.064	312.25
292.295	296.25
292.526	296.25
292.757	285.25
292.987	275.25
293.218	293.25
293.449	280.25
293.68	309.25
293.91	297.25
294.141	287.25
294.372	283.25
294.603	297.25
294.833	311.25
295.064	296.25
295.295	297.25
295.525	307.25
295.756	310.25
295.987	298.25
296.217	320.25
296.448	328.25
296.679	314.25
296.909	301.25
297.14	283.25
297.37	298.25
297.601	310.25
297.831	297.25
298.062	315.25
298.292	307.25
298.523	327.25
298.753	328.25
298.984	299.25
299.214	328.25
299.445	310.25
299.675	300.25
299.905	309.25
300.136	336.25
300.366	316.25
300.597	325.25
300.827	315.25
301.057	315.25
301.288	341.25
301.518	332.25
301.748	329.25
301.979	333.25
302.209	337.25
302.439	325.25
302.669	321.25
302.9	323.25
303.13	342.25
303.36	331.25
303.59	344.25
303.82	346.25
304.051	339.25
304.281	335.25
304.511	324.25
304.741	335.25
304.971	324.25
305.201	334.25
305.431	337.25
305.661	323.25
305.891	317.25
306.121	317.25
306.352	333.25
306.582	349.25
306.812	335.25
307.042	325.25
307.272	325.25
307.502	346.25
307.731	334.25
307.961	350.25
308.191	331.25
308.421	343.25
308.651	341.25
308.881	324.25
309.111	334.25
309.341	327.25
309.571	322.25
309.8	349.25
310.03	350.25
310.26	357.25
310.49	342.25
310.72	361.25
310.949	338.25
311.179	361.25
311.409	348.25
311.639	350.25
311.868	368.25
312.098	358.25
312.328	353.25
312.557	358.25
312.787	352.25
313.017	387.25
313.246	366.25
313.476	354.25
313.706	353.25
313.935	354.25
314.165	353.25
314.394	361.25
314.624	353.25
314.853	393.25
315.083	375.25
315.312	366.25
315.542	379.25
315.771	355.25
316.001	371.25
316.23	346.25
316.46	357.25
316.689	375.25
316.919	366.25
317.148	388.25
317.377	362.25
317.607	352.25
317.836	353.25
318.065	350.25
318.295	382.25
318.524	372.25
318.753	358.25
318.983	352.25
319.212	359.25
319.441	366.25
319.67	380.25
319.9	365.25
320.129	363.25
320.358	369.25
320.587	377.25
320.816	365.25
321.046	393.25
321.275	376.25
321.504	365.25
321.733	376.25
321.962	392.25
322.191	386.25
322.42	380.25
322.649	381.25
322.878	392.25
323.108	409.25
323.337	408.25
323.566	435.25
323.795	440.25
324.024	450.25
324.253	532.25
324.482	650.25
324.71	911.25
324.939	1266.25
325.168	1154.25
325.397	673.25
325.626	505.25
325.855	448.25
326.084	448.25
326.313	417.25
326.542	421.25
326.77	449.25
326.999	504.25
327.228	628.25
327.457	867.25
327.686	1012.25
327.914	726.25
328.143	550.25
328.372	501.25
328.6	455.25
328.829	445.25
329.058	444.25
329.287	470.25
329.515	446.25
329.744	424.25
329.972	445.25
330.201	462.25
330.43	477.25
330.658	474.25
330.887	485.25
331.115	459.25
331.344	476.25
331.572	446.25
331.801	462.25
332.03	451.25
332.258	435.25
332.486	434.25
332.715	440.25
332.943	452.25
333.172	438.25
333.4	460.25
333.629	482.25
333.857	462.25
334.085	494.25
334.314	504.25
334.542	492.25
334.771	505.25
334.999	499.25
335.227	465.25
335.455	472.25
335.684	444.25
335.912	450.25
336.14	453.25
336.369	443.25
336.597	447.25
336.825	452.25
337.053	442.25
337.281	438.25
337.51	440.25
337.738	441.25
337.966	449.25
338.194	438.25
338.422	436.25
338.65	438.25
338.878	450.25
339.106	412.25
339.334	427.25
339.562	413.25
339.79	420.25
340.018	416.25
340.246	433.25
340.474	428.25
340.702	420.25
340.93	403.25
341.158	418.25
341.386	436.25
341.614	442.25
341.842	432.25
342.07	422.25
342.298	420.25
342.526	401.25
342.754	416.25
342.981	412.25
343.209	430.25
343.437	421.25
343.665	433.25
343.893	442.25
344.12	463.25
344.348	457.25
344.576	449.25
344.804	450.25
345.031	429.25
345.259	442.25
345.487	442.25
345.714	425.25
345.942	416.25
346.17	404.25
346.397	410.25
346.625	401.25
346.853	414.25
347.08	402.25
347.308	399.25
347.535	409.25
347.763	418.25
347.99	421.25
348.218	414.25
348.445	413.25
348.673	414.25
348.9	393.25
349.128	397.25
349.355	409.25
349.583	402.25
349.81	388.25
350.037	389.25
350.265	372.25
350.492	408.25
350.72	394.25
350.947	395.25
351.174	420.25
351.402	394.25
351.629	392.25
351.856	393.25
352.083	380.25
352.311	413.25
352.538	404.25
352.765	392.25
352.992	390.25
353.22	411.25
353.447	373.25
353.674	378.25
353.901	395.25
354.128	363.25
354.355	374.25
354.583	398.25
354.81	405.25
355.037	366.25
355.264	380.25
355.491	386.25
355.718	384.25
355.945	397.25
356.172	379.25
356.399	387.25
356.626	389.25
356.853	377.25
357.08	365.25
357.307	394.25
357.534	391.25
357.761	380.25
357.988	365.25
358.215	380.25
358.441	372.25
358.668	375.25
358.895	390.25
359.122	384.25
359.349	370.25
359.576	382.25
359.802	407.25
360.029	417.25
360.256	421.25
360.483	424.25
360.709	402.25
360.936	396.25
361.163	397.25
361.39	381.25
361.616	402.25
361.843	392.25
362.07	397.25
362.296	397.25
362.523	393.25
362.749	403.25
362.976	388.25
363.203	399.25
363.429	374.25
363.656	387.25
363.882	394.25
364.109	388.25
364.335	388.25
364.562	395.25
364.788	381.25
365.015	354.25
365.241	408.25
365.468	380.25
365.694	370.25
365.92	402.25
366.147	410.25
366.373	404.25
366.599	382.25
366.826	402.25
367.052	397.25
367.278	396.25
367.505	377.25
367.731	396.25
367.957	387.25
368.184	390.25
368.41	407.25
368.636	395.25
368.862	386.25
369.089	396.25
369.315	391.25
369.541	384.25
369.767	396.25
369.993	387.25
370.219	398.25
370.445	378.25
370.672	387.25
370.898	398.25
371.124	416.25
371.35	407.25
371.576	398.25
371.802	388.25
372.028	388.25
372.254	396.25
372.48	420.25
372.706	407.25
372.932	408.25
373.158	414.25
373.384	404.25
373.61	394.25
373.835	406.25
374.061	402.25
374.287	395.25
374.513	408.25
374.739	409.25
374.965	417.25
375.191	448.25
375.416	406.25
375.642	400.25
375.868	422.25
376.094	429.25
376.319	414.25
376.545	413.25
376.771	392.25
376.997	393.25
377.222	385.25
377.448	411.25
377.674	399.25
377.899	402.25
378.125	396.25
378.35	388.25
378.576	391.25
378.802	387.25
379.027	411.25
379.253	395.25
379.478	406.25
379.704	417.25
379.929	392.25
380.155	396.25
380.38	416.25
380.606	411.25
380.831	396.25
381.057	423.25
381.282	397.25
381.507	385.25
381.733	390.25
381.958	416.25
382.184	411.25
382.409	406.25
382.634	434.25
382.86	411.25
383.085	410.25
383.31	409.25
383.535	429.25
383.761	438.25
383.986	428.25
384.211	424.25
384.436	457.25
384.662	438.25
384.887	436.25
385.112	436.25
385.337	432.25
385.562	444.25
385.787	444.25
386.013	451.25
386.238	472.25
386.463	474.25
386.688	458.25
386.913	469.25
387.138	444.25
387.363	452.25
387.588	453.25
387.813	456.25
388.038	458.25
388.263	464.25
388.488	470.25
388.713	456.25
388.938	455.25
389.163	442.25
389.387	448.25
389.612	456.25
389.837	436.25
390.062	429.25
390.287	430.25
390.512	438.25
390.736	426.25
390.961	453.25
391.186	462.25
391.411	443.25
391.636	455.25
391.86	480.25
392.085	479.25
392.31	477.25
392.534	463.25
392.759	480.25
392.984	466.25
393.208	470.25
393.433	465.25
393.658	475.25
393.882	480.25
394.107	459.25
394.331	462.25
394.556	447.25
394.78	465.25
395.005	470.25
395.229	468.25
395.454	483.25
395.678	479.25
395.903	482.25
396.127	493.25
396.352	514.25
396.576	491.25
396.801	462.25
397.025	475.25
397.249	498.25
397.474	498.25
397.698	487.25
397.922	491.25
398.147	510.25
398.371	516.25
398.595	532.25
398.82	523.25
399.044	550.25
399.268	594.25
399.492	617.25
399.717	692.25
399.941	694.25
400.165	667.25
400.389	646.25
400.613	613.25
400.837	560.25
401.062	556.25
401.286	508.25
401.51	536.25
401.734	549.25
401.958	550.25
402.182	550.25
402.406	568.25
402.63	541.25
402.854	532.25
403.078	559.25
403.302	562.25
403.526	553.25
403.75	571.25
403.974	579.25
404.198	573.25
404.422	574.25
404.645	580.25
404.869	573.25
405.093	609.25
405.317	638.25
405.541	638.25
405.765	599.25
405.988	562.25
406.212	580.25
406.436	590.25
406.66	606.25
406.883	608.25
407.107	628.25
407.331	638.25
407.555	702.25
407.778	717.25
408.002	671.25
408.226	621.25
408.449	648.25
408.673	608.25
408.896	642.25
409.12	670.25
409.344	627.25
409.567	568.25
409.791	574.25
410.014	561.25
410.238	548.25
410.461	584.25
410.685	552.25
410.908	575.25
411.132	580.25
411.355	591.25
411.578	583.25
411.802	562.25
412.025	544.25
412.249	571.25
412.472	570.25
412.695	593.25
412.919	597.25
413.142	541.25
413.365	516.25
413.589	546.25
413.812	546.25
414.035	540.25
414.258	538.25
414.482	524.25
414.705	536.25
414.928	544.25
415.151	535.25
415.374	505.25
415.597	502.25
415.821	514.25
416.044	496.25
416.267	538.25
416.49	514.25
416.713	501.25
416.936	496.25
417.159	521.25
417.382	520.25
417.605	501.25
417.828	554.25
418.051	533.25
418.274	518.25
418.497	517.25
418.72	552.25
418.943	532.25
419.166	536.25
419.389	594.25
419.611	572.25
419.834	554.25
420.057	567.25
420.28	526.25
420.503	551.25
420.726	543.25
420.948	569.25
421.171	562.25
421.394	587.25
421.617	551.25
421.839	530.25
422.062	543.25
422.285	552.25
422.507	576.25
422.73	636.25
422.953	632.25
423.175	580.25
423.398	566.25
423.621	562.25
423.843	576.25
424.066	589.25
424.288	553.25
424.511	581.25
424.733	642.25
424.956	650.25
425.178	613.25
425.401	655.25
425.623	645.25
425.846	590.25
426.068	563.25
426.291	540.25
426.513	556.25
426.735	564.25
426.958	576.25
427.18	632.25
427.402	722.25
427.625	771.25
427.847	660.25
428.069	585.25
428.292	557.25
428.514	525.25
428.736	503.25
428.958	510.25
429.181	486.25
429.403	503.25
429.625	514.25
429.847	514.25
430.069	555.25
430.292	542.25
430.514	503.25
430.736	518.25
430.958	524.25
431.18	480.25
431.402	499.25
431.624	489.25
431.846	490.25
432.068	494.25
432.29	508.25
432.512	485.25
432.734	512.25
432.956	491.25
433.178	486.25
433.4	502.25
433.622	496.25
433.844	492.25
434.066	496.25
434.287	532.25
434.509	515.25
434.731	504.25
434.953	546.25
435.175	528.25
435.397	527.25
435.618	538.25
435.84	585.25
436.062	621.25
436.284	664.25
436.505	584.25
436.727	540.25
436.949	549.25
437.17	524.25
437.392	486.25
437.614	520.25
437.835	523.25
438.057	558.25
438.278	640.25
438.5	628.25
438.721	715.25
438.943	683.25
439.165	580.25
439.386	523.25
439.608	503.25
439.829	524.25
440.05	543.25
440.272	547.25
440.493	550.25
440.715	524.25
440.936	529.25
441.158	514.25
441.379	531.25
441.6	542.25
441.822	526.25
442.043	584.25
442.264	630.25
442.486	652.25
442.707	576.25
442.928	571.25
443.149	550.25
443.371	582.25
443.592	625.25
443.813	654.25
444.034	713.25
444.255	647.25
444.476	556.25
444.698	598.25
444.919	586.25
445.14	711.25
445.361	622.25
445.582	599.25
445.803	579.25
446.024	662.25
446.245	664.25
446.466	607.25
446.687	566.25
446.908	557.25
447.129	527.25
447.35	481.25
447.571	494.25
447.792	493.25
448.013	493.25
448.234	513.25
448.455	523.25
448.675	624.25
448.896	696.25
449.117	611.25
449.338	589.25
449.559	646.25
449.779	748.25
450	598.25
450.221	530.25
450.442	488.25
450.662	473.25
450.883	475.25
451.104	474.25
451.324	473.25
451.545	470.25
451.766	446.25
451.986	466.25
452.207	445.25
452.428	456.25
452.648	468.25
452.869	450.25
453.089	452.25
453.31	468.25
453.53	466.25
453.751	430.25
453.971	438.25
454.192	458.25
454.412	442.25
454.633	442.25
454.853	455.25
455.073	428.25
455.294	467.25
455.514	501.25
455.734	478.25
455.955	442.25
456.175	436.25
456.395	434.25
456.616	405.25
456.836	429.25
457.056	424.25
457.276	426.25
457.497	436.25
457.717	428.25
457.937	450.25
458.157	460.25
458.377	455.25
458.598	459.25
458.818	496.25
459.038	532.25
459.258	557.25
459.478	509.25
459.698	490.25
459.918	493.25
460.138	514.25
460.358	520.25
460.578	535.25
460.798	549.25
461.018	529.25
461.238	528.25
461.458	528.25
461.678	525.25
461.898	523.25
462.118	536.25
462.338	556.25
462.558	559.25
462.777	571.25
462.997	582.25
463.217	625.25
463.437	631.25
463.657	593.25
463.876	587.25
464.096	588.25
464.316	600.25
464.536	587.25
464.755	577.25
464.975	575.25
465.195	565.25
465.414	576.25
465.634	533.25
465.854	517.25
466.073	502.25
466.293	487.25
466.512	480.25
466.732	482.25
466.951	511.25
467.171	475.25
467.391	466.25
467.61	479.25
467.829	470.25
468.049	465.25
468.268	470.25
468.488	454.25
468.707	452.25
468.927	459.25
469.146	458.25
469.365	467.25
469.585	476.25
469.804	469.25
470.023	478.25
470.243	475.25
470.462	481.25
470.681	484.25
470.901	500.25
471.12	487.25
471.339	476.25
471.558	482.25
471.777	481.25
471.997	458.25
472.216	473.25
472.435	470.25
472.654	467.25
472.873	452.25
473.092	468.25
473.311	442.25
473.53	477.25
473.749	469.25
473.968	473.25
474.187	544.25
474.406	567.25
474.625	479.25
474.844	466.25
475.063	473.25
475.282	480.25
475.501	476.25
475.72	489.25
475.939	469.25
476.158	488.25
476.377	489.25
476.596	493.25
476.814	487.25
477.033	482.25
477.252	494.25
477.471	523.25
477.69	516.25
477.908	524.25
478.127	528.25
478.346	519.25
478.564	546.25
478.783	554.25
479.002	548.25
479.22	545.25
479.439	556.25
479.658	554.25
479.876	570.25
480.095	592.25
480.313	602.25
480.532	594.25
480.751	590.25
480.969	590.25
481.188	581.25
481.406	600.25
481.624	579.25
481.843	582.25
482.061	547.25
482.28	557.25
482.498	550.25
482.717	526.25
482.935	545.25
483.153	540.25
483.372	545.25
483.59	571.25
483.808	568.25
484.027	543.25
484.245	544.25
484.463	550.25
484.681	579.25
484.9	547.25
485.118	560.25
485.336	580.25
485.554	561.25
485.772	602.25
485.99	568.25
486.209	563.25
486.427	593.25
486.645	569.25
486.863	584.25
487.081	582.25
487.299	597.25
487.517	574.25
487.735	570.25
487.953	596.25
488.171	573.25
488.389	579.25
488.607	594.25
488.825	580.25
489.043	573.25
489.261	597.25
489.479	597.25
489.696	569.25
489.914	572.25
490.132	607.25
490.35	588.25
490.568	619.25
490.786	611.25
491.003	622.25
491.221	619.25
491.439	614.25
491.657	607.25
491.874	641.25
492.092	631.25
492.31	628.25
492.527	646.25
492.745	653.25
492.963	624.25
493.18	638.25
493.398	665.25
493.615	658.25
493.833	642.25
494.05	674.25
494.268	648.25
494.485	638.25
494.703	661.25
494.92	659.25
495.138	657.25
495.355	654.25
495.573	644.25
495.79	672.25
496.008	655.25
496.225	648.25
496.442	690.25
496.66	697.25
496.877	684.25
497.094	718.25
497.312	693.25
497.529	699.25
497.746	722.25
497.963	732.25
498.181	764.25
498.398	780.25
498.615	791.25
498.832	814.25
499.049	846.25
499.267	886.25
499.484	941.25
499.701	963.25
499.918	1030.25
500.135	1109.25
500.352	1176.25
500.569	1212.25
500.786	1213.25
501.003	1194.25
501.22	1116.25
501.437	1056.25
501.654	1011.25
501.871	945.25
