Data from 1962.PennyLincolnUp.Lamp.En5.5.200Scan.071719.P1._HRD10591_13-53-51-061.txt Node
Date: Thu Jul 18 13:53:51 EDT 2019
User: cochatt
Spectrometer: HR+D1059
Trigger mode: 1
Integration Time (sec): 1.000000E-1
Scans to average: 1
Electric dark correction enabled: true
Nonlinearity correction enabled: false
Boxcar width: 0
XAxis mode: Wavelengths
Number of Pixels in Spectrum: 2048
>>>>>Begin Spectral Data<<<<<
223.165	-8.44
223.4	-8.44
223.635	-8.44
223.869	-22.44
224.104	-13.44
224.338	-13.44
224.573	-17.44
224.808	-18.44
225.042	-3.44
225.277	-14.44
225.511	-3.44
225.746	2.56
225.98	-0.44
226.215	23.56
226.449	13.56
226.683	19.56
226.918	28.56
227.152	27.56
227.387	30.56
227.621	45.56
227.856	41.56
228.09	51.56
228.324	55.56
228.559	59.56
228.793	65.56
229.027	81.56
229.262	96.56
229.496	103.56
229.73	119.56
229.964	121.56
230.199	113.56
230.433	112.56
230.667	109.56
230.901	101.56
231.136	111.56
231.37	94.56
231.604	121.56
231.838	117.56
232.072	103.56
232.306	102.56
232.541	107.56
232.775	110.56
233.009	121.56
233.243	114.56
233.477	116.56
233.711	115.56
233.945	110.56
234.179	114.56
234.413	113.56
234.647	117.56
234.881	117.56
235.115	104.56
235.349	98.56
235.583	105.56
235.817	113.56
236.051	124.56
236.285	108.56
236.519	132.56
236.753	107.56
236.987	116.56
237.221	160.56
237.455	186.56
237.689	143.56
237.922	126.56
238.156	118.56
238.39	121.56
238.624	120.56
238.858	118.56
239.091	121.56
239.325	132.56
239.559	127.56
239.793	121.56
240.027	120.56
240.26	119.56
240.494	142.56
240.728	125.56
240.961	122.56
241.195	127.56
241.429	110.56
241.662	123.56
241.896	130.56
242.13	130.56
242.363	129.56
242.597	124.56
242.83	131.56
243.064	141.56
243.298	139.56
243.531	126.56
243.765	138.56
243.998	138.56
244.232	126.56
244.465	130.56
244.699	126.56
244.932	124.56
245.166	132.56
245.399	153.56
245.633	147.56
245.866	139.56
246.099	130.56
246.333	130.56
246.566	152.56
246.8	133.56
247.033	144.56
247.266	138.56
247.5	150.56
247.733	140.56
247.966	152.56
248.2	146.56
248.433	173.56
248.666	152.56
248.899	178.56
249.133	179.56
249.366	161.56
249.599	176.56
249.832	167.56
250.066	168.56
250.299	147.56
250.532	157.56
250.765	172.56
250.998	183.56
251.231	206.56
251.465	184.56
251.698	177.56
251.931	176.56
252.164	186.56
252.397	178.56
252.63	179.56
252.863	164.56
253.096	210.56
253.329	186.56
253.562	183.56
253.795	193.56
254.028	198.56
254.261	180.56
254.494	188.56
254.727	215.56
254.96	221.56
255.193	209.56
255.426	198.56
255.659	196.56
255.892	206.56
256.124	179.56
256.357	204.56
256.59	210.56
256.823	192.56
257.056	192.56
257.289	184.56
257.521	196.56
257.754	202.56
257.987	184.56
258.22	190.56
258.452	193.56
258.685	178.56
258.918	182.56
259.151	189.56
259.383	198.56
259.616	198.56
259.849	204.56
260.081	210.56
260.314	223.56
260.547	227.56
260.779	222.56
261.012	205.56
261.244	192.56
261.477	209.56
261.71	213.56
261.942	205.56
262.175	202.56
262.407	212.56
262.64	187.56
262.872	202.56
263.105	182.56
263.337	207.56
263.57	188.56
263.802	211.56
264.035	204.56
264.267	196.56
264.499	200.56
264.732	189.56
264.964	192.56
265.197	225.56
265.429	199.56
265.661	183.56
265.894	195.56
266.126	223.56
266.358	197.56
266.591	218.56
266.823	200.56
267.055	215.56
267.287	217.56
267.52	197.56
267.752	209.56
267.984	202.56
268.216	208.56
268.448	216.56
268.681	246.56
268.913	213.56
269.145	236.56
269.377	253.56
269.609	242.56
269.841	237.56
270.073	231.56
270.306	255.56
270.538	262.56
270.77	276.56
271.002	260.56
271.234	256.56
271.466	271.56
271.698	246.56
271.93	254.56
272.162	273.56
272.394	262.56
272.626	277.56
272.858	241.56
273.09	269.56
273.322	264.56
273.553	241.56
273.785	250.56
274.017	257.56
274.249	245.56
274.481	249.56
274.713	265.56
274.945	260.56
275.176	244.56
275.408	248.56
275.64	237.56
275.872	263.56
276.104	241.56
276.335	241.56
276.567	246.56
276.799	254.56
277.031	261.56
277.262	271.56
277.494	288.56
277.726	280.56
277.957	279.56
278.189	256.56
278.421	247.56
278.652	255.56
278.884	276.56
279.115	256.56
279.347	236.56
279.579	256.56
279.81	268.56
280.042	246.56
280.273	255.56
280.505	274.56
280.736	258.56
280.968	263.56
281.199	265.56
281.431	258.56
281.662	270.56
281.894	259.56
282.125	256.56
282.356	264.56
282.588	284.56
282.819	296.56
283.051	285.56
283.282	290.56
283.513	249.56
283.745	264.56
283.976	266.56
284.207	275.56
284.439	274.56
284.67	285.56
284.901	288.56
285.132	284.56
285.364	280.56
285.595	258.56
285.826	286.56
286.057	272.56
286.288	269.56
286.52	283.56
286.751	285.56
286.982	302.56
287.213	294.56
287.444	288.56
287.675	276.56
287.906	300.56
288.138	289.56
288.369	289.56
288.6	293.56
288.831	282.56
289.062	293.56
289.293	285.56
289.524	282.56
289.755	280.56
289.986	285.56
290.217	266.56
290.448	286.56
290.679	280.56
290.91	286.56
291.141	278.56
291.371	276.56
291.602	291.56
291.833	262.56
292.064	297.56
292.295	281.56
292.526	281.56
292.757	289.56
292.987	297.56
293.218	298.56
293.449	278.56
293.68	290.56
293.91	294.56
294.141	270.56
294.372	283.56
294.603	278.56
294.833	282.56
295.064	286.56
295.295	307.56
295.525	278.56
295.756	308.56
295.987	305.56
296.217	311.56
296.448	306.56
296.679	311.56
296.909	295.56
297.14	312.56
297.37	302.56
297.601	318.56
297.831	293.56
298.062	308.56
298.292	296.56
298.523	314.56
298.753	302.56
298.984	299.56
299.214	315.56
299.445	311.56
299.675	312.56
299.905	316.56
300.136	319.56
300.366	322.56
300.597	314.56
300.827	316.56
301.057	329.56
301.288	329.56
301.518	321.56
301.748	309.56
301.979	323.56
302.209	329.56
302.439	316.56
302.669	327.56
302.9	327.56
303.13	322.56
303.36	320.56
303.59	340.56
303.82	328.56
304.051	340.56
304.281	353.56
304.511	329.56
304.741	331.56
304.971	325.56
305.201	342.56
305.431	342.56
305.661	347.56
305.891	324.56
306.121	316.56
306.352	309.56
306.582	328.56
306.812	327.56
307.042	328.56
307.272	314.56
307.502	334.56
307.731	348.56
307.961	338.56
308.191	340.56
308.421	322.56
308.651	337.56
308.881	344.56
309.111	334.56
309.341	317.56
309.571	346.56
309.8	365.56
310.03	336.56
310.26	347.56
310.49	344.56
310.72	342.56
310.949	364.56
311.179	378.56
311.409	340.56
311.639	343.56
311.868	353.56
312.098	343.56
312.328	364.56
312.557	366.56
312.787	369.56
313.017	364.56
313.246	378.56
313.476	362.56
313.706	368.56
313.935	354.56
314.165	370.56
314.394	355.56
314.624	363.56
314.853	369.56
315.083	356.56
315.312	347.56
315.542	360.56
315.771	364.56
316.001	365.56
316.23	368.56
316.46	366.56
316.689	366.56
316.919	368.56
317.148	388.56
317.377	343.56
317.607	366.56
317.836	357.56
318.065	349.56
318.295	359.56
318.524	373.56
318.753	348.56
318.983	376.56
319.212	374.56
319.441	369.56
319.67	373.56
319.9	355.56
320.129	354.56
320.358	359.56
320.587	353.56
320.816	367.56
321.046	370.56
321.275	353.56
321.504	369.56
321.733	365.56
321.962	384.56
322.191	385.56
322.42	382.56
322.649	398.56
322.878	409.56
323.108	382.56
323.337	408.56
323.566	418.56
323.795	443.56
324.024	451.56
324.253	516.56
324.482	636.56
324.71	904.56
324.939	1241.56
325.168	1101.56
325.397	636.56
325.626	485.56
325.855	457.56
326.084	447.56
326.313	447.56
326.542	421.56
326.77	445.56
326.999	479.56
327.228	610.56
327.457	857.56
327.686	997.56
327.914	699.56
328.143	507.56
328.372	488.56
328.6	429.56
328.829	428.56
329.058	443.56
329.287	476.56
329.515	453.56
329.744	423.56
329.972	436.56
330.201	455.56
330.43	467.56
330.658	470.56
330.887	485.56
331.115	465.56
331.344	448.56
331.572	416.56
331.801	432.56
332.03	442.56
332.258	449.56
332.486	428.56
332.715	427.56
332.943	443.56
333.172	429.56
333.4	456.56
333.629	449.56
333.857	470.56
334.085	471.56
334.314	479.56
334.542	493.56
334.771	514.56
334.999	477.56
335.227	445.56
335.455	454.56
335.684	454.56
335.912	451.56
336.14	455.56
336.369	436.56
336.597	434.56
336.825	429.56
337.053	429.56
337.281	427.56
337.51	422.56
337.738	421.56
337.966	427.56
338.194	422.56
338.422	422.56
338.65	405.56
338.878	430.56
339.106	409.56
339.334	429.56
339.562	388.56
339.79	402.56
340.018	412.56
340.246	427.56
340.474	422.56
340.702	399.56
340.93	404.56
341.158	400.56
341.386	415.56
341.614	399.56
341.842	403.56
342.07	407.56
342.298	399.56
342.526	406.56
342.754	419.56
342.981	393.56
343.209	410.56
343.437	407.56
343.665	416.56
343.893	450.56
344.12	440.56
344.348	460.56
344.576	437.56
344.804	425.56
345.031	424.56
345.259	406.56
345.487	420.56
345.714	414.56
345.942	418.56
346.17	388.56
346.397	385.56
346.625	398.56
346.853	384.56
347.08	399.56
347.308	386.56
347.535	406.56
347.763	411.56
347.99	394.56
348.218	400.56
348.445	393.56
348.673	393.56
348.9	395.56
349.128	403.56
349.355	398.56
349.583	374.56
349.81	404.56
350.037	384.56
350.265	406.56
350.492	389.56
350.72	374.56
350.947	356.56
351.174	384.56
351.402	377.56
351.629	378.56
351.856	389.56
352.083	380.56
352.311	387.56
352.538	387.56
352.765	411.56
352.992	394.56
353.22	387.56
353.447	406.56
353.674	393.56
353.901	371.56
354.128	383.56
354.355	378.56
354.583	384.56
354.81	389.56
355.037	386.56
355.264	402.56
355.491	360.56
355.718	386.56
355.945	382.56
356.172	373.56
356.399	373.56
356.626	366.56
356.853	394.56
357.08	370.56
357.307	364.56
357.534	373.56
357.761	378.56
357.988	375.56
358.215	372.56
358.441	387.56
358.668	389.56
358.895	379.56
359.122	376.56
359.349	393.56
359.576	407.56
359.802	398.56
360.029	394.56
360.256	406.56
360.483	404.56
360.709	389.56
360.936	390.56
361.163	385.56
361.39	382.56
361.616	398.56
361.843	381.56
362.07	398.56
362.296	387.56
362.523	385.56
362.749	386.56
362.976	403.56
363.203	377.56
363.429	388.56
363.656	384.56
363.882	381.56
364.109	377.56
364.335	391.56
364.562	371.56
364.788	381.56
365.015	373.56
365.241	398.56
365.468	397.56
365.694	362.56
365.92	384.56
366.147	377.56
366.373	372.56
366.599	384.56
366.826	385.56
367.052	374.56
367.278	388.56
367.505	380.56
367.731	381.56
367.957	362.56
368.184	376.56
368.41	372.56
368.636	391.56
368.862	388.56
369.089	366.56
369.315	386.56
369.541	385.56
369.767	378.56
369.993	402.56
370.219	374.56
370.445	387.56
370.672	373.56
370.898	393.56
371.124	360.56
371.35	392.56
371.576	380.56
371.802	388.56
372.028	373.56
372.254	400.56
372.48	392.56
372.706	375.56
372.932	417.56
373.158	413.56
373.384	400.56
373.61	402.56
373.835	397.56
374.061	384.56
374.287	381.56
374.513	403.56
374.739	395.56
374.965	404.56
375.191	417.56
375.416	389.56
375.642	405.56
375.868	419.56
376.094	394.56
376.319	397.56
376.545	396.56
376.771	384.56
376.997	381.56
377.222	422.56
377.448	396.56
377.674	388.56
377.899	395.56
378.125	391.56
378.35	409.56
378.576	381.56
378.802	397.56
379.027	399.56
379.253	378.56
379.478	394.56
379.704	378.56
379.929	384.56
380.155	384.56
380.38	389.56
380.606	408.56
380.831	384.56
381.057	402.56
381.282	389.56
381.507	389.56
381.733	401.56
381.958	392.56
382.184	398.56
382.409	413.56
382.634	399.56
382.86	407.56
383.085	421.56
383.31	409.56
383.535	439.56
383.761	418.56
383.986	410.56
384.211	423.56
384.436	425.56
384.662	417.56
384.887	410.56
385.112	449.56
385.337	438.56
385.562	425.56
385.787	456.56
386.013	454.56
386.238	444.56
386.463	466.56
386.688	470.56
386.913	450.56
387.138	449.56
387.363	443.56
387.588	452.56
387.813	451.56
388.038	444.56
388.263	457.56
388.488	460.56
388.713	451.56
388.938	429.56
389.163	457.56
389.387	436.56
389.612	448.56
389.837	456.56
390.062	436.56
390.287	441.56
390.512	436.56
390.736	446.56
390.961	448.56
391.186	454.56
391.411	459.56
391.636	466.56
391.86	474.56
392.085	481.56
392.31	476.56
392.534	443.56
392.759	478.56
392.984	454.56
393.208	462.56
393.433	470.56
393.658	458.56
393.882	448.56
394.107	457.56
394.331	475.56
394.556	454.56
394.78	444.56
395.005	491.56
395.229	464.56
395.454	461.56
395.678	474.56
395.903	479.56
396.127	481.56
396.352	471.56
396.576	480.56
396.801	462.56
397.025	475.56
397.249	458.56
397.474	486.56
397.698	475.56
397.922	491.56
398.147	527.56
398.371	503.56
398.595	494.56
398.82	506.56
399.044	535.56
399.268	550.56
399.492	607.56
399.717	649.56
399.941	668.56
400.165	642.56
400.389	664.56
400.613	584.56
400.837	554.56
401.062	515.56
401.286	525.56
401.51	526.56
401.734	513.56
401.958	526.56
402.182	534.56
402.406	543.56
402.63	539.56
402.854	542.56
403.078	523.56
403.302	546.56
403.526	559.56
403.75	553.56
403.974	567.56
404.198	580.56
404.422	540.56
404.645	545.56
404.869	559.56
405.093	586.56
405.317	600.56
405.541	644.56
405.765	605.56
405.988	572.56
406.212	609.56
406.436	570.56
406.66	606.56
406.883	583.56
407.107	615.56
407.331	648.56
407.555	717.56
407.778	689.56
408.002	660.56
408.226	620.56
408.449	603.56
408.673	610.56
408.896	600.56
409.12	648.56
409.344	612.56
409.567	585.56
409.791	562.56
410.014	572.56
410.238	540.56
410.461	560.56
410.685	547.56
410.908	555.56
411.132	577.56
411.355	592.56
411.578	601.56
411.802	565.56
412.025	559.56
412.249	567.56
412.472	552.56
412.695	613.56
412.919	585.56
413.142	545.56
413.365	548.56
413.589	542.56
413.812	533.56
414.035	514.56
414.258	499.56
414.482	523.56
414.705	485.56
414.928	520.56
415.151	502.56
415.374	524.56
415.597	501.56
415.821	486.56
416.044	516.56
416.267	493.56
416.49	518.56
416.713	524.56
416.936	496.56
417.159	513.56
417.382	521.56
417.605	498.56
417.828	517.56
418.051	505.56
418.274	498.56
418.497	532.56
418.72	517.56
418.943	521.56
419.166	525.56
419.389	561.56
419.611	554.56
419.834	558.56
420.057	548.56
420.28	540.56
420.503	519.56
420.726	520.56
420.948	533.56
421.171	550.56
421.394	573.56
421.617	544.56
421.839	533.56
422.062	512.56
422.285	540.56
422.507	560.56
422.73	632.56
422.953	593.56
423.175	570.56
423.398	536.56
423.621	550.56
423.843	551.56
424.066	543.56
424.288	538.56
424.511	571.56
424.733	621.56
424.956	627.56
425.178	612.56
425.401	604.56
425.623	613.56
425.846	580.56
426.068	547.56
426.291	532.56
426.513	530.56
426.735	541.56
426.958	568.56
427.18	624.56
427.402	705.56
427.625	748.56
427.847	659.56
428.069	606.56
428.292	552.56
428.514	522.56
428.736	512.56
428.958	504.56
429.181	498.56
429.403	477.56
429.625	493.56
429.847	509.56
430.069	577.56
430.292	569.56
430.514	516.56
430.736	500.56
430.958	500.56
431.18	484.56
431.402	484.56
431.624	488.56
431.846	493.56
432.068	509.56
432.29	489.56
432.512	476.56
432.734	482.56
432.956	475.56
433.178	495.56
433.4	489.56
433.622	481.56
433.844	486.56
434.066	484.56
434.287	465.56
434.509	507.56
434.731	514.56
434.953	517.56
435.175	519.56
435.397	546.56
435.618	512.56
435.84	578.56
436.062	628.56
436.284	650.56
436.505	577.56
436.727	532.56
436.949	530.56
437.17	512.56
437.392	492.56
437.614	517.56
437.835	528.56
438.057	575.56
438.278	630.56
438.5	644.56
438.721	682.56
438.943	694.56
439.165	568.56
439.386	515.56
439.608	503.56
439.829	510.56
440.05	518.56
440.272	556.56
440.493	550.56
440.715	504.56
440.936	517.56
441.158	521.56
441.379	510.56
441.6	523.56
441.822	524.56
442.043	598.56
442.264	633.56
442.486	620.56
442.707	568.56
442.928	544.56
443.149	560.56
443.371	561.56
443.592	596.56
443.813	674.56
444.034	682.56
444.255	609.56
444.476	550.56
444.698	590.56
444.919	588.56
445.14	702.56
445.361	637.56
445.582	562.56
445.803	608.56
446.024	657.56
446.245	658.56
446.466	626.56
446.687	556.56
446.908	532.56
447.129	516.56
447.35	517.56
447.571	503.56
447.792	477.56
448.013	492.56
448.234	482.56
448.455	532.56
448.675	597.56
448.896	677.56
449.117	603.56
449.338	562.56
449.559	631.56
449.779	715.56
450	575.56
450.221	500.56
450.442	485.56
450.662	464.56
450.883	454.56
451.104	455.56
451.324	455.56
451.545	456.56
451.766	465.56
451.986	448.56
452.207	435.56
452.428	457.56
452.648	452.56
452.869	432.56
453.089	451.56
453.31	446.56
453.53	439.56
453.751	430.56
453.971	436.56
454.192	439.56
454.412	436.56
454.633	427.56
454.853	443.56
455.073	440.56
455.294	445.56
455.514	497.56
455.734	493.56
455.955	436.56
456.175	430.56
456.395	406.56
456.616	424.56
456.836	440.56
457.056	448.56
457.276	413.56
457.497	427.56
457.717	408.56
457.937	424.56
458.157	433.56
458.377	453.56
458.598	466.56
458.818	482.56
459.038	525.56
459.258	571.56
459.478	518.56
459.698	496.56
459.918	506.56
460.138	516.56
460.358	522.56
460.578	524.56
460.798	505.56
461.018	502.56
461.238	529.56
461.458	522.56
461.678	520.56
461.898	529.56
462.118	513.56
462.338	555.56
462.558	542.56
462.777	568.56
462.997	587.56
463.217	612.56
463.437	601.56
463.657	596.56
463.876	584.56
464.096	596.56
464.316	569.56
464.536	576.56
464.755	572.56
464.975	553.56
465.195	532.56
465.414	564.56
465.634	536.56
465.854	492.56
466.073	484.56
466.293	488.56
466.512	461.56
466.732	482.56
466.951	472.56
467.171	446.56
467.391	450.56
467.61	481.56
467.829	465.56
468.049	461.56
468.268	450.56
468.488	460.56
468.707	457.56
468.927	454.56
469.146	465.56
469.365	460.56
469.585	452.56
469.804	475.56
470.023	470.56
470.243	456.56
470.462	477.56
470.681	483.56
470.901	465.56
471.12	498.56
471.339	481.56
471.558	460.56
471.777	460.56
471.997	467.56
472.216	447.56
472.435	458.56
472.654	462.56
472.873	471.56
473.092	460.56
473.311	472.56
473.53	461.56
473.749	461.56
473.968	464.56
474.187	544.56
474.406	565.56
474.625	489.56
474.844	477.56
475.063	477.56
475.282	472.56
475.501	473.56
475.72	474.56
475.939	469.56
476.158	474.56
476.377	476.56
476.596	471.56
476.814	472.56
477.033	465.56
477.252	502.56
477.471	500.56
477.69	512.56
477.908	515.56
478.127	521.56
478.346	527.56
478.564	537.56
478.783	521.56
479.002	535.56
479.22	540.56
479.439	542.56
479.658	529.56
479.876	553.56
480.095	569.56
480.313	607.56
480.532	578.56
480.751	587.56
480.969	593.56
481.188	621.56
481.406	609.56
481.624	573.56
481.843	563.56
482.061	531.56
482.28	556.56
482.498	573.56
482.717	534.56
482.935	560.56
483.153	506.56
483.372	535.56
483.59	522.56
483.808	534.56
484.027	522.56
484.245	524.56
484.463	538.56
484.681	566.56
484.9	549.56
485.118	566.56
485.336	553.56
485.554	557.56
485.772	560.56
485.99	568.56
486.209	548.56
486.427	581.56
486.645	567.56
486.863	576.56
487.081	579.56
487.299	577.56
487.517	552.56
487.735	567.56
487.953	578.56
488.171	569.56
488.389	559.56
488.607	591.56
488.825	585.56
489.043	587.56
489.261	581.56
489.479	599.56
489.696	571.56
489.914	573.56
490.132	561.56
490.35	575.56
490.568	583.56
490.786	597.56
491.003	601.56
491.221	609.56
491.439	601.56
491.657	616.56
491.874	623.56
492.092	630.56
492.31	623.56
492.527	635.56
492.745	613.56
492.963	626.56
493.18	645.56
493.398	656.56
493.615	664.56
493.833	636.56
494.05	666.56
494.268	632.56
494.485	647.56
494.703	644.56
494.92	638.56
495.138	634.56
495.355	673.56
495.573	656.56
495.79	634.56
496.008	654.56
496.225	663.56
496.442	684.56
496.66	660.56
496.877	659.56
497.094	682.56
497.312	697.56
497.529	670.56
497.746	716.56
497.963	725.56
498.181	774.56
498.398	780.56
498.615	775.56
498.832	813.56
499.049	829.56
499.267	858.56
499.484	926.56
499.701	992.56
499.918	1000.56
500.135	1100.56
500.352	1155.56
500.569	1186.56
500.786	1201.56
501.003	1146.56
501.22	1102.56
501.437	1005.56
501.654	976.56
501.871	922.56
