Data from 1962.PennyLincolnUp.Lamp.En5.5.200Scan.071719.P1._HRD10591_13-54-24-060.txt Node
Date: Thu Jul 18 13:54:24 EDT 2019
User: cochatt
Spectrometer: HR+D1059
Trigger mode: 1
Integration Time (sec): 1.000000E-1
Scans to average: 1
Electric dark correction enabled: true
Nonlinearity correction enabled: false
Boxcar width: 0
XAxis mode: Wavelengths
Number of Pixels in Spectrum: 2048
>>>>>Begin Spectral Data<<<<<
223.165	-15.25
223.4	-15.25
223.635	-15.25
223.869	-10.25
224.104	-26.25
224.338	-21.25
224.573	-5.25
224.808	-16.25
225.042	12.75
225.277	-11.25
225.511	-1.25
225.746	6.75
225.98	-4.25
226.215	10.75
226.449	5.75
226.683	30.75
226.918	13.75
227.152	30.75
227.387	42.75
227.621	45.75
227.856	42.75
228.09	39.75
228.324	38.75
228.559	39.75
228.793	82.75
229.027	111.75
229.262	95.75
229.496	105.75
229.73	109.75
229.964	128.75
230.199	113.75
230.433	100.75
230.667	116.75
230.901	116.75
231.136	110.75
231.37	110.75
231.604	106.75
231.838	120.75
232.072	109.75
232.306	105.75
232.541	101.75
232.775	104.75
233.009	114.75
233.243	121.75
233.477	126.75
233.711	103.75
233.945	116.75
234.179	130.75
234.413	120.75
234.647	114.75
234.881	108.75
235.115	105.75
235.349	118.75
235.583	107.75
235.817	104.75
236.051	132.75
236.285	123.75
236.519	100.75
236.753	126.75
236.987	130.75
237.221	157.75
237.455	186.75
237.689	167.75
237.922	126.75
238.156	132.75
238.39	138.75
238.624	133.75
238.858	120.75
239.091	122.75
239.325	124.75
239.559	112.75
239.793	111.75
240.027	127.75
240.26	127.75
240.494	121.75
240.728	145.75
240.961	151.75
241.195	146.75
241.429	128.75
241.662	130.75
241.896	121.75
242.13	133.75
242.363	130.75
242.597	126.75
242.83	150.75
243.064	125.75
243.298	126.75
243.531	151.75
243.765	147.75
243.998	128.75
244.232	128.75
244.465	127.75
244.699	140.75
244.932	130.75
245.166	144.75
245.399	148.75
245.633	138.75
245.866	143.75
246.099	144.75
246.333	150.75
246.566	151.75
246.8	143.75
247.033	150.75
247.266	145.75
247.5	169.75
247.733	151.75
247.966	160.75
248.2	162.75
248.433	154.75
248.666	178.75
248.899	172.75
249.133	178.75
249.366	178.75
249.599	170.75
249.832	168.75
250.066	163.75
250.299	166.75
250.532	184.75
250.765	187.75
250.998	190.75
251.231	188.75
251.465	198.75
251.698	189.75
251.931	181.75
252.164	197.75
252.397	170.75
252.63	176.75
252.863	188.75
253.096	183.75
253.329	201.75
253.562	200.75
253.795	202.75
254.028	199.75
254.261	188.75
254.494	195.75
254.727	213.75
254.96	248.75
255.193	231.75
255.426	230.75
255.659	193.75
255.892	197.75
256.124	197.75
256.357	214.75
256.59	214.75
256.823	207.75
257.056	201.75
257.289	196.75
257.521	200.75
257.754	205.75
257.987	192.75
258.22	203.75
258.452	184.75
258.685	182.75
258.918	192.75
259.151	178.75
259.383	202.75
259.616	197.75
259.849	211.75
260.081	211.75
260.314	235.75
260.547	228.75
260.779	228.75
261.012	215.75
261.244	206.75
261.477	216.75
261.71	208.75
261.942	206.75
262.175	194.75
262.407	219.75
262.64	207.75
262.872	199.75
263.105	207.75
263.337	209.75
263.57	216.75
263.802	201.75
264.035	219.75
264.267	206.75
264.499	197.75
264.732	208.75
264.964	214.75
265.197	207.75
265.429	218.75
265.661	197.75
265.894	213.75
266.126	212.75
266.358	219.75
266.591	200.75
266.823	219.75
267.055	214.75
267.287	202.75
267.52	222.75
267.752	226.75
267.984	231.75
268.216	226.75
268.448	239.75
268.681	226.75
268.913	226.75
269.145	247.75
269.377	249.75
269.609	263.75
269.841	243.75
270.073	251.75
270.306	252.75
270.538	278.75
270.77	257.75
271.002	276.75
271.234	251.75
271.466	278.75
271.698	276.75
271.93	275.75
272.162	266.75
272.394	282.75
272.626	266.75
272.858	269.75
273.09	267.75
273.322	243.75
273.553	250.75
273.785	248.75
274.017	258.75
274.249	267.75
274.481	244.75
274.713	265.75
274.945	247.75
275.176	244.75
275.408	250.75
275.64	264.75
275.872	256.75
276.104	248.75
276.335	253.75
276.567	265.75
276.799	270.75
277.031	274.75
277.262	297.75
277.494	283.75
277.726	285.75
277.957	277.75
278.189	263.75
278.421	289.75
278.652	286.75
278.884	291.75
279.115	269.75
279.347	276.75
279.579	258.75
279.81	271.75
280.042	289.75
280.273	287.75
280.505	260.75
280.736	266.75
280.968	266.75
281.199	248.75
281.431	273.75
281.662	272.75
281.894	264.75
282.125	283.75
282.356	295.75
282.588	286.75
282.819	293.75
283.051	268.75
283.282	266.75
283.513	290.75
283.745	265.75
283.976	274.75
284.207	280.75
284.439	299.75
284.67	288.75
284.901	291.75
285.132	277.75
285.364	294.75
285.595	292.75
285.826	278.75
286.057	291.75
286.288	297.75
286.52	300.75
286.751	284.75
286.982	290.75
287.213	292.75
287.444	279.75
287.675	283.75
287.906	299.75
288.138	286.75
288.369	300.75
288.6	310.75
288.831	300.75
289.062	301.75
289.293	303.75
289.524	318.75
289.755	304.75
289.986	309.75
290.217	293.75
290.448	306.75
290.679	306.75
290.91	307.75
291.141	301.75
291.371	309.75
291.602	298.75
291.833	291.75
292.064	296.75
292.295	286.75
292.526	287.75
292.757	295.75
292.987	293.75
293.218	296.75
293.449	301.75
293.68	303.75
293.91	307.75
294.141	318.75
294.372	308.75
294.603	314.75
294.833	294.75
295.064	314.75
295.295	304.75
295.525	300.75
295.756	310.75
295.987	315.75
296.217	318.75
296.448	323.75
296.679	306.75
296.909	312.75
297.14	292.75
297.37	314.75
297.601	330.75
297.831	309.75
298.062	331.75
298.292	334.75
298.523	323.75
298.753	314.75
298.984	328.75
299.214	317.75
299.445	316.75
299.675	315.75
299.905	314.75
300.136	333.75
300.366	339.75
300.597	318.75
300.827	319.75
301.057	331.75
301.288	338.75
301.518	343.75
301.748	337.75
301.979	335.75
302.209	326.75
302.439	328.75
302.669	324.75
302.9	329.75
303.13	333.75
303.36	340.75
303.59	334.75
303.82	336.75
304.051	350.75
304.281	335.75
304.511	340.75
304.741	338.75
304.971	331.75
305.201	350.75
305.431	314.75
305.661	336.75
305.891	324.75
306.121	326.75
306.352	339.75
306.582	341.75
306.812	340.75
307.042	350.75
307.272	329.75
307.502	321.75
307.731	339.75
307.961	338.75
308.191	327.75
308.421	328.75
308.651	360.75
308.881	338.75
309.111	324.75
309.341	342.75
309.571	331.75
309.8	374.75
310.03	356.75
310.26	358.75
310.49	361.75
310.72	355.75
310.949	375.75
311.179	368.75
311.409	349.75
311.639	364.75
311.868	361.75
312.098	379.75
312.328	351.75
312.557	356.75
312.787	382.75
313.017	386.75
313.246	394.75
313.476	364.75
313.706	362.75
313.935	358.75
314.165	381.75
314.394	377.75
314.624	391.75
314.853	380.75
315.083	371.75
315.312	371.75
315.542	358.75
315.771	370.75
316.001	373.75
316.23	390.75
316.46	355.75
316.689	372.75
316.919	361.75
317.148	388.75
317.377	353.75
317.607	386.75
317.836	375.75
318.065	375.75
318.295	366.75
318.524	374.75
318.753	379.75
318.983	372.75
319.212	372.75
319.441	395.75
319.67	382.75
319.9	374.75
320.129	384.75
320.358	376.75
320.587	367.75
320.816	374.75
321.046	386.75
321.275	378.75
321.504	403.75
321.733	387.75
321.962	388.75
322.191	384.75
322.42	410.75
322.649	397.75
322.878	398.75
323.108	402.75
323.337	415.75
323.566	435.75
323.795	439.75
324.024	483.75
324.253	538.75
324.482	695.75
324.71	1000.75
324.939	1366.75
325.168	1238.75
325.397	700.75
325.626	504.75
325.855	476.75
326.084	455.75
326.313	442.75
326.542	451.75
326.77	456.75
326.999	503.75
327.228	618.75
327.457	879.75
327.686	1097.75
327.914	767.75
328.143	569.75
328.372	514.75
328.6	499.75
328.829	467.75
329.058	478.75
329.287	477.75
329.515	458.75
329.744	455.75
329.972	446.75
330.201	476.75
330.43	495.75
330.658	487.75
330.887	482.75
331.115	494.75
331.344	462.75
331.572	457.75
331.801	445.75
332.03	472.75
332.258	445.75
332.486	451.75
332.715	456.75
332.943	465.75
333.172	446.75
333.4	478.75
333.629	473.75
333.857	479.75
334.085	502.75
334.314	502.75
334.542	524.75
334.771	511.75
334.999	475.75
335.227	468.75
335.455	484.75
335.684	471.75
335.912	445.75
336.14	451.75
336.369	467.75
336.597	469.75
336.825	462.75
337.053	461.75
337.281	437.75
337.51	429.75
337.738	445.75
337.966	425.75
338.194	444.75
338.422	450.75
338.65	446.75
338.878	444.75
339.106	448.75
339.334	441.75
339.562	426.75
339.79	434.75
340.018	427.75
340.246	424.75
340.474	417.75
340.702	453.75
340.93	436.75
341.158	432.75
341.386	418.75
341.614	446.75
341.842	415.75
342.07	421.75
342.298	422.75
342.526	404.75
342.754	403.75
342.981	416.75
343.209	435.75
343.437	423.75
343.665	446.75
343.893	454.75
344.12	470.75
344.348	442.75
344.576	461.75
344.804	452.75
345.031	442.75
345.259	441.75
345.487	418.75
345.714	432.75
345.942	419.75
346.17	434.75
346.397	412.75
346.625	438.75
346.853	406.75
347.08	417.75
347.308	431.75
347.535	407.75
347.763	404.75
347.99	402.75
348.218	406.75
348.445	421.75
348.673	407.75
348.9	404.75
349.128	395.75
349.355	397.75
349.583	400.75
349.81	390.75
350.037	395.75
350.265	413.75
350.492	384.75
350.72	408.75
350.947	405.75
351.174	409.75
351.402	399.75
351.629	399.75
351.856	395.75
352.083	392.75
352.311	411.75
352.538	398.75
352.765	393.75
352.992	395.75
353.22	385.75
353.447	384.75
353.674	399.75
353.901	402.75
354.128	394.75
354.355	388.75
354.583	390.75
354.81	379.75
355.037	389.75
355.264	382.75
355.491	396.75
355.718	366.75
355.945	384.75
356.172	374.75
356.399	391.75
356.626	375.75
356.853	384.75
357.08	402.75
357.307	392.75
357.534	392.75
357.761	389.75
357.988	400.75
358.215	377.75
358.441	380.75
358.668	415.75
358.895	395.75
359.122	396.75
359.349	406.75
359.576	394.75
359.802	406.75
360.029	412.75
360.256	410.75
360.483	417.75
360.709	413.75
360.936	413.75
361.163	413.75
361.39	398.75
361.616	413.75
361.843	407.75
362.07	408.75
362.296	412.75
362.523	397.75
362.749	401.75
362.976	422.75
363.203	393.75
363.429	398.75
363.656	387.75
363.882	405.75
364.109	396.75
364.335	400.75
364.562	395.75
364.788	376.75
365.015	393.75
365.241	402.75
365.468	392.75
365.694	399.75
365.92	372.75
366.147	381.75
366.373	389.75
366.599	385.75
366.826	396.75
367.052	404.75
367.278	400.75
367.505	383.75
367.731	414.75
367.957	406.75
368.184	397.75
368.41	410.75
368.636	400.75
368.862	388.75
369.089	415.75
369.315	390.75
369.541	404.75
369.767	407.75
369.993	400.75
370.219	408.75
370.445	413.75
370.672	407.75
370.898	398.75
371.124	408.75
371.35	368.75
371.576	412.75
371.802	410.75
372.028	410.75
372.254	408.75
372.48	400.75
372.706	400.75
372.932	403.75
373.158	413.75
373.384	429.75
373.61	406.75
373.835	396.75
374.061	424.75
374.287	408.75
374.513	420.75
374.739	417.75
374.965	412.75
375.191	428.75
375.416	437.75
375.642	428.75
375.868	410.75
376.094	401.75
376.319	412.75
376.545	386.75
376.771	417.75
376.997	411.75
377.222	406.75
377.448	390.75
377.674	398.75
377.899	393.75
378.125	415.75
378.35	406.75
378.576	417.75
378.802	406.75
379.027	407.75
379.253	398.75
379.478	396.75
379.704	404.75
379.929	395.75
380.155	401.75
380.38	402.75
380.606	404.75
380.831	387.75
381.057	398.75
381.282	381.75
381.507	402.75
381.733	410.75
381.958	394.75
382.184	392.75
382.409	413.75
382.634	416.75
382.86	425.75
383.085	424.75
383.31	414.75
383.535	427.75
383.761	426.75
383.986	423.75
384.211	430.75
384.436	440.75
384.662	460.75
384.887	452.75
385.112	442.75
385.337	466.75
385.562	467.75
385.787	459.75
386.013	475.75
386.238	465.75
386.463	471.75
386.688	463.75
386.913	467.75
387.138	457.75
387.363	454.75
387.588	463.75
387.813	456.75
388.038	477.75
388.263	444.75
388.488	457.75
388.713	448.75
388.938	475.75
389.163	449.75
389.387	466.75
389.612	456.75
389.837	446.75
390.062	445.75
390.287	468.75
390.512	449.75
390.736	448.75
390.961	462.75
391.186	463.75
391.411	467.75
391.636	479.75
391.86	494.75
392.085	490.75
392.31	496.75
392.534	490.75
392.759	484.75
392.984	485.75
393.208	472.75
393.433	468.75
393.658	477.75
393.882	468.75
394.107	464.75
394.331	473.75
394.556	470.75
394.78	479.75
395.005	485.75
395.229	496.75
395.454	479.75
395.678	489.75
395.903	477.75
396.127	505.75
396.352	519.75
396.576	460.75
396.801	480.75
397.025	465.75
397.249	486.75
397.474	499.75
397.698	518.75
397.922	526.75
398.147	522.75
398.371	527.75
398.595	528.75
398.82	558.75
399.044	548.75
399.268	589.75
399.492	648.75
399.717	675.75
399.941	705.75
400.165	688.75
400.389	669.75
400.613	614.75
400.837	566.75
401.062	550.75
401.286	528.75
401.51	565.75
401.734	539.75
401.958	543.75
402.182	566.75
402.406	550.75
402.63	560.75
402.854	544.75
403.078	538.75
403.302	558.75
403.526	583.75
403.75	585.75
403.974	569.75
404.198	600.75
404.422	580.75
404.645	586.75
404.869	591.75
405.093	614.75
405.317	617.75
405.541	645.75
405.765	622.75
405.988	613.75
406.212	599.75
406.436	591.75
406.66	622.75
406.883	599.75
407.107	635.75
407.331	680.75
407.555	704.75
407.778	708.75
408.002	680.75
408.226	636.75
408.449	629.75
408.673	622.75
408.896	630.75
409.12	664.75
409.344	634.75
409.567	574.75
409.791	580.75
410.014	572.75
410.238	559.75
410.461	580.75
410.685	594.75
410.908	582.75
411.132	594.75
411.355	604.75
411.578	586.75
411.802	572.75
412.025	558.75
412.249	596.75
412.472	588.75
412.695	639.75
412.919	602.75
413.142	556.75
413.365	556.75
413.589	555.75
413.812	563.75
414.035	534.75
414.258	538.75
414.482	526.75
414.705	538.75
414.928	526.75
415.151	541.75
415.374	531.75
415.597	516.75
415.821	565.75
416.044	546.75
416.267	535.75
416.49	522.75
416.713	522.75
416.936	539.75
417.159	518.75
417.382	518.75
417.605	529.75
417.828	528.75
418.051	558.75
418.274	544.75
418.497	536.75
418.72	526.75
418.943	528.75
419.166	562.75
419.389	596.75
419.611	586.75
419.834	560.75
420.057	553.75
420.28	564.75
420.503	546.75
420.726	551.75
420.948	553.75
421.171	580.75
421.394	602.75
421.617	581.75
421.839	533.75
422.062	547.75
422.285	547.75
422.507	595.75
422.73	632.75
422.953	631.75
423.175	584.75
423.398	577.75
423.621	566.75
423.843	595.75
424.066	585.75
424.288	585.75
424.511	587.75
424.733	631.75
424.956	692.75
425.178	660.75
425.401	649.75
425.623	700.75
425.846	600.75
426.068	571.75
426.291	566.75
426.513	574.75
426.735	566.75
426.958	573.75
427.18	655.75
427.402	736.75
427.625	794.75
427.847	699.75
428.069	615.75
428.292	585.75
428.514	539.75
428.736	522.75
428.958	545.75
429.181	550.75
429.403	531.75
429.625	540.75
429.847	550.75
430.069	603.75
430.292	596.75
430.514	526.75
430.736	516.75
430.958	516.75
431.18	520.75
431.402	514.75
431.624	498.75
431.846	489.75
432.068	510.75
432.29	512.75
432.512	505.75
432.734	507.75
432.956	516.75
433.178	500.75
433.4	494.75
433.622	530.75
433.844	513.75
434.066	509.75
434.287	512.75
434.509	531.75
434.731	531.75
434.953	529.75
435.175	544.75
435.397	577.75
435.618	564.75
435.84	580.75
436.062	644.75
436.284	710.75
436.505	600.75
436.727	556.75
436.949	514.75
437.17	529.75
437.392	536.75
437.614	525.75
437.835	538.75
438.057	612.75
438.278	662.75
438.5	652.75
438.721	715.75
438.943	691.75
439.165	592.75
439.386	533.75
439.608	520.75
439.829	538.75
440.05	554.75
440.272	590.75
440.493	564.75
440.715	549.75
440.936	550.75
441.158	539.75
441.379	516.75
441.6	549.75
441.822	572.75
442.043	591.75
442.264	622.75
442.486	656.75
442.707	605.75
442.928	597.75
443.149	562.75
443.371	603.75
443.592	636.75
443.813	663.75
444.034	730.75
444.255	635.75
444.476	613.75
444.698	588.75
444.919	592.75
445.14	718.75
445.361	669.75
445.582	590.75
445.803	621.75
446.024	648.75
446.245	672.75
446.466	630.75
446.687	576.75
446.908	550.75
447.129	528.75
447.35	509.75
447.571	537.75
447.792	499.75
448.013	499.75
448.234	504.75
448.455	527.75
448.675	637.75
448.896	696.75
449.117	628.75
449.338	590.75
449.559	664.75
449.779	745.75
450	601.75
450.221	539.75
450.442	522.75
450.662	502.75
450.883	500.75
451.104	515.75
451.324	491.75
451.545	474.75
451.766	482.75
451.986	478.75
452.207	488.75
452.428	454.75
452.648	455.75
452.869	459.75
453.089	450.75
453.31	447.75
453.53	441.75
453.751	443.75
453.971	458.75
454.192	476.75
454.412	470.75
454.633	477.75
454.853	453.75
455.073	460.75
455.294	464.75
455.514	537.75
455.734	509.75
455.955	450.75
456.175	439.75
456.395	423.75
456.616	442.75
456.836	445.75
457.056	438.75
457.276	408.75
457.497	458.75
457.717	446.75
457.937	447.75
458.157	445.75
458.377	434.75
458.598	457.75
458.818	514.75
459.038	543.75
459.258	566.75
459.478	522.75
459.698	511.75
459.918	519.75
460.138	531.75
460.358	536.75
460.578	537.75
460.798	527.75
461.018	549.75
461.238	535.75
461.458	535.75
461.678	518.75
461.898	549.75
462.118	563.75
462.338	580.75
462.558	563.75
462.777	600.75
462.997	628.75
463.217	643.75
463.437	660.75
463.657	630.75
463.876	583.75
464.096	588.75
464.316	592.75
464.536	583.75
464.755	567.75
464.975	564.75
465.195	597.75
465.414	597.75
465.634	534.75
465.854	537.75
466.073	511.75
466.293	486.75
466.512	488.75
466.732	488.75
466.951	490.75
467.171	485.75
467.391	469.75
467.61	500.75
467.829	484.75
468.049	471.75
468.268	468.75
468.488	468.75
468.707	472.75
468.927	463.75
469.146	492.75
469.365	481.75
469.585	476.75
469.804	481.75
470.023	477.75
470.243	472.75
470.462	488.75
470.681	524.75
470.901	516.75
471.12	481.75
471.339	468.75
471.558	472.75
471.777	501.75
471.997	495.75
472.216	461.75
472.435	484.75
472.654	480.75
472.873	484.75
473.092	487.75
473.311	489.75
473.53	473.75
473.749	483.75
473.968	518.75
474.187	574.75
474.406	575.75
474.625	522.75
474.844	506.75
475.063	489.75
475.282	504.75
475.501	495.75
475.72	482.75
475.939	500.75
476.158	520.75
476.377	511.75
476.596	508.75
476.814	507.75
477.033	527.75
477.252	493.75
477.471	514.75
477.69	530.75
477.908	517.75
478.127	541.75
478.346	537.75
478.564	543.75
478.783	542.75
479.002	544.75
479.22	562.75
479.439	580.75
479.658	579.75
479.876	562.75
480.095	601.75
480.313	619.75
480.532	587.75
480.751	595.75
480.969	610.75
481.188	630.75
481.406	638.75
481.624	584.75
481.843	581.75
482.061	551.75
482.28	562.75
482.498	548.75
482.717	522.75
482.935	574.75
483.153	533.75
483.372	572.75
483.59	562.75
483.808	543.75
484.027	552.75
484.245	556.75
484.463	575.75
484.681	580.75
484.9	572.75
485.118	579.75
485.336	589.75
485.554	588.75
485.772	568.75
485.99	576.75
486.209	579.75
486.427	587.75
486.645	616.75
486.863	600.75
487.081	586.75
487.299	614.75
487.517	615.75
487.735	565.75
487.953	572.75
488.171	596.75
488.389	591.75
488.607	584.75
488.825	575.75
489.043	584.75
489.261	609.75
489.479	567.75
489.696	613.75
489.914	590.75
490.132	618.75
490.35	611.75
490.568	611.75
490.786	613.75
491.003	646.75
491.221	641.75
491.439	637.75
491.657	660.75
491.874	644.75
492.092	650.75
492.31	659.75
492.527	648.75
492.745	656.75
492.963	664.75
493.18	680.75
493.398	697.75
493.615	653.75
493.833	641.75
494.05	642.75
494.268	675.75
494.485	700.75
494.703	666.75
494.92	674.75
495.138	638.75
495.355	687.75
495.573	684.75
495.79	654.75
496.008	697.75
496.225	684.75
496.442	690.75
496.66	696.75
496.877	691.75
497.094	694.75
497.312	704.75
497.529	698.75
497.746	743.75
497.963	751.75
498.181	796.75
498.398	796.75
498.615	809.75
498.832	826.75
499.049	867.75
499.267	901.75
499.484	956.75
499.701	987.75
499.918	1054.75
500.135	1142.75
500.352	1203.75
500.569	1253.75
500.786	1229.75
501.003	1195.75
501.22	1109.75
501.437	1058.75
501.654	989.75
501.871	974.75
