Data from 1962.PennyLincolnUp.Lamp.En5.5.200Scan.071719.P1._HRD10591_13-55-34-062.txt Node
Date: Thu Jul 18 13:55:34 EDT 2019
User: cochatt
Spectrometer: HR+D1059
Trigger mode: 1
Integration Time (sec): 1.000000E-1
Scans to average: 1
Electric dark correction enabled: true
Nonlinearity correction enabled: false
Boxcar width: 0
XAxis mode: Wavelengths
Number of Pixels in Spectrum: 2048
>>>>>Begin Spectral Data<<<<<
223.165	-21.81
223.4	-21.81
223.635	-21.81
223.869	-4.81
224.104	-6.81
224.338	-10.81
224.573	-24.81
224.808	-5.81
225.042	-17.81
225.277	-16.81
225.511	-6.81
225.746	7.19
225.98	-2.81
226.215	11.19
226.449	24.19
226.683	18.19
226.918	24.19
227.152	34.19
227.387	30.19
227.621	32.19
227.856	53.19
228.09	39.19
228.324	40.19
228.559	55.19
228.793	64.19
229.027	94.19
229.262	99.19
229.496	108.19
229.73	105.19
229.964	114.19
230.199	118.19
230.433	103.19
230.667	104.19
230.901	112.19
231.136	107.19
231.37	98.19
231.604	99.19
231.838	91.19
232.072	114.19
232.306	112.19
232.541	122.19
232.775	123.19
233.009	116.19
233.243	103.19
233.477	107.19
233.711	115.19
233.945	115.19
234.179	106.19
234.413	102.19
234.647	106.19
234.881	104.19
235.115	110.19
235.349	114.19
235.583	105.19
235.817	109.19
236.051	120.19
236.285	110.19
236.519	120.19
236.753	114.19
236.987	130.19
237.221	139.19
237.455	186.19
237.689	176.19
237.922	130.19
238.156	117.19
238.39	110.19
238.624	119.19
238.858	127.19
239.091	113.19
239.325	122.19
239.559	126.19
239.793	127.19
240.027	131.19
240.26	132.19
240.494	138.19
240.728	138.19
240.961	132.19
241.195	126.19
241.429	136.19
241.662	124.19
241.896	126.19
242.13	130.19
242.363	133.19
242.597	116.19
242.83	126.19
243.064	126.19
243.298	150.19
243.531	148.19
243.765	133.19
243.998	145.19
244.232	148.19
244.465	138.19
244.699	136.19
244.932	137.19
245.166	130.19
245.399	136.19
245.633	140.19
245.866	130.19
246.099	127.19
246.333	139.19
246.566	133.19
246.8	141.19
247.033	151.19
247.266	152.19
247.5	147.19
247.733	169.19
247.966	158.19
248.2	168.19
248.433	153.19
248.666	172.19
248.899	176.19
249.133	158.19
249.366	179.19
249.599	168.19
249.832	174.19
250.066	148.19
250.299	163.19
250.532	167.19
250.765	173.19
250.998	203.19
251.231	190.19
251.465	194.19
251.698	165.19
251.931	172.19
252.164	171.19
252.397	180.19
252.63	170.19
252.863	190.19
253.096	183.19
253.329	205.19
253.562	212.19
253.795	192.19
254.028	201.19
254.261	199.19
254.494	197.19
254.727	218.19
254.96	233.19
255.193	238.19
255.426	216.19
255.659	204.19
255.892	196.19
256.124	196.19
256.357	207.19
256.59	225.19
256.823	193.19
257.056	187.19
257.289	198.19
257.521	183.19
257.754	188.19
257.987	185.19
258.22	191.19
258.452	220.19
258.685	185.19
258.918	194.19
259.151	184.19
259.383	209.19
259.616	190.19
259.849	188.19
260.081	213.19
260.314	211.19
260.547	217.19
260.779	238.19
261.012	212.19
261.244	200.19
261.477	185.19
261.71	220.19
261.942	206.19
262.175	208.19
262.407	207.19
262.64	193.19
262.872	195.19
263.105	202.19
263.337	211.19
263.57	202.19
263.802	202.19
264.035	209.19
264.267	204.19
264.499	208.19
264.732	193.19
264.964	200.19
265.197	175.19
265.429	211.19
265.661	209.19
265.894	210.19
266.126	210.19
266.358	211.19
266.591	215.19
266.823	215.19
267.055	208.19
267.287	207.19
267.52	203.19
267.752	231.19
267.984	215.19
268.216	220.19
268.448	234.19
268.681	229.19
268.913	226.19
269.145	243.19
269.377	251.19
269.609	262.19
269.841	259.19
270.073	247.19
270.306	264.19
270.538	285.19
270.77	281.19
271.002	280.19
271.234	267.19
271.466	270.19
271.698	267.19
271.93	291.19
272.162	280.19
272.394	300.19
272.626	281.19
272.858	262.19
273.09	262.19
273.322	271.19
273.553	247.19
273.785	255.19
274.017	263.19
274.249	253.19
274.481	238.19
274.713	255.19
274.945	254.19
275.176	258.19
275.408	270.19
275.64	242.19
275.872	258.19
276.104	250.19
276.335	249.19
276.567	243.19
276.799	275.19
277.031	281.19
277.262	292.19
277.494	286.19
277.726	271.19
277.957	272.19
278.189	269.19
278.421	282.19
278.652	256.19
278.884	256.19
279.115	272.19
279.347	247.19
279.579	248.19
279.81	272.19
280.042	279.19
280.273	257.19
280.505	245.19
280.736	262.19
280.968	265.19
281.199	263.19
281.431	273.19
281.662	260.19
281.894	259.19
282.125	262.19
282.356	270.19
282.588	299.19
282.819	281.19
283.051	278.19
283.282	280.19
283.513	289.19
283.745	286.19
283.976	282.19
284.207	276.19
284.439	282.19
284.67	287.19
284.901	264.19
285.132	287.19
285.364	267.19
285.595	303.19
285.826	280.19
286.057	278.19
286.288	280.19
286.52	284.19
286.751	278.19
286.982	304.19
287.213	277.19
287.444	282.19
287.675	288.19
287.906	280.19
288.138	310.19
288.369	324.19
288.6	289.19
288.831	321.19
289.062	288.19
289.293	312.19
289.524	295.19
289.755	296.19
289.986	295.19
290.217	300.19
290.448	287.19
290.679	302.19
290.91	289.19
291.141	308.19
291.371	298.19
291.602	298.19
291.833	292.19
292.064	298.19
292.295	290.19
292.526	299.19
292.757	280.19
292.987	301.19
293.218	297.19
293.449	308.19
293.68	293.19
293.91	297.19
294.141	278.19
294.372	311.19
294.603	296.19
294.833	302.19
295.064	291.19
295.295	288.19
295.525	302.19
295.756	315.19
295.987	300.19
296.217	302.19
296.448	300.19
296.679	304.19
296.909	303.19
297.14	309.19
297.37	317.19
297.601	311.19
297.831	303.19
298.062	295.19
298.292	305.19
298.523	315.19
298.753	296.19
298.984	310.19
299.214	318.19
299.445	302.19
299.675	309.19
299.905	319.19
300.136	318.19
300.366	327.19
300.597	321.19
300.827	328.19
301.057	330.19
301.288	323.19
301.518	326.19
301.748	314.19
301.979	314.19
302.209	324.19
302.439	348.19
302.669	319.19
302.9	326.19
303.13	331.19
303.36	318.19
303.59	340.19
303.82	326.19
304.051	340.19
304.281	332.19
304.511	328.19
304.741	332.19
304.971	322.19
305.201	323.19
305.431	329.19
305.661	342.19
305.891	341.19
306.121	334.19
306.352	350.19
306.582	319.19
306.812	336.19
307.042	338.19
307.272	334.19
307.502	336.19
307.731	330.19
307.961	347.19
308.191	345.19
308.421	315.19
308.651	326.19
308.881	336.19
309.111	350.19
309.341	331.19
309.571	335.19
309.8	352.19
310.03	341.19
310.26	356.19
310.49	352.19
310.72	354.19
310.949	354.19
311.179	360.19
311.409	367.19
311.639	370.19
311.868	359.19
312.098	344.19
312.328	349.19
312.557	359.19
312.787	362.19
313.017	373.19
313.246	382.19
313.476	368.19
313.706	374.19
313.935	383.19
314.165	372.19
314.394	370.19
314.624	382.19
314.853	366.19
315.083	373.19
315.312	361.19
315.542	376.19
315.771	370.19
316.001	373.19
316.23	374.19
316.46	395.19
316.689	368.19
316.919	375.19
317.148	375.19
317.377	370.19
317.607	357.19
317.836	330.19
318.065	363.19
318.295	347.19
318.524	367.19
318.753	366.19
318.983	364.19
319.212	376.19
319.441	382.19
319.67	374.19
319.9	375.19
320.129	373.19
320.358	371.19
320.587	378.19
320.816	376.19
321.046	399.19
321.275	378.19
321.504	393.19
321.733	393.19
321.962	387.19
322.191	408.19
322.42	396.19
322.649	406.19
322.878	420.19
323.108	422.19
323.337	435.19
323.566	440.19
323.795	446.19
324.024	491.19
324.253	558.19
324.482	724.19
324.71	1056.19
324.939	1523.19
325.168	1332.19
325.397	720.19
325.626	557.19
325.855	466.19
326.084	459.19
326.313	446.19
326.542	460.19
326.77	477.19
326.999	560.19
327.228	683.19
327.457	997.19
327.686	1171.19
327.914	807.19
328.143	562.19
328.372	528.19
328.6	501.19
328.829	482.19
329.058	483.19
329.287	481.19
329.515	467.19
329.744	471.19
329.972	448.19
330.201	455.19
330.43	495.19
330.658	518.19
330.887	501.19
331.115	498.19
331.344	474.19
331.572	450.19
331.801	457.19
332.03	449.19
332.258	461.19
332.486	435.19
332.715	453.19
332.943	473.19
333.172	469.19
333.4	455.19
333.629	495.19
333.857	487.19
334.085	503.19
334.314	494.19
334.542	519.19
334.771	534.19
334.999	475.19
335.227	469.19
335.455	490.19
335.684	442.19
335.912	465.19
336.14	449.19
336.369	437.19
336.597	449.19
336.825	461.19
337.053	455.19
337.281	446.19
337.51	440.19
337.738	431.19
337.966	420.19
338.194	430.19
338.422	448.19
338.65	442.19
338.878	446.19
339.106	420.19
339.334	420.19
339.562	404.19
339.79	436.19
340.018	427.19
340.246	409.19
340.474	422.19
340.702	430.19
340.93	420.19
341.158	427.19
341.386	409.19
341.614	417.19
341.842	424.19
342.07	422.19
342.298	402.19
342.526	402.19
342.754	407.19
342.981	396.19
343.209	426.19
343.437	421.19
343.665	426.19
343.893	427.19
344.12	451.19
344.348	455.19
344.576	452.19
344.804	441.19
345.031	435.19
345.259	440.19
345.487	432.19
345.714	424.19
345.942	411.19
346.17	403.19
346.397	417.19
346.625	417.19
346.853	399.19
347.08	407.19
347.308	423.19
347.535	423.19
347.763	419.19
347.99	408.19
348.218	419.19
348.445	403.19
348.673	408.19
348.9	415.19
349.128	384.19
349.355	388.19
349.583	393.19
349.81	398.19
350.037	404.19
350.265	395.19
350.492	390.19
350.72	378.19
350.947	392.19
351.174	400.19
351.402	414.19
351.629	418.19
351.856	390.19
352.083	410.19
352.311	420.19
352.538	402.19
352.765	410.19
352.992	405.19
353.22	405.19
353.447	392.19
353.674	393.19
353.901	394.19
354.128	382.19
354.355	375.19
354.583	370.19
354.81	393.19
355.037	397.19
355.264	402.19
355.491	376.19
355.718	376.19
355.945	371.19
356.172	359.19
356.399	380.19
356.626	408.19
356.853	392.19
357.08	363.19
357.307	390.19
357.534	376.19
357.761	373.19
357.988	388.19
358.215	388.19
358.441	367.19
358.668	385.19
358.895	373.19
359.122	409.19
359.349	409.19
359.576	403.19
359.802	405.19
360.029	403.19
360.256	435.19
360.483	419.19
360.709	402.19
360.936	410.19
361.163	394.19
361.39	412.19
361.616	400.19
361.843	396.19
362.07	404.19
362.296	396.19
362.523	404.19
362.749	406.19
362.976	402.19
363.203	416.19
363.429	412.19
363.656	392.19
363.882	384.19
364.109	395.19
364.335	362.19
364.562	372.19
364.788	388.19
365.015	394.19
365.241	389.19
365.468	391.19
365.694	414.19
365.92	404.19
366.147	380.19
366.373	383.19
366.599	396.19
366.826	391.19
367.052	387.19
367.278	419.19
367.505	371.19
367.731	389.19
367.957	374.19
368.184	381.19
368.41	403.19
368.636	405.19
368.862	396.19
369.089	393.19
369.315	373.19
369.541	394.19
369.767	397.19
369.993	404.19
370.219	387.19
370.445	375.19
370.672	409.19
370.898	404.19
371.124	400.19
371.35	394.19
371.576	406.19
371.802	392.19
372.028	413.19
372.254	392.19
372.48	403.19
372.706	425.19
372.932	409.19
373.158	403.19
373.384	409.19
373.61	409.19
373.835	423.19
374.061	393.19
374.287	408.19
374.513	420.19
374.739	419.19
374.965	415.19
375.191	427.19
375.416	420.19
375.642	402.19
375.868	396.19
376.094	410.19
376.319	417.19
376.545	407.19
376.771	390.19
376.997	381.19
377.222	394.19
377.448	382.19
377.674	385.19
377.899	391.19
378.125	404.19
378.35	418.19
378.576	382.19
378.802	386.19
379.027	392.19
379.253	396.19
379.478	400.19
379.704	384.19
379.929	403.19
380.155	382.19
380.38	414.19
380.606	389.19
380.831	415.19
381.057	402.19
381.282	392.19
381.507	404.19
381.733	396.19
381.958	414.19
382.184	405.19
382.409	422.19
382.634	409.19
382.86	430.19
383.085	419.19
383.31	418.19
383.535	433.19
383.761	440.19
383.986	430.19
384.211	436.19
384.436	405.19
384.662	452.19
384.887	436.19
385.112	445.19
385.337	463.19
385.562	451.19
385.787	449.19
386.013	473.19
386.238	463.19
386.463	459.19
386.688	446.19
386.913	436.19
387.138	455.19
387.363	455.19
387.588	447.19
387.813	451.19
388.038	455.19
388.263	428.19
388.488	440.19
388.713	446.19
388.938	468.19
389.163	449.19
389.387	481.19
389.612	436.19
389.837	454.19
390.062	444.19
390.287	453.19
390.512	451.19
390.736	438.19
390.961	464.19
391.186	441.19
391.411	471.19
391.636	496.19
391.86	466.19
392.085	501.19
392.31	478.19
392.534	495.19
392.759	495.19
392.984	479.19
393.208	452.19
393.433	488.19
393.658	476.19
393.882	460.19
394.107	469.19
394.331	464.19
394.556	476.19
394.78	466.19
395.005	474.19
395.229	469.19
395.454	480.19
395.678	507.19
395.903	493.19
396.127	487.19
396.352	514.19
396.576	498.19
396.801	490.19
397.025	489.19
397.249	464.19
397.474	476.19
397.698	493.19
397.922	518.19
398.147	524.19
398.371	520.19
398.595	517.19
398.82	524.19
399.044	559.19
399.268	598.19
399.492	656.19
399.717	660.19
399.941	667.19
400.165	677.19
400.389	646.19
400.613	616.19
400.837	556.19
401.062	550.19
401.286	564.19
401.51	539.19
401.734	548.19
401.958	534.19
402.182	546.19
402.406	542.19
402.63	561.19
402.854	545.19
403.078	566.19
403.302	568.19
403.526	569.19
403.75	558.19
403.974	548.19
404.198	581.19
404.422	566.19
404.645	565.19
404.869	569.19
405.093	614.19
405.317	636.19
405.541	680.19
405.765	593.19
405.988	578.19
406.212	567.19
406.436	591.19
406.66	616.19
406.883	616.19
407.107	628.19
407.331	664.19
407.555	718.19
407.778	706.19
408.002	638.19
408.226	612.19
408.449	615.19
408.673	614.19
408.896	628.19
409.12	666.19
409.344	658.19
409.567	608.19
409.791	590.19
410.014	563.19
410.238	547.19
410.461	554.19
410.685	570.19
410.908	588.19
411.132	599.19
411.355	634.19
411.578	570.19
411.802	561.19
412.025	548.19
412.249	568.19
412.472	572.19
412.695	604.19
412.919	599.19
413.142	562.19
413.365	559.19
413.589	543.19
413.812	532.19
414.035	534.19
414.258	530.19
414.482	524.19
414.705	534.19
414.928	528.19
415.151	537.19
415.374	524.19
415.597	531.19
415.821	517.19
416.044	511.19
416.267	541.19
416.49	525.19
416.713	514.19
416.936	522.19
417.159	536.19
417.382	528.19
417.605	528.19
417.828	531.19
418.051	534.19
418.274	524.19
418.497	517.19
418.72	528.19
418.943	528.19
419.166	556.19
419.389	598.19
419.611	570.19
419.834	559.19
420.057	560.19
420.28	560.19
420.503	550.19
420.726	554.19
420.948	544.19
421.171	569.19
421.394	598.19
421.617	566.19
421.839	543.19
422.062	547.19
422.285	554.19
422.507	595.19
422.73	628.19
422.953	644.19
423.175	563.19
423.398	571.19
423.621	553.19
423.843	579.19
424.066	575.19
424.288	573.19
424.511	583.19
424.733	629.19
424.956	688.19
425.178	658.19
425.401	651.19
425.623	688.19
425.846	603.19
426.068	541.19
426.291	580.19
426.513	531.19
426.735	560.19
426.958	603.19
427.18	661.19
427.402	751.19
427.625	806.19
427.847	670.19
428.069	612.19
428.292	575.19
428.514	551.19
428.736	514.19
428.958	506.19
429.181	519.19
429.403	534.19
429.625	521.19
429.847	552.19
430.069	586.19
430.292	595.19
430.514	521.19
430.736	517.19
430.958	509.19
431.18	502.19
431.402	503.19
431.624	497.19
431.846	484.19
432.068	486.19
432.29	520.19
432.512	491.19
432.734	503.19
432.956	512.19
433.178	510.19
433.4	517.19
433.622	497.19
433.844	499.19
434.066	502.19
434.287	501.19
434.509	530.19
434.731	532.19
434.953	538.19
435.175	562.19
435.397	547.19
435.618	551.19
435.84	597.19
436.062	639.19
436.284	704.19
436.505	615.19
436.727	547.19
436.949	576.19
437.17	534.19
437.392	524.19
437.614	528.19
437.835	540.19
438.057	601.19
438.278	697.19
438.5	668.19
438.721	752.19
438.943	727.19
439.165	582.19
439.386	556.19
439.608	550.19
439.829	528.19
440.05	579.19
440.272	618.19
440.493	578.19
440.715	552.19
440.936	548.19
441.158	518.19
441.379	512.19
441.6	551.19
441.822	558.19
442.043	604.19
442.264	659.19
442.486	688.19
442.707	619.19
442.928	579.19
443.149	574.19
443.371	593.19
443.592	603.19
443.813	689.19
444.034	735.19
444.255	643.19
444.476	608.19
444.698	594.19
444.919	590.19
445.14	691.19
445.361	645.19
445.582	615.19
445.803	615.19
446.024	699.19
446.245	690.19
446.466	646.19
446.687	579.19
446.908	537.19
447.129	520.19
447.35	510.19
447.571	523.19
447.792	488.19
448.013	475.19
448.234	510.19
448.455	551.19
448.675	646.19
448.896	713.19
449.117	630.19
449.338	594.19
449.559	668.19
449.779	758.19
450	586.19
450.221	559.19
450.442	520.19
450.662	484.19
450.883	492.19
451.104	491.19
451.324	475.19
451.545	467.19
451.766	464.19
451.986	450.19
452.207	444.19
452.428	466.19
452.648	471.19
452.869	447.19
453.089	457.19
453.31	488.19
453.53	460.19
453.751	464.19
453.971	455.19
454.192	463.19
454.412	463.19
454.633	476.19
454.853	447.19
455.073	446.19
455.294	460.19
455.514	519.19
455.734	505.19
455.955	457.19
456.175	438.19
456.395	427.19
456.616	428.19
456.836	435.19
457.056	426.19
457.276	447.19
457.497	450.19
457.717	438.19
457.937	440.19
458.157	466.19
458.377	459.19
458.598	487.19
458.818	529.19
459.038	546.19
459.258	564.19
459.478	530.19
459.698	519.19
459.918	481.19
460.138	494.19
460.358	512.19
460.578	536.19
460.798	527.19
461.018	521.19
461.238	544.19
461.458	547.19
461.678	524.19
461.898	539.19
462.118	536.19
462.338	578.19
462.558	578.19
462.777	578.19
462.997	590.19
463.217	617.19
463.437	614.19
463.657	606.19
463.876	572.19
464.096	601.19
464.316	576.19
464.536	588.19
464.755	562.19
464.975	570.19
465.195	583.19
465.414	600.19
465.634	538.19
465.854	520.19
466.073	506.19
466.293	478.19
466.512	485.19
466.732	487.19
466.951	490.19
467.171	502.19
467.391	476.19
467.61	480.19
467.829	468.19
468.049	474.19
468.268	482.19
468.488	476.19
468.707	469.19
468.927	455.19
469.146	446.19
469.365	470.19
469.585	470.19
469.804	482.19
470.023	486.19
470.243	480.19
470.462	497.19
470.681	483.19
470.901	500.19
471.12	485.19
471.339	494.19
471.558	502.19
471.777	487.19
471.997	460.19
472.216	487.19
472.435	525.19
472.654	475.19
472.873	471.19
473.092	483.19
473.311	480.19
473.53	483.19
473.749	494.19
473.968	510.19
474.187	570.19
474.406	588.19
474.625	532.19
474.844	494.19
475.063	464.19
475.282	461.19
475.501	486.19
475.72	476.19
475.939	473.19
476.158	491.19
476.377	502.19
476.596	494.19
476.814	518.19
477.033	499.19
477.252	511.19
477.471	514.19
477.69	517.19
477.908	522.19
478.127	534.19
478.346	541.19
478.564	544.19
478.783	558.19
479.002	563.19
479.22	548.19
479.439	576.19
479.658	567.19
479.876	572.19
480.095	554.19
480.313	610.19
480.532	595.19
480.751	593.19
480.969	607.19
481.188	609.19
481.406	642.19
481.624	616.19
481.843	575.19
482.061	587.19
482.28	571.19
482.498	562.19
482.717	536.19
482.935	549.19
483.153	549.19
483.372	570.19
483.59	553.19
483.808	566.19
484.027	532.19
484.245	563.19
484.463	553.19
484.681	582.19
484.9	567.19
485.118	555.19
485.336	586.19
485.554	589.19
485.772	562.19
485.99	577.19
486.209	573.19
486.427	592.19
486.645	578.19
486.863	590.19
487.081	577.19
487.299	583.19
487.517	585.19
487.735	578.19
487.953	575.19
488.171	614.19
488.389	581.19
488.607	582.19
488.825	598.19
489.043	590.19
489.261	588.19
489.479	594.19
489.696	593.19
489.914	596.19
490.132	593.19
490.35	614.19
490.568	612.19
490.786	607.19
491.003	618.19
491.221	625.19
491.439	638.19
491.657	642.19
491.874	642.19
492.092	639.19
492.31	647.19
492.527	651.19
492.745	660.19
492.963	664.19
493.18	666.19
493.398	657.19
493.615	683.19
493.833	678.19
494.05	678.19
494.268	680.19
494.485	683.19
494.703	662.19
494.92	682.19
495.138	647.19
495.355	699.19
495.573	673.19
495.79	674.19
496.008	700.19
496.225	677.19
496.442	690.19
496.66	683.19
496.877	706.19
497.094	682.19
497.312	692.19
497.529	715.19
497.746	711.19
497.963	728.19
498.181	766.19
498.398	802.19
498.615	824.19
498.832	832.19
499.049	878.19
499.267	880.19
499.484	923.19
499.701	966.19
499.918	1044.19
500.135	1112.19
500.352	1190.19
500.569	1228.19
500.786	1203.19
501.003	1139.19
501.22	1124.19
501.437	1095.19
501.654	1033.19
501.871	941.19
