Data from 1962.PennyLincolnUp.Lamp.En5.5.200Scan.071719.P1._HRD10591_13-55-18-061.txt Node
Date: Thu Jul 18 13:55:18 EDT 2019
User: cochatt
Spectrometer: HR+D1059
Trigger mode: 1
Integration Time (sec): 1.000000E-1
Scans to average: 1
Electric dark correction enabled: true
Nonlinearity correction enabled: false
Boxcar width: 0
XAxis mode: Wavelengths
Number of Pixels in Spectrum: 2048
>>>>>Begin Spectral Data<<<<<
223.165	-18.56
223.4	-18.56
223.635	-18.56
223.869	-12.56
224.104	-14.56
224.338	-11.56
224.573	-1.56
224.808	-12.56
225.042	-16.56
225.277	-10.56
225.511	-12.56
225.746	8.44
225.98	12.44
226.215	7.44
226.449	12.44
226.683	6.44
226.918	29.44
227.152	34.44
227.387	42.44
227.621	42.44
227.856	50.44
228.09	44.44
228.324	61.44
228.559	55.44
228.793	70.44
229.027	99.44
229.262	92.44
229.496	115.44
229.73	103.44
229.964	119.44
230.199	113.44
230.433	103.44
230.667	113.44
230.901	117.44
231.136	102.44
231.37	101.44
231.604	124.44
231.838	99.44
232.072	113.44
232.306	108.44
232.541	99.44
232.775	102.44
233.009	110.44
233.243	115.44
233.477	106.44
233.711	113.44
233.945	131.44
234.179	127.44
234.413	129.44
234.647	123.44
234.881	119.44
235.115	113.44
235.349	117.44
235.583	122.44
235.817	118.44
236.051	119.44
236.285	126.44
236.519	122.44
236.753	110.44
236.987	132.44
237.221	144.44
237.455	177.44
237.689	157.44
237.922	143.44
238.156	119.44
238.39	113.44
238.624	119.44
238.858	122.44
239.091	128.44
239.325	104.44
239.559	128.44
239.793	109.44
240.027	121.44
240.26	129.44
240.494	124.44
240.728	143.44
240.961	148.44
241.195	147.44
241.429	131.44
241.662	123.44
241.896	137.44
242.13	143.44
242.363	132.44
242.597	134.44
242.83	116.44
243.064	140.44
243.298	125.44
243.531	141.44
243.765	133.44
243.998	144.44
244.232	139.44
244.465	153.44
244.699	144.44
244.932	144.44
245.166	146.44
245.399	143.44
245.633	130.44
245.866	152.44
246.099	148.44
246.333	135.44
246.566	146.44
246.8	143.44
247.033	159.44
247.266	142.44
247.5	154.44
247.733	152.44
247.966	166.44
248.2	163.44
248.433	157.44
248.666	164.44
248.899	180.44
249.133	168.44
249.366	182.44
249.599	170.44
249.832	172.44
250.066	156.44
250.299	169.44
250.532	181.44
250.765	157.44
250.998	191.44
251.231	191.44
251.465	194.44
251.698	176.44
251.931	187.44
252.164	180.44
252.397	192.44
252.63	201.44
252.863	174.44
253.096	196.44
253.329	208.44
253.562	199.44
253.795	196.44
254.028	190.44
254.261	181.44
254.494	209.44
254.727	210.44
254.96	226.44
255.193	229.44
255.426	214.44
255.659	205.44
255.892	207.44
256.124	206.44
256.357	191.44
256.59	198.44
256.823	190.44
257.056	185.44
257.289	193.44
257.521	186.44
257.754	194.44
257.987	203.44
258.22	195.44
258.452	196.44
258.685	193.44
258.918	185.44
259.151	197.44
259.383	201.44
259.616	209.44
259.849	205.44
260.081	220.44
260.314	217.44
260.547	230.44
260.779	239.44
261.012	211.44
261.244	214.44
261.477	207.44
261.71	189.44
261.942	209.44
262.175	225.44
262.407	210.44
262.64	214.44
262.872	215.44
263.105	203.44
263.337	204.44
263.57	199.44
263.802	213.44
264.035	217.44
264.267	198.44
264.499	198.44
264.732	194.44
264.964	214.44
265.197	192.44
265.429	203.44
265.661	177.44
265.894	203.44
266.126	218.44
266.358	211.44
266.591	228.44
266.823	223.44
267.055	222.44
267.287	232.44
267.52	219.44
267.752	210.44
267.984	211.44
268.216	233.44
268.448	224.44
268.681	222.44
268.913	232.44
269.145	248.44
269.377	256.44
269.609	272.44
269.841	258.44
270.073	232.44
270.306	242.44
270.538	303.44
270.77	287.44
271.002	270.44
271.234	276.44
271.466	279.44
271.698	287.44
271.93	290.44
272.162	278.44
272.394	269.44
272.626	258.44
272.858	267.44
273.09	252.44
273.322	276.44
273.553	268.44
273.785	246.44
274.017	254.44
274.249	260.44
274.481	241.44
274.713	244.44
274.945	230.44
275.176	252.44
275.408	270.44
275.64	267.44
275.872	237.44
276.104	244.44
276.335	251.44
276.567	262.44
276.799	269.44
277.031	293.44
277.262	296.44
277.494	315.44
277.726	279.44
277.957	275.44
278.189	267.44
278.421	244.44
278.652	271.44
278.884	260.44
279.115	269.44
279.347	241.44
279.579	258.44
279.81	275.44
280.042	253.44
280.273	250.44
280.505	270.44
280.736	269.44
280.968	263.44
281.199	268.44
281.431	284.44
281.662	267.44
281.894	270.44
282.125	276.44
282.356	286.44
282.588	296.44
282.819	292.44
283.051	270.44
283.282	254.44
283.513	276.44
283.745	280.44
283.976	285.44
284.207	282.44
284.439	277.44
284.67	299.44
284.901	300.44
285.132	287.44
285.364	265.44
285.595	279.44
285.826	277.44
286.057	265.44
286.288	287.44
286.52	277.44
286.751	284.44
286.982	287.44
287.213	292.44
287.444	295.44
287.675	311.44
287.906	290.44
288.138	300.44
288.369	309.44
288.6	292.44
288.831	303.44
289.062	303.44
289.293	300.44
289.524	317.44
289.755	281.44
289.986	285.44
290.217	301.44
290.448	278.44
290.679	283.44
290.91	273.44
291.141	306.44
291.371	299.44
291.602	305.44
291.833	301.44
292.064	284.44
292.295	283.44
292.526	295.44
292.757	286.44
292.987	295.44
293.218	301.44
293.449	293.44
293.68	302.44
293.91	290.44
294.141	302.44
294.372	295.44
294.603	310.44
294.833	301.44
295.064	286.44
295.295	303.44
295.525	280.44
295.756	295.44
295.987	307.44
296.217	320.44
296.448	321.44
296.679	309.44
296.909	296.44
297.14	305.44
297.37	309.44
297.601	320.44
297.831	312.44
298.062	297.44
298.292	322.44
298.523	302.44
298.753	328.44
298.984	305.44
299.214	305.44
299.445	333.44
299.675	312.44
299.905	303.44
300.136	302.44
300.366	306.44
300.597	311.44
300.827	317.44
301.057	334.44
301.288	340.44
301.518	325.44
301.748	338.44
301.979	321.44
302.209	332.44
302.439	327.44
302.669	327.44
302.9	331.44
303.13	343.44
303.36	318.44
303.59	330.44
303.82	343.44
304.051	345.44
304.281	331.44
304.511	351.44
304.741	346.44
304.971	348.44
305.201	336.44
305.431	314.44
305.661	344.44
305.891	319.44
306.121	317.44
306.352	340.44
306.582	350.44
306.812	325.44
307.042	328.44
307.272	330.44
307.502	342.44
307.731	346.44
307.961	339.44
308.191	332.44
308.421	323.44
308.651	343.44
308.881	333.44
309.111	340.44
309.341	341.44
309.571	338.44
309.8	336.44
310.03	362.44
310.26	359.44
310.49	342.44
310.72	353.44
310.949	357.44
311.179	379.44
311.409	348.44
311.639	357.44
311.868	364.44
312.098	370.44
312.328	350.44
312.557	349.44
312.787	381.44
313.017	379.44
313.246	351.44
313.476	364.44
313.706	359.44
313.935	378.44
314.165	385.44
314.394	392.44
314.624	394.44
314.853	344.44
315.083	373.44
315.312	367.44
315.542	373.44
315.771	364.44
316.001	347.44
316.23	369.44
316.46	375.44
316.689	377.44
316.919	374.44
317.148	369.44
317.377	359.44
317.607	378.44
317.836	387.44
318.065	386.44
318.295	374.44
318.524	386.44
318.753	379.44
318.983	368.44
319.212	359.44
319.441	381.44
319.67	363.44
319.9	363.44
320.129	364.44
320.358	361.44
320.587	380.44
320.816	397.44
321.046	376.44
321.275	374.44
321.504	380.44
321.733	389.44
321.962	398.44
322.191	378.44
322.42	392.44
322.649	404.44
322.878	412.44
323.108	415.44
323.337	425.44
323.566	420.44
323.795	459.44
324.024	493.44
324.253	558.44
324.482	719.44
324.71	1043.44
324.939	1491.44
325.168	1309.44
325.397	721.44
325.626	533.44
325.855	487.44
326.084	463.44
326.313	458.44
326.542	446.44
326.77	485.44
326.999	540.44
327.228	693.44
327.457	979.44
327.686	1156.44
327.914	761.44
328.143	579.44
328.372	506.44
328.6	479.44
328.829	491.44
329.058	506.44
329.287	488.44
329.515	471.44
329.744	467.44
329.972	449.44
330.201	472.44
330.43	481.44
330.658	515.44
330.887	514.44
331.115	501.44
331.344	471.44
331.572	456.44
331.801	455.44
332.03	451.44
332.258	450.44
332.486	454.44
332.715	461.44
332.943	469.44
333.172	481.44
333.4	475.44
333.629	477.44
333.857	479.44
334.085	495.44
334.314	494.44
334.542	518.44
334.771	529.44
334.999	497.44
335.227	465.44
335.455	453.44
335.684	446.44
335.912	459.44
336.14	451.44
336.369	450.44
336.597	438.44
336.825	435.44
337.053	440.44
337.281	444.44
337.51	431.44
337.738	441.44
337.966	441.44
338.194	441.44
338.422	452.44
338.65	436.44
338.878	454.44
339.106	406.44
339.334	430.44
339.562	424.44
339.79	433.44
340.018	445.44
340.246	410.44
340.474	426.44
340.702	434.44
340.93	426.44
341.158	408.44
341.386	413.44
341.614	423.44
341.842	426.44
342.07	416.44
342.298	434.44
342.526	426.44
342.754	436.44
342.981	396.44
343.209	411.44
343.437	425.44
343.665	435.44
343.893	464.44
344.12	482.44
344.348	475.44
344.576	456.44
344.804	442.44
345.031	440.44
345.259	451.44
345.487	419.44
345.714	406.44
345.942	417.44
346.17	416.44
346.397	408.44
346.625	381.44
346.853	412.44
347.08	408.44
347.308	411.44
347.535	414.44
347.763	424.44
347.99	419.44
348.218	418.44
348.445	415.44
348.673	399.44
348.9	389.44
349.128	393.44
349.355	386.44
349.583	409.44
349.81	388.44
350.037	390.44
350.265	383.44
350.492	393.44
350.72	401.44
350.947	395.44
351.174	407.44
351.402	405.44
351.629	400.44
351.856	405.44
352.083	412.44
352.311	392.44
352.538	411.44
352.765	402.44
352.992	410.44
353.22	403.44
353.447	382.44
353.674	394.44
353.901	377.44
354.128	370.44
354.355	380.44
354.583	392.44
354.81	393.44
355.037	391.44
355.264	374.44
355.491	388.44
355.718	393.44
355.945	387.44
356.172	362.44
356.399	390.44
356.626	379.44
356.853	382.44
357.08	386.44
357.307	377.44
357.534	371.44
357.761	378.44
357.988	375.44
358.215	394.44
358.441	398.44
358.668	390.44
358.895	390.44
359.122	375.44
359.349	392.44
359.576	406.44
359.802	417.44
360.029	441.44
360.256	453.44
360.483	433.44
360.709	405.44
360.936	387.44
361.163	395.44
361.39	379.44
361.616	405.44
361.843	410.44
362.07	394.44
362.296	401.44
362.523	399.44
362.749	399.44
362.976	406.44
363.203	394.44
363.429	377.44
363.656	396.44
363.882	375.44
364.109	423.44
364.335	377.44
364.562	388.44
364.788	381.44
365.015	404.44
365.241	398.44
365.468	396.44
365.694	395.44
365.92	401.44
366.147	385.44
366.373	405.44
366.599	394.44
366.826	408.44
367.052	382.44
367.278	405.44
367.505	377.44
367.731	399.44
367.957	408.44
368.184	382.44
368.41	397.44
368.636	404.44
368.862	403.44
369.089	396.44
369.315	398.44
369.541	401.44
369.767	389.44
369.993	402.44
370.219	393.44
370.445	409.44
370.672	420.44
370.898	395.44
371.124	407.44
371.35	409.44
371.576	410.44
371.802	395.44
372.028	400.44
372.254	405.44
372.48	405.44
372.706	398.44
372.932	389.44
373.158	404.44
373.384	415.44
373.61	420.44
373.835	400.44
374.061	418.44
374.287	404.44
374.513	405.44
374.739	425.44
374.965	437.44
375.191	419.44
375.416	423.44
375.642	396.44
375.868	413.44
376.094	418.44
376.319	410.44
376.545	392.44
376.771	401.44
376.997	419.44
377.222	421.44
377.448	386.44
377.674	404.44
377.899	404.44
378.125	374.44
378.35	407.44
378.576	380.44
378.802	380.44
379.027	397.44
379.253	411.44
379.478	415.44
379.704	408.44
379.929	399.44
380.155	388.44
380.38	394.44
380.606	387.44
380.831	401.44
381.057	417.44
381.282	412.44
381.507	436.44
381.733	398.44
381.958	397.44
382.184	398.44
382.409	435.44
382.634	402.44
382.86	420.44
383.085	424.44
383.31	412.44
383.535	435.44
383.761	428.44
383.986	414.44
384.211	420.44
384.436	436.44
384.662	453.44
384.887	437.44
385.112	452.44
385.337	447.44
385.562	446.44
385.787	449.44
386.013	461.44
386.238	461.44
386.463	449.44
386.688	455.44
386.913	458.44
387.138	450.44
387.363	468.44
387.588	470.44
387.813	473.44
388.038	461.44
388.263	455.44
388.488	469.44
388.713	455.44
388.938	454.44
389.163	473.44
389.387	462.44
389.612	459.44
389.837	460.44
390.062	455.44
390.287	462.44
390.512	464.44
390.736	454.44
390.961	454.44
391.186	460.44
391.411	446.44
391.636	467.44
391.86	474.44
392.085	487.44
392.31	487.44
392.534	467.44
392.759	481.44
392.984	460.44
393.208	462.44
393.433	465.44
393.658	463.44
393.882	473.44
394.107	451.44
394.331	460.44
394.556	468.44
394.78	457.44
395.005	475.44
395.229	475.44
395.454	487.44
395.678	487.44
395.903	499.44
396.127	474.44
396.352	511.44
396.576	491.44
396.801	472.44
397.025	494.44
397.249	476.44
397.474	481.44
397.698	509.44
397.922	497.44
398.147	494.44
398.371	507.44
398.595	522.44
398.82	547.44
399.044	567.44
399.268	576.44
399.492	632.44
399.717	639.44
399.941	675.44
400.165	673.44
400.389	654.44
400.613	599.44
400.837	579.44
401.062	551.44
401.286	555.44
401.51	532.44
401.734	525.44
401.958	545.44
402.182	546.44
402.406	572.44
402.63	543.44
402.854	555.44
403.078	552.44
403.302	554.44
403.526	582.44
403.75	575.44
403.974	581.44
404.198	585.44
404.422	616.44
404.645	595.44
404.869	589.44
405.093	599.44
405.317	627.44
405.541	655.44
405.765	622.44
405.988	587.44
406.212	609.44
406.436	595.44
406.66	602.44
406.883	573.44
407.107	626.44
407.331	672.44
407.555	731.44
407.778	708.44
408.002	663.44
408.226	635.44
408.449	634.44
408.673	605.44
408.896	641.44
409.12	649.44
409.344	643.44
409.567	589.44
409.791	554.44
410.014	574.44
410.238	588.44
410.461	571.44
410.685	557.44
410.908	578.44
411.132	580.44
411.355	614.44
411.578	594.44
411.802	537.44
412.025	554.44
412.249	537.44
412.472	557.44
412.695	599.44
412.919	607.44
413.142	554.44
413.365	529.44
413.589	550.44
413.812	544.44
414.035	527.44
414.258	539.44
414.482	522.44
414.705	540.44
414.928	522.44
415.151	540.44
415.374	523.44
415.597	505.44
415.821	526.44
416.044	525.44
416.267	527.44
416.49	535.44
416.713	533.44
416.936	506.44
417.159	493.44
417.382	516.44
417.605	519.44
417.828	539.44
418.051	553.44
418.274	537.44
418.497	526.44
418.72	533.44
418.943	528.44
419.166	558.44
419.389	599.44
419.611	562.44
419.834	552.44
420.057	556.44
420.28	537.44
420.503	537.44
420.726	546.44
420.948	540.44
421.171	580.44
421.394	609.44
421.617	553.44
421.839	513.44
422.062	526.44
422.285	553.44
422.507	605.44
422.73	657.44
422.953	634.44
423.175	558.44
423.398	554.44
423.621	573.44
423.843	581.44
424.066	566.44
424.288	587.44
424.511	587.44
424.733	631.44
424.956	697.44
425.178	636.44
425.401	635.44
425.623	671.44
425.846	595.44
426.068	558.44
426.291	559.44
426.513	557.44
426.735	574.44
426.958	610.44
427.18	650.44
427.402	761.44
427.625	795.44
427.847	694.44
428.069	620.44
428.292	573.44
428.514	536.44
428.736	554.44
428.958	555.44
429.181	520.44
429.403	525.44
429.625	528.44
429.847	531.44
430.069	588.44
430.292	580.44
430.514	530.44
430.736	520.44
430.958	490.44
431.18	486.44
431.402	498.44
431.624	474.44
431.846	506.44
432.068	487.44
432.29	504.44
432.512	491.44
432.734	495.44
432.956	492.44
433.178	492.44
433.4	487.44
433.622	500.44
433.844	513.44
434.066	513.44
434.287	518.44
434.509	481.44
434.731	528.44
434.953	541.44
435.175	543.44
435.397	556.44
435.618	558.44
435.84	574.44
436.062	665.44
436.284	687.44
436.505	580.44
436.727	547.44
436.949	526.44
437.17	539.44
437.392	511.44
437.614	511.44
437.835	531.44
438.057	606.44
438.278	665.44
438.5	676.44
438.721	745.44
438.943	713.44
439.165	592.44
439.386	557.44
439.608	540.44
439.829	543.44
440.05	570.44
440.272	591.44
440.493	545.44
440.715	537.44
440.936	529.44
441.158	523.44
441.379	531.44
441.6	550.44
441.822	555.44
442.043	606.44
442.264	619.44
442.486	654.44
442.707	597.44
442.928	572.44
443.149	565.44
443.371	586.44
443.592	622.44
443.813	708.44
444.034	742.44
444.255	669.44
444.476	595.44
444.698	600.44
444.919	592.44
445.14	706.44
445.361	633.44
445.582	607.44
445.803	633.44
446.024	708.44
446.245	717.44
446.466	651.44
446.687	577.44
446.908	541.44
447.129	521.44
447.35	509.44
447.571	514.44
447.792	500.44
448.013	515.44
448.234	523.44
448.455	542.44
448.675	631.44
448.896	732.44
449.117	643.44
449.338	594.44
449.559	676.44
449.779	784.44
450	630.44
450.221	530.44
450.442	523.44
450.662	495.44
450.883	489.44
451.104	496.44
451.324	491.44
451.545	494.44
451.766	457.44
451.986	461.44
452.207	450.44
452.428	458.44
452.648	466.44
452.869	450.44
453.089	463.44
453.31	461.44
453.53	460.44
453.751	431.44
453.971	478.44
454.192	459.44
454.412	449.44
454.633	444.44
454.853	465.44
455.073	449.44
455.294	468.44
455.514	513.44
455.734	494.44
455.955	449.44
456.175	453.44
456.395	449.44
456.616	445.44
456.836	451.44
457.056	418.44
457.276	430.44
457.497	458.44
457.717	459.44
457.937	454.44
458.157	452.44
458.377	452.44
458.598	470.44
458.818	503.44
459.038	545.44
459.258	580.44
459.478	531.44
459.698	508.44
459.918	503.44
460.138	513.44
460.358	529.44
460.578	533.44
460.798	530.44
461.018	562.44
461.238	523.44
461.458	541.44
461.678	541.44
461.898	545.44
462.118	532.44
462.338	584.44
462.558	571.44
462.777	604.44
462.997	618.44
463.217	618.44
463.437	627.44
463.657	611.44
463.876	591.44
464.096	587.44
464.316	581.44
464.536	572.44
464.755	593.44
464.975	566.44
465.195	586.44
465.414	603.44
465.634	537.44
465.854	515.44
466.073	527.44
466.293	491.44
466.512	478.44
466.732	490.44
466.951	476.44
467.171	473.44
467.391	470.44
467.61	494.44
467.829	484.44
468.049	507.44
468.268	490.44
468.488	484.44
468.707	480.44
468.927	462.44
469.146	475.44
469.365	465.44
469.585	462.44
469.804	467.44
470.023	488.44
470.243	500.44
470.462	486.44
470.681	495.44
470.901	498.44
471.12	485.44
471.339	484.44
471.558	477.44
471.777	488.44
471.997	474.44
472.216	502.44
472.435	500.44
472.654	462.44
472.873	473.44
473.092	470.44
473.311	450.44
473.53	483.44
473.749	474.44
473.968	530.44
474.187	571.44
474.406	604.44
474.625	518.44
474.844	467.44
475.063	458.44
475.282	476.44
475.501	490.44
475.72	481.44
475.939	495.44
476.158	484.44
476.377	495.44
476.596	487.44
476.814	494.44
477.033	491.44
477.252	501.44
477.471	529.44
477.69	539.44
477.908	548.44
478.127	548.44
478.346	535.44
478.564	547.44
478.783	562.44
479.002	554.44
479.22	542.44
479.439	570.44
479.658	551.44
479.876	590.44
480.095	585.44
480.313	606.44
480.532	617.44
480.751	600.44
480.969	580.44
481.188	619.44
481.406	641.44
481.624	584.44
481.843	569.44
482.061	571.44
482.28	575.44
482.498	563.44
482.717	575.44
482.935	553.44
483.153	566.44
483.372	547.44
483.59	543.44
483.808	556.44
484.027	558.44
484.245	575.44
484.463	565.44
484.681	562.44
484.9	573.44
485.118	571.44
485.336	568.44
485.554	572.44
485.772	591.44
485.99	570.44
486.209	579.44
486.427	601.44
486.645	594.44
486.863	575.44
487.081	584.44
487.299	602.44
487.517	583.44
487.735	580.44
487.953	599.44
488.171	607.44
488.389	594.44
488.607	561.44
488.825	591.44
489.043	603.44
489.261	583.44
489.479	593.44
489.696	590.44
489.914	587.44
490.132	609.44
490.35	605.44
490.568	612.44
490.786	622.44
491.003	629.44
491.221	627.44
491.439	624.44
491.657	623.44
491.874	647.44
492.092	655.44
492.31	631.44
492.527	646.44
492.745	675.44
492.963	632.44
493.18	659.44
493.398	668.44
493.615	683.44
493.833	676.44
494.05	672.44
494.268	641.44
494.485	683.44
494.703	641.44
494.92	663.44
495.138	657.44
495.355	678.44
495.573	671.44
495.79	659.44
496.008	682.44
496.225	662.44
496.442	689.44
496.66	685.44
496.877	689.44
497.094	691.44
497.312	710.44
497.529	713.44
497.746	729.44
497.963	773.44
498.181	766.44
498.398	796.44
498.615	799.44
498.832	850.44
499.049	873.44
499.267	894.44
499.484	913.44
499.701	981.44
499.918	1035.44
500.135	1105.44
500.352	1180.44
500.569	1214.44
500.786	1244.44
501.003	1180.44
501.22	1125.44
501.437	1080.44
501.654	1030.44
501.871	959.44
