Data from 1962.PennyLincolnUp.Lamp.En5.5.200Scan.071719.P1._HRD10591_13-53-27-060.txt Node
Date: Thu Jul 18 13:53:27 EDT 2019
User: cochatt
Spectrometer: HR+D1059
Trigger mode: 1
Integration Time (sec): 1.000000E-1
Scans to average: 1
Electric dark correction enabled: true
Nonlinearity correction enabled: false
Boxcar width: 0
XAxis mode: Wavelengths
Number of Pixels in Spectrum: 2048
>>>>>Begin Spectral Data<<<<<
223.165	-13.38
223.4	-13.38
223.635	-13.38
223.869	-13.38
224.104	-20.38
224.338	-16.38
224.573	-16.38
224.808	-4.38
225.042	-12.38
225.277	6.62
225.511	1.62
225.746	-4.38
225.98	2.62
226.215	23.62
226.449	-12.38
226.683	23.62
226.918	24.62
227.152	30.62
227.387	43.62
227.621	40.62
227.856	35.62
228.09	40.62
228.324	55.62
228.559	57.62
228.793	63.62
229.027	101.62
229.262	103.62
229.496	99.62
229.73	125.62
229.964	121.62
230.199	118.62
230.433	102.62
230.667	99.62
230.901	102.62
231.136	97.62
231.37	104.62
231.604	114.62
231.838	111.62
232.072	105.62
232.306	102.62
232.541	105.62
232.775	108.62
233.009	98.62
233.243	106.62
233.477	121.62
233.711	101.62
233.945	110.62
234.179	117.62
234.413	110.62
234.647	114.62
234.881	110.62
235.115	114.62
235.349	107.62
235.583	119.62
235.817	118.62
236.051	115.62
236.285	105.62
236.519	113.62
236.753	120.62
236.987	126.62
237.221	147.62
237.455	171.62
237.689	151.62
237.922	119.62
238.156	125.62
238.39	117.62
238.624	121.62
238.858	120.62
239.091	123.62
239.325	118.62
239.559	102.62
239.793	107.62
240.027	120.62
240.26	132.62
240.494	141.62
240.728	120.62
240.961	138.62
241.195	128.62
241.429	132.62
241.662	126.62
241.896	131.62
242.13	124.62
242.363	125.62
242.597	134.62
242.83	125.62
243.064	124.62
243.298	146.62
243.531	142.62
243.765	145.62
243.998	131.62
244.232	146.62
244.465	123.62
244.699	129.62
244.932	133.62
245.166	139.62
245.399	137.62
245.633	123.62
245.866	132.62
246.099	152.62
246.333	141.62
246.566	135.62
246.8	150.62
247.033	143.62
247.266	150.62
247.5	137.62
247.733	156.62
247.966	168.62
248.2	158.62
248.433	158.62
248.666	137.62
248.899	149.62
249.133	176.62
249.366	175.62
249.599	157.62
249.832	160.62
250.066	172.62
250.299	159.62
250.532	171.62
250.765	162.62
250.998	191.62
251.231	187.62
251.465	171.62
251.698	179.62
251.931	166.62
252.164	169.62
252.397	170.62
252.63	189.62
252.863	176.62
253.096	187.62
253.329	191.62
253.562	199.62
253.795	183.62
254.028	181.62
254.261	173.62
254.494	198.62
254.727	202.62
254.96	219.62
255.193	223.62
255.426	205.62
255.659	183.62
255.892	194.62
256.124	196.62
256.357	202.62
256.59	191.62
256.823	188.62
257.056	184.62
257.289	183.62
257.521	186.62
257.754	184.62
257.987	191.62
258.22	186.62
258.452	189.62
258.685	186.62
258.918	172.62
259.151	200.62
259.383	189.62
259.616	199.62
259.849	204.62
260.081	208.62
260.314	220.62
260.547	232.62
260.779	205.62
261.012	217.62
261.244	202.62
261.477	201.62
261.71	211.62
261.942	191.62
262.175	201.62
262.407	205.62
262.64	211.62
262.872	202.62
263.105	187.62
263.337	211.62
263.57	199.62
263.802	200.62
264.035	204.62
264.267	208.62
264.499	197.62
264.732	211.62
264.964	212.62
265.197	193.62
265.429	202.62
265.661	206.62
265.894	214.62
266.126	206.62
266.358	203.62
266.591	201.62
266.823	200.62
267.055	198.62
267.287	221.62
267.52	204.62
267.752	203.62
267.984	217.62
268.216	226.62
268.448	227.62
268.681	216.62
268.913	225.62
269.145	223.62
269.377	241.62
269.609	227.62
269.841	234.62
270.073	215.62
270.306	242.62
270.538	257.62
270.77	237.62
271.002	263.62
271.234	268.62
271.466	269.62
271.698	257.62
271.93	282.62
272.162	261.62
272.394	254.62
272.626	265.62
272.858	260.62
273.09	241.62
273.322	251.62
273.553	251.62
273.785	230.62
274.017	252.62
274.249	237.62
274.481	255.62
274.713	219.62
274.945	259.62
275.176	246.62
275.408	248.62
275.64	243.62
275.872	242.62
276.104	247.62
276.335	259.62
276.567	270.62
276.799	253.62
277.031	260.62
277.262	264.62
277.494	260.62
277.726	272.62
277.957	251.62
278.189	275.62
278.421	266.62
278.652	245.62
278.884	236.62
279.115	239.62
279.347	271.62
279.579	252.62
279.81	257.62
280.042	244.62
280.273	253.62
280.505	256.62
280.736	255.62
280.968	276.62
281.199	267.62
281.431	265.62
281.662	267.62
281.894	256.62
282.125	272.62
282.356	248.62
282.588	279.62
282.819	292.62
283.051	289.62
283.282	282.62
283.513	272.62
283.745	277.62
283.976	272.62
284.207	254.62
284.439	276.62
284.67	290.62
284.901	276.62
285.132	268.62
285.364	272.62
285.595	282.62
285.826	277.62
286.057	263.62
286.288	277.62
286.52	285.62
286.751	279.62
286.982	291.62
287.213	283.62
287.444	277.62
287.675	280.62
287.906	293.62
288.138	287.62
288.369	286.62
288.6	284.62
288.831	296.62
289.062	283.62
289.293	288.62
289.524	281.62
289.755	275.62
289.986	302.62
290.217	301.62
290.448	297.62
290.679	276.62
290.91	289.62
291.141	269.62
291.371	292.62
291.602	297.62
291.833	283.62
292.064	286.62
292.295	295.62
292.526	308.62
292.757	299.62
292.987	304.62
293.218	293.62
293.449	300.62
293.68	291.62
293.91	303.62
294.141	298.62
294.372	298.62
294.603	282.62
294.833	284.62
295.064	294.62
295.295	312.62
295.525	284.62
295.756	298.62
295.987	317.62
296.217	307.62
296.448	318.62
296.679	294.62
296.909	291.62
297.14	297.62
297.37	309.62
297.601	307.62
297.831	295.62
298.062	290.62
298.292	313.62
298.523	308.62
298.753	312.62
298.984	299.62
299.214	298.62
299.445	303.62
299.675	311.62
299.905	321.62
300.136	303.62
300.366	319.62
300.597	303.62
300.827	325.62
301.057	312.62
301.288	331.62
301.518	334.62
301.748	320.62
301.979	321.62
302.209	321.62
302.439	316.62
302.669	332.62
302.9	332.62
303.13	326.62
303.36	342.62
303.59	347.62
303.82	343.62
304.051	325.62
304.281	337.62
304.511	333.62
304.741	327.62
304.971	323.62
305.201	311.62
305.431	333.62
305.661	322.62
305.891	319.62
306.121	325.62
306.352	320.62
306.582	320.62
306.812	313.62
307.042	329.62
307.272	324.62
307.502	333.62
307.731	319.62
307.961	331.62
308.191	322.62
308.421	317.62
308.651	324.62
308.881	321.62
309.111	317.62
309.341	323.62
309.571	317.62
309.8	328.62
310.03	328.62
310.26	368.62
310.49	321.62
310.72	336.62
310.949	368.62
311.179	364.62
311.409	344.62
311.639	348.62
311.868	344.62
312.098	343.62
312.328	360.62
312.557	353.62
312.787	358.62
313.017	363.62
313.246	357.62
313.476	356.62
313.706	360.62
313.935	351.62
314.165	360.62
314.394	360.62
314.624	355.62
314.853	379.62
315.083	375.62
315.312	355.62
315.542	357.62
315.771	364.62
316.001	355.62
316.23	333.62
316.46	357.62
316.689	367.62
316.919	362.62
317.148	367.62
317.377	353.62
317.607	356.62
317.836	355.62
318.065	349.62
318.295	364.62
318.524	351.62
318.753	361.62
318.983	370.62
319.212	347.62
319.441	373.62
319.67	350.62
319.9	355.62
320.129	365.62
320.358	361.62
320.587	351.62
320.816	382.62
321.046	358.62
321.275	379.62
321.504	373.62
321.733	356.62
321.962	381.62
322.191	398.62
322.42	385.62
322.649	384.62
322.878	382.62
323.108	396.62
323.337	398.62
323.566	412.62
323.795	442.62
324.024	435.62
324.253	486.62
324.482	629.62
324.71	893.62
324.939	1227.62
325.168	1088.62
325.397	635.62
325.626	484.62
325.855	459.62
326.084	419.62
326.313	417.62
326.542	413.62
326.77	447.62
326.999	488.62
327.228	583.62
327.457	819.62
327.686	968.62
327.914	661.62
328.143	495.62
328.372	476.62
328.6	452.62
328.829	446.62
329.058	446.62
329.287	464.62
329.515	436.62
329.744	436.62
329.972	446.62
330.201	445.62
330.43	454.62
330.658	470.62
330.887	468.62
331.115	454.62
331.344	455.62
331.572	448.62
331.801	442.62
332.03	428.62
332.258	437.62
332.486	433.62
332.715	441.62
332.943	434.62
333.172	449.62
333.4	462.62
333.629	459.62
333.857	453.62
334.085	473.62
334.314	489.62
334.542	474.62
334.771	482.62
334.999	474.62
335.227	466.62
335.455	450.62
335.684	448.62
335.912	439.62
336.14	424.62
336.369	449.62
336.597	458.62
336.825	443.62
337.053	426.62
337.281	416.62
337.51	425.62
337.738	423.62
337.966	440.62
338.194	420.62
338.422	439.62
338.65	422.62
338.878	419.62
339.106	424.62
339.334	419.62
339.562	407.62
339.79	412.62
340.018	408.62
340.246	397.62
340.474	431.62
340.702	400.62
340.93	402.62
341.158	397.62
341.386	412.62
341.614	422.62
341.842	382.62
342.07	406.62
342.298	397.62
342.526	381.62
342.754	398.62
342.981	403.62
343.209	409.62
343.437	411.62
343.665	432.62
343.893	440.62
344.12	449.62
344.348	446.62
344.576	439.62
344.804	416.62
345.031	434.62
345.259	426.62
345.487	424.62
345.714	413.62
345.942	401.62
346.17	391.62
346.397	397.62
346.625	388.62
346.853	397.62
347.08	393.62
347.308	403.62
347.535	371.62
347.763	382.62
347.99	394.62
348.218	418.62
348.445	405.62
348.673	390.62
348.9	395.62
349.128	380.62
349.355	371.62
349.583	377.62
349.81	395.62
350.037	388.62
350.265	370.62
350.492	384.62
350.72	371.62
350.947	379.62
351.174	408.62
351.402	395.62
351.629	394.62
351.856	403.62
352.083	387.62
352.311	395.62
352.538	389.62
352.765	384.62
352.992	396.62
353.22	385.62
353.447	379.62
353.674	390.62
353.901	392.62
354.128	359.62
354.355	365.62
354.583	392.62
354.81	387.62
355.037	399.62
355.264	377.62
355.491	373.62
355.718	364.62
355.945	383.62
356.172	367.62
356.399	378.62
356.626	360.62
356.853	371.62
357.08	389.62
357.307	380.62
357.534	363.62
357.761	391.62
357.988	389.62
358.215	367.62
358.441	363.62
358.668	381.62
358.895	373.62
359.122	381.62
359.349	377.62
359.576	393.62
359.802	390.62
360.029	384.62
360.256	405.62
360.483	387.62
360.709	387.62
360.936	392.62
361.163	391.62
361.39	392.62
361.616	393.62
361.843	370.62
362.07	396.62
362.296	397.62
362.523	388.62
362.749	396.62
362.976	379.62
363.203	371.62
363.429	384.62
363.656	385.62
363.882	369.62
364.109	370.62
364.335	381.62
364.562	393.62
364.788	376.62
365.015	400.62
365.241	381.62
365.468	370.62
365.694	401.62
365.92	386.62
366.147	373.62
366.373	379.62
366.599	377.62
366.826	375.62
367.052	374.62
367.278	383.62
367.505	357.62
367.731	379.62
367.957	401.62
368.184	376.62
368.41	397.62
368.636	377.62
368.862	397.62
369.089	387.62
369.315	383.62
369.541	388.62
369.767	388.62
369.993	367.62
370.219	376.62
370.445	391.62
370.672	394.62
370.898	386.62
371.124	390.62
371.35	397.62
371.576	388.62
371.802	396.62
372.028	394.62
372.254	386.62
372.48	392.62
372.706	411.62
372.932	421.62
373.158	400.62
373.384	396.62
373.61	400.62
373.835	419.62
374.061	395.62
374.287	388.62
374.513	397.62
374.739	408.62
374.965	417.62
375.191	438.62
375.416	401.62
375.642	405.62
375.868	401.62
376.094	396.62
376.319	372.62
376.545	384.62
376.771	397.62
376.997	390.62
377.222	378.62
377.448	374.62
377.674	402.62
377.899	403.62
378.125	393.62
378.35	396.62
378.576	375.62
378.802	383.62
379.027	406.62
379.253	397.62
379.478	396.62
379.704	394.62
379.929	418.62
380.155	396.62
380.38	408.62
380.606	392.62
380.831	396.62
381.057	388.62
381.282	394.62
381.507	400.62
381.733	387.62
381.958	396.62
382.184	402.62
382.409	415.62
382.634	394.62
382.86	405.62
383.085	413.62
383.31	417.62
383.535	409.62
383.761	424.62
383.986	416.62
384.211	411.62
384.436	424.62
384.662	437.62
384.887	424.62
385.112	447.62
385.337	444.62
385.562	451.62
385.787	441.62
386.013	453.62
386.238	465.62
386.463	443.62
386.688	447.62
386.913	437.62
387.138	450.62
387.363	456.62
387.588	452.62
387.813	447.62
388.038	437.62
388.263	462.62
388.488	450.62
388.713	431.62
388.938	441.62
389.163	439.62
389.387	467.62
389.612	439.62
389.837	460.62
390.062	450.62
390.287	436.62
390.512	433.62
390.736	427.62
390.961	446.62
391.186	457.62
391.411	475.62
391.636	453.62
391.86	458.62
392.085	492.62
392.31	471.62
392.534	501.62
392.759	503.62
392.984	473.62
393.208	449.62
393.433	450.62
393.658	472.62
393.882	456.62
394.107	472.62
394.331	479.62
394.556	450.62
394.78	457.62
395.005	446.62
395.229	467.62
395.454	483.62
395.678	471.62
395.903	485.62
396.127	487.62
396.352	482.62
396.576	464.62
396.801	469.62
397.025	482.62
397.249	473.62
397.474	487.62
397.698	476.62
397.922	498.62
398.147	507.62
398.371	499.62
398.595	513.62
398.82	515.62
399.044	507.62
399.268	573.62
399.492	614.62
399.717	662.62
399.941	699.62
400.165	659.62
400.389	652.62
400.613	600.62
400.837	583.62
401.062	557.62
401.286	550.62
401.51	533.62
401.734	517.62
401.958	541.62
402.182	528.62
402.406	516.62
402.63	517.62
402.854	540.62
403.078	529.62
403.302	549.62
403.526	532.62
403.75	546.62
403.974	568.62
404.198	590.62
404.422	547.62
404.645	567.62
404.869	564.62
405.093	573.62
405.317	601.62
405.541	605.62
405.765	589.62
405.988	567.62
406.212	585.62
406.436	564.62
406.66	594.62
406.883	586.62
407.107	618.62
407.331	636.62
407.555	679.62
407.778	697.62
408.002	652.62
408.226	610.62
408.449	608.62
408.673	612.62
408.896	590.62
409.12	622.62
409.344	595.62
409.567	591.62
409.791	567.62
410.014	547.62
410.238	545.62
410.461	553.62
410.685	564.62
410.908	553.62
411.132	582.62
411.355	577.62
411.578	571.62
411.802	564.62
412.025	535.62
412.249	529.62
412.472	562.62
412.695	603.62
412.919	574.62
413.142	537.62
413.365	533.62
413.589	516.62
413.812	513.62
414.035	524.62
414.258	540.62
414.482	506.62
414.705	531.62
414.928	535.62
415.151	528.62
415.374	526.62
415.597	525.62
415.821	515.62
416.044	502.62
416.267	523.62
416.49	503.62
416.713	519.62
416.936	518.62
417.159	512.62
417.382	500.62
417.605	499.62
417.828	508.62
418.051	526.62
418.274	511.62
418.497	532.62
418.72	528.62
418.943	497.62
419.166	519.62
419.389	573.62
419.611	556.62
419.834	532.62
420.057	534.62
420.28	529.62
420.503	535.62
420.726	531.62
420.948	539.62
421.171	575.62
421.394	579.62
421.617	565.62
421.839	510.62
422.062	521.62
422.285	536.62
422.507	557.62
422.73	597.62
422.953	621.62
423.175	576.62
423.398	562.62
423.621	544.62
423.843	543.62
424.066	549.62
424.288	560.62
424.511	576.62
424.733	603.62
424.956	634.62
425.178	634.62
425.401	633.62
425.623	649.62
425.846	580.62
426.068	550.62
426.291	551.62
426.513	529.62
426.735	533.62
426.958	560.62
427.18	604.62
427.402	690.62
427.625	738.62
427.847	636.62
428.069	565.62
428.292	553.62
428.514	515.62
428.736	515.62
428.958	518.62
429.181	492.62
429.403	505.62
429.625	505.62
429.847	502.62
430.069	555.62
430.292	554.62
430.514	512.62
430.736	485.62
430.958	482.62
431.18	482.62
431.402	477.62
431.624	476.62
431.846	470.62
432.068	483.62
432.29	482.62
432.512	487.62
432.734	478.62
432.956	470.62
433.178	487.62
433.4	488.62
433.622	481.62
433.844	497.62
434.066	470.62
434.287	483.62
434.509	503.62
434.731	509.62
434.953	519.62
435.175	521.62
435.397	520.62
435.618	539.62
435.84	556.62
436.062	609.62
436.284	677.62
436.505	570.62
436.727	520.62
436.949	502.62
437.17	508.62
437.392	479.62
437.614	511.62
437.835	513.62
438.057	588.62
438.278	618.62
438.5	641.62
438.721	683.62
438.943	650.62
439.165	582.62
439.386	528.62
439.608	507.62
439.829	538.62
440.05	525.62
440.272	554.62
440.493	525.62
440.715	522.62
440.936	500.62
441.158	517.62
441.379	503.62
441.6	515.62
441.822	529.62
442.043	563.62
442.264	599.62
442.486	632.62
442.707	570.62
442.928	544.62
443.149	534.62
443.371	549.62
443.592	577.62
443.813	653.62
444.034	704.62
444.255	607.62
444.476	569.62
444.698	575.62
444.919	588.62
445.14	664.62
445.361	588.62
445.582	556.62
445.803	598.62
446.024	636.62
446.245	641.62
446.466	600.62
446.687	531.62
446.908	524.62
447.129	505.62
447.35	490.62
447.571	484.62
447.792	477.62
448.013	507.62
448.234	503.62
448.455	543.62
448.675	580.62
448.896	699.62
449.117	591.62
449.338	571.62
449.559	620.62
449.779	700.62
450	585.62
450.221	505.62
450.442	482.62
450.662	459.62
450.883	465.62
451.104	482.62
451.324	448.62
451.545	456.62
451.766	458.62
451.986	439.62
452.207	454.62
452.428	438.62
452.648	441.62
452.869	432.62
453.089	443.62
453.31	448.62
453.53	460.62
453.751	421.62
453.971	450.62
454.192	429.62
454.412	443.62
454.633	420.62
454.853	437.62
455.073	419.62
455.294	455.62
455.514	468.62
455.734	495.62
455.955	439.62
456.175	434.62
456.395	433.62
456.616	427.62
456.836	413.62
457.056	415.62
457.276	414.62
457.497	427.62
457.717	437.62
457.937	430.62
458.157	433.62
458.377	435.62
458.598	459.62
458.818	492.62
459.038	533.62
459.258	526.62
459.478	486.62
459.698	499.62
459.918	488.62
460.138	513.62
460.358	521.62
460.578	537.62
460.798	499.62
461.018	514.62
461.238	536.62
461.458	543.62
461.678	520.62
461.898	541.62
462.118	533.62
462.338	545.62
462.558	562.62
462.777	551.62
462.997	587.62
463.217	615.62
463.437	612.62
463.657	584.62
463.876	589.62
464.096	582.62
464.316	569.62
464.536	576.62
464.755	566.62
464.975	588.62
465.195	575.62
465.414	571.62
465.634	521.62
465.854	488.62
466.073	492.62
466.293	494.62
466.512	482.62
466.732	460.62
466.951	479.62
467.171	479.62
467.391	468.62
467.61	471.62
467.829	467.62
468.049	463.62
468.268	466.62
468.488	451.62
468.707	464.62
468.927	453.62
469.146	461.62
469.365	442.62
469.585	429.62
469.804	482.62
470.023	457.62
470.243	477.62
470.462	479.62
470.681	489.62
470.901	489.62
471.12	463.62
471.339	473.62
471.558	464.62
471.777	476.62
471.997	467.62
472.216	466.62
472.435	473.62
472.654	467.62
472.873	455.62
473.092	463.62
473.311	447.62
473.53	457.62
473.749	465.62
473.968	480.62
474.187	537.62
474.406	550.62
474.625	485.62
474.844	484.62
475.063	449.62
475.282	463.62
475.501	470.62
475.72	473.62
475.939	471.62
476.158	457.62
476.377	485.62
476.596	485.62
476.814	470.62
477.033	471.62
477.252	476.62
477.471	472.62
477.69	497.62
477.908	500.62
478.127	518.62
478.346	511.62
478.564	531.62
478.783	532.62
479.002	547.62
479.22	535.62
479.439	535.62
479.658	564.62
479.876	550.62
480.095	561.62
480.313	579.62
480.532	592.62
480.751	587.62
480.969	577.62
481.188	604.62
481.406	595.62
481.624	569.62
481.843	551.62
482.061	534.62
482.28	539.62
482.498	547.62
482.717	538.62
482.935	544.62
483.153	537.62
483.372	553.62
483.59	547.62
483.808	542.62
484.027	545.62
484.245	529.62
484.463	549.62
484.681	540.62
484.9	559.62
485.118	575.62
485.336	544.62
485.554	593.62
485.772	567.62
485.99	537.62
486.209	562.62
486.427	530.62
486.645	576.62
486.863	567.62
487.081	563.62
487.299	552.62
487.517	570.62
487.735	566.62
487.953	568.62
488.171	571.62
488.389	570.62
488.607	552.62
488.825	563.62
489.043	564.62
489.261	588.62
489.479	559.62
489.696	551.62
489.914	591.62
490.132	596.62
490.35	587.62
490.568	579.62
490.786	600.62
491.003	602.62
491.221	588.62
491.439	601.62
491.657	597.62
491.874	610.62
492.092	629.62
492.31	643.62
492.527	621.62
492.745	629.62
492.963	626.62
493.18	635.62
493.398	617.62
493.615	643.62
493.833	637.62
494.05	638.62
494.268	622.62
494.485	626.62
494.703	644.62
494.92	650.62
495.138	640.62
495.355	652.62
495.573	660.62
495.79	653.62
496.008	668.62
496.225	656.62
496.442	665.62
496.66	652.62
496.877	679.62
497.094	652.62
497.312	668.62
497.529	691.62
497.746	689.62
497.963	723.62
498.181	728.62
498.398	737.62
498.615	803.62
498.832	776.62
499.049	817.62
499.267	867.62
499.484	918.62
499.701	955.62
499.918	991.62
500.135	1076.62
500.352	1188.62
500.569	1181.62
500.786	1192.62
501.003	1156.62
501.22	1107.62
501.437	1026.62
501.654	964.62
501.871	951.62
