Data from 1962.PennyLincolnUp.Lamp.En5.5.200Scan.071719.P1._HRD10591_13-53-02-060.txt Node
Date: Thu Jul 18 13:53:02 EDT 2019
User: cochatt
Spectrometer: HR+D1059
Trigger mode: 1
Integration Time (sec): 1.000000E-1
Scans to average: 1
Electric dark correction enabled: true
Nonlinearity correction enabled: false
Boxcar width: 0
XAxis mode: Wavelengths
Number of Pixels in Spectrum: 2048
>>>>>Begin Spectral Data<<<<<
223.165	-19.12
223.4	-19.12
223.635	-19.12
223.869	-26.12
224.104	-4.12
224.338	-17.12
224.573	-8.12
224.808	-4.12
225.042	-6.12
225.277	-7.12
225.511	-12.12
225.746	1.88
225.98	8.88
226.215	12.88
226.449	8.88
226.683	30.88
226.918	19.88
227.152	20.88
227.387	37.88
227.621	57.88
227.856	33.88
228.09	49.88
228.324	38.88
228.559	44.88
228.793	59.88
229.027	98.88
229.262	79.88
229.496	87.88
229.73	93.88
229.964	106.88
230.199	92.88
230.433	99.88
230.667	107.88
230.901	99.88
231.136	90.88
231.37	94.88
231.604	100.88
231.838	92.88
232.072	87.88
232.306	106.88
232.541	101.88
232.775	102.88
233.009	112.88
233.243	101.88
233.477	119.88
233.711	125.88
233.945	96.88
234.179	106.88
234.413	103.88
234.647	115.88
234.881	124.88
235.115	118.88
235.349	110.88
235.583	114.88
235.817	118.88
236.051	110.88
236.285	143.88
236.519	114.88
236.753	111.88
236.987	115.88
237.221	134.88
237.455	163.88
237.689	148.88
237.922	132.88
238.156	118.88
238.39	124.88
238.624	106.88
238.858	113.88
239.091	116.88
239.325	106.88
239.559	117.88
239.793	121.88
240.027	121.88
240.26	141.88
240.494	131.88
240.728	119.88
240.961	131.88
241.195	130.88
241.429	145.88
241.662	115.88
241.896	117.88
242.13	125.88
242.363	114.88
242.597	119.88
242.83	113.88
243.064	129.88
243.298	119.88
243.531	150.88
243.765	128.88
243.998	131.88
244.232	146.88
244.465	147.88
244.699	142.88
244.932	131.88
245.166	135.88
245.399	133.88
245.633	145.88
245.866	151.88
246.099	126.88
246.333	141.88
246.566	134.88
246.8	149.88
247.033	145.88
247.266	139.88
247.5	146.88
247.733	158.88
247.966	148.88
248.2	154.88
248.433	152.88
248.666	146.88
248.899	170.88
249.133	170.88
249.366	171.88
249.599	162.88
249.832	171.88
250.066	168.88
250.299	153.88
250.532	167.88
250.765	164.88
250.998	170.88
251.231	193.88
251.465	161.88
251.698	182.88
251.931	171.88
252.164	190.88
252.397	194.88
252.63	185.88
252.863	180.88
253.096	175.88
253.329	200.88
253.562	186.88
253.795	185.88
254.028	190.88
254.261	207.88
254.494	198.88
254.727	200.88
254.96	211.88
255.193	213.88
255.426	207.88
255.659	198.88
255.892	201.88
256.124	192.88
256.357	202.88
256.59	204.88
256.823	189.88
257.056	189.88
257.289	182.88
257.521	198.88
257.754	197.88
257.987	181.88
258.22	187.88
258.452	188.88
258.685	191.88
258.918	197.88
259.151	179.88
259.383	195.88
259.616	198.88
259.849	199.88
260.081	202.88
260.314	222.88
260.547	214.88
260.779	212.88
261.012	200.88
261.244	213.88
261.477	194.88
261.71	200.88
261.942	197.88
262.175	202.88
262.407	196.88
262.64	195.88
262.872	216.88
263.105	214.88
263.337	219.88
263.57	201.88
263.802	198.88
264.035	187.88
264.267	193.88
264.499	213.88
264.732	207.88
264.964	195.88
265.197	207.88
265.429	196.88
265.661	206.88
265.894	207.88
266.126	224.88
266.358	220.88
266.591	216.88
266.823	221.88
267.055	210.88
267.287	220.88
267.52	201.88
267.752	217.88
267.984	225.88
268.216	229.88
268.448	213.88
268.681	221.88
268.913	204.88
269.145	231.88
269.377	231.88
269.609	238.88
269.841	238.88
270.073	240.88
270.306	257.88
270.538	245.88
270.77	243.88
271.002	267.88
271.234	254.88
271.466	252.88
271.698	257.88
271.93	259.88
272.162	266.88
272.394	291.88
272.626	268.88
272.858	260.88
273.09	269.88
273.322	261.88
273.553	230.88
273.785	261.88
274.017	245.88
274.249	243.88
274.481	252.88
274.713	244.88
274.945	257.88
275.176	247.88
275.408	249.88
275.64	245.88
275.872	239.88
276.104	237.88
276.335	246.88
276.567	252.88
276.799	262.88
277.031	276.88
277.262	281.88
277.494	268.88
277.726	281.88
277.957	260.88
278.189	269.88
278.421	257.88
278.652	251.88
278.884	263.88
279.115	255.88
279.347	270.88
279.579	251.88
279.81	251.88
280.042	250.88
280.273	260.88
280.505	270.88
280.736	250.88
280.968	263.88
281.199	271.88
281.431	247.88
281.662	280.88
281.894	266.88
282.125	269.88
282.356	277.88
282.588	262.88
282.819	268.88
283.051	265.88
283.282	262.88
283.513	266.88
283.745	268.88
283.976	288.88
284.207	276.88
284.439	294.88
284.67	282.88
284.901	269.88
285.132	276.88
285.364	264.88
285.595	262.88
285.826	280.88
286.057	265.88
286.288	285.88
286.52	297.88
286.751	261.88
286.982	276.88
287.213	267.88
287.444	288.88
287.675	283.88
287.906	271.88
288.138	294.88
288.369	301.88
288.6	302.88
288.831	281.88
289.062	284.88
289.293	286.88
289.524	274.88
289.755	270.88
289.986	278.88
290.217	265.88
290.448	294.88
290.679	289.88
290.91	293.88
291.141	301.88
291.371	293.88
291.602	290.88
291.833	281.88
292.064	286.88
292.295	309.88
292.526	281.88
292.757	289.88
292.987	296.88
293.218	299.88
293.449	296.88
293.68	299.88
293.91	294.88
294.141	296.88
294.372	318.88
294.603	295.88
294.833	300.88
295.064	297.88
295.295	268.88
295.525	315.88
295.756	308.88
295.987	285.88
296.217	314.88
296.448	308.88
296.679	307.88
296.909	310.88
297.14	296.88
297.37	302.88
297.601	297.88
297.831	308.88
298.062	313.88
298.292	318.88
298.523	306.88
298.753	321.88
298.984	309.88
299.214	300.88
299.445	305.88
299.675	319.88
299.905	319.88
300.136	311.88
300.366	312.88
300.597	303.88
300.827	329.88
301.057	333.88
301.288	319.88
301.518	315.88
301.748	310.88
301.979	315.88
302.209	337.88
302.439	331.88
302.669	333.88
302.9	312.88
303.13	317.88
303.36	328.88
303.59	316.88
303.82	333.88
304.051	330.88
304.281	354.88
304.511	322.88
304.741	333.88
304.971	339.88
305.201	321.88
305.431	335.88
305.661	338.88
305.891	339.88
306.121	325.88
306.352	311.88
306.582	322.88
306.812	323.88
307.042	330.88
307.272	337.88
307.502	319.88
307.731	331.88
307.961	321.88
308.191	334.88
308.421	311.88
308.651	329.88
308.881	327.88
309.111	334.88
309.341	347.88
309.571	339.88
309.8	334.88
310.03	341.88
310.26	344.88
310.49	327.88
310.72	344.88
310.949	354.88
311.179	350.88
311.409	349.88
311.639	355.88
311.868	347.88
312.098	341.88
312.328	340.88
312.557	357.88
312.787	349.88
313.017	356.88
313.246	368.88
313.476	338.88
313.706	342.88
313.935	351.88
314.165	360.88
314.394	363.88
314.624	369.88
314.853	343.88
315.083	359.88
315.312	377.88
315.542	355.88
315.771	377.88
316.001	368.88
316.23	379.88
316.46	349.88
316.689	353.88
316.919	358.88
317.148	365.88
317.377	369.88
317.607	359.88
317.836	379.88
318.065	361.88
318.295	357.88
318.524	358.88
318.753	341.88
318.983	374.88
319.212	360.88
319.441	358.88
319.67	365.88
319.9	356.88
320.129	350.88
320.358	356.88
320.587	360.88
320.816	357.88
321.046	373.88
321.275	375.88
321.504	377.88
321.733	357.88
321.962	345.88
322.191	370.88
322.42	383.88
322.649	394.88
322.878	384.88
323.108	398.88
323.337	384.88
323.566	406.88
323.795	441.88
324.024	443.88
324.253	462.88
324.482	606.88
324.71	818.88
324.939	1121.88
325.168	1001.88
325.397	583.88
325.626	470.88
325.855	415.88
326.084	431.88
326.313	404.88
326.542	390.88
326.77	421.88
326.999	477.88
327.228	554.88
327.457	781.88
327.686	894.88
327.914	661.88
328.143	529.88
328.372	470.88
328.6	430.88
328.829	446.88
329.058	426.88
329.287	429.88
329.515	427.88
329.744	420.88
329.972	428.88
330.201	433.88
330.43	431.88
330.658	449.88
330.887	457.88
331.115	462.88
331.344	415.88
331.572	422.88
331.801	434.88
332.03	436.88
332.258	440.88
332.486	421.88
332.715	423.88
332.943	427.88
333.172	433.88
333.4	452.88
333.629	469.88
333.857	475.88
334.085	466.88
334.314	466.88
334.542	471.88
334.771	503.88
334.999	467.88
335.227	471.88
335.455	429.88
335.684	437.88
335.912	425.88
336.14	423.88
336.369	433.88
336.597	427.88
336.825	433.88
337.053	425.88
337.281	435.88
337.51	411.88
337.738	416.88
337.966	415.88
338.194	416.88
338.422	423.88
338.65	417.88
338.878	441.88
339.106	429.88
339.334	414.88
339.562	425.88
339.79	403.88
340.018	408.88
340.246	399.88
340.474	422.88
340.702	414.88
340.93	409.88
341.158	421.88
341.386	398.88
341.614	418.88
341.842	411.88
342.07	413.88
342.298	392.88
342.526	404.88
342.754	394.88
342.981	395.88
343.209	392.88
343.437	404.88
343.665	411.88
343.893	459.88
344.12	441.88
344.348	443.88
344.576	444.88
344.804	436.88
345.031	421.88
345.259	438.88
345.487	406.88
345.714	417.88
345.942	414.88
346.17	383.88
346.397	398.88
346.625	381.88
346.853	365.88
347.08	379.88
347.308	375.88
347.535	391.88
347.763	392.88
347.99	409.88
348.218	406.88
348.445	377.88
348.673	393.88
348.9	408.88
349.128	404.88
349.355	389.88
349.583	367.88
349.81	403.88
350.037	368.88
350.265	386.88
350.492	397.88
350.72	365.88
350.947	391.88
351.174	388.88
351.402	382.88
351.629	386.88
351.856	391.88
352.083	395.88
352.311	385.88
352.538	389.88
352.765	370.88
352.992	387.88
353.22	393.88
353.447	387.88
353.674	389.88
353.901	385.88
354.128	366.88
354.355	373.88
354.583	369.88
354.81	378.88
355.037	390.88
355.264	370.88
355.491	376.88
355.718	380.88
355.945	353.88
356.172	374.88
356.399	379.88
356.626	353.88
356.853	369.88
357.08	395.88
357.307	374.88
357.534	372.88
357.761	375.88
357.988	381.88
358.215	390.88
358.441	376.88
358.668	382.88
358.895	389.88
359.122	367.88
359.349	385.88
359.576	410.88
359.802	371.88
360.029	388.88
360.256	401.88
360.483	381.88
360.709	399.88
360.936	399.88
361.163	386.88
361.39	394.88
361.616	405.88
361.843	395.88
362.07	403.88
362.296	395.88
362.523	392.88
362.749	391.88
362.976	398.88
363.203	376.88
363.429	369.88
363.656	395.88
363.882	382.88
364.109	394.88
364.335	367.88
364.562	377.88
364.788	383.88
365.015	373.88
365.241	387.88
365.468	375.88
365.694	367.88
365.92	380.88
366.147	377.88
366.373	369.88
366.599	387.88
366.826	367.88
367.052	375.88
367.278	371.88
367.505	369.88
367.731	385.88
367.957	371.88
368.184	388.88
368.41	391.88
368.636	379.88
368.862	395.88
369.089	374.88
369.315	379.88
369.541	393.88
369.767	376.88
369.993	379.88
370.219	393.88
370.445	398.88
370.672	393.88
370.898	361.88
371.124	377.88
371.35	371.88
371.576	403.88
371.802	373.88
372.028	390.88
372.254	404.88
372.48	383.88
372.706	396.88
372.932	405.88
373.158	409.88
373.384	404.88
373.61	391.88
373.835	398.88
374.061	387.88
374.287	405.88
374.513	397.88
374.739	423.88
374.965	411.88
375.191	407.88
375.416	414.88
375.642	410.88
375.868	402.88
376.094	385.88
376.319	379.88
376.545	374.88
376.771	404.88
376.997	390.88
377.222	407.88
377.448	388.88
377.674	397.88
377.899	384.88
378.125	397.88
378.35	395.88
378.576	396.88
378.802	383.88
379.027	395.88
379.253	389.88
379.478	389.88
379.704	390.88
379.929	393.88
380.155	385.88
380.38	384.88
380.606	381.88
380.831	375.88
381.057	419.88
381.282	385.88
381.507	374.88
381.733	399.88
381.958	409.88
382.184	382.88
382.409	382.88
382.634	398.88
382.86	412.88
383.085	409.88
383.31	423.88
383.535	410.88
383.761	422.88
383.986	410.88
384.211	433.88
384.436	432.88
384.662	431.88
384.887	453.88
385.112	452.88
385.337	455.88
385.562	428.88
385.787	462.88
386.013	449.88
386.238	463.88
386.463	443.88
386.688	446.88
386.913	451.88
387.138	458.88
387.363	457.88
387.588	458.88
387.813	461.88
388.038	462.88
388.263	454.88
388.488	438.88
388.713	447.88
388.938	450.88
389.163	441.88
389.387	437.88
389.612	438.88
389.837	441.88
390.062	424.88
390.287	455.88
390.512	443.88
390.736	431.88
390.961	428.88
391.186	460.88
391.411	470.88
391.636	471.88
391.86	468.88
392.085	474.88
392.31	471.88
392.534	456.88
392.759	459.88
392.984	449.88
393.208	473.88
393.433	462.88
393.658	462.88
393.882	456.88
394.107	469.88
394.331	445.88
394.556	465.88
394.78	449.88
395.005	458.88
395.229	457.88
395.454	466.88
395.678	437.88
395.903	491.88
396.127	471.88
396.352	472.88
396.576	470.88
396.801	456.88
397.025	464.88
397.249	470.88
397.474	491.88
397.698	505.88
397.922	500.88
398.147	509.88
398.371	501.88
398.595	520.88
398.82	518.88
399.044	541.88
399.268	556.88
399.492	617.88
399.717	638.88
399.941	675.88
400.165	685.88
400.389	637.88
400.613	604.88
400.837	567.88
401.062	562.88
401.286	542.88
401.51	539.88
401.734	517.88
401.958	533.88
402.182	541.88
402.406	548.88
402.63	528.88
402.854	518.88
403.078	569.88
403.302	549.88
403.526	547.88
403.75	556.88
403.974	561.88
404.198	540.88
404.422	558.88
404.645	561.88
404.869	569.88
405.093	604.88
405.317	590.88
405.541	631.88
405.765	581.88
405.988	569.88
406.212	574.88
406.436	553.88
406.66	604.88
406.883	588.88
407.107	590.88
407.331	637.88
407.555	683.88
407.778	697.88
408.002	656.88
408.226	613.88
408.449	601.88
408.673	614.88
408.896	606.88
409.12	612.88
409.344	603.88
409.567	563.88
409.791	563.88
410.014	551.88
410.238	554.88
410.461	519.88
410.685	527.88
410.908	548.88
411.132	565.88
411.355	575.88
411.578	570.88
411.802	538.88
412.025	552.88
412.249	548.88
412.472	535.88
412.695	572.88
412.919	558.88
413.142	543.88
413.365	531.88
413.589	524.88
413.812	517.88
414.035	516.88
414.258	511.88
414.482	505.88
414.705	521.88
414.928	526.88
415.151	521.88
415.374	500.88
415.597	523.88
415.821	519.88
416.044	503.88
416.267	516.88
416.49	508.88
416.713	511.88
416.936	492.88
417.159	499.88
417.382	495.88
417.605	525.88
417.828	516.88
418.051	537.88
418.274	519.88
418.497	511.88
418.72	496.88
418.943	519.88
419.166	540.88
419.389	584.88
419.611	558.88
419.834	537.88
420.057	558.88
420.28	540.88
420.503	536.88
420.726	499.88
420.948	537.88
421.171	556.88
421.394	543.88
421.617	541.88
421.839	517.88
422.062	530.88
422.285	526.88
422.507	573.88
422.73	598.88
422.953	585.88
423.175	550.88
423.398	542.88
423.621	530.88
423.843	555.88
424.066	550.88
424.288	554.88
424.511	573.88
424.733	569.88
424.956	637.88
425.178	620.88
425.401	625.88
425.623	627.88
425.846	560.88
426.068	564.88
426.291	540.88
426.513	526.88
426.735	541.88
426.958	559.88
427.18	599.88
427.402	705.88
427.625	724.88
427.847	639.88
428.069	577.88
428.292	541.88
428.514	517.88
428.736	506.88
428.958	500.88
429.181	500.88
429.403	482.88
429.625	485.88
429.847	490.88
430.069	545.88
430.292	532.88
430.514	502.88
430.736	471.88
430.958	463.88
431.18	477.88
431.402	484.88
431.624	469.88
431.846	478.88
432.068	484.88
432.29	481.88
432.512	480.88
432.734	492.88
432.956	460.88
433.178	495.88
433.4	486.88
433.622	470.88
433.844	473.88
434.066	493.88
434.287	474.88
434.509	484.88
434.731	513.88
434.953	515.88
435.175	522.88
435.397	521.88
435.618	529.88
435.84	550.88
436.062	630.88
436.284	641.88
436.505	561.88
436.727	547.88
436.949	506.88
437.17	504.88
437.392	485.88
437.614	483.88
437.835	514.88
438.057	552.88
438.278	610.88
438.5	631.88
438.721	649.88
438.943	677.88
439.165	546.88
439.386	535.88
439.608	505.88
439.829	519.88
440.05	532.88
440.272	545.88
440.493	500.88
440.715	490.88
440.936	510.88
441.158	507.88
441.379	504.88
441.6	521.88
441.822	536.88
442.043	543.88
442.264	598.88
442.486	589.88
442.707	558.88
442.928	529.88
443.149	538.88
443.371	533.88
443.592	547.88
443.813	635.88
444.034	684.88
444.255	596.88
444.476	567.88
444.698	569.88
444.919	576.88
445.14	680.88
445.361	619.88
445.582	554.88
445.803	580.88
446.024	630.88
446.245	625.88
446.466	629.88
446.687	531.88
446.908	529.88
447.129	503.88
447.35	517.88
447.571	462.88
447.792	472.88
448.013	475.88
448.234	489.88
448.455	510.88
448.675	612.88
448.896	665.88
449.117	579.88
449.338	553.88
449.559	625.88
449.779	700.88
450	565.88
450.221	502.88
450.442	475.88
450.662	447.88
450.883	470.88
451.104	477.88
451.324	470.88
451.545	458.88
451.766	437.88
451.986	448.88
452.207	434.88
452.428	435.88
452.648	447.88
452.869	464.88
453.089	448.88
453.31	426.88
453.53	436.88
453.751	430.88
453.971	448.88
454.192	455.88
454.412	435.88
454.633	421.88
454.853	422.88
455.073	423.88
455.294	440.88
455.514	491.88
455.734	486.88
455.955	436.88
456.175	431.88
456.395	413.88
456.616	422.88
456.836	412.88
457.056	424.88
457.276	410.88
457.497	423.88
457.717	425.88
457.937	437.88
458.157	448.88
458.377	429.88
458.598	460.88
458.818	471.88
459.038	488.88
459.258	533.88
459.478	497.88
459.698	507.88
459.918	499.88
460.138	492.88
460.358	507.88
460.578	514.88
460.798	523.88
461.018	530.88
461.238	532.88
461.458	522.88
461.678	532.88
461.898	521.88
462.118	531.88
462.338	547.88
462.558	545.88
462.777	550.88
462.997	583.88
463.217	602.88
463.437	613.88
463.657	615.88
463.876	598.88
464.096	589.88
464.316	575.88
464.536	585.88
464.755	561.88
464.975	547.88
465.195	554.88
465.414	544.88
465.634	498.88
465.854	501.88
466.073	476.88
466.293	490.88
466.512	471.88
466.732	448.88
466.951	485.88
467.171	449.88
467.391	476.88
467.61	475.88
467.829	462.88
468.049	461.88
468.268	472.88
468.488	459.88
468.707	463.88
468.927	450.88
469.146	453.88
469.365	467.88
469.585	444.88
469.804	437.88
470.023	471.88
470.243	473.88
470.462	485.88
470.681	497.88
470.901	484.88
471.12	492.88
471.339	464.88
471.558	467.88
471.777	458.88
471.997	453.88
472.216	467.88
472.435	481.88
472.654	464.88
472.873	462.88
473.092	471.88
473.311	482.88
473.53	461.88
473.749	467.88
473.968	495.88
474.187	509.88
474.406	568.88
474.625	480.88
474.844	462.88
475.063	459.88
475.282	457.88
475.501	457.88
475.72	472.88
475.939	477.88
476.158	484.88
476.377	473.88
476.596	487.88
476.814	471.88
477.033	485.88
477.252	503.88
477.471	500.88
477.69	497.88
477.908	502.88
478.127	513.88
478.346	523.88
478.564	513.88
478.783	538.88
479.002	540.88
479.22	554.88
479.439	563.88
479.658	541.88
479.876	544.88
480.095	563.88
480.313	586.88
480.532	577.88
480.751	569.88
480.969	568.88
481.188	588.88
481.406	609.88
481.624	571.88
481.843	557.88
482.061	547.88
482.28	560.88
482.498	526.88
482.717	523.88
482.935	538.88
483.153	530.88
483.372	534.88
483.59	542.88
483.808	548.88
484.027	541.88
484.245	548.88
484.463	526.88
484.681	548.88
484.9	562.88
485.118	557.88
485.336	561.88
485.554	574.88
485.772	578.88
485.99	568.88
486.209	570.88
486.427	582.88
486.645	569.88
486.863	580.88
487.081	570.88
487.299	587.88
487.517	559.88
487.735	555.88
487.953	577.88
488.171	577.88
488.389	564.88
488.607	562.88
488.825	551.88
489.043	577.88
489.261	564.88
489.479	591.88
489.696	582.88
489.914	586.88
490.132	588.88
490.35	567.88
490.568	592.88
490.786	565.88
491.003	576.88
491.221	591.88
491.439	615.88
491.657	589.88
491.874	627.88
492.092	607.88
492.31	622.88
492.527	617.88
492.745	609.88
492.963	637.88
493.18	633.88
493.398	631.88
493.615	590.88
493.833	637.88
494.05	637.88
494.268	636.88
494.485	640.88
494.703	639.88
494.92	631.88
495.138	623.88
495.355	648.88
495.573	621.88
495.79	663.88
496.008	670.88
496.225	651.88
496.442	637.88
496.66	620.88
496.877	648.88
497.094	668.88
497.312	647.88
497.529	702.88
497.746	691.88
497.963	710.88
498.181	722.88
498.398	717.88
498.615	732.88
498.832	830.88
499.049	827.88
499.267	859.88
499.484	919.88
499.701	953.88
499.918	997.88
500.135	1082.88
500.352	1162.88
500.569	1191.88
500.786	1192.88
501.003	1127.88
501.22	1098.88
501.437	1023.88
501.654	970.88
501.871	936.88
502.088	901.88
