Data from 1962.PennyLincolnUp.Lamp.En5.5.200Scan.071719.P1._HRD10591_13-55-32-061.txt Node
Date: Thu Jul 18 13:55:32 EDT 2019
User: cochatt
Spectrometer: HR+D1059
Trigger mode: 1
Integration Time (sec): 1.000000E-1
Scans to average: 1
Electric dark correction enabled: true
Nonlinearity correction enabled: false
Boxcar width: 0
XAxis mode: Wavelengths
Number of Pixels in Spectrum: 2048
>>>>>Begin Spectral Data<<<<<
223.165	-15.19
223.4	-15.19
223.635	-15.19
223.869	-24.19
224.104	-23.19
224.338	-3.19
224.573	-4.19
224.808	-14.19
225.042	-1.19
225.277	-4.19
225.511	-4.19
225.746	-0.19
225.98	3.81
226.215	9.81
226.449	1.81
226.683	20.81
226.918	22.81
227.152	34.81
227.387	27.81
227.621	42.81
227.856	26.81
228.09	49.81
228.324	42.81
228.559	34.81
228.793	68.81
229.027	78.81
229.262	86.81
229.496	93.81
229.73	100.81
229.964	117.81
230.199	126.81
230.433	86.81
230.667	107.81
230.901	100.81
231.136	93.81
231.37	109.81
231.604	106.81
231.838	107.81
232.072	99.81
232.306	104.81
232.541	103.81
232.775	116.81
233.009	103.81
233.243	94.81
233.477	96.81
233.711	119.81
233.945	98.81
234.179	121.81
234.413	93.81
234.647	102.81
234.881	117.81
235.115	116.81
235.349	117.81
235.583	121.81
235.817	112.81
236.051	110.81
236.285	110.81
236.519	112.81
236.753	116.81
236.987	118.81
237.221	140.81
237.455	184.81
237.689	150.81
237.922	133.81
238.156	134.81
238.39	120.81
238.624	106.81
238.858	106.81
239.091	114.81
239.325	111.81
239.559	114.81
239.793	117.81
240.027	120.81
240.26	126.81
240.494	124.81
240.728	135.81
240.961	119.81
241.195	130.81
241.429	125.81
241.662	130.81
241.896	131.81
242.13	128.81
242.363	136.81
242.597	125.81
242.83	125.81
243.064	132.81
243.298	143.81
243.531	135.81
243.765	126.81
243.998	122.81
244.232	128.81
244.465	139.81
244.699	132.81
244.932	142.81
245.166	144.81
245.399	133.81
245.633	141.81
245.866	139.81
246.099	156.81
246.333	151.81
246.566	123.81
246.8	132.81
247.033	151.81
247.266	151.81
247.5	151.81
247.733	144.81
247.966	149.81
248.2	163.81
248.433	153.81
248.666	162.81
248.899	162.81
249.133	178.81
249.366	177.81
249.599	153.81
249.832	157.81
250.066	148.81
250.299	173.81
250.532	175.81
250.765	166.81
250.998	182.81
251.231	186.81
251.465	191.81
251.698	170.81
251.931	187.81
252.164	186.81
252.397	190.81
252.63	163.81
252.863	199.81
253.096	189.81
253.329	205.81
253.562	189.81
253.795	196.81
254.028	191.81
254.261	193.81
254.494	203.81
254.727	229.81
254.96	221.81
255.193	221.81
255.426	226.81
255.659	188.81
255.892	200.81
256.124	218.81
256.357	205.81
256.59	194.81
256.823	199.81
257.056	193.81
257.289	169.81
257.521	185.81
257.754	189.81
257.987	187.81
258.22	184.81
258.452	192.81
258.685	184.81
258.918	192.81
259.151	166.81
259.383	208.81
259.616	194.81
259.849	202.81
260.081	210.81
260.314	210.81
260.547	232.81
260.779	215.81
261.012	207.81
261.244	216.81
261.477	217.81
261.71	197.81
261.942	193.81
262.175	207.81
262.407	216.81
262.64	185.81
262.872	200.81
263.105	200.81
263.337	209.81
263.57	199.81
263.802	200.81
264.035	210.81
264.267	198.81
264.499	197.81
264.732	221.81
264.964	204.81
265.197	203.81
265.429	191.81
265.661	202.81
265.894	205.81
266.126	216.81
266.358	220.81
266.591	206.81
266.823	222.81
267.055	210.81
267.287	203.81
267.52	208.81
267.752	221.81
267.984	209.81
268.216	218.81
268.448	212.81
268.681	209.81
268.913	224.81
269.145	255.81
269.377	258.81
269.609	243.81
269.841	223.81
270.073	252.81
270.306	242.81
270.538	285.81
270.77	290.81
271.002	267.81
271.234	262.81
271.466	266.81
271.698	271.81
271.93	270.81
272.162	262.81
272.394	270.81
272.626	264.81
272.858	250.81
273.09	256.81
273.322	251.81
273.553	239.81
273.785	265.81
274.017	258.81
274.249	238.81
274.481	257.81
274.713	228.81
274.945	249.81
275.176	259.81
275.408	251.81
275.64	272.81
275.872	238.81
276.104	246.81
276.335	256.81
276.567	241.81
276.799	255.81
277.031	272.81
277.262	281.81
277.494	295.81
277.726	282.81
277.957	261.81
278.189	273.81
278.421	262.81
278.652	264.81
278.884	258.81
279.115	256.81
279.347	263.81
279.579	239.81
279.81	256.81
280.042	258.81
280.273	264.81
280.505	267.81
280.736	258.81
280.968	262.81
281.199	262.81
281.431	259.81
281.662	238.81
281.894	290.81
282.125	266.81
282.356	307.81
282.588	288.81
282.819	285.81
283.051	260.81
283.282	266.81
283.513	271.81
283.745	271.81
283.976	281.81
284.207	273.81
284.439	279.81
284.67	288.81
284.901	277.81
285.132	278.81
285.364	271.81
285.595	271.81
285.826	297.81
286.057	282.81
286.288	275.81
286.52	279.81
286.751	286.81
286.982	278.81
287.213	278.81
287.444	283.81
287.675	277.81
287.906	284.81
288.138	281.81
288.369	291.81
288.6	307.81
288.831	303.81
289.062	284.81
289.293	277.81
289.524	296.81
289.755	302.81
289.986	288.81
290.217	303.81
290.448	294.81
290.679	308.81
290.91	288.81
291.141	283.81
291.371	284.81
291.602	302.81
291.833	268.81
292.064	298.81
292.295	295.81
292.526	295.81
292.757	293.81
292.987	282.81
293.218	282.81
293.449	278.81
293.68	305.81
293.91	307.81
294.141	279.81
294.372	290.81
294.603	293.81
294.833	285.81
295.064	288.81
295.295	302.81
295.525	298.81
295.756	305.81
295.987	293.81
296.217	315.81
296.448	318.81
296.679	303.81
296.909	298.81
297.14	295.81
297.37	297.81
297.601	304.81
297.831	306.81
298.062	307.81
298.292	320.81
298.523	296.81
298.753	304.81
298.984	330.81
299.214	297.81
299.445	272.81
299.675	317.81
299.905	309.81
300.136	323.81
300.366	315.81
300.597	312.81
300.827	320.81
301.057	325.81
301.288	319.81
301.518	318.81
301.748	327.81
301.979	315.81
302.209	345.81
302.439	326.81
302.669	319.81
302.9	319.81
303.13	331.81
303.36	322.81
303.59	347.81
303.82	339.81
304.051	333.81
304.281	325.81
304.511	350.81
304.741	312.81
304.971	309.81
305.201	312.81
305.431	311.81
305.661	323.81
305.891	321.81
306.121	333.81
306.352	307.81
306.582	329.81
306.812	308.81
307.042	307.81
307.272	336.81
307.502	336.81
307.731	318.81
307.961	321.81
308.191	333.81
308.421	331.81
308.651	334.81
308.881	311.81
309.111	331.81
309.341	319.81
309.571	342.81
309.8	328.81
310.03	356.81
310.26	349.81
310.49	352.81
310.72	361.81
310.949	357.81
311.179	355.81
311.409	357.81
311.639	353.81
311.868	358.81
312.098	352.81
312.328	358.81
312.557	376.81
312.787	361.81
313.017	374.81
313.246	355.81
313.476	365.81
313.706	354.81
313.935	377.81
314.165	389.81
314.394	370.81
314.624	377.81
314.853	358.81
315.083	369.81
315.312	370.81
315.542	374.81
315.771	367.81
316.001	352.81
316.23	373.81
316.46	359.81
316.689	373.81
316.919	361.81
317.148	383.81
317.377	373.81
317.607	383.81
317.836	365.81
318.065	343.81
318.295	365.81
318.524	377.81
318.753	374.81
318.983	350.81
319.212	367.81
319.441	360.81
319.67	378.81
319.9	353.81
320.129	365.81
320.358	369.81
320.587	359.81
320.816	358.81
321.046	375.81
321.275	369.81
321.504	377.81
321.733	375.81
321.962	380.81
322.191	382.81
322.42	393.81
322.649	408.81
322.878	399.81
323.108	404.81
323.337	423.81
323.566	452.81
323.795	481.81
324.024	481.81
324.253	532.81
324.482	734.81
324.71	1049.81
324.939	1510.81
325.168	1306.81
325.397	739.81
325.626	537.81
325.855	498.81
326.084	447.81
326.313	442.81
326.542	451.81
326.77	481.81
326.999	531.81
327.228	691.81
327.457	952.81
327.686	1152.81
327.914	814.81
328.143	591.81
328.372	552.81
328.6	473.81
328.829	490.81
329.058	491.81
329.287	499.81
329.515	484.81
329.744	449.81
329.972	462.81
330.201	479.81
330.43	490.81
330.658	501.81
330.887	499.81
331.115	526.81
331.344	456.81
331.572	463.81
331.801	467.81
332.03	450.81
332.258	442.81
332.486	436.81
332.715	444.81
332.943	432.81
333.172	480.81
333.4	455.81
333.629	483.81
333.857	484.81
334.085	503.81
334.314	503.81
334.542	518.81
334.771	537.81
334.999	465.81
335.227	451.81
335.455	447.81
335.684	471.81
335.912	435.81
336.14	447.81
336.369	463.81
336.597	456.81
336.825	446.81
337.053	453.81
337.281	431.81
337.51	438.81
337.738	444.81
337.966	443.81
338.194	408.81
338.422	433.81
338.65	443.81
338.878	417.81
339.106	416.81
339.334	422.81
339.562	424.81
339.79	406.81
340.018	406.81
340.246	403.81
340.474	424.81
340.702	437.81
340.93	416.81
341.158	411.81
341.386	408.81
341.614	446.81
341.842	411.81
342.07	413.81
342.298	408.81
342.526	415.81
342.754	416.81
342.981	395.81
343.209	412.81
343.437	425.81
343.665	436.81
343.893	435.81
344.12	457.81
344.348	440.81
344.576	431.81
344.804	427.81
345.031	432.81
345.259	417.81
345.487	438.81
345.714	420.81
345.942	416.81
346.17	406.81
346.397	400.81
346.625	395.81
346.853	394.81
347.08	392.81
347.308	395.81
347.535	397.81
347.763	408.81
347.99	400.81
348.218	401.81
348.445	386.81
348.673	393.81
348.9	385.81
349.128	395.81
349.355	373.81
349.583	377.81
349.81	391.81
350.037	383.81
350.265	385.81
350.492	406.81
350.72	399.81
350.947	412.81
351.174	384.81
351.402	398.81
351.629	391.81
351.856	395.81
352.083	375.81
352.311	393.81
352.538	392.81
352.765	394.81
352.992	410.81
353.22	380.81
353.447	372.81
353.674	375.81
353.901	381.81
354.128	388.81
354.355	393.81
354.583	374.81
354.81	375.81
355.037	378.81
355.264	384.81
355.491	366.81
355.718	377.81
355.945	370.81
356.172	386.81
356.399	370.81
356.626	377.81
356.853	384.81
357.08	392.81
357.307	393.81
357.534	380.81
357.761	385.81
357.988	377.81
358.215	359.81
358.441	371.81
358.668	360.81
358.895	371.81
359.122	375.81
359.349	389.81
359.576	397.81
359.802	394.81
360.029	405.81
360.256	404.81
360.483	387.81
360.709	396.81
360.936	405.81
361.163	394.81
361.39	392.81
361.616	406.81
361.843	379.81
362.07	396.81
362.296	399.81
362.523	397.81
362.749	386.81
362.976	389.81
363.203	377.81
363.429	382.81
363.656	385.81
363.882	393.81
364.109	382.81
364.335	393.81
364.562	389.81
364.788	377.81
365.015	384.81
365.241	366.81
365.468	389.81
365.694	383.81
365.92	392.81
366.147	381.81
366.373	391.81
366.599	384.81
366.826	393.81
367.052	383.81
367.278	380.81
367.505	387.81
367.731	381.81
367.957	381.81
368.184	377.81
368.41	399.81
368.636	396.81
368.862	398.81
369.089	378.81
369.315	380.81
369.541	421.81
369.767	399.81
369.993	380.81
370.219	374.81
370.445	399.81
370.672	399.81
370.898	406.81
371.124	384.81
371.35	380.81
371.576	380.81
371.802	388.81
372.028	406.81
372.254	390.81
372.48	411.81
372.706	390.81
372.932	392.81
373.158	395.81
373.384	381.81
373.61	388.81
373.835	392.81
374.061	406.81
374.287	409.81
374.513	415.81
374.739	406.81
374.965	415.81
375.191	421.81
375.416	418.81
375.642	398.81
375.868	429.81
376.094	397.81
376.319	387.81
376.545	382.81
376.771	384.81
376.997	387.81
377.222	398.81
377.448	405.81
377.674	389.81
377.899	377.81
378.125	381.81
378.35	400.81
378.576	420.81
378.802	392.81
379.027	382.81
379.253	395.81
379.478	405.81
379.704	400.81
379.929	390.81
380.155	391.81
380.38	388.81
380.606	385.81
380.831	381.81
381.057	413.81
381.282	394.81
381.507	408.81
381.733	389.81
381.958	394.81
382.184	389.81
382.409	414.81
382.634	414.81
382.86	419.81
383.085	400.81
383.31	423.81
383.535	424.81
383.761	422.81
383.986	425.81
384.211	421.81
384.436	421.81
384.662	418.81
384.887	435.81
385.112	431.81
385.337	466.81
385.562	443.81
385.787	426.81
386.013	470.81
386.238	449.81
386.463	439.81
386.688	441.81
386.913	456.81
387.138	446.81
387.363	456.81
387.588	445.81
387.813	430.81
388.038	449.81
388.263	463.81
388.488	451.81
388.713	453.81
388.938	447.81
389.163	436.81
389.387	448.81
389.612	434.81
389.837	455.81
390.062	430.81
390.287	420.81
390.512	439.81
390.736	461.81
390.961	445.81
391.186	438.81
391.411	480.81
391.636	453.81
391.86	465.81
392.085	473.81
392.31	475.81
392.534	469.81
392.759	477.81
392.984	469.81
393.208	467.81
393.433	470.81
393.658	465.81
393.882	445.81
394.107	454.81
394.331	459.81
394.556	451.81
394.78	457.81
395.005	484.81
395.229	450.81
395.454	466.81
395.678	474.81
395.903	488.81
396.127	507.81
396.352	471.81
396.576	472.81
396.801	460.81
397.025	479.81
397.249	469.81
397.474	496.81
397.698	495.81
397.922	489.81
398.147	517.81
398.371	509.81
398.595	516.81
398.82	517.81
399.044	535.81
399.268	560.81
399.492	613.81
399.717	647.81
399.941	680.81
400.165	663.81
400.389	660.81
400.613	587.81
400.837	561.81
401.062	539.81
401.286	543.81
401.51	538.81
401.734	529.81
401.958	543.81
402.182	547.81
402.406	537.81
402.63	525.81
402.854	539.81
403.078	559.81
403.302	541.81
403.526	567.81
403.75	557.81
403.974	571.81
404.198	558.81
404.422	542.81
404.645	574.81
404.869	578.81
405.093	587.81
405.317	619.81
405.541	651.81
405.765	598.81
405.988	571.81
406.212	587.81
406.436	593.81
406.66	605.81
406.883	610.81
407.107	615.81
407.331	669.81
407.555	694.81
407.778	718.81
408.002	674.81
408.226	632.81
408.449	593.81
408.673	598.81
408.896	619.81
409.12	660.81
409.344	624.81
409.567	586.81
409.791	564.81
410.014	537.81
410.238	555.81
410.461	552.81
410.685	562.81
410.908	570.81
411.132	587.81
411.355	604.81
411.578	575.81
411.802	539.81
412.025	521.81
412.249	544.81
412.472	579.81
412.695	588.81
412.919	602.81
413.142	564.81
413.365	541.81
413.589	531.81
413.812	533.81
414.035	544.81
414.258	508.81
414.482	518.81
414.705	537.81
414.928	505.81
415.151	520.81
415.374	536.81
415.597	524.81
415.821	501.81
416.044	490.81
416.267	498.81
416.49	512.81
416.713	512.81
416.936	507.81
417.159	527.81
417.382	528.81
417.605	525.81
417.828	523.81
418.051	531.81
418.274	558.81
418.497	512.81
418.72	536.81
418.943	522.81
419.166	551.81
419.389	571.81
419.611	563.81
419.834	545.81
420.057	562.81
420.28	569.81
420.503	542.81
420.726	535.81
420.948	544.81
421.171	561.81
421.394	590.81
421.617	531.81
421.839	523.81
422.062	557.81
422.285	543.81
422.507	573.81
422.73	643.81
422.953	617.81
423.175	566.81
423.398	559.81
423.621	545.81
423.843	571.81
424.066	554.81
424.288	563.81
424.511	587.81
424.733	600.81
424.956	651.81
425.178	637.81
425.401	656.81
425.623	687.81
425.846	581.81
426.068	573.81
426.291	567.81
426.513	541.81
426.735	541.81
426.958	562.81
427.18	617.81
427.402	749.81
427.625	786.81
427.847	683.81
428.069	624.81
428.292	584.81
428.514	518.81
428.736	491.81
428.958	511.81
429.181	505.81
429.403	499.81
429.625	497.81
429.847	532.81
430.069	571.81
430.292	582.81
430.514	502.81
430.736	507.81
430.958	504.81
431.18	472.81
431.402	482.81
431.624	473.81
431.846	488.81
432.068	499.81
432.29	493.81
432.512	506.81
432.734	469.81
432.956	497.81
433.178	497.81
433.4	496.81
433.622	494.81
433.844	497.81
434.066	490.81
434.287	495.81
434.509	499.81
434.731	513.81
434.953	533.81
435.175	528.81
435.397	546.81
435.618	541.81
435.84	567.81
436.062	630.81
436.284	702.81
436.505	598.81
436.727	541.81
436.949	534.81
437.17	514.81
437.392	503.81
437.614	493.81
437.835	516.81
438.057	581.81
438.278	648.81
438.5	674.81
438.721	739.81
438.943	723.81
439.165	573.81
439.386	548.81
439.608	543.81
439.829	541.81
440.05	576.81
440.272	579.81
440.493	564.81
440.715	528.81
440.936	513.81
441.158	537.81
441.379	522.81
441.6	555.81
441.822	551.81
442.043	591.81
442.264	635.81
442.486	655.81
442.707	578.81
442.928	543.81
443.149	575.81
443.371	566.81
443.592	581.81
443.813	685.81
444.034	723.81
444.255	639.81
444.476	612.81
444.698	582.81
444.919	589.81
445.14	678.81
445.361	601.81
445.582	576.81
445.803	646.81
446.024	666.81
446.245	679.81
446.466	646.81
446.687	546.81
446.908	550.81
447.129	530.81
447.35	509.81
447.571	494.81
447.792	471.81
448.013	497.81
448.234	499.81
448.455	529.81
448.675	601.81
448.896	724.81
449.117	618.81
449.338	591.81
449.559	668.81
449.779	749.81
450	637.81
450.221	522.81
450.442	502.81
450.662	466.81
450.883	467.81
451.104	482.81
451.324	472.81
451.545	450.81
451.766	448.81
451.986	457.81
452.207	446.81
452.428	452.81
452.648	440.81
452.869	469.81
453.089	457.81
453.31	478.81
453.53	475.81
453.751	455.81
453.971	440.81
454.192	439.81
454.412	444.81
454.633	438.81
454.853	442.81
455.073	429.81
455.294	456.81
455.514	477.81
455.734	517.81
455.955	440.81
456.175	431.81
456.395	425.81
456.616	417.81
456.836	431.81
457.056	415.81
457.276	422.81
457.497	424.81
457.717	416.81
457.937	457.81
458.157	431.81
458.377	437.81
458.598	469.81
458.818	499.81
459.038	529.81
459.258	555.81
459.478	509.81
459.698	495.81
459.918	509.81
460.138	512.81
460.358	541.81
460.578	502.81
460.798	515.81
461.018	553.81
461.238	528.81
461.458	527.81
461.678	545.81
461.898	528.81
462.118	522.81
462.338	560.81
462.558	546.81
462.777	559.81
462.997	566.81
463.217	613.81
463.437	602.81
463.657	586.81
463.876	579.81
464.096	584.81
464.316	586.81
464.536	591.81
464.755	571.81
464.975	571.81
465.195	578.81
465.414	597.81
465.634	522.81
465.854	517.81
466.073	508.81
466.293	481.81
466.512	487.81
466.732	490.81
466.951	453.81
467.171	470.81
467.391	459.81
467.61	466.81
467.829	474.81
468.049	473.81
468.268	460.81
468.488	461.81
468.707	441.81
468.927	464.81
469.146	437.81
469.365	472.81
469.585	459.81
469.804	459.81
470.023	485.81
470.243	474.81
470.462	488.81
470.681	504.81
470.901	514.81
471.12	488.81
471.339	463.81
471.558	461.81
471.777	468.81
471.997	445.81
472.216	467.81
472.435	499.81
472.654	473.81
472.873	459.81
473.092	450.81
473.311	465.81
473.53	458.81
473.749	470.81
473.968	501.81
474.187	574.81
474.406	584.81
474.625	513.81
474.844	479.81
475.063	478.81
475.282	468.81
475.501	471.81
475.72	475.81
475.939	467.81
476.158	489.81
476.377	477.81
476.596	473.81
476.814	479.81
477.033	485.81
477.252	494.81
477.471	499.81
477.69	501.81
477.908	534.81
478.127	524.81
478.346	519.81
478.564	527.81
478.783	532.81
479.002	546.81
479.22	525.81
479.439	559.81
479.658	559.81
479.876	554.81
480.095	581.81
480.313	583.81
480.532	607.81
480.751	595.81
480.969	589.81
481.188	609.81
481.406	642.81
481.624	585.81
481.843	583.81
482.061	536.81
482.28	549.81
482.498	531.81
482.717	551.81
482.935	554.81
483.153	524.81
483.372	553.81
483.59	530.81
483.808	550.81
484.027	551.81
484.245	559.81
484.463	542.81
484.681	557.81
484.9	571.81
485.118	539.81
485.336	529.81
485.554	563.81
485.772	571.81
485.99	578.81
486.209	542.81
486.427	554.81
486.645	563.81
486.863	578.81
487.081	596.81
487.299	582.81
487.517	590.81
487.735	602.81
487.953	574.81
488.171	590.81
488.389	539.81
488.607	589.81
488.825	577.81
489.043	560.81
489.261	579.81
489.479	559.81
489.696	583.81
489.914	585.81
490.132	587.81
490.35	608.81
490.568	585.81
490.786	591.81
491.003	593.81
491.221	607.81
491.439	609.81
491.657	633.81
491.874	637.81
492.092	641.81
492.31	639.81
492.527	621.81
492.745	664.81
492.963	648.81
493.18	650.81
493.398	659.81
493.615	655.81
493.833	648.81
494.05	671.81
494.268	671.81
494.485	649.81
494.703	645.81
494.92	667.81
495.138	646.81
495.355	663.81
495.573	656.81
495.79	666.81
496.008	657.81
496.225	663.81
496.442	659.81
496.66	684.81
496.877	686.81
497.094	664.81
497.312	712.81
497.529	725.81
497.746	743.81
497.963	758.81
498.181	764.81
498.398	775.81
498.615	787.81
498.832	839.81
499.049	841.81
499.267	867.81
499.484	949.81
499.701	976.81
499.918	1008.81
500.135	1084.81
500.352	1173.81
500.569	1205.81
500.786	1207.81
501.003	1195.81
501.22	1105.81
501.437	1036.81
501.654	1027.81
501.871	970.81
502.088	897.81
