Data from 1962.PennyLincolnUp.Lamp.En5.5.200Scan.071719.P1._HRD10591_13-53-22-061.txt Node
Date: Thu Jul 18 13:53:22 EDT 2019
User: cochatt
Spectrometer: HR+D1059
Trigger mode: 1
Integration Time (sec): 1.000000E-1
Scans to average: 1
Electric dark correction enabled: true
Nonlinearity correction enabled: false
Boxcar width: 0
XAxis mode: Wavelengths
Number of Pixels in Spectrum: 2048
>>>>>Begin Spectral Data<<<<<
223.165	-16.62
223.4	-16.62
223.635	-16.62
223.869	-24.62
224.104	-22.62
224.338	-10.62
224.573	-5.62
224.808	-24.62
225.042	-9.62
225.277	-4.62
225.511	-5.62
225.746	3.38
225.98	2.38
226.215	21.38
226.449	11.38
226.683	24.38
226.918	29.38
227.152	32.38
227.387	33.38
227.621	40.38
227.856	31.38
228.09	40.38
228.324	45.38
228.559	53.38
228.793	61.38
229.027	91.38
229.262	83.38
229.496	77.38
229.73	112.38
229.964	117.38
230.199	109.38
230.433	111.38
230.667	99.38
230.901	103.38
231.136	111.38
231.37	88.38
231.604	111.38
231.838	101.38
232.072	114.38
232.306	107.38
232.541	124.38
232.775	88.38
233.009	101.38
233.243	107.38
233.477	101.38
233.711	119.38
233.945	104.38
234.179	111.38
234.413	105.38
234.647	121.38
234.881	135.38
235.115	114.38
235.349	104.38
235.583	107.38
235.817	109.38
236.051	112.38
236.285	108.38
236.519	117.38
236.753	113.38
236.987	127.38
237.221	137.38
237.455	171.38
237.689	143.38
237.922	132.38
238.156	117.38
238.39	118.38
238.624	120.38
238.858	123.38
239.091	106.38
239.325	103.38
239.559	118.38
239.793	109.38
240.027	101.38
240.26	140.38
240.494	139.38
240.728	133.38
240.961	124.38
241.195	125.38
241.429	122.38
241.662	132.38
241.896	123.38
242.13	127.38
242.363	122.38
242.597	114.38
242.83	121.38
243.064	115.38
243.298	139.38
243.531	116.38
243.765	120.38
243.998	124.38
244.232	125.38
244.465	132.38
244.699	123.38
244.932	132.38
245.166	130.38
245.399	154.38
245.633	138.38
245.866	135.38
246.099	124.38
246.333	135.38
246.566	138.38
246.8	137.38
247.033	149.38
247.266	132.38
247.5	151.38
247.733	166.38
247.966	141.38
248.2	146.38
248.433	150.38
248.666	155.38
248.899	162.38
249.133	155.38
249.366	167.38
249.599	164.38
249.832	141.38
250.066	161.38
250.299	159.38
250.532	171.38
250.765	168.38
250.998	182.38
251.231	169.38
251.465	176.38
251.698	171.38
251.931	156.38
252.164	163.38
252.397	173.38
252.63	170.38
252.863	181.38
253.096	181.38
253.329	189.38
253.562	179.38
253.795	184.38
254.028	173.38
254.261	183.38
254.494	187.38
254.727	204.38
254.96	204.38
255.193	218.38
255.426	210.38
255.659	175.38
255.892	187.38
256.124	190.38
256.357	196.38
256.59	186.38
256.823	204.38
257.056	180.38
257.289	186.38
257.521	178.38
257.754	174.38
257.987	165.38
258.22	179.38
258.452	181.38
258.685	180.38
258.918	196.38
259.151	197.38
259.383	177.38
259.616	176.38
259.849	195.38
260.081	195.38
260.314	208.38
260.547	213.38
260.779	188.38
261.012	207.38
261.244	191.38
261.477	196.38
261.71	209.38
261.942	202.38
262.175	201.38
262.407	201.38
262.64	194.38
262.872	190.38
263.105	180.38
263.337	196.38
263.57	205.38
263.802	185.38
264.035	203.38
264.267	191.38
264.499	205.38
264.732	187.38
264.964	215.38
265.197	197.38
265.429	191.38
265.661	191.38
265.894	196.38
266.126	210.38
266.358	205.38
266.591	204.38
266.823	208.38
267.055	194.38
267.287	213.38
267.52	201.38
267.752	223.38
267.984	208.38
268.216	213.38
268.448	212.38
268.681	213.38
268.913	225.38
269.145	228.38
269.377	238.38
269.609	243.38
269.841	239.38
270.073	245.38
270.306	246.38
270.538	249.38
270.77	265.38
271.002	255.38
271.234	249.38
271.466	252.38
271.698	261.38
271.93	249.38
272.162	265.38
272.394	273.38
272.626	261.38
272.858	244.38
273.09	247.38
273.322	225.38
273.553	226.38
273.785	238.38
274.017	242.38
274.249	222.38
274.481	221.38
274.713	231.38
274.945	227.38
275.176	240.38
275.408	231.38
275.64	216.38
275.872	255.38
276.104	237.38
276.335	255.38
276.567	237.38
276.799	260.38
277.031	273.38
277.262	269.38
277.494	285.38
277.726	264.38
277.957	255.38
278.189	254.38
278.421	258.38
278.652	253.38
278.884	241.38
279.115	244.38
279.347	259.38
279.579	246.38
279.81	253.38
280.042	250.38
280.273	264.38
280.505	261.38
280.736	255.38
280.968	249.38
281.199	248.38
281.431	261.38
281.662	265.38
281.894	255.38
282.125	235.38
282.356	247.38
282.588	273.38
282.819	284.38
283.051	270.38
283.282	263.38
283.513	250.38
283.745	250.38
283.976	252.38
284.207	267.38
284.439	278.38
284.67	266.38
284.901	259.38
285.132	276.38
285.364	277.38
285.595	260.38
285.826	274.38
286.057	263.38
286.288	288.38
286.52	268.38
286.751	271.38
286.982	279.38
287.213	283.38
287.444	276.38
287.675	291.38
287.906	279.38
288.138	281.38
288.369	283.38
288.6	279.38
288.831	296.38
289.062	284.38
289.293	270.38
289.524	283.38
289.755	275.38
289.986	273.38
290.217	279.38
290.448	279.38
290.679	293.38
290.91	283.38
291.141	280.38
291.371	267.38
291.602	269.38
291.833	296.38
292.064	287.38
292.295	288.38
292.526	300.38
292.757	292.38
292.987	273.38
293.218	278.38
293.449	276.38
293.68	296.38
293.91	304.38
294.141	288.38
294.372	278.38
294.603	274.38
294.833	285.38
295.064	270.38
295.295	294.38
295.525	262.38
295.756	286.38
295.987	307.38
296.217	303.38
296.448	308.38
296.679	289.38
296.909	286.38
297.14	296.38
297.37	287.38
297.601	287.38
297.831	294.38
298.062	280.38
298.292	297.38
298.523	310.38
298.753	305.38
298.984	283.38
299.214	287.38
299.445	303.38
299.675	299.38
299.905	306.38
300.136	300.38
300.366	300.38
300.597	322.38
300.827	295.38
301.057	311.38
301.288	310.38
301.518	310.38
301.748	313.38
301.979	337.38
302.209	329.38
302.439	325.38
302.669	319.38
302.9	309.38
303.13	321.38
303.36	327.38
303.59	327.38
303.82	332.38
304.051	329.38
304.281	319.38
304.511	323.38
304.741	313.38
304.971	323.38
305.201	321.38
305.431	315.38
305.661	314.38
305.891	304.38
306.121	308.38
306.352	336.38
306.582	324.38
306.812	309.38
307.042	298.38
307.272	318.38
307.502	323.38
307.731	328.38
307.961	325.38
308.191	314.38
308.421	321.38
308.651	328.38
308.881	335.38
309.111	326.38
309.341	324.38
309.571	337.38
309.8	327.38
310.03	316.38
310.26	342.38
310.49	337.38
310.72	341.38
310.949	345.38
311.179	360.38
311.409	346.38
311.639	331.38
311.868	368.38
312.098	336.38
312.328	360.38
312.557	357.38
312.787	364.38
313.017	344.38
313.246	353.38
313.476	333.38
313.706	340.38
313.935	345.38
314.165	358.38
314.394	343.38
314.624	356.38
314.853	354.38
315.083	375.38
315.312	351.38
315.542	365.38
315.771	360.38
316.001	367.38
316.23	356.38
316.46	346.38
316.689	337.38
316.919	343.38
317.148	367.38
317.377	357.38
317.607	358.38
317.836	334.38
318.065	335.38
318.295	335.38
318.524	352.38
318.753	343.38
318.983	338.38
319.212	368.38
319.441	344.38
319.67	354.38
319.9	338.38
320.129	337.38
320.358	357.38
320.587	364.38
320.816	374.38
321.046	359.38
321.275	371.38
321.504	341.38
321.733	374.38
321.962	362.38
322.191	340.38
322.42	362.38
322.649	383.38
322.878	384.38
323.108	389.38
323.337	384.38
323.566	395.38
323.795	408.38
324.024	434.38
324.253	484.38
324.482	614.38
324.71	835.38
324.939	1153.38
325.168	1023.38
325.397	616.38
325.626	471.38
325.855	410.38
326.084	405.38
326.313	425.38
326.542	391.38
326.77	435.38
326.999	469.38
327.228	595.38
327.457	788.38
327.686	918.38
327.914	669.38
328.143	508.38
328.372	465.38
328.6	434.38
328.829	436.38
329.058	444.38
329.287	456.38
329.515	435.38
329.744	417.38
329.972	412.38
330.201	424.38
330.43	440.38
330.658	470.38
330.887	443.38
331.115	444.38
331.344	436.38
331.572	445.38
331.801	430.38
332.03	415.38
332.258	424.38
332.486	436.38
332.715	418.38
332.943	427.38
333.172	433.38
333.4	449.38
333.629	459.38
333.857	453.38
334.085	453.38
334.314	467.38
334.542	464.38
334.771	483.38
334.999	452.38
335.227	458.38
335.455	436.38
335.684	449.38
335.912	440.38
336.14	443.38
336.369	424.38
336.597	420.38
336.825	417.38
337.053	419.38
337.281	402.38
337.51	438.38
337.738	432.38
337.966	400.38
338.194	403.38
338.422	418.38
338.65	411.38
338.878	393.38
339.106	393.38
339.334	417.38
339.562	405.38
339.79	412.38
340.018	403.38
340.246	404.38
340.474	418.38
340.702	417.38
340.93	415.38
341.158	395.38
341.386	389.38
341.614	403.38
341.842	377.38
342.07	379.38
342.298	391.38
342.526	380.38
342.754	399.38
342.981	375.38
343.209	393.38
343.437	419.38
343.665	424.38
343.893	444.38
344.12	425.38
344.348	412.38
344.576	425.38
344.804	410.38
345.031	447.38
345.259	416.38
345.487	396.38
345.714	374.38
345.942	405.38
346.17	389.38
346.397	398.38
346.625	381.38
346.853	375.38
347.08	378.38
347.308	389.38
347.535	375.38
347.763	362.38
347.99	377.38
348.218	387.38
348.445	390.38
348.673	386.38
348.9	390.38
349.128	386.38
349.355	380.38
349.583	365.38
349.81	371.38
350.037	378.38
350.265	386.38
350.492	384.38
350.72	378.38
350.947	362.38
351.174	381.38
351.402	379.38
351.629	386.38
351.856	389.38
352.083	376.38
352.311	388.38
352.538	375.38
352.765	375.38
352.992	358.38
353.22	367.38
353.447	363.38
353.674	379.38
353.901	375.38
354.128	377.38
354.355	368.38
354.583	379.38
354.81	347.38
355.037	369.38
355.264	339.38
355.491	363.38
355.718	341.38
355.945	377.38
356.172	388.38
356.399	385.38
356.626	373.38
356.853	357.38
357.08	372.38
357.307	364.38
357.534	352.38
357.761	363.38
357.988	361.38
358.215	383.38
358.441	355.38
358.668	383.38
358.895	375.38
359.122	386.38
359.349	374.38
359.576	389.38
359.802	371.38
360.029	378.38
360.256	395.38
360.483	388.38
360.709	368.38
360.936	409.38
361.163	385.38
361.39	376.38
361.616	379.38
361.843	379.38
362.07	378.38
362.296	369.38
362.523	383.38
362.749	380.38
362.976	373.38
363.203	347.38
363.429	371.38
363.656	372.38
363.882	376.38
364.109	368.38
364.335	369.38
364.562	357.38
364.788	375.38
365.015	384.38
365.241	359.38
365.468	369.38
365.694	379.38
365.92	383.38
366.147	374.38
366.373	358.38
366.599	359.38
366.826	358.38
367.052	374.38
367.278	388.38
367.505	375.38
367.731	364.38
367.957	375.38
368.184	373.38
368.41	385.38
368.636	398.38
368.862	382.38
369.089	374.38
369.315	375.38
369.541	379.38
369.767	384.38
369.993	375.38
370.219	373.38
370.445	389.38
370.672	368.38
370.898	370.38
371.124	377.38
371.35	397.38
371.576	373.38
371.802	373.38
372.028	405.38
372.254	396.38
372.48	394.38
372.706	388.38
372.932	385.38
373.158	392.38
373.384	391.38
373.61	372.38
373.835	389.38
374.061	387.38
374.287	415.38
374.513	409.38
374.739	395.38
374.965	415.38
375.191	412.38
375.416	406.38
375.642	403.38
375.868	377.38
376.094	407.38
376.319	383.38
376.545	372.38
376.771	391.38
376.997	379.38
377.222	389.38
377.448	387.38
377.674	397.38
377.899	376.38
378.125	381.38
378.35	367.38
378.576	395.38
378.802	380.38
379.027	370.38
379.253	378.38
379.478	390.38
379.704	370.38
379.929	372.38
380.155	383.38
380.38	380.38
380.606	377.38
380.831	380.38
381.057	380.38
381.282	377.38
381.507	374.38
381.733	412.38
381.958	405.38
382.184	400.38
382.409	403.38
382.634	405.38
382.86	393.38
383.085	411.38
383.31	400.38
383.535	403.38
383.761	401.38
383.986	393.38
384.211	433.38
384.436	400.38
384.662	427.38
384.887	438.38
385.112	447.38
385.337	419.38
385.562	412.38
385.787	419.38
386.013	425.38
386.238	439.38
386.463	436.38
386.688	451.38
386.913	426.38
387.138	439.38
387.363	413.38
387.588	435.38
387.813	443.38
388.038	409.38
388.263	424.38
388.488	435.38
388.713	415.38
388.938	427.38
389.163	443.38
389.387	449.38
389.612	452.38
389.837	439.38
390.062	425.38
390.287	449.38
390.512	422.38
390.736	432.38
390.961	446.38
391.186	452.38
391.411	452.38
391.636	457.38
391.86	463.38
392.085	456.38
392.31	466.38
392.534	464.38
392.759	474.38
392.984	456.38
393.208	452.38
393.433	457.38
393.658	454.38
393.882	439.38
394.107	458.38
394.331	433.38
394.556	455.38
394.78	454.38
395.005	439.38
395.229	439.38
395.454	449.38
395.678	475.38
395.903	468.38
396.127	482.38
396.352	464.38
396.576	459.38
396.801	457.38
397.025	483.38
397.249	488.38
397.474	483.38
397.698	460.38
397.922	483.38
398.147	484.38
398.371	469.38
398.595	500.38
398.82	531.38
399.044	541.38
399.268	572.38
399.492	618.38
399.717	647.38
399.941	651.38
400.165	643.38
400.389	644.38
400.613	586.38
400.837	533.38
401.062	522.38
401.286	500.38
401.51	521.38
401.734	514.38
401.958	519.38
402.182	527.38
402.406	541.38
402.63	533.38
402.854	525.38
403.078	539.38
403.302	535.38
403.526	538.38
403.75	531.38
403.974	541.38
404.198	555.38
404.422	560.38
404.645	542.38
404.869	542.38
405.093	553.38
405.317	595.38
405.541	612.38
405.765	594.38
405.988	563.38
406.212	582.38
406.436	561.38
406.66	571.38
406.883	569.38
407.107	583.38
407.331	608.38
407.555	674.38
407.778	671.38
408.002	635.38
408.226	604.38
408.449	565.38
408.673	564.38
408.896	625.38
409.12	602.38
409.344	572.38
409.567	548.38
409.791	557.38
410.014	534.38
410.238	531.38
410.461	533.38
410.685	533.38
410.908	537.38
411.132	567.38
411.355	583.38
411.578	551.38
411.802	531.38
412.025	541.38
412.249	537.38
412.472	563.38
412.695	575.38
412.919	543.38
413.142	525.38
413.365	517.38
413.589	527.38
413.812	517.38
414.035	516.38
414.258	499.38
414.482	523.38
414.705	513.38
414.928	515.38
415.151	504.38
415.374	507.38
415.597	529.38
415.821	502.38
416.044	510.38
416.267	473.38
416.49	503.38
416.713	496.38
416.936	476.38
417.159	487.38
417.382	497.38
417.605	501.38
417.828	512.38
418.051	495.38
418.274	495.38
418.497	504.38
418.72	523.38
418.943	500.38
419.166	523.38
419.389	548.38
419.611	545.38
419.834	518.38
420.057	546.38
420.28	509.38
420.503	507.38
420.726	525.38
420.948	500.38
421.171	555.38
421.394	565.38
421.617	541.38
421.839	507.38
422.062	516.38
422.285	516.38
422.507	519.38
422.73	594.38
422.953	583.38
423.175	554.38
423.398	514.38
423.621	529.38
423.843	561.38
424.066	547.38
424.288	551.38
424.511	550.38
424.733	579.38
424.956	631.38
425.178	591.38
425.401	601.38
425.623	630.38
425.846	575.38
426.068	523.38
426.291	499.38
426.513	550.38
426.735	559.38
426.958	551.38
427.18	585.38
427.402	677.38
427.625	728.38
427.847	624.38
428.069	588.38
428.292	538.38
428.514	495.38
428.736	506.38
428.958	510.38
429.181	451.38
429.403	450.38
429.625	498.38
429.847	509.38
430.069	552.38
430.292	565.38
430.514	479.38
430.736	465.38
430.958	463.38
431.18	462.38
431.402	481.38
431.624	469.38
431.846	467.38
432.068	476.38
432.29	500.38
432.512	474.38
432.734	494.38
432.956	466.38
433.178	475.38
433.4	467.38
433.622	470.38
433.844	479.38
434.066	481.38
434.287	482.38
434.509	475.38
434.731	498.38
434.953	497.38
435.175	521.38
435.397	518.38
435.618	514.38
435.84	545.38
436.062	597.38
436.284	619.38
436.505	550.38
436.727	519.38
436.949	486.38
437.17	472.38
437.392	489.38
437.614	479.38
437.835	503.38
438.057	544.38
438.278	596.38
438.5	619.38
438.721	662.38
438.943	655.38
439.165	535.38
439.386	503.38
439.608	505.38
439.829	495.38
440.05	533.38
440.272	537.38
440.493	526.38
440.715	521.38
440.936	507.38
441.158	495.38
441.379	500.38
441.6	502.38
441.822	532.38
442.043	548.38
442.264	584.38
442.486	616.38
442.707	561.38
442.928	529.38
443.149	532.38
443.371	513.38
443.592	567.38
443.813	619.38
444.034	680.38
444.255	583.38
444.476	543.38
444.698	570.38
444.919	589.38
445.14	645.38
445.361	599.38
445.582	559.38
445.803	571.38
446.024	660.38
446.245	647.38
446.466	588.38
446.687	548.38
446.908	517.38
447.129	466.38
447.35	486.38
447.571	498.38
447.792	462.38
448.013	460.38
448.234	477.38
448.455	511.38
448.675	570.38
448.896	660.38
449.117	563.38
449.338	527.38
449.559	617.38
449.779	676.38
450	556.38
450.221	474.38
450.442	474.38
450.662	453.38
450.883	465.38
451.104	454.38
451.324	456.38
451.545	451.38
451.766	443.38
451.986	428.38
452.207	442.38
452.428	427.38
452.648	420.38
452.869	435.38
453.089	440.38
453.31	447.38
453.53	431.38
453.751	421.38
453.971	446.38
454.192	439.38
454.412	420.38
454.633	415.38
454.853	433.38
455.073	432.38
455.294	451.38
455.514	464.38
455.734	457.38
455.955	421.38
456.175	434.38
456.395	420.38
456.616	417.38
456.836	413.38
457.056	408.38
457.276	405.38
457.497	401.38
457.717	420.38
457.937	406.38
458.157	411.38
458.377	444.38
458.598	425.38
458.818	464.38
459.038	500.38
459.258	509.38
459.478	502.38
459.698	483.38
459.918	491.38
460.138	489.38
460.358	519.38
460.578	513.38
460.798	519.38
461.018	517.38
461.238	510.38
461.458	527.38
461.678	519.38
461.898	509.38
462.118	525.38
462.338	545.38
462.558	536.38
462.777	572.38
462.997	562.38
463.217	576.38
463.437	599.38
463.657	604.38
463.876	572.38
464.096	571.38
464.316	573.38
464.536	561.38
464.755	559.38
464.975	544.38
465.195	531.38
465.414	539.38
465.634	535.38
465.854	492.38
466.073	483.38
466.293	460.38
466.512	454.38
466.732	434.38
466.951	467.38
467.171	468.38
467.391	451.38
467.61	457.38
467.829	443.38
468.049	451.38
468.268	448.38
468.488	447.38
468.707	464.38
468.927	475.38
469.146	430.38
469.365	436.38
469.585	442.38
469.804	464.38
470.023	457.38
470.243	452.38
470.462	481.38
470.681	466.38
470.901	476.38
471.12	459.38
471.339	454.38
471.558	458.38
471.777	459.38
471.997	461.38
472.216	462.38
472.435	476.38
472.654	450.38
472.873	440.38
473.092	446.38
473.311	451.38
473.53	443.38
473.749	454.38
473.968	478.38
474.187	518.38
474.406	537.38
474.625	502.38
474.844	467.38
475.063	461.38
475.282	451.38
475.501	457.38
475.72	452.38
475.939	457.38
476.158	449.38
476.377	470.38
476.596	459.38
476.814	479.38
477.033	480.38
477.252	497.38
477.471	482.38
477.69	503.38
477.908	486.38
478.127	491.38
478.346	506.38
478.564	529.38
478.783	513.38
479.002	557.38
479.22	524.38
479.439	512.38
479.658	550.38
479.876	540.38
480.095	539.38
480.313	575.38
480.532	569.38
480.751	552.38
480.969	584.38
481.188	563.38
481.406	581.38
481.624	545.38
481.843	576.38
482.061	517.38
482.28	527.38
482.498	530.38
482.717	500.38
482.935	509.38
483.153	539.38
483.372	544.38
483.59	521.38
483.808	501.38
484.027	497.38
484.245	527.38
484.463	533.38
484.681	524.38
484.9	531.38
485.118	551.38
485.336	542.38
485.554	535.38
485.772	553.38
485.99	560.38
486.209	551.38
486.427	551.38
486.645	565.38
486.863	578.38
487.081	551.38
487.299	567.38
487.517	560.38
487.735	549.38
487.953	549.38
488.171	553.38
488.389	555.38
488.607	561.38
488.825	543.38
489.043	537.38
489.261	560.38
489.479	541.38
489.696	567.38
489.914	557.38
490.132	573.38
490.35	568.38
490.568	547.38
490.786	578.38
491.003	565.38
491.221	581.38
491.439	598.38
491.657	592.38
491.874	610.38
492.092	590.38
492.31	613.38
492.527	600.38
492.745	614.38
492.963	614.38
493.18	635.38
493.398	620.38
493.615	615.38
493.833	642.38
494.05	604.38
494.268	602.38
494.485	605.38
494.703	612.38
494.92	605.38
495.138	629.38
495.355	627.38
495.573	630.38
495.79	634.38
496.008	664.38
496.225	623.38
496.442	637.38
496.66	650.38
496.877	639.38
497.094	645.38
497.312	636.38
497.529	652.38
497.746	674.38
497.963	699.38
498.181	714.38
498.398	739.38
498.615	744.38
498.832	796.38
499.049	810.38
499.267	837.38
499.484	893.38
499.701	932.38
499.918	963.38
500.135	1070.38
500.352	1126.38
500.569	1178.38
500.786	1143.38
501.003	1140.38
501.22	1048.38
501.437	1043.38
501.654	971.38
501.871	903.38
