Data from 1962.PennyLincolnUp.Lamp.En5.5.200Scan.071719.P1._HRD10591_13-54-22-060.txt Node
Date: Thu Jul 18 13:54:22 EDT 2019
User: cochatt
Spectrometer: HR+D1059
Trigger mode: 1
Integration Time (sec): 1.000000E-1
Scans to average: 1
Electric dark correction enabled: true
Nonlinearity correction enabled: false
Boxcar width: 0
XAxis mode: Wavelengths
Number of Pixels in Spectrum: 2048
>>>>>Begin Spectral Data<<<<<
223.165	-18.38
223.4	-18.38
223.635	-18.38
223.869	-0.38
224.104	-13.38
224.338	-33.38
224.573	-12.38
224.808	-7.38
225.042	-4.38
225.277	-5.38
225.511	-12.38
225.746	1.62
225.98	4.62
226.215	18.62
226.449	25.62
226.683	7.62
226.918	23.62
227.152	25.62
227.387	35.62
227.621	37.62
227.856	56.62
228.09	46.62
228.324	58.62
228.559	44.62
228.793	68.62
229.027	89.62
229.262	107.62
229.496	100.62
229.73	105.62
229.964	130.62
230.199	109.62
230.433	120.62
230.667	100.62
230.901	104.62
231.136	113.62
231.37	118.62
231.604	108.62
231.838	98.62
232.072	122.62
232.306	116.62
232.541	106.62
232.775	114.62
233.009	107.62
233.243	121.62
233.477	118.62
233.711	130.62
233.945	112.62
234.179	134.62
234.413	105.62
234.647	110.62
234.881	126.62
235.115	106.62
235.349	122.62
235.583	136.62
235.817	118.62
236.051	134.62
236.285	134.62
236.519	108.62
236.753	149.62
236.987	132.62
237.221	154.62
237.455	187.62
237.689	166.62
237.922	134.62
238.156	129.62
238.39	116.62
238.624	130.62
238.858	127.62
239.091	116.62
239.325	130.62
239.559	135.62
239.793	134.62
240.027	125.62
240.26	130.62
240.494	130.62
240.728	114.62
240.961	123.62
241.195	130.62
241.429	130.62
241.662	134.62
241.896	133.62
242.13	130.62
242.363	121.62
242.597	133.62
242.83	128.62
243.064	141.62
243.298	140.62
243.531	138.62
243.765	145.62
243.998	134.62
244.232	130.62
244.465	132.62
244.699	132.62
244.932	124.62
245.166	118.62
245.399	133.62
245.633	134.62
245.866	133.62
246.099	141.62
246.333	139.62
246.566	151.62
246.8	142.62
247.033	152.62
247.266	152.62
247.5	160.62
247.733	147.62
247.966	151.62
248.2	161.62
248.433	150.62
248.666	155.62
248.899	167.62
249.133	167.62
249.366	186.62
249.599	168.62
249.832	180.62
250.066	167.62
250.299	170.62
250.532	164.62
250.765	184.62
250.998	198.62
251.231	198.62
251.465	207.62
251.698	190.62
251.931	180.62
252.164	186.62
252.397	184.62
252.63	177.62
252.863	180.62
253.096	189.62
253.329	203.62
253.562	196.62
253.795	210.62
254.028	207.62
254.261	204.62
254.494	196.62
254.727	202.62
254.96	245.62
255.193	223.62
255.426	222.62
255.659	202.62
255.892	204.62
256.124	226.62
256.357	222.62
256.59	204.62
256.823	186.62
257.056	195.62
257.289	188.62
257.521	190.62
257.754	184.62
257.987	202.62
258.22	198.62
258.452	188.62
258.685	184.62
258.918	213.62
259.151	202.62
259.383	193.62
259.616	207.62
259.849	202.62
260.081	204.62
260.314	209.62
260.547	226.62
260.779	235.62
261.012	205.62
261.244	208.62
261.477	212.62
261.71	212.62
261.942	207.62
262.175	213.62
262.407	226.62
262.64	194.62
262.872	227.62
263.105	210.62
263.337	217.62
263.57	202.62
263.802	213.62
264.035	210.62
264.267	213.62
264.499	226.62
264.732	227.62
264.964	205.62
265.197	214.62
265.429	216.62
265.661	214.62
265.894	216.62
266.126	220.62
266.358	213.62
266.591	202.62
266.823	205.62
267.055	240.62
267.287	215.62
267.52	204.62
267.752	219.62
267.984	204.62
268.216	211.62
268.448	217.62
268.681	225.62
268.913	216.62
269.145	240.62
269.377	263.62
269.609	262.62
269.841	262.62
270.073	272.62
270.306	254.62
270.538	276.62
270.77	281.62
271.002	261.62
271.234	278.62
271.466	280.62
271.698	275.62
271.93	292.62
272.162	297.62
272.394	274.62
272.626	269.62
272.858	283.62
273.09	264.62
273.322	254.62
273.553	258.62
273.785	249.62
274.017	260.62
274.249	257.62
274.481	265.62
274.713	253.62
274.945	236.62
275.176	261.62
275.408	249.62
275.64	257.62
275.872	248.62
276.104	260.62
276.335	258.62
276.567	276.62
276.799	280.62
277.031	288.62
277.262	300.62
277.494	286.62
277.726	292.62
277.957	268.62
278.189	284.62
278.421	249.62
278.652	270.62
278.884	259.62
279.115	273.62
279.347	260.62
279.579	267.62
279.81	268.62
280.042	272.62
280.273	283.62
280.505	277.62
280.736	276.62
280.968	276.62
281.199	288.62
281.431	300.62
281.662	281.62
281.894	274.62
282.125	279.62
282.356	289.62
282.588	293.62
282.819	308.62
283.051	293.62
283.282	278.62
283.513	285.62
283.745	281.62
283.976	276.62
284.207	293.62
284.439	281.62
284.67	286.62
284.901	270.62
285.132	265.62
285.364	280.62
285.595	282.62
285.826	281.62
286.057	262.62
286.288	282.62
286.52	297.62
286.751	260.62
286.982	294.62
287.213	299.62
287.444	285.62
287.675	302.62
287.906	293.62
288.138	291.62
288.369	314.62
288.6	302.62
288.831	304.62
289.062	317.62
289.293	300.62
289.524	310.62
289.755	300.62
289.986	285.62
290.217	302.62
290.448	271.62
290.679	296.62
290.91	295.62
291.141	302.62
291.371	304.62
291.602	300.62
291.833	298.62
292.064	314.62
292.295	292.62
292.526	281.62
292.757	285.62
292.987	286.62
293.218	289.62
293.449	308.62
293.68	299.62
293.91	298.62
294.141	313.62
294.372	298.62
294.603	288.62
294.833	291.62
295.064	300.62
295.295	316.62
295.525	300.62
295.756	311.62
295.987	306.62
296.217	326.62
296.448	332.62
296.679	312.62
296.909	307.62
297.14	325.62
297.37	307.62
297.601	336.62
297.831	283.62
298.062	324.62
298.292	307.62
298.523	317.62
298.753	331.62
298.984	310.62
299.214	309.62
299.445	331.62
299.675	332.62
299.905	321.62
300.136	320.62
300.366	326.62
300.597	310.62
300.827	338.62
301.057	322.62
301.288	332.62
301.518	338.62
301.748	328.62
301.979	355.62
302.209	344.62
302.439	325.62
302.669	337.62
302.9	340.62
303.13	342.62
303.36	326.62
303.59	343.62
303.82	356.62
304.051	356.62
304.281	344.62
304.511	322.62
304.741	339.62
304.971	347.62
305.201	340.62
305.431	339.62
305.661	344.62
305.891	319.62
306.121	330.62
306.352	340.62
306.582	350.62
306.812	329.62
307.042	332.62
307.272	327.62
307.502	332.62
307.731	353.62
307.961	357.62
308.191	326.62
308.421	345.62
308.651	337.62
308.881	341.62
309.111	351.62
309.341	350.62
309.571	354.62
309.8	365.62
310.03	384.62
310.26	354.62
310.49	353.62
310.72	387.62
310.949	377.62
311.179	366.62
311.409	353.62
311.639	370.62
311.868	372.62
312.098	385.62
312.328	372.62
312.557	379.62
312.787	390.62
313.017	376.62
313.246	382.62
313.476	371.62
313.706	380.62
313.935	371.62
314.165	365.62
314.394	361.62
314.624	384.62
314.853	377.62
315.083	366.62
315.312	378.62
315.542	366.62
315.771	383.62
316.001	361.62
316.23	389.62
316.46	365.62
316.689	361.62
316.919	384.62
317.148	378.62
317.377	372.62
317.607	370.62
317.836	356.62
318.065	372.62
318.295	376.62
318.524	380.62
318.753	397.62
318.983	378.62
319.212	365.62
319.441	375.62
319.67	378.62
319.9	375.62
320.129	380.62
320.358	374.62
320.587	372.62
320.816	380.62
321.046	402.62
321.275	390.62
321.504	397.62
321.733	380.62
321.962	380.62
322.191	391.62
322.42	391.62
322.649	408.62
322.878	401.62
323.108	414.62
323.337	440.62
323.566	461.62
323.795	443.62
324.024	491.62
324.253	538.62
324.482	696.62
324.71	1039.62
324.939	1405.62
325.168	1293.62
325.397	724.62
325.626	547.62
325.855	487.62
326.084	446.62
326.313	448.62
326.542	452.62
326.77	496.62
326.999	561.62
327.228	687.62
327.457	935.62
327.686	1116.62
327.914	802.62
328.143	574.62
328.372	518.62
328.6	501.62
328.829	491.62
329.058	491.62
329.287	467.62
329.515	486.62
329.744	460.62
329.972	466.62
330.201	468.62
330.43	499.62
330.658	509.62
330.887	513.62
331.115	500.62
331.344	475.62
331.572	466.62
331.801	458.62
332.03	460.62
332.258	453.62
332.486	450.62
332.715	455.62
332.943	458.62
333.172	467.62
333.4	467.62
333.629	478.62
333.857	485.62
334.085	504.62
334.314	518.62
334.542	529.62
334.771	535.62
334.999	493.62
335.227	493.62
335.455	468.62
335.684	465.62
335.912	475.62
336.14	435.62
336.369	462.62
336.597	444.62
336.825	465.62
337.053	457.62
337.281	440.62
337.51	457.62
337.738	460.62
337.966	458.62
338.194	449.62
338.422	422.62
338.65	459.62
338.878	443.62
339.106	433.62
339.334	442.62
339.562	421.62
339.79	417.62
340.018	413.62
340.246	442.62
340.474	430.62
340.702	422.62
340.93	434.62
341.158	427.62
341.386	424.62
341.614	407.62
341.842	417.62
342.07	421.62
342.298	444.62
342.526	420.62
342.754	431.62
342.981	431.62
343.209	436.62
343.437	440.62
343.665	446.62
343.893	444.62
344.12	454.62
344.348	470.62
344.576	445.62
344.804	467.62
345.031	426.62
345.259	434.62
345.487	425.62
345.714	438.62
345.942	403.62
346.17	412.62
346.397	423.62
346.625	422.62
346.853	426.62
347.08	411.62
347.308	419.62
347.535	439.62
347.763	415.62
347.99	397.62
348.218	410.62
348.445	410.62
348.673	422.62
348.9	412.62
349.128	411.62
349.355	388.62
349.583	404.62
349.81	390.62
350.037	404.62
350.265	393.62
350.492	392.62
350.72	403.62
350.947	412.62
351.174	400.62
351.402	416.62
351.629	395.62
351.856	411.62
352.083	413.62
352.311	397.62
352.538	401.62
352.765	420.62
352.992	412.62
353.22	398.62
353.447	411.62
353.674	412.62
353.901	398.62
354.128	390.62
354.355	385.62
354.583	388.62
354.81	376.62
355.037	394.62
355.264	383.62
355.491	397.62
355.718	382.62
355.945	380.62
356.172	397.62
356.399	392.62
356.626	394.62
356.853	402.62
357.08	388.62
357.307	381.62
357.534	398.62
357.761	400.62
357.988	407.62
358.215	422.62
358.441	390.62
358.668	375.62
358.895	372.62
359.122	410.62
359.349	391.62
359.576	420.62
359.802	401.62
360.029	429.62
360.256	445.62
360.483	399.62
360.709	428.62
360.936	432.62
361.163	406.62
361.39	399.62
361.616	405.62
361.843	400.62
362.07	395.62
362.296	408.62
362.523	390.62
362.749	421.62
362.976	415.62
363.203	402.62
363.429	415.62
363.656	376.62
363.882	407.62
364.109	410.62
364.335	399.62
364.562	400.62
364.788	397.62
365.015	404.62
365.241	380.62
365.468	398.62
365.694	393.62
365.92	379.62
366.147	398.62
366.373	382.62
366.599	409.62
366.826	394.62
367.052	411.62
367.278	414.62
367.505	402.62
367.731	392.62
367.957	407.62
368.184	379.62
368.41	411.62
368.636	408.62
368.862	410.62
369.089	392.62
369.315	404.62
369.541	395.62
369.767	408.62
369.993	412.62
370.219	406.62
370.445	397.62
370.672	414.62
370.898	422.62
371.124	401.62
371.35	411.62
371.576	426.62
371.802	438.62
372.028	401.62
372.254	418.62
372.48	420.62
372.706	408.62
372.932	422.62
373.158	427.62
373.384	413.62
373.61	422.62
373.835	416.62
374.061	419.62
374.287	421.62
374.513	430.62
374.739	434.62
374.965	410.62
375.191	415.62
375.416	412.62
375.642	438.62
375.868	427.62
376.094	418.62
376.319	419.62
376.545	420.62
376.771	413.62
376.997	388.62
377.222	391.62
377.448	413.62
377.674	416.62
377.899	414.62
378.125	414.62
378.35	423.62
378.576	408.62
378.802	408.62
379.027	397.62
379.253	375.62
379.478	416.62
379.704	424.62
379.929	402.62
380.155	422.62
380.38	411.62
380.606	407.62
380.831	417.62
381.057	424.62
381.282	412.62
381.507	428.62
381.733	404.62
381.958	420.62
382.184	402.62
382.409	423.62
382.634	439.62
382.86	413.62
383.085	410.62
383.31	438.62
383.535	444.62
383.761	436.62
383.986	442.62
384.211	450.62
384.436	455.62
384.662	441.62
384.887	464.62
385.112	442.62
385.337	447.62
385.562	452.62
385.787	454.62
386.013	462.62
386.238	465.62
386.463	457.62
386.688	496.62
386.913	483.62
387.138	473.62
387.363	472.62
387.588	461.62
387.813	464.62
388.038	459.62
388.263	460.62
388.488	465.62
388.713	458.62
388.938	456.62
389.163	467.62
389.387	475.62
389.612	468.62
389.837	440.62
390.062	455.62
390.287	472.62
390.512	451.62
390.736	480.62
390.961	462.62
391.186	457.62
391.411	468.62
391.636	492.62
391.86	492.62
392.085	501.62
392.31	486.62
392.534	481.62
392.759	477.62
392.984	482.62
393.208	497.62
393.433	490.62
393.658	476.62
393.882	497.62
394.107	469.62
394.331	478.62
394.556	488.62
394.78	477.62
395.005	484.62
395.229	478.62
395.454	523.62
395.678	493.62
395.903	500.62
396.127	539.62
396.352	530.62
396.576	502.62
396.801	476.62
397.025	507.62
397.249	499.62
397.474	516.62
397.698	499.62
397.922	536.62
398.147	538.62
398.371	538.62
398.595	536.62
398.82	548.62
399.044	575.62
399.268	584.62
399.492	664.62
399.717	667.62
399.941	730.62
400.165	695.62
400.389	683.62
400.613	635.62
400.837	577.62
401.062	548.62
401.286	564.62
401.51	560.62
401.734	559.62
401.958	571.62
402.182	579.62
402.406	557.62
402.63	573.62
402.854	571.62
403.078	564.62
403.302	587.62
403.526	573.62
403.75	590.62
403.974	589.62
404.198	599.62
404.422	598.62
404.645	584.62
404.869	598.62
405.093	627.62
405.317	641.62
405.541	659.62
405.765	619.62
405.988	605.62
406.212	607.62
406.436	604.62
406.66	632.62
406.883	617.62
407.107	636.62
407.331	660.62
407.555	731.62
407.778	709.62
408.002	685.62
408.226	638.62
408.449	640.62
408.673	617.62
408.896	625.62
409.12	662.62
409.344	655.62
409.567	592.62
409.791	588.62
410.014	584.62
410.238	577.62
410.461	573.62
410.685	571.62
410.908	596.62
411.132	610.62
411.355	610.62
411.578	616.62
411.802	582.62
412.025	573.62
412.249	562.62
412.472	582.62
412.695	617.62
412.919	612.62
413.142	564.62
413.365	565.62
413.589	544.62
413.812	546.62
414.035	521.62
414.258	542.62
414.482	536.62
414.705	551.62
414.928	559.62
415.151	544.62
415.374	564.62
415.597	544.62
415.821	529.62
416.044	508.62
416.267	530.62
416.49	540.62
416.713	515.62
416.936	537.62
417.159	538.62
417.382	525.62
417.605	538.62
417.828	548.62
418.051	564.62
418.274	548.62
418.497	531.62
418.72	536.62
418.943	535.62
419.166	548.62
419.389	574.62
419.611	600.62
419.834	582.62
420.057	561.62
420.28	563.62
420.503	563.62
420.726	545.62
420.948	556.62
421.171	592.62
421.394	631.62
421.617	566.62
421.839	538.62
422.062	550.62
422.285	562.62
422.507	602.62
422.73	664.62
422.953	672.62
423.175	565.62
423.398	575.62
423.621	590.62
423.843	589.62
424.066	593.62
424.288	581.62
424.511	594.62
424.733	638.62
424.956	700.62
425.178	658.62
425.401	661.62
425.623	663.62
425.846	602.62
426.068	585.62
426.291	562.62
426.513	584.62
426.735	573.62
426.958	622.62
427.18	637.62
427.402	760.62
427.625	807.62
427.847	689.62
428.069	640.62
428.292	590.62
428.514	547.62
428.736	544.62
428.958	536.62
429.181	527.62
429.403	512.62
429.625	544.62
429.847	557.62
430.069	592.62
430.292	592.62
430.514	558.62
430.736	536.62
430.958	524.62
431.18	502.62
431.402	499.62
431.624	478.62
431.846	498.62
432.068	517.62
432.29	520.62
432.512	514.62
432.734	522.62
432.956	509.62
433.178	521.62
433.4	523.62
433.622	520.62
433.844	496.62
434.066	490.62
434.287	508.62
434.509	516.62
434.731	541.62
434.953	557.62
435.175	581.62
435.397	595.62
435.618	578.62
435.84	572.62
436.062	647.62
436.284	688.62
436.505	602.62
436.727	557.62
436.949	536.62
437.17	501.62
437.392	516.62
437.614	525.62
437.835	558.62
438.057	614.62
438.278	693.62
438.5	689.62
438.721	736.62
438.943	724.62
439.165	586.62
439.386	581.62
439.608	562.62
439.829	558.62
440.05	564.62
440.272	599.62
440.493	581.62
440.715	526.62
440.936	527.62
441.158	522.62
441.379	545.62
441.6	537.62
441.822	568.62
442.043	596.62
442.264	642.62
442.486	662.62
442.707	608.62
442.928	576.62
443.149	597.62
443.371	588.62
443.592	622.62
443.813	670.62
444.034	752.62
444.255	644.62
444.476	611.62
444.698	592.62
444.919	603.62
445.14	733.62
445.361	661.62
445.582	619.62
445.803	621.62
446.024	693.62
446.245	701.62
446.466	644.62
446.687	570.62
446.908	555.62
447.129	532.62
447.35	524.62
447.571	496.62
447.792	501.62
448.013	520.62
448.234	498.62
448.455	551.62
448.675	659.62
448.896	708.62
449.117	615.62
449.338	622.62
449.559	679.62
449.779	742.62
450	650.62
450.221	545.62
450.442	517.62
450.662	496.62
450.883	523.62
451.104	517.62
451.324	492.62
451.545	470.62
451.766	480.62
451.986	462.62
452.207	460.62
452.428	476.62
452.648	461.62
452.869	469.62
453.089	480.62
453.31	476.62
453.53	454.62
453.751	472.62
453.971	474.62
454.192	468.62
454.412	469.62
454.633	460.62
454.853	456.62
455.073	469.62
455.294	486.62
455.514	500.62
455.734	512.62
455.955	451.62
456.175	441.62
456.395	450.62
456.616	440.62
456.836	454.62
457.056	432.62
457.276	434.62
457.497	437.62
457.717	442.62
457.937	467.62
458.157	459.62
458.377	451.62
458.598	470.62
458.818	510.62
459.038	578.62
459.258	586.62
459.478	554.62
459.698	522.62
459.918	512.62
460.138	524.62
460.358	535.62
460.578	550.62
460.798	551.62
461.018	543.62
461.238	540.62
461.458	549.62
461.678	535.62
461.898	571.62
462.118	561.62
462.338	590.62
462.558	587.62
462.777	609.62
462.997	617.62
463.217	631.62
463.437	636.62
463.657	624.62
463.876	601.62
464.096	589.62
464.316	597.62
464.536	613.62
464.755	610.62
464.975	556.62
465.195	591.62
465.414	598.62
465.634	566.62
465.854	525.62
466.073	525.62
466.293	492.62
466.512	496.62
466.732	496.62
466.951	489.62
467.171	492.62
467.391	498.62
467.61	477.62
467.829	493.62
468.049	475.62
468.268	475.62
468.488	473.62
468.707	482.62
468.927	483.62
469.146	485.62
469.365	481.62
469.585	470.62
469.804	484.62
470.023	494.62
470.243	496.62
470.462	488.62
470.681	515.62
470.901	488.62
471.12	510.62
471.339	487.62
471.558	480.62
471.777	488.62
471.997	490.62
472.216	488.62
472.435	500.62
472.654	501.62
472.873	494.62
473.092	476.62
473.311	470.62
473.53	482.62
473.749	480.62
473.968	524.62
474.187	574.62
474.406	598.62
474.625	522.62
474.844	506.62
475.063	481.62
475.282	478.62
475.501	482.62
475.72	508.62
475.939	494.62
476.158	480.62
476.377	492.62
476.596	487.62
476.814	508.62
477.033	516.62
477.252	517.62
477.471	515.62
477.69	534.62
477.908	553.62
478.127	529.62
478.346	552.62
478.564	555.62
478.783	546.62
479.002	557.62
479.22	585.62
479.439	564.62
479.658	586.62
479.876	589.62
480.095	590.62
480.313	614.62
480.532	606.62
480.751	589.62
480.969	602.62
481.188	625.62
481.406	644.62
481.624	587.62
481.843	596.62
482.061	572.62
482.28	592.62
482.498	565.62
482.717	570.62
482.935	571.62
483.153	532.62
483.372	565.62
483.59	561.62
483.808	579.62
484.027	581.62
484.245	564.62
484.463	552.62
484.681	576.62
484.9	582.62
485.118	593.62
485.336	563.62
485.554	594.62
485.772	594.62
485.99	584.62
486.209	608.62
486.427	580.62
486.645	593.62
486.863	597.62
487.081	613.62
487.299	634.62
487.517	603.62
487.735	604.62
487.953	598.62
488.171	609.62
488.389	590.62
488.607	590.62
488.825	578.62
489.043	616.62
489.261	609.62
489.479	597.62
489.696	608.62
489.914	623.62
490.132	620.62
490.35	638.62
490.568	629.62
490.786	602.62
491.003	639.62
491.221	626.62
491.439	646.62
491.657	640.62
491.874	659.62
492.092	656.62
492.31	662.62
492.527	662.62
492.745	672.62
492.963	660.62
493.18	667.62
493.398	663.62
493.615	705.62
493.833	665.62
494.05	653.62
494.268	673.62
494.485	661.62
494.703	683.62
494.92	672.62
495.138	673.62
495.355	678.62
495.573	683.62
495.79	683.62
496.008	713.62
496.225	693.62
496.442	715.62
496.66	707.62
496.877	696.62
497.094	697.62
497.312	720.62
497.529	732.62
497.746	723.62
497.963	745.62
498.181	794.62
498.398	809.62
498.615	818.62
498.832	841.62
499.049	884.62
499.267	928.62
499.484	932.62
499.701	1001.62
499.918	1052.62
500.135	1132.62
500.352	1234.62
500.569	1226.62
500.786	1261.62
501.003	1214.62
501.22	1160.62
501.437	1062.62
501.654	1016.62
501.871	990.62
