Data from 1962.PennyLincolnUp.Lamp.En5.5.200Scan.071719.P1._HRD10591_13-53-10-060.txt Node
Date: Thu Jul 18 13:53:10 EDT 2019
User: cochatt
Spectrometer: HR+D1059
Trigger mode: 1
Integration Time (sec): 1.000000E-1
Scans to average: 1
Electric dark correction enabled: true
Nonlinearity correction enabled: false
Boxcar width: 0
XAxis mode: Wavelengths
Number of Pixels in Spectrum: 2048
>>>>>Begin Spectral Data<<<<<
223.165	-13.81
223.4	-13.81
223.635	-13.81
223.869	-23.81
224.104	-14.81
224.338	-15.81
224.573	-17.81
224.808	1.19
225.042	-17.81
225.277	-16.81
225.511	-3.81
225.746	4.19
225.98	10.19
226.215	27.19
226.449	16.19
226.683	20.19
226.918	16.19
227.152	29.19
227.387	25.19
227.621	26.19
227.856	37.19
228.09	43.19
228.324	55.19
228.559	52.19
228.793	71.19
229.027	96.19
229.262	98.19
229.496	97.19
229.73	93.19
229.964	113.19
230.199	105.19
230.433	108.19
230.667	113.19
230.901	111.19
231.136	106.19
231.37	114.19
231.604	105.19
231.838	112.19
232.072	102.19
232.306	107.19
232.541	114.19
232.775	106.19
233.009	124.19
233.243	112.19
233.477	91.19
233.711	115.19
233.945	117.19
234.179	118.19
234.413	95.19
234.647	101.19
234.881	100.19
235.115	114.19
235.349	113.19
235.583	104.19
235.817	104.19
236.051	119.19
236.285	111.19
236.519	116.19
236.753	118.19
236.987	119.19
237.221	128.19
237.455	163.19
237.689	133.19
237.922	134.19
238.156	121.19
238.39	122.19
238.624	124.19
238.858	121.19
239.091	110.19
239.325	117.19
239.559	131.19
239.793	108.19
240.027	124.19
240.26	123.19
240.494	134.19
240.728	130.19
240.961	129.19
241.195	128.19
241.429	124.19
241.662	127.19
241.896	131.19
242.13	125.19
242.363	123.19
242.597	130.19
242.83	130.19
243.064	118.19
243.298	122.19
243.531	120.19
243.765	126.19
243.998	124.19
244.232	132.19
244.465	142.19
244.699	146.19
244.932	140.19
245.166	125.19
245.399	138.19
245.633	124.19
245.866	146.19
246.099	130.19
246.333	139.19
246.566	139.19
246.8	135.19
247.033	151.19
247.266	148.19
247.5	138.19
247.733	158.19
247.966	148.19
248.2	152.19
248.433	154.19
248.666	152.19
248.899	162.19
249.133	176.19
249.366	162.19
249.599	156.19
249.832	159.19
250.066	148.19
250.299	145.19
250.532	166.19
250.765	171.19
250.998	180.19
251.231	190.19
251.465	160.19
251.698	165.19
251.931	158.19
252.164	159.19
252.397	175.19
252.63	174.19
252.863	178.19
253.096	169.19
253.329	188.19
253.562	175.19
253.795	171.19
254.028	178.19
254.261	181.19
254.494	170.19
254.727	208.19
254.96	217.19
255.193	216.19
255.426	202.19
255.659	193.19
255.892	187.19
256.124	200.19
256.357	185.19
256.59	174.19
256.823	187.19
257.056	190.19
257.289	164.19
257.521	184.19
257.754	192.19
257.987	191.19
258.22	197.19
258.452	195.19
258.685	183.19
258.918	191.19
259.151	187.19
259.383	179.19
259.616	194.19
259.849	188.19
260.081	200.19
260.314	201.19
260.547	211.19
260.779	190.19
261.012	199.19
261.244	198.19
261.477	181.19
261.71	193.19
261.942	178.19
262.175	202.19
262.407	184.19
262.64	177.19
262.872	190.19
263.105	176.19
263.337	195.19
263.57	193.19
263.802	188.19
264.035	185.19
264.267	187.19
264.499	190.19
264.732	196.19
264.964	190.19
265.197	180.19
265.429	210.19
265.661	189.19
265.894	198.19
266.126	179.19
266.358	219.19
266.591	199.19
266.823	211.19
267.055	209.19
267.287	211.19
267.52	208.19
267.752	207.19
267.984	215.19
268.216	208.19
268.448	209.19
268.681	226.19
268.913	207.19
269.145	218.19
269.377	233.19
269.609	238.19
269.841	231.19
270.073	231.19
270.306	231.19
270.538	253.19
270.77	244.19
271.002	256.19
271.234	238.19
271.466	232.19
271.698	268.19
271.93	250.19
272.162	261.19
272.394	261.19
272.626	261.19
272.858	260.19
273.09	242.19
273.322	257.19
273.553	247.19
273.785	227.19
274.017	234.19
274.249	238.19
274.481	252.19
274.713	237.19
274.945	248.19
275.176	244.19
275.408	226.19
275.64	229.19
275.872	242.19
276.104	233.19
276.335	251.19
276.567	246.19
276.799	241.19
277.031	262.19
277.262	265.19
277.494	248.19
277.726	257.19
277.957	264.19
278.189	281.19
278.421	250.19
278.652	245.19
278.884	264.19
279.115	251.19
279.347	247.19
279.579	238.19
279.81	242.19
280.042	265.19
280.273	256.19
280.505	267.19
280.736	254.19
280.968	249.19
281.199	259.19
281.431	241.19
281.662	251.19
281.894	267.19
282.125	276.19
282.356	274.19
282.588	275.19
282.819	266.19
283.051	279.19
283.282	254.19
283.513	266.19
283.745	264.19
283.976	265.19
284.207	274.19
284.439	272.19
284.67	267.19
284.901	272.19
285.132	272.19
285.364	272.19
285.595	261.19
285.826	250.19
286.057	272.19
286.288	271.19
286.52	265.19
286.751	280.19
286.982	281.19
287.213	290.19
287.444	278.19
287.675	278.19
287.906	284.19
288.138	289.19
288.369	291.19
288.6	286.19
288.831	284.19
289.062	282.19
289.293	278.19
289.524	267.19
289.755	308.19
289.986	259.19
290.217	276.19
290.448	288.19
290.679	290.19
290.91	281.19
291.141	275.19
291.371	282.19
291.602	291.19
291.833	278.19
292.064	287.19
292.295	289.19
292.526	303.19
292.757	276.19
292.987	308.19
293.218	281.19
293.449	275.19
293.68	294.19
293.91	292.19
294.141	278.19
294.372	297.19
294.603	299.19
294.833	281.19
295.064	284.19
295.295	302.19
295.525	282.19
295.756	275.19
295.987	314.19
296.217	304.19
296.448	296.19
296.679	315.19
296.909	291.19
297.14	286.19
297.37	292.19
297.601	305.19
297.831	289.19
298.062	290.19
298.292	290.19
298.523	296.19
298.753	318.19
298.984	311.19
299.214	308.19
299.445	328.19
299.675	306.19
299.905	286.19
300.136	298.19
300.366	304.19
300.597	316.19
300.827	318.19
301.057	318.19
301.288	297.19
301.518	320.19
301.748	307.19
301.979	300.19
302.209	323.19
302.439	321.19
302.669	329.19
302.9	306.19
303.13	320.19
303.36	324.19
303.59	311.19
303.82	330.19
304.051	340.19
304.281	321.19
304.511	313.19
304.741	322.19
304.971	327.19
305.201	314.19
305.431	334.19
305.661	332.19
305.891	307.19
306.121	330.19
306.352	316.19
306.582	310.19
306.812	327.19
307.042	308.19
307.272	322.19
307.502	327.19
307.731	328.19
307.961	326.19
308.191	317.19
308.421	332.19
308.651	342.19
308.881	313.19
309.111	324.19
309.341	327.19
309.571	327.19
309.8	343.19
310.03	339.19
310.26	341.19
310.49	319.19
310.72	347.19
310.949	353.19
311.179	347.19
311.409	339.19
311.639	329.19
311.868	360.19
312.098	353.19
312.328	364.19
312.557	338.19
312.787	340.19
313.017	349.19
313.246	345.19
313.476	355.19
313.706	358.19
313.935	349.19
314.165	351.19
314.394	343.19
314.624	356.19
314.853	343.19
315.083	349.19
315.312	348.19
315.542	346.19
315.771	344.19
316.001	340.19
316.23	351.19
316.46	347.19
316.689	350.19
316.919	355.19
317.148	355.19
317.377	374.19
317.607	342.19
317.836	353.19
318.065	355.19
318.295	361.19
318.524	370.19
318.753	350.19
318.983	361.19
319.212	350.19
319.441	359.19
319.67	357.19
319.9	364.19
320.129	347.19
320.358	353.19
320.587	372.19
320.816	387.19
321.046	353.19
321.275	361.19
321.504	360.19
321.733	361.19
321.962	374.19
322.191	346.19
322.42	352.19
322.649	370.19
322.878	382.19
323.108	384.19
323.337	390.19
323.566	411.19
323.795	424.19
324.024	438.19
324.253	511.19
324.482	594.19
324.71	809.19
324.939	1131.19
325.168	1032.19
325.397	603.19
325.626	478.19
325.855	427.19
326.084	412.19
326.313	421.19
326.542	426.19
326.77	412.19
326.999	469.19
327.228	577.19
327.457	751.19
327.686	878.19
327.914	678.19
328.143	514.19
328.372	476.19
328.6	448.19
328.829	425.19
329.058	432.19
329.287	403.19
329.515	436.19
329.744	431.19
329.972	443.19
330.201	438.19
330.43	445.19
330.658	465.19
330.887	460.19
331.115	463.19
331.344	446.19
331.572	411.19
331.801	448.19
332.03	422.19
332.258	422.19
332.486	414.19
332.715	435.19
332.943	433.19
333.172	450.19
333.4	440.19
333.629	455.19
333.857	471.19
334.085	459.19
334.314	465.19
334.542	480.19
334.771	463.19
334.999	454.19
335.227	467.19
335.455	477.19
335.684	425.19
335.912	416.19
336.14	453.19
336.369	436.19
336.597	410.19
336.825	428.19
337.053	431.19
337.281	418.19
337.51	414.19
337.738	419.19
337.966	415.19
338.194	408.19
338.422	420.19
338.65	406.19
338.878	417.19
339.106	407.19
339.334	430.19
339.562	416.19
339.79	401.19
340.018	401.19
340.246	397.19
340.474	405.19
340.702	389.19
340.93	402.19
341.158	390.19
341.386	402.19
341.614	393.19
341.842	400.19
342.07	386.19
342.298	389.19
342.526	401.19
342.754	396.19
342.981	411.19
343.209	421.19
343.437	399.19
343.665	424.19
343.893	418.19
344.12	430.19
344.348	436.19
344.576	425.19
344.804	438.19
345.031	396.19
345.259	406.19
345.487	406.19
345.714	404.19
345.942	407.19
346.17	397.19
346.397	377.19
346.625	383.19
346.853	387.19
347.08	389.19
347.308	360.19
347.535	387.19
347.763	388.19
347.99	387.19
348.218	366.19
348.445	372.19
348.673	391.19
348.9	386.19
349.128	379.19
349.355	377.19
349.583	380.19
349.81	375.19
350.037	364.19
350.265	380.19
350.492	373.19
350.72	387.19
350.947	380.19
351.174	378.19
351.402	392.19
351.629	378.19
351.856	370.19
352.083	371.19
352.311	393.19
352.538	385.19
352.765	387.19
352.992	379.19
353.22	380.19
353.447	363.19
353.674	358.19
353.901	362.19
354.128	374.19
354.355	362.19
354.583	361.19
354.81	367.19
355.037	376.19
355.264	383.19
355.491	379.19
355.718	378.19
355.945	361.19
356.172	379.19
356.399	361.19
356.626	349.19
356.853	361.19
357.08	364.19
357.307	369.19
357.534	376.19
357.761	376.19
357.988	383.19
358.215	376.19
358.441	385.19
358.668	373.19
358.895	370.19
359.122	371.19
359.349	386.19
359.576	389.19
359.802	391.19
360.029	407.19
360.256	394.19
360.483	395.19
360.709	384.19
360.936	379.19
361.163	376.19
361.39	402.19
361.616	388.19
361.843	386.19
362.07	387.19
362.296	386.19
362.523	371.19
362.749	383.19
362.976	371.19
363.203	378.19
363.429	377.19
363.656	387.19
363.882	384.19
364.109	378.19
364.335	384.19
364.562	374.19
364.788	386.19
365.015	375.19
365.241	372.19
365.468	376.19
365.694	372.19
365.92	370.19
366.147	386.19
366.373	380.19
366.599	370.19
366.826	385.19
367.052	379.19
367.278	375.19
367.505	387.19
367.731	363.19
367.957	372.19
368.184	378.19
368.41	377.19
368.636	378.19
368.862	393.19
369.089	379.19
369.315	412.19
369.541	381.19
369.767	376.19
369.993	379.19
370.219	378.19
370.445	416.19
370.672	373.19
370.898	392.19
371.124	380.19
371.35	407.19
371.576	377.19
371.802	387.19
372.028	375.19
372.254	366.19
372.48	386.19
372.706	390.19
372.932	401.19
373.158	409.19
373.384	404.19
373.61	388.19
373.835	399.19
374.061	400.19
374.287	397.19
374.513	396.19
374.739	407.19
374.965	396.19
375.191	416.19
375.416	393.19
375.642	415.19
375.868	406.19
376.094	397.19
376.319	395.19
376.545	409.19
376.771	404.19
376.997	402.19
377.222	400.19
377.448	393.19
377.674	402.19
377.899	394.19
378.125	392.19
378.35	390.19
378.576	364.19
378.802	386.19
379.027	387.19
379.253	415.19
379.478	370.19
379.704	381.19
379.929	388.19
380.155	418.19
380.38	368.19
380.606	397.19
380.831	377.19
381.057	397.19
381.282	384.19
381.507	396.19
381.733	396.19
381.958	413.19
382.184	392.19
382.409	397.19
382.634	404.19
382.86	416.19
383.085	411.19
383.31	423.19
383.535	394.19
383.761	423.19
383.986	430.19
384.211	425.19
384.436	431.19
384.662	445.19
384.887	430.19
385.112	444.19
385.337	439.19
385.562	434.19
385.787	440.19
386.013	428.19
386.238	440.19
386.463	434.19
386.688	458.19
386.913	457.19
387.138	442.19
387.363	462.19
387.588	431.19
387.813	444.19
388.038	453.19
388.263	431.19
388.488	440.19
388.713	455.19
388.938	452.19
389.163	449.19
389.387	454.19
389.612	439.19
389.837	424.19
390.062	452.19
390.287	452.19
390.512	436.19
390.736	460.19
390.961	435.19
391.186	444.19
391.411	451.19
391.636	440.19
391.86	454.19
392.085	465.19
392.31	464.19
392.534	468.19
392.759	464.19
392.984	466.19
393.208	459.19
393.433	458.19
393.658	473.19
393.882	446.19
394.107	452.19
394.331	475.19
394.556	462.19
394.78	451.19
395.005	478.19
395.229	468.19
395.454	459.19
395.678	475.19
395.903	469.19
396.127	464.19
396.352	497.19
396.576	486.19
396.801	470.19
397.025	471.19
397.249	443.19
397.474	495.19
397.698	484.19
397.922	465.19
398.147	519.19
398.371	505.19
398.595	515.19
398.82	518.19
399.044	546.19
399.268	573.19
399.492	616.19
399.717	646.19
399.941	670.19
400.165	665.19
400.389	640.19
400.613	604.19
400.837	559.19
401.062	544.19
401.286	516.19
401.51	529.19
401.734	514.19
401.958	542.19
402.182	527.19
402.406	516.19
402.63	521.19
402.854	528.19
403.078	519.19
403.302	524.19
403.526	550.19
403.75	540.19
403.974	562.19
404.198	576.19
404.422	566.19
404.645	573.19
404.869	560.19
405.093	605.19
405.317	582.19
405.541	604.19
405.765	588.19
405.988	568.19
406.212	555.19
406.436	558.19
406.66	586.19
406.883	595.19
407.107	582.19
407.331	634.19
407.555	694.19
407.778	688.19
408.002	620.19
408.226	599.19
408.449	582.19
408.673	600.19
408.896	606.19
409.12	603.19
409.344	607.19
409.567	562.19
409.791	560.19
410.014	546.19
410.238	558.19
410.461	545.19
410.685	543.19
410.908	534.19
411.132	559.19
411.355	596.19
411.578	586.19
411.802	534.19
412.025	545.19
412.249	544.19
412.472	549.19
412.695	585.19
412.919	563.19
413.142	558.19
413.365	532.19
413.589	555.19
413.812	517.19
414.035	512.19
414.258	509.19
414.482	536.19
414.705	546.19
414.928	544.19
415.151	515.19
415.374	542.19
415.597	516.19
415.821	514.19
416.044	507.19
416.267	496.19
416.49	512.19
416.713	497.19
416.936	522.19
417.159	521.19
417.382	479.19
417.605	480.19
417.828	512.19
418.051	535.19
418.274	501.19
418.497	482.19
418.72	501.19
418.943	528.19
419.166	551.19
419.389	548.19
419.611	568.19
419.834	538.19
420.057	547.19
420.28	526.19
420.503	514.19
420.726	518.19
420.948	507.19
421.171	553.19
421.394	547.19
421.617	538.19
421.839	527.19
422.062	530.19
422.285	537.19
422.507	559.19
422.73	603.19
422.953	588.19
423.175	573.19
423.398	551.19
423.621	561.19
423.843	544.19
424.066	573.19
424.288	538.19
424.511	579.19
424.733	591.19
424.956	626.19
425.178	635.19
425.401	622.19
425.623	614.19
425.846	569.19
426.068	530.19
426.291	542.19
426.513	535.19
426.735	528.19
426.958	533.19
427.18	584.19
427.402	682.19
427.625	730.19
427.847	622.19
428.069	576.19
428.292	520.19
428.514	500.19
428.736	502.19
428.958	496.19
429.181	485.19
429.403	478.19
429.625	503.19
429.847	497.19
430.069	532.19
430.292	571.19
430.514	499.19
430.736	497.19
430.958	501.19
431.18	494.19
431.402	451.19
431.624	484.19
431.846	471.19
432.068	479.19
432.29	482.19
432.512	468.19
432.734	469.19
432.956	470.19
433.178	466.19
433.4	498.19
433.622	457.19
433.844	463.19
434.066	475.19
434.287	457.19
434.509	481.19
434.731	494.19
434.953	503.19
435.175	502.19
435.397	543.19
435.618	534.19
435.84	540.19
436.062	620.19
436.284	634.19
436.505	575.19
436.727	512.19
436.949	499.19
437.17	497.19
437.392	482.19
437.614	473.19
437.835	491.19
438.057	551.19
438.278	612.19
438.5	643.19
438.721	674.19
438.943	652.19
439.165	568.19
439.386	518.19
439.608	520.19
439.829	513.19
440.05	540.19
440.272	539.19
440.493	524.19
440.715	502.19
440.936	508.19
441.158	491.19
441.379	481.19
441.6	512.19
441.822	504.19
442.043	580.19
442.264	601.19
442.486	622.19
442.707	563.19
442.928	544.19
443.149	510.19
443.371	529.19
443.592	571.19
443.813	607.19
444.034	680.19
444.255	605.19
444.476	574.19
444.698	583.19
444.919	586.19
445.14	684.19
445.361	593.19
445.582	560.19
445.803	589.19
446.024	626.19
446.245	647.19
446.466	617.19
446.687	550.19
446.908	522.19
447.129	487.19
447.35	479.19
447.571	479.19
447.792	473.19
448.013	458.19
448.234	473.19
448.455	519.19
448.675	589.19
448.896	634.19
449.117	586.19
449.338	562.19
449.559	612.19
449.779	693.19
450	570.19
450.221	516.19
450.442	474.19
450.662	459.19
450.883	455.19
451.104	471.19
451.324	473.19
451.545	443.19
451.766	451.19
451.986	432.19
452.207	417.19
452.428	415.19
452.648	420.19
452.869	438.19
453.089	432.19
453.31	441.19
453.53	435.19
453.751	449.19
453.971	427.19
454.192	440.19
454.412	422.19
454.633	434.19
454.853	435.19
455.073	409.19
455.294	432.19
455.514	483.19
455.734	459.19
455.955	449.19
456.175	410.19
456.395	411.19
456.616	409.19
456.836	415.19
457.056	428.19
457.276	421.19
457.497	411.19
457.717	432.19
457.937	422.19
458.157	436.19
458.377	455.19
458.598	464.19
458.818	477.19
459.038	508.19
459.258	514.19
459.478	489.19
459.698	489.19
459.918	489.19
460.138	519.19
460.358	534.19
460.578	494.19
460.798	520.19
461.018	523.19
461.238	521.19
461.458	521.19
461.678	521.19
461.898	523.19
462.118	515.19
462.338	541.19
462.558	546.19
462.777	574.19
462.997	581.19
463.217	625.19
463.437	608.19
463.657	594.19
463.876	563.19
464.096	568.19
464.316	566.19
464.536	581.19
464.755	568.19
464.975	543.19
465.195	550.19
465.414	532.19
465.634	520.19
465.854	511.19
466.073	492.19
466.293	474.19
466.512	468.19
466.732	434.19
466.951	454.19
467.171	443.19
467.391	469.19
467.61	463.19
467.829	452.19
468.049	459.19
468.268	449.19
468.488	466.19
468.707	464.19
468.927	453.19
469.146	443.19
469.365	463.19
469.585	433.19
469.804	479.19
470.023	488.19
470.243	470.19
470.462	460.19
470.681	486.19
470.901	467.19
471.12	470.19
471.339	456.19
471.558	464.19
471.777	464.19
471.997	452.19
472.216	449.19
472.435	474.19
472.654	474.19
472.873	460.19
473.092	450.19
473.311	467.19
473.53	449.19
473.749	464.19
473.968	480.19
474.187	515.19
474.406	539.19
474.625	476.19
474.844	433.19
475.063	467.19
475.282	479.19
475.501	472.19
475.72	451.19
475.939	477.19
476.158	467.19
476.377	464.19
476.596	473.19
476.814	481.19
477.033	510.19
477.252	516.19
477.471	495.19
477.69	518.19
477.908	519.19
478.127	523.19
478.346	512.19
478.564	513.19
478.783	539.19
479.002	526.19
479.22	558.19
479.439	547.19
479.658	548.19
479.876	545.19
480.095	566.19
480.313	578.19
480.532	555.19
480.751	566.19
480.969	562.19
481.188	597.19
481.406	598.19
481.624	568.19
481.843	543.19
482.061	544.19
482.28	534.19
482.498	544.19
482.717	537.19
482.935	542.19
483.153	537.19
483.372	528.19
483.59	535.19
483.808	529.19
484.027	540.19
484.245	537.19
484.463	512.19
484.681	544.19
484.9	536.19
485.118	540.19
485.336	555.19
485.554	540.19
485.772	570.19
485.99	544.19
486.209	545.19
486.427	568.19
486.645	574.19
486.863	552.19
487.081	567.19
487.299	570.19
487.517	569.19
487.735	565.19
487.953	571.19
488.171	524.19
488.389	567.19
488.607	569.19
488.825	544.19
489.043	559.19
489.261	564.19
489.479	571.19
489.696	575.19
489.914	579.19
490.132	575.19
490.35	580.19
490.568	593.19
490.786	602.19
491.003	592.19
491.221	600.19
491.439	596.19
491.657	614.19
491.874	610.19
492.092	604.19
492.31	595.19
492.527	609.19
492.745	640.19
492.963	626.19
493.18	625.19
493.398	637.19
493.615	662.19
493.833	624.19
494.05	636.19
494.268	647.19
494.485	622.19
494.703	632.19
494.92	632.19
495.138	638.19
495.355	638.19
495.573	661.19
495.79	624.19
496.008	654.19
496.225	668.19
496.442	658.19
496.66	649.19
496.877	651.19
497.094	666.19
497.312	658.19
497.529	702.19
497.746	676.19
497.963	705.19
498.181	727.19
498.398	745.19
498.615	766.19
498.832	791.19
499.049	823.19
499.267	839.19
499.484	910.19
499.701	926.19
499.918	1018.19
500.135	1081.19
500.352	1176.19
500.569	1203.19
500.786	1212.19
501.003	1167.19
501.22	1074.19
501.437	1007.19
501.654	964.19
501.871	917.19
