Data from 1962.PennyLincolnUp.Lamp.En5.5.200Scan.071719.P1._HRD10591_13-53-53-060.txt Node
Date: Thu Jul 18 13:53:53 EDT 2019
User: cochatt
Spectrometer: HR+D1059
Trigger mode: 1
Integration Time (sec): 1.000000E-1
Scans to average: 1
Electric dark correction enabled: true
Nonlinearity correction enabled: false
Boxcar width: 0
XAxis mode: Wavelengths
Number of Pixels in Spectrum: 2048
>>>>>Begin Spectral Data<<<<<
223.165	-3.25
223.4	-3.25
223.635	-3.25
223.869	-11.25
224.104	-34.25
224.338	-10.25
224.573	-22.25
224.808	-8.25
225.042	-20.25
225.277	-3.25
225.511	-10.25
225.746	2.75
225.98	12.75
226.215	5.75
226.449	2.75
226.683	26.75
226.918	37.75
227.152	34.75
227.387	37.75
227.621	44.75
227.856	42.75
228.09	57.75
228.324	37.75
228.559	30.75
228.793	63.75
229.027	79.75
229.262	96.75
229.496	105.75
229.73	132.75
229.964	121.75
230.199	107.75
230.433	110.75
230.667	104.75
230.901	106.75
231.136	109.75
231.37	99.75
231.604	106.75
231.838	100.75
232.072	106.75
232.306	118.75
232.541	121.75
232.775	112.75
233.009	114.75
233.243	105.75
233.477	104.75
233.711	112.75
233.945	110.75
234.179	108.75
234.413	116.75
234.647	114.75
234.881	123.75
235.115	102.75
235.349	116.75
235.583	115.75
235.817	105.75
236.051	115.75
236.285	128.75
236.519	101.75
236.753	142.75
236.987	141.75
237.221	142.75
237.455	172.75
237.689	144.75
237.922	133.75
238.156	113.75
238.39	120.75
238.624	119.75
238.858	126.75
239.091	105.75
239.325	132.75
239.559	131.75
239.793	113.75
240.027	124.75
240.26	119.75
240.494	135.75
240.728	131.75
240.961	140.75
241.195	128.75
241.429	133.75
241.662	128.75
241.896	122.75
242.13	129.75
242.363	122.75
242.597	135.75
242.83	124.75
243.064	124.75
243.298	140.75
243.531	124.75
243.765	152.75
243.998	140.75
244.232	126.75
244.465	124.75
244.699	133.75
244.932	152.75
245.166	145.75
245.399	138.75
245.633	149.75
245.866	152.75
246.099	138.75
246.333	142.75
246.566	149.75
246.8	129.75
247.033	130.75
247.266	147.75
247.5	143.75
247.733	154.75
247.966	150.75
248.2	173.75
248.433	162.75
248.666	147.75
248.899	143.75
249.133	163.75
249.366	154.75
249.599	180.75
249.832	181.75
250.066	153.75
250.299	178.75
250.532	153.75
250.765	168.75
250.998	168.75
251.231	188.75
251.465	184.75
251.698	171.75
251.931	168.75
252.164	187.75
252.397	170.75
252.63	163.75
252.863	186.75
253.096	180.75
253.329	203.75
253.562	191.75
253.795	182.75
254.028	205.75
254.261	182.75
254.494	200.75
254.727	226.75
254.96	233.75
255.193	227.75
255.426	201.75
255.659	210.75
255.892	216.75
256.124	205.75
256.357	208.75
256.59	189.75
256.823	189.75
257.056	187.75
257.289	190.75
257.521	211.75
257.754	180.75
257.987	206.75
258.22	195.75
258.452	199.75
258.685	196.75
258.918	181.75
259.151	185.75
259.383	210.75
259.616	202.75
259.849	195.75
260.081	208.75
260.314	213.75
260.547	217.75
260.779	224.75
261.012	219.75
261.244	194.75
261.477	206.75
261.71	213.75
261.942	202.75
262.175	216.75
262.407	206.75
262.64	212.75
262.872	186.75
263.105	204.75
263.337	192.75
263.57	187.75
263.802	215.75
264.035	186.75
264.267	208.75
264.499	222.75
264.732	203.75
264.964	202.75
265.197	199.75
265.429	207.75
265.661	216.75
265.894	204.75
266.126	215.75
266.358	202.75
266.591	215.75
266.823	204.75
267.055	207.75
267.287	221.75
267.52	217.75
267.752	230.75
267.984	230.75
268.216	218.75
268.448	220.75
268.681	210.75
268.913	256.75
269.145	234.75
269.377	234.75
269.609	246.75
269.841	230.75
270.073	218.75
270.306	245.75
270.538	282.75
270.77	266.75
271.002	268.75
271.234	260.75
271.466	263.75
271.698	253.75
271.93	260.75
272.162	275.75
272.394	262.75
272.626	254.75
272.858	255.75
273.09	276.75
273.322	256.75
273.553	260.75
273.785	256.75
274.017	248.75
274.249	245.75
274.481	269.75
274.713	267.75
274.945	239.75
275.176	237.75
275.408	250.75
275.64	243.75
275.872	245.75
276.104	251.75
276.335	255.75
276.567	249.75
276.799	274.75
277.031	268.75
277.262	265.75
277.494	282.75
277.726	261.75
277.957	272.75
278.189	272.75
278.421	249.75
278.652	251.75
278.884	281.75
279.115	253.75
279.347	244.75
279.579	250.75
279.81	280.75
280.042	273.75
280.273	257.75
280.505	272.75
280.736	260.75
280.968	247.75
281.199	262.75
281.431	266.75
281.662	272.75
281.894	267.75
282.125	280.75
282.356	264.75
282.588	281.75
282.819	275.75
283.051	280.75
283.282	262.75
283.513	246.75
283.745	271.75
283.976	286.75
284.207	283.75
284.439	274.75
284.67	285.75
284.901	280.75
285.132	283.75
285.364	270.75
285.595	293.75
285.826	294.75
286.057	276.75
286.288	268.75
286.52	286.75
286.751	249.75
286.982	288.75
287.213	284.75
287.444	280.75
287.675	274.75
287.906	304.75
288.138	298.75
288.369	278.75
288.6	292.75
288.831	302.75
289.062	310.75
289.293	312.75
289.524	278.75
289.755	301.75
289.986	282.75
290.217	294.75
290.448	284.75
290.679	288.75
290.91	300.75
291.141	293.75
291.371	272.75
291.602	289.75
291.833	312.75
292.064	298.75
292.295	309.75
292.526	304.75
292.757	294.75
292.987	295.75
293.218	300.75
293.449	305.75
293.68	300.75
293.91	300.75
294.141	296.75
294.372	292.75
294.603	295.75
294.833	299.75
295.064	308.75
295.295	298.75
295.525	290.75
295.756	297.75
295.987	293.75
296.217	345.75
296.448	334.75
296.679	291.75
296.909	288.75
297.14	309.75
297.37	296.75
297.601	297.75
297.831	309.75
298.062	308.75
298.292	318.75
298.523	321.75
298.753	338.75
298.984	315.75
299.214	283.75
299.445	325.75
299.675	314.75
299.905	324.75
300.136	318.75
300.366	321.75
300.597	281.75
300.827	310.75
301.057	324.75
301.288	328.75
301.518	334.75
301.748	326.75
301.979	353.75
302.209	340.75
302.439	324.75
302.669	329.75
302.9	338.75
303.13	313.75
303.36	335.75
303.59	342.75
303.82	326.75
304.051	348.75
304.281	333.75
304.511	328.75
304.741	331.75
304.971	334.75
305.201	337.75
305.431	330.75
305.661	323.75
305.891	324.75
306.121	331.75
306.352	309.75
306.582	347.75
306.812	320.75
307.042	317.75
307.272	331.75
307.502	325.75
307.731	329.75
307.961	329.75
308.191	328.75
308.421	336.75
308.651	330.75
308.881	325.75
309.111	325.75
309.341	326.75
309.571	338.75
309.8	357.75
310.03	327.75
310.26	333.75
310.49	335.75
310.72	351.75
310.949	347.75
311.179	347.75
311.409	345.75
311.639	347.75
311.868	347.75
312.098	383.75
312.328	386.75
312.557	390.75
312.787	374.75
313.017	369.75
313.246	377.75
313.476	361.75
313.706	359.75
313.935	371.75
314.165	372.75
314.394	371.75
314.624	375.75
314.853	376.75
315.083	371.75
315.312	360.75
315.542	354.75
315.771	349.75
316.001	371.75
316.23	372.75
316.46	357.75
316.689	370.75
316.919	365.75
317.148	378.75
317.377	382.75
317.607	362.75
317.836	368.75
318.065	368.75
318.295	373.75
318.524	370.75
318.753	379.75
318.983	368.75
319.212	375.75
319.441	357.75
319.67	361.75
319.9	363.75
320.129	353.75
320.358	372.75
320.587	378.75
320.816	378.75
321.046	373.75
321.275	385.75
321.504	364.75
321.733	379.75
321.962	376.75
322.191	384.75
322.42	370.75
322.649	385.75
322.878	409.75
323.108	388.75
323.337	418.75
323.566	454.75
323.795	444.75
324.024	448.75
324.253	541.75
324.482	666.75
324.71	940.75
324.939	1315.75
325.168	1145.75
325.397	660.75
325.626	504.75
325.855	451.75
326.084	438.75
326.313	442.75
326.542	444.75
326.77	454.75
326.999	509.75
327.228	641.75
327.457	876.75
327.686	1061.75
327.914	730.75
328.143	532.75
328.372	498.75
328.6	474.75
328.829	469.75
329.058	466.75
329.287	457.75
329.515	459.75
329.744	435.75
329.972	443.75
330.201	459.75
330.43	469.75
330.658	475.75
330.887	484.75
331.115	476.75
331.344	469.75
331.572	444.75
331.801	438.75
332.03	464.75
332.258	441.75
332.486	437.75
332.715	443.75
332.943	444.75
333.172	443.75
333.4	462.75
333.629	466.75
333.857	462.75
334.085	486.75
334.314	505.75
334.542	477.75
334.771	498.75
334.999	501.75
335.227	459.75
335.455	463.75
335.684	440.75
335.912	460.75
336.14	425.75
336.369	446.75
336.597	444.75
336.825	435.75
337.053	449.75
337.281	447.75
337.51	418.75
337.738	426.75
337.966	439.75
338.194	434.75
338.422	436.75
338.65	444.75
338.878	420.75
339.106	426.75
339.334	421.75
339.562	421.75
339.79	429.75
340.018	413.75
340.246	418.75
340.474	413.75
340.702	404.75
340.93	416.75
341.158	408.75
341.386	419.75
341.614	410.75
341.842	421.75
342.07	395.75
342.298	415.75
342.526	419.75
342.754	394.75
342.981	410.75
343.209	416.75
343.437	397.75
343.665	423.75
343.893	453.75
344.12	448.75
344.348	455.75
344.576	436.75
344.804	426.75
345.031	432.75
345.259	418.75
345.487	415.75
345.714	398.75
345.942	432.75
346.17	400.75
346.397	402.75
346.625	389.75
346.853	393.75
347.08	396.75
347.308	410.75
347.535	423.75
347.763	404.75
347.99	422.75
348.218	423.75
348.445	378.75
348.673	380.75
348.9	388.75
349.128	397.75
349.355	389.75
349.583	381.75
349.81	378.75
350.037	361.75
350.265	413.75
350.492	394.75
350.72	394.75
350.947	405.75
351.174	392.75
351.402	404.75
351.629	393.75
351.856	395.75
352.083	399.75
352.311	415.75
352.538	387.75
352.765	392.75
352.992	410.75
353.22	378.75
353.447	398.75
353.674	398.75
353.901	395.75
354.128	407.75
354.355	377.75
354.583	400.75
354.81	372.75
355.037	391.75
355.264	384.75
355.491	386.75
355.718	375.75
355.945	372.75
356.172	380.75
356.399	380.75
356.626	383.75
356.853	380.75
357.08	394.75
357.307	394.75
357.534	395.75
357.761	398.75
357.988	385.75
358.215	384.75
358.441	380.75
358.668	386.75
358.895	390.75
359.122	389.75
359.349	389.75
359.576	388.75
359.802	402.75
360.029	416.75
360.256	414.75
360.483	414.75
360.709	398.75
360.936	402.75
361.163	393.75
361.39	389.75
361.616	408.75
361.843	388.75
362.07	404.75
362.296	391.75
362.523	398.75
362.749	378.75
362.976	410.75
363.203	394.75
363.429	368.75
363.656	403.75
363.882	369.75
364.109	407.75
364.335	397.75
364.562	391.75
364.788	408.75
365.015	391.75
365.241	376.75
365.468	388.75
365.694	371.75
365.92	382.75
366.147	382.75
366.373	395.75
366.599	385.75
366.826	380.75
367.052	404.75
367.278	393.75
367.505	380.75
367.731	386.75
367.957	395.75
368.184	384.75
368.41	384.75
368.636	393.75
368.862	388.75
369.089	405.75
369.315	389.75
369.541	389.75
369.767	390.75
369.993	387.75
370.219	396.75
370.445	382.75
370.672	378.75
370.898	386.75
371.124	405.75
371.35	372.75
371.576	426.75
371.802	397.75
372.028	396.75
372.254	424.75
372.48	385.75
372.706	404.75
372.932	404.75
373.158	402.75
373.384	403.75
373.61	409.75
373.835	405.75
374.061	398.75
374.287	415.75
374.513	417.75
374.739	421.75
374.965	427.75
375.191	418.75
375.416	428.75
375.642	392.75
375.868	424.75
376.094	412.75
376.319	410.75
376.545	405.75
376.771	412.75
376.997	396.75
377.222	393.75
377.448	376.75
377.674	403.75
377.899	399.75
378.125	399.75
378.35	383.75
378.576	395.75
378.802	417.75
379.027	377.75
379.253	399.75
379.478	390.75
379.704	384.75
379.929	401.75
380.155	426.75
380.38	421.75
380.606	390.75
380.831	399.75
381.057	382.75
381.282	405.75
381.507	403.75
381.733	406.75
381.958	403.75
382.184	400.75
382.409	406.75
382.634	411.75
382.86	411.75
383.085	420.75
383.31	427.75
383.535	430.75
383.761	429.75
383.986	429.75
384.211	433.75
384.436	428.75
384.662	448.75
384.887	425.75
385.112	443.75
385.337	454.75
385.562	445.75
385.787	453.75
386.013	451.75
386.238	460.75
386.463	466.75
386.688	461.75
386.913	448.75
387.138	460.75
387.363	443.75
387.588	443.75
387.813	460.75
388.038	456.75
388.263	439.75
388.488	437.75
388.713	472.75
388.938	430.75
389.163	460.75
389.387	458.75
389.612	455.75
389.837	458.75
390.062	443.75
390.287	455.75
390.512	448.75
390.736	444.75
390.961	461.75
391.186	443.75
391.411	469.75
391.636	461.75
391.86	467.75
392.085	504.75
392.31	459.75
392.534	484.75
392.759	476.75
392.984	453.75
393.208	466.75
393.433	472.75
393.658	460.75
393.882	469.75
394.107	461.75
394.331	485.75
394.556	460.75
394.78	461.75
395.005	480.75
395.229	477.75
395.454	480.75
395.678	472.75
395.903	460.75
396.127	502.75
396.352	516.75
396.576	484.75
396.801	468.75
397.025	499.75
397.249	474.75
397.474	471.75
397.698	480.75
397.922	484.75
398.147	504.75
398.371	522.75
398.595	523.75
398.82	532.75
399.044	549.75
399.268	581.75
399.492	616.75
399.717	665.75
399.941	658.75
400.165	674.75
400.389	645.75
400.613	611.75
400.837	567.75
401.062	550.75
401.286	578.75
401.51	538.75
401.734	560.75
401.958	540.75
402.182	537.75
402.406	555.75
402.63	521.75
402.854	551.75
403.078	534.75
403.302	550.75
403.526	561.75
403.75	562.75
403.974	544.75
404.198	564.75
404.422	595.75
404.645	569.75
404.869	591.75
405.093	606.75
405.317	625.75
405.541	662.75
405.765	614.75
405.988	579.75
406.212	587.75
406.436	569.75
406.66	581.75
406.883	585.75
407.107	634.75
407.331	674.75
407.555	707.75
407.778	737.75
408.002	665.75
408.226	638.75
408.449	607.75
408.673	598.75
408.896	634.75
409.12	635.75
409.344	610.75
409.567	561.75
409.791	582.75
410.014	567.75
410.238	580.75
410.461	550.75
410.685	566.75
410.908	551.75
411.132	601.75
411.355	609.75
411.578	605.75
411.802	546.75
412.025	560.75
412.249	577.75
412.472	580.75
412.695	617.75
412.919	589.75
413.142	554.75
413.365	538.75
413.589	524.75
413.812	541.75
414.035	547.75
414.258	539.75
414.482	536.75
414.705	524.75
414.928	512.75
415.151	524.75
415.374	519.75
415.597	526.75
415.821	531.75
416.044	508.75
416.267	500.75
416.49	525.75
416.713	536.75
416.936	518.75
417.159	520.75
417.382	523.75
417.605	511.75
417.828	528.75
418.051	549.75
418.274	528.75
418.497	532.75
418.72	520.75
418.943	527.75
419.166	542.75
419.389	582.75
419.611	582.75
419.834	553.75
420.057	549.75
420.28	551.75
420.503	554.75
420.726	520.75
420.948	527.75
421.171	572.75
421.394	580.75
421.617	558.75
421.839	562.75
422.062	522.75
422.285	526.75
422.507	560.75
422.73	626.75
422.953	608.75
423.175	566.75
423.398	538.75
423.621	548.75
423.843	567.75
424.066	584.75
424.288	577.75
424.511	570.75
424.733	596.75
424.956	656.75
425.178	619.75
425.401	644.75
425.623	663.75
425.846	576.75
426.068	570.75
426.291	538.75
426.513	542.75
426.735	553.75
426.958	575.75
427.18	623.75
427.402	713.75
427.625	760.75
427.847	673.75
428.069	597.75
428.292	574.75
428.514	513.75
428.736	526.75
428.958	529.75
429.181	504.75
429.403	512.75
429.625	510.75
429.847	510.75
430.069	569.75
430.292	544.75
430.514	512.75
430.736	504.75
430.958	517.75
431.18	492.75
431.402	496.75
431.624	486.75
431.846	506.75
432.068	491.75
432.29	516.75
432.512	493.75
432.734	495.75
432.956	490.75
433.178	499.75
433.4	508.75
433.622	488.75
433.844	498.75
434.066	474.75
434.287	490.75
434.509	506.75
434.731	502.75
434.953	554.75
435.175	552.75
435.397	574.75
435.618	549.75
435.84	578.75
436.062	635.75
436.284	670.75
436.505	618.75
436.727	553.75
436.949	515.75
437.17	484.75
437.392	504.75
437.614	503.75
437.835	520.75
438.057	591.75
438.278	651.75
438.5	649.75
438.721	719.75
438.943	674.75
439.165	582.75
439.386	518.75
439.608	505.75
439.829	525.75
440.05	535.75
440.272	558.75
440.493	565.75
440.715	525.75
440.936	530.75
441.158	516.75
441.379	510.75
441.6	534.75
441.822	555.75
442.043	573.75
442.264	631.75
442.486	653.75
442.707	575.75
442.928	555.75
443.149	551.75
443.371	550.75
443.592	610.75
443.813	657.75
444.034	739.75
444.255	605.75
444.476	578.75
444.698	581.75
444.919	594.75
445.14	717.75
445.361	644.75
445.582	601.75
445.803	606.75
446.024	664.75
446.245	658.75
446.466	635.75
446.687	547.75
446.908	557.75
447.129	502.75
447.35	516.75
447.571	512.75
447.792	493.75
448.013	494.75
448.234	502.75
448.455	538.75
448.675	582.75
448.896	701.75
449.117	585.75
449.338	582.75
449.559	656.75
449.779	718.75
450	582.75
450.221	510.75
450.442	483.75
450.662	490.75
450.883	496.75
451.104	491.75
451.324	499.75
451.545	493.75
451.766	467.75
451.986	456.75
452.207	436.75
452.428	450.75
452.648	472.75
452.869	449.75
453.089	437.75
453.31	458.75
453.53	462.75
453.751	443.75
453.971	443.75
454.192	449.75
454.412	456.75
454.633	444.75
454.853	445.75
455.073	448.75
455.294	437.75
455.514	512.75
455.734	508.75
455.955	435.75
456.175	442.75
456.395	421.75
456.616	442.75
456.836	429.75
457.056	429.75
457.276	419.75
457.497	454.75
457.717	426.75
457.937	434.75
458.157	454.75
458.377	453.75
458.598	465.75
458.818	492.75
459.038	532.75
459.258	550.75
459.478	533.75
459.698	505.75
459.918	507.75
460.138	527.75
460.358	527.75
460.578	512.75
460.798	546.75
461.018	542.75
461.238	519.75
461.458	535.75
461.678	516.75
461.898	544.75
462.118	529.75
462.338	561.75
462.558	559.75
462.777	544.75
462.997	582.75
463.217	602.75
463.437	621.75
463.657	599.75
463.876	578.75
464.096	589.75
464.316	553.75
464.536	580.75
464.755	594.75
464.975	578.75
465.195	573.75
465.414	573.75
465.634	549.75
465.854	521.75
466.073	501.75
466.293	501.75
466.512	492.75
466.732	463.75
466.951	496.75
467.171	483.75
467.391	475.75
467.61	494.75
467.829	482.75
468.049	468.75
468.268	481.75
468.488	455.75
468.707	456.75
468.927	472.75
469.146	459.75
469.365	452.75
469.585	470.75
469.804	472.75
470.023	474.75
470.243	484.75
470.462	478.75
470.681	487.75
470.901	503.75
471.12	476.75
471.339	489.75
471.558	469.75
471.777	492.75
471.997	474.75
472.216	474.75
472.435	492.75
472.654	477.75
472.873	473.75
473.092	475.75
473.311	470.75
473.53	464.75
473.749	470.75
473.968	467.75
474.187	542.75
474.406	563.75
474.625	491.75
474.844	500.75
475.063	477.75
475.282	493.75
475.501	481.75
475.72	501.75
475.939	494.75
476.158	471.75
476.377	484.75
476.596	482.75
476.814	493.75
477.033	511.75
477.252	496.75
477.471	519.75
477.69	514.75
477.908	523.75
478.127	520.75
478.346	533.75
478.564	541.75
478.783	534.75
479.002	528.75
479.22	580.75
479.439	555.75
479.658	556.75
479.876	568.75
480.095	582.75
480.313	587.75
480.532	584.75
480.751	594.75
480.969	588.75
481.188	634.75
481.406	618.75
481.624	573.75
481.843	565.75
482.061	562.75
482.28	546.75
482.498	558.75
482.717	543.75
482.935	566.75
483.153	562.75
483.372	528.75
483.59	548.75
483.808	536.75
484.027	550.75
484.245	551.75
484.463	542.75
484.681	549.75
484.9	565.75
485.118	572.75
485.336	548.75
485.554	584.75
485.772	572.75
485.99	571.75
486.209	569.75
486.427	557.75
486.645	568.75
486.863	565.75
487.081	568.75
487.299	573.75
487.517	601.75
487.735	593.75
487.953	580.75
488.171	576.75
488.389	590.75
488.607	577.75
488.825	599.75
489.043	577.75
489.261	602.75
489.479	559.75
489.696	600.75
489.914	591.75
490.132	611.75
490.35	580.75
490.568	601.75
490.786	605.75
491.003	609.75
491.221	632.75
491.439	628.75
491.657	612.75
491.874	626.75
492.092	666.75
492.31	626.75
492.527	631.75
492.745	636.75
492.963	673.75
493.18	631.75
493.398	645.75
493.615	654.75
493.833	655.75
494.05	652.75
494.268	631.75
494.485	649.75
494.703	636.75
494.92	647.75
495.138	634.75
495.355	669.75
495.573	661.75
495.79	645.75
496.008	655.75
496.225	656.75
496.442	691.75
496.66	684.75
496.877	668.75
497.094	687.75
497.312	693.75
497.529	701.75
497.746	716.75
497.963	716.75
498.181	760.75
498.398	755.75
498.615	776.75
498.832	816.75
499.049	851.75
499.267	902.75
499.484	945.75
499.701	978.75
499.918	1042.75
500.135	1129.75
500.352	1134.75
500.569	1232.75
500.786	1219.75
501.003	1193.75
501.22	1116.75
501.437	1034.75
501.654	1007.75
501.871	954.75
