Data from 1962.PennyLincolnUp.Lamp.En5.5.200Scan.071719.P1._HRD10591_13-53-49-060.txt Node
Date: Thu Jul 18 13:53:49 EDT 2019
User: cochatt
Spectrometer: HR+D1059
Trigger mode: 1
Integration Time (sec): 1.000000E-1
Scans to average: 1
Electric dark correction enabled: true
Nonlinearity correction enabled: false
Boxcar width: 0
XAxis mode: Wavelengths
Number of Pixels in Spectrum: 2048
>>>>>Begin Spectral Data<<<<<
223.165	-8.81
223.4	-8.81
223.635	-8.81
223.869	-4.81
224.104	-17.81
224.338	-21.81
224.573	-11.81
224.808	-17.81
225.042	-8.81
225.277	-11.81
225.511	1.19
225.746	-1.81
225.98	7.19
226.215	9.19
226.449	11.19
226.683	16.19
226.918	36.19
227.152	24.19
227.387	41.19
227.621	36.19
227.856	42.19
228.09	37.19
228.324	54.19
228.559	72.19
228.793	68.19
229.027	80.19
229.262	83.19
229.496	93.19
229.73	125.19
229.964	121.19
230.199	110.19
230.433	107.19
230.667	108.19
230.901	111.19
231.136	124.19
231.37	103.19
231.604	110.19
231.838	118.19
232.072	121.19
232.306	109.19
232.541	102.19
232.775	102.19
233.009	100.19
233.243	109.19
233.477	101.19
233.711	103.19
233.945	110.19
234.179	117.19
234.413	111.19
234.647	121.19
234.881	110.19
235.115	116.19
235.349	110.19
235.583	100.19
235.817	123.19
236.051	115.19
236.285	112.19
236.519	128.19
236.753	110.19
236.987	126.19
237.221	147.19
237.455	168.19
237.689	143.19
237.922	135.19
238.156	133.19
238.39	121.19
238.624	118.19
238.858	124.19
239.091	114.19
239.325	121.19
239.559	127.19
239.793	121.19
240.027	115.19
240.26	129.19
240.494	148.19
240.728	136.19
240.961	133.19
241.195	146.19
241.429	129.19
241.662	129.19
241.896	132.19
242.13	121.19
242.363	131.19
242.597	121.19
242.83	135.19
243.064	133.19
243.298	131.19
243.531	129.19
243.765	118.19
243.998	134.19
244.232	128.19
244.465	136.19
244.699	137.19
244.932	139.19
245.166	136.19
245.399	153.19
245.633	143.19
245.866	139.19
246.099	144.19
246.333	144.19
246.566	149.19
246.8	132.19
247.033	134.19
247.266	142.19
247.5	151.19
247.733	158.19
247.966	155.19
248.2	162.19
248.433	137.19
248.666	145.19
248.899	175.19
249.133	183.19
249.366	175.19
249.599	166.19
249.832	164.19
250.066	172.19
250.299	162.19
250.532	175.19
250.765	193.19
250.998	191.19
251.231	195.19
251.465	190.19
251.698	165.19
251.931	187.19
252.164	171.19
252.397	187.19
252.63	179.19
252.863	169.19
253.096	182.19
253.329	189.19
253.562	191.19
253.795	197.19
254.028	189.19
254.261	173.19
254.494	208.19
254.727	200.19
254.96	215.19
255.193	220.19
255.426	204.19
255.659	188.19
255.892	226.19
256.124	191.19
256.357	179.19
256.59	186.19
256.823	186.19
257.056	202.19
257.289	169.19
257.521	197.19
257.754	209.19
257.987	199.19
258.22	189.19
258.452	181.19
258.685	198.19
258.918	186.19
259.151	189.19
259.383	201.19
259.616	197.19
259.849	214.19
260.081	188.19
260.314	206.19
260.547	195.19
260.779	205.19
261.012	208.19
261.244	205.19
261.477	200.19
261.71	198.19
261.942	190.19
262.175	211.19
262.407	217.19
262.64	201.19
262.872	204.19
263.105	215.19
263.337	193.19
263.57	194.19
263.802	215.19
264.035	207.19
264.267	203.19
264.499	203.19
264.732	187.19
264.964	206.19
265.197	206.19
265.429	188.19
265.661	210.19
265.894	206.19
266.126	191.19
266.358	204.19
266.591	217.19
266.823	206.19
267.055	195.19
267.287	208.19
267.52	209.19
267.752	205.19
267.984	216.19
268.216	213.19
268.448	230.19
268.681	213.19
268.913	218.19
269.145	240.19
269.377	238.19
269.609	255.19
269.841	244.19
270.073	249.19
270.306	253.19
270.538	253.19
270.77	265.19
271.002	265.19
271.234	250.19
271.466	248.19
271.698	267.19
271.93	268.19
272.162	274.19
272.394	287.19
272.626	262.19
272.858	269.19
273.09	259.19
273.322	226.19
273.553	253.19
273.785	226.19
274.017	239.19
274.249	249.19
274.481	263.19
274.713	254.19
274.945	253.19
275.176	241.19
275.408	252.19
275.64	227.19
275.872	255.19
276.104	262.19
276.335	244.19
276.567	241.19
276.799	254.19
277.031	268.19
277.262	279.19
277.494	281.19
277.726	271.19
277.957	269.19
278.189	279.19
278.421	257.19
278.652	245.19
278.884	262.19
279.115	267.19
279.347	260.19
279.579	243.19
279.81	268.19
280.042	266.19
280.273	276.19
280.505	257.19
280.736	252.19
280.968	280.19
281.199	255.19
281.431	279.19
281.662	285.19
281.894	275.19
282.125	262.19
282.356	272.19
282.588	288.19
282.819	273.19
283.051	277.19
283.282	281.19
283.513	277.19
283.745	272.19
283.976	281.19
284.207	278.19
284.439	262.19
284.67	272.19
284.901	264.19
285.132	275.19
285.364	261.19
285.595	285.19
285.826	293.19
286.057	284.19
286.288	289.19
286.52	278.19
286.751	271.19
286.982	278.19
287.213	287.19
287.444	266.19
287.675	276.19
287.906	263.19
288.138	292.19
288.369	302.19
288.6	283.19
288.831	298.19
289.062	292.19
289.293	305.19
289.524	282.19
289.755	288.19
289.986	302.19
290.217	294.19
290.448	282.19
290.679	303.19
290.91	298.19
291.141	274.19
291.371	279.19
291.602	293.19
291.833	296.19
292.064	314.19
292.295	310.19
292.526	280.19
292.757	296.19
292.987	280.19
293.218	294.19
293.449	293.19
293.68	302.19
293.91	302.19
294.141	313.19
294.372	291.19
294.603	297.19
294.833	278.19
295.064	319.19
295.295	309.19
295.525	301.19
295.756	301.19
295.987	285.19
296.217	299.19
296.448	316.19
296.679	309.19
296.909	292.19
297.14	303.19
297.37	307.19
297.601	315.19
297.831	294.19
298.062	311.19
298.292	325.19
298.523	303.19
298.753	313.19
298.984	322.19
299.214	320.19
299.445	310.19
299.675	318.19
299.905	302.19
300.136	303.19
300.366	304.19
300.597	309.19
300.827	319.19
301.057	313.19
301.288	322.19
301.518	313.19
301.748	334.19
301.979	340.19
302.209	343.19
302.439	346.19
302.669	329.19
302.9	330.19
303.13	342.19
303.36	330.19
303.59	314.19
303.82	339.19
304.051	339.19
304.281	324.19
304.511	339.19
304.741	342.19
304.971	344.19
305.201	313.19
305.431	319.19
305.661	321.19
305.891	321.19
306.121	343.19
306.352	330.19
306.582	329.19
306.812	318.19
307.042	321.19
307.272	316.19
307.502	335.19
307.731	332.19
307.961	316.19
308.191	328.19
308.421	327.19
308.651	347.19
308.881	342.19
309.111	346.19
309.341	323.19
309.571	330.19
309.8	337.19
310.03	328.19
310.26	334.19
310.49	358.19
310.72	363.19
310.949	352.19
311.179	351.19
311.409	356.19
311.639	368.19
311.868	357.19
312.098	338.19
312.328	355.19
312.557	362.19
312.787	369.19
313.017	363.19
313.246	358.19
313.476	358.19
313.706	369.19
313.935	351.19
314.165	379.19
314.394	391.19
314.624	356.19
314.853	373.19
315.083	375.19
315.312	340.19
315.542	361.19
315.771	360.19
316.001	352.19
316.23	347.19
316.46	345.19
316.689	359.19
316.919	369.19
317.148	366.19
317.377	393.19
317.607	369.19
317.836	360.19
318.065	369.19
318.295	370.19
318.524	353.19
318.753	355.19
318.983	385.19
319.212	353.19
319.441	346.19
319.67	362.19
319.9	389.19
320.129	363.19
320.358	379.19
320.587	369.19
320.816	374.19
321.046	359.19
321.275	369.19
321.504	357.19
321.733	374.19
321.962	391.19
322.191	399.19
322.42	383.19
322.649	392.19
322.878	378.19
323.108	390.19
323.337	419.19
323.566	411.19
323.795	420.19
324.024	445.19
324.253	497.19
324.482	623.19
324.71	957.19
324.939	1320.19
325.168	1162.19
325.397	680.19
325.626	517.19
325.855	457.19
326.084	439.19
326.313	422.19
326.542	428.19
326.77	461.19
326.999	515.19
327.228	642.19
327.457	881.19
327.686	998.19
327.914	702.19
328.143	525.19
328.372	481.19
328.6	469.19
328.829	462.19
329.058	473.19
329.287	464.19
329.515	460.19
329.744	466.19
329.972	457.19
330.201	449.19
330.43	453.19
330.658	467.19
330.887	483.19
331.115	467.19
331.344	452.19
331.572	434.19
331.801	435.19
332.03	429.19
332.258	436.19
332.486	429.19
332.715	427.19
332.943	453.19
333.172	449.19
333.4	438.19
333.629	470.19
333.857	497.19
334.085	469.19
334.314	465.19
334.542	491.19
334.771	489.19
334.999	484.19
335.227	451.19
335.455	466.19
335.684	461.19
335.912	462.19
336.14	432.19
336.369	440.19
336.597	442.19
336.825	449.19
337.053	437.19
337.281	431.19
337.51	439.19
337.738	413.19
337.966	435.19
338.194	420.19
338.422	437.19
338.65	405.19
338.878	413.19
339.106	411.19
339.334	419.19
339.562	437.19
339.79	431.19
340.018	427.19
340.246	410.19
340.474	414.19
340.702	411.19
340.93	399.19
341.158	406.19
341.386	406.19
341.614	413.19
341.842	417.19
342.07	403.19
342.298	422.19
342.526	406.19
342.754	399.19
342.981	395.19
343.209	404.19
343.437	421.19
343.665	440.19
343.893	436.19
344.12	442.19
344.348	454.19
344.576	426.19
344.804	444.19
345.031	428.19
345.259	409.19
345.487	406.19
345.714	417.19
345.942	417.19
346.17	414.19
346.397	423.19
346.625	397.19
346.853	390.19
347.08	405.19
347.308	422.19
347.535	395.19
347.763	394.19
347.99	378.19
348.218	396.19
348.445	405.19
348.673	393.19
348.9	381.19
349.128	387.19
349.355	376.19
349.583	388.19
349.81	384.19
350.037	379.19
350.265	395.19
350.492	398.19
350.72	405.19
350.947	396.19
351.174	393.19
351.402	401.19
351.629	409.19
351.856	388.19
352.083	380.19
352.311	384.19
352.538	402.19
352.765	403.19
352.992	396.19
353.22	403.19
353.447	381.19
353.674	381.19
353.901	376.19
354.128	381.19
354.355	382.19
354.583	390.19
354.81	378.19
355.037	381.19
355.264	365.19
355.491	357.19
355.718	386.19
355.945	381.19
356.172	391.19
356.399	383.19
356.626	372.19
356.853	369.19
357.08	400.19
357.307	389.19
357.534	364.19
357.761	383.19
357.988	394.19
358.215	375.19
358.441	385.19
358.668	367.19
358.895	373.19
359.122	396.19
359.349	379.19
359.576	389.19
359.802	401.19
360.029	403.19
360.256	417.19
360.483	398.19
360.709	378.19
360.936	408.19
361.163	394.19
361.39	398.19
361.616	427.19
361.843	381.19
362.07	395.19
362.296	387.19
362.523	391.19
362.749	384.19
362.976	373.19
363.203	393.19
363.429	387.19
363.656	400.19
363.882	389.19
364.109	365.19
364.335	405.19
364.562	402.19
364.788	397.19
365.015	387.19
365.241	372.19
365.468	381.19
365.694	373.19
365.92	394.19
366.147	381.19
366.373	383.19
366.599	381.19
366.826	376.19
367.052	381.19
367.278	370.19
367.505	377.19
367.731	375.19
367.957	392.19
368.184	364.19
368.41	394.19
368.636	400.19
368.862	389.19
369.089	407.19
369.315	398.19
369.541	389.19
369.767	410.19
369.993	390.19
370.219	369.19
370.445	387.19
370.672	412.19
370.898	382.19
371.124	397.19
371.35	417.19
371.576	411.19
371.802	387.19
372.028	396.19
372.254	399.19
372.48	395.19
372.706	379.19
372.932	404.19
373.158	429.19
373.384	421.19
373.61	394.19
373.835	411.19
374.061	410.19
374.287	392.19
374.513	389.19
374.739	409.19
374.965	412.19
375.191	425.19
375.416	421.19
375.642	420.19
375.868	413.19
376.094	398.19
376.319	391.19
376.545	397.19
376.771	398.19
376.997	400.19
377.222	401.19
377.448	393.19
377.674	407.19
377.899	399.19
378.125	416.19
378.35	394.19
378.576	385.19
378.802	377.19
379.027	399.19
379.253	377.19
379.478	379.19
379.704	390.19
379.929	396.19
380.155	408.19
380.38	387.19
380.606	397.19
380.831	401.19
381.057	419.19
381.282	377.19
381.507	386.19
381.733	390.19
381.958	406.19
382.184	399.19
382.409	389.19
382.634	392.19
382.86	395.19
383.085	423.19
383.31	414.19
383.535	401.19
383.761	413.19
383.986	422.19
384.211	422.19
384.436	426.19
384.662	423.19
384.887	423.19
385.112	426.19
385.337	452.19
385.562	434.19
385.787	426.19
386.013	459.19
386.238	463.19
386.463	457.19
386.688	470.19
386.913	437.19
387.138	448.19
387.363	477.19
387.588	460.19
387.813	468.19
388.038	451.19
388.263	433.19
388.488	439.19
388.713	454.19
388.938	453.19
389.163	448.19
389.387	461.19
389.612	459.19
389.837	467.19
390.062	441.19
390.287	453.19
390.512	433.19
390.736	445.19
390.961	453.19
391.186	458.19
391.411	478.19
391.636	461.19
391.86	493.19
392.085	483.19
392.31	493.19
392.534	471.19
392.759	508.19
392.984	445.19
393.208	476.19
393.433	462.19
393.658	456.19
393.882	460.19
394.107	449.19
394.331	462.19
394.556	472.19
394.78	450.19
395.005	468.19
395.229	460.19
395.454	461.19
395.678	479.19
395.903	477.19
396.127	505.19
396.352	475.19
396.576	483.19
396.801	446.19
397.025	493.19
397.249	470.19
397.474	482.19
397.698	482.19
397.922	513.19
398.147	482.19
398.371	521.19
398.595	523.19
398.82	540.19
399.044	533.19
399.268	553.19
399.492	597.19
399.717	671.19
399.941	695.19
400.165	671.19
400.389	641.19
400.613	593.19
400.837	582.19
401.062	543.19
401.286	557.19
401.51	513.19
401.734	519.19
401.958	521.19
402.182	541.19
402.406	550.19
402.63	555.19
402.854	546.19
403.078	558.19
403.302	545.19
403.526	561.19
403.75	571.19
403.974	574.19
404.198	567.19
404.422	565.19
404.645	546.19
404.869	579.19
405.093	592.19
405.317	625.19
405.541	632.19
405.765	602.19
405.988	569.19
406.212	580.19
406.436	577.19
406.66	578.19
406.883	595.19
407.107	619.19
407.331	652.19
407.555	728.19
407.778	705.19
408.002	651.19
408.226	612.19
408.449	604.19
408.673	596.19
408.896	610.19
409.12	655.19
409.344	607.19
409.567	591.19
409.791	565.19
410.014	568.19
410.238	561.19
410.461	550.19
410.685	561.19
410.908	572.19
411.132	575.19
411.355	588.19
411.578	605.19
411.802	553.19
412.025	556.19
412.249	547.19
412.472	553.19
412.695	562.19
412.919	583.19
413.142	543.19
413.365	533.19
413.589	543.19
413.812	543.19
414.035	536.19
414.258	527.19
414.482	545.19
414.705	522.19
414.928	515.19
415.151	525.19
415.374	523.19
415.597	522.19
415.821	504.19
416.044	509.19
416.267	519.19
416.49	523.19
416.713	507.19
416.936	535.19
417.159	498.19
417.382	507.19
417.605	502.19
417.828	530.19
418.051	541.19
418.274	535.19
418.497	536.19
418.72	519.19
418.943	519.19
419.166	536.19
419.389	578.19
419.611	581.19
419.834	552.19
420.057	532.19
420.28	550.19
420.503	543.19
420.726	524.19
420.948	540.19
421.171	567.19
421.394	580.19
421.617	556.19
421.839	539.19
422.062	545.19
422.285	545.19
422.507	579.19
422.73	629.19
422.953	615.19
423.175	550.19
423.398	572.19
423.621	567.19
423.843	546.19
424.066	541.19
424.288	561.19
424.511	571.19
424.733	612.19
424.956	665.19
425.178	633.19
425.401	618.19
425.623	655.19
425.846	566.19
426.068	544.19
426.291	530.19
426.513	545.19
426.735	557.19
426.958	576.19
427.18	623.19
427.402	745.19
427.625	764.19
427.847	699.19
428.069	607.19
428.292	585.19
428.514	531.19
428.736	506.19
428.958	501.19
429.181	495.19
429.403	486.19
429.625	498.19
429.847	521.19
430.069	581.19
430.292	564.19
430.514	489.19
430.736	497.19
430.958	490.19
431.18	485.19
431.402	505.19
431.624	477.19
431.846	468.19
432.068	485.19
432.29	503.19
432.512	480.19
432.734	507.19
432.956	480.19
433.178	508.19
433.4	521.19
433.622	527.19
433.844	498.19
434.066	501.19
434.287	507.19
434.509	522.19
434.731	508.19
434.953	537.19
435.175	523.19
435.397	536.19
435.618	551.19
435.84	550.19
436.062	622.19
436.284	677.19
436.505	587.19
436.727	532.19
436.949	501.19
437.17	491.19
437.392	519.19
437.614	521.19
437.835	524.19
438.057	591.19
438.278	620.19
438.5	649.19
438.721	695.19
438.943	707.19
439.165	572.19
439.386	556.19
439.608	514.19
439.829	538.19
440.05	548.19
440.272	553.19
440.493	542.19
440.715	517.19
440.936	489.19
441.158	515.19
441.379	534.19
441.6	520.19
441.822	558.19
442.043	574.19
442.264	613.19
442.486	663.19
442.707	577.19
442.928	564.19
443.149	553.19
443.371	573.19
443.592	605.19
443.813	654.19
444.034	713.19
444.255	601.19
444.476	584.19
444.698	574.19
444.919	590.19
445.14	711.19
445.361	634.19
445.582	571.19
445.803	607.19
446.024	655.19
446.245	666.19
446.466	631.19
446.687	553.19
446.908	507.19
447.129	491.19
447.35	505.19
447.571	523.19
447.792	485.19
448.013	494.19
448.234	493.19
448.455	549.19
448.675	589.19
448.896	664.19
449.117	559.19
449.338	581.19
449.559	641.19
449.779	702.19
450	598.19
450.221	503.19
450.442	476.19
450.662	461.19
450.883	474.19
451.104	483.19
451.324	465.19
451.545	454.19
451.766	469.19
451.986	453.19
452.207	447.19
452.428	462.19
452.648	467.19
452.869	430.19
453.089	445.19
453.31	476.19
453.53	457.19
453.751	447.19
453.971	457.19
454.192	428.19
454.412	433.19
454.633	451.19
454.853	425.19
455.073	427.19
455.294	457.19
455.514	503.19
455.734	503.19
455.955	449.19
456.175	417.19
456.395	420.19
456.616	446.19
456.836	423.19
457.056	442.19
457.276	437.19
457.497	425.19
457.717	456.19
457.937	456.19
458.157	421.19
458.377	438.19
458.598	451.19
458.818	489.19
459.038	535.19
459.258	556.19
459.478	519.19
459.698	505.19
459.918	522.19
460.138	482.19
460.358	517.19
460.578	531.19
460.798	522.19
461.018	531.19
461.238	535.19
461.458	523.19
461.678	521.19
461.898	512.19
462.118	520.19
462.338	547.19
462.558	563.19
462.777	612.19
462.997	591.19
463.217	623.19
463.437	619.19
463.657	603.19
463.876	596.19
464.096	579.19
464.316	559.19
464.536	587.19
464.755	559.19
464.975	577.19
465.195	581.19
465.414	572.19
465.634	525.19
465.854	506.19
466.073	492.19
466.293	484.19
466.512	481.19
466.732	470.19
466.951	460.19
467.171	480.19
467.391	474.19
467.61	481.19
467.829	480.19
468.049	479.19
468.268	462.19
468.488	461.19
468.707	478.19
468.927	445.19
469.146	441.19
469.365	477.19
469.585	468.19
469.804	458.19
470.023	471.19
470.243	485.19
470.462	478.19
470.681	513.19
470.901	483.19
471.12	450.19
471.339	471.19
471.558	457.19
471.777	494.19
471.997	458.19
472.216	485.19
472.435	501.19
472.654	457.19
472.873	481.19
473.092	442.19
473.311	431.19
473.53	465.19
473.749	476.19
473.968	515.19
474.187	553.19
474.406	550.19
474.625	522.19
474.844	485.19
475.063	480.19
475.282	465.19
475.501	468.19
475.72	457.19
475.939	464.19
476.158	472.19
476.377	487.19
476.596	483.19
476.814	501.19
477.033	476.19
477.252	500.19
477.471	511.19
477.69	532.19
477.908	523.19
478.127	533.19
478.346	530.19
478.564	529.19
478.783	547.19
479.002	545.19
479.22	553.19
479.439	548.19
479.658	553.19
479.876	571.19
480.095	582.19
480.313	585.19
480.532	593.19
480.751	611.19
480.969	587.19
481.188	604.19
481.406	630.19
481.624	587.19
481.843	551.19
482.061	543.19
482.28	547.19
482.498	551.19
482.717	550.19
482.935	562.19
483.153	539.19
483.372	537.19
483.59	559.19
483.808	540.19
484.027	539.19
484.245	558.19
484.463	571.19
484.681	551.19
484.9	539.19
485.118	577.19
485.336	566.19
485.554	568.19
485.772	555.19
485.99	556.19
486.209	565.19
486.427	567.19
486.645	568.19
486.863	574.19
487.081	583.19
487.299	581.19
487.517	561.19
487.735	578.19
487.953	565.19
488.171	577.19
488.389	580.19
488.607	577.19
488.825	577.19
489.043	570.19
489.261	552.19
489.479	597.19
489.696	587.19
489.914	580.19
490.132	566.19
490.35	597.19
490.568	597.19
490.786	582.19
491.003	610.19
491.221	606.19
491.439	609.19
491.657	625.19
491.874	645.19
492.092	626.19
492.31	636.19
492.527	638.19
492.745	634.19
492.963	627.19
493.18	636.19
493.398	630.19
493.615	633.19
493.833	659.19
494.05	665.19
494.268	656.19
494.485	623.19
494.703	652.19
494.92	663.19
495.138	652.19
495.355	648.19
495.573	648.19
495.79	670.19
496.008	682.19
496.225	646.19
496.442	663.19
496.66	677.19
496.877	666.19
497.094	681.19
497.312	660.19
497.529	711.19
497.746	729.19
497.963	710.19
498.181	750.19
498.398	778.19
498.615	806.19
498.832	816.19
499.049	821.19
499.267	873.19
499.484	917.19
499.701	988.19
499.918	1053.19
500.135	1095.19
500.352	1153.19
500.569	1203.19
500.786	1202.19
501.003	1154.19
501.22	1110.19
501.437	1045.19
501.654	963.19
501.871	958.19
