Data from 1962.PennyLincolnUp.Lamp.En5.5.200Scan.071719.P1._HRD10591_13-52-46-059.txt Node
Date: Thu Jul 18 13:52:46 EDT 2019
User: cochatt
Spectrometer: HR+D1059
Trigger mode: 1
Integration Time (sec): 1.000000E-1
Scans to average: 1
Electric dark correction enabled: true
Nonlinearity correction enabled: false
Boxcar width: 0
XAxis mode: Wavelengths
Number of Pixels in Spectrum: 2048
>>>>>Begin Spectral Data<<<<<
223.165	-13.75
223.4	-13.75
223.635	-13.75
223.869	-24.75
224.104	-10.75
224.338	-6.75
224.573	-11.75
224.808	-15.75
225.042	-5.75
225.277	-7.75
225.511	-2.75
225.746	16.25
225.98	12.25
226.215	5.25
226.449	5.25
226.683	15.25
226.918	22.25
227.152	23.25
227.387	36.25
227.621	35.25
227.856	41.25
228.09	42.25
228.324	44.25
228.559	53.25
228.793	81.25
229.027	82.25
229.262	92.25
229.496	96.25
229.73	105.25
229.964	114.25
230.199	97.25
230.433	104.25
230.667	101.25
230.901	111.25
231.136	80.25
231.37	105.25
231.604	106.25
231.838	105.25
232.072	114.25
232.306	104.25
232.541	124.25
232.775	107.25
233.009	102.25
233.243	107.25
233.477	116.25
233.711	110.25
233.945	90.25
234.179	113.25
234.413	112.25
234.647	102.25
234.881	103.25
235.115	110.25
235.349	129.25
235.583	123.25
235.817	113.25
236.051	117.25
236.285	111.25
236.519	123.25
236.753	111.25
236.987	126.25
237.221	151.25
237.455	147.25
237.689	151.25
237.922	128.25
238.156	123.25
238.39	110.25
238.624	110.25
238.858	116.25
239.091	130.25
239.325	125.25
239.559	123.25
239.793	123.25
240.027	117.25
240.26	123.25
240.494	128.25
240.728	138.25
240.961	130.25
241.195	125.25
241.429	133.25
241.662	120.25
241.896	118.25
242.13	130.25
242.363	122.25
242.597	138.25
242.83	134.25
243.064	126.25
243.298	134.25
243.531	124.25
243.765	125.25
243.998	120.25
244.232	131.25
244.465	140.25
244.699	135.25
244.932	143.25
245.166	147.25
245.399	136.25
245.633	133.25
245.866	132.25
246.099	141.25
246.333	149.25
246.566	139.25
246.8	141.25
247.033	150.25
247.266	151.25
247.5	149.25
247.733	144.25
247.966	153.25
248.2	159.25
248.433	141.25
248.666	150.25
248.899	161.25
249.133	163.25
249.366	176.25
249.599	161.25
249.832	155.25
250.066	163.25
250.299	151.25
250.532	161.25
250.765	175.25
250.998	172.25
251.231	178.25
251.465	179.25
251.698	167.25
251.931	178.25
252.164	162.25
252.397	177.25
252.63	178.25
252.863	184.25
253.096	181.25
253.329	181.25
253.562	171.25
253.795	192.25
254.028	178.25
254.261	170.25
254.494	195.25
254.727	194.25
254.96	197.25
255.193	200.25
255.426	198.25
255.659	199.25
255.892	184.25
256.124	188.25
256.357	196.25
256.59	193.25
256.823	170.25
257.056	177.25
257.289	175.25
257.521	185.25
257.754	179.25
257.987	181.25
258.22	203.25
258.452	182.25
258.685	189.25
258.918	195.25
259.151	193.25
259.383	205.25
259.616	183.25
259.849	187.25
260.081	201.25
260.314	211.25
260.547	198.25
260.779	208.25
261.012	189.25
261.244	197.25
261.477	202.25
261.71	199.25
261.942	191.25
262.175	195.25
262.407	208.25
262.64	172.25
262.872	204.25
263.105	190.25
263.337	196.25
263.57	205.25
263.802	202.25
264.035	188.25
264.267	204.25
264.499	200.25
264.732	186.25
264.964	182.25
265.197	206.25
265.429	210.25
265.661	205.25
265.894	193.25
266.126	212.25
266.358	200.25
266.591	196.25
266.823	215.25
267.055	203.25
267.287	214.25
267.52	193.25
267.752	205.25
267.984	210.25
268.216	237.25
268.448	229.25
268.681	223.25
268.913	229.25
269.145	233.25
269.377	247.25
269.609	223.25
269.841	228.25
270.073	223.25
270.306	230.25
270.538	248.25
270.77	239.25
271.002	238.25
271.234	230.25
271.466	242.25
271.698	259.25
271.93	229.25
272.162	263.25
272.394	259.25
272.626	236.25
272.858	249.25
273.09	229.25
273.322	238.25
273.553	241.25
273.785	220.25
274.017	220.25
274.249	236.25
274.481	248.25
274.713	251.25
274.945	247.25
275.176	232.25
275.408	243.25
275.64	241.25
275.872	244.25
276.104	248.25
276.335	239.25
276.567	233.25
276.799	252.25
277.031	247.25
277.262	257.25
277.494	257.25
277.726	263.25
277.957	268.25
278.189	250.25
278.421	245.25
278.652	248.25
278.884	256.25
279.115	271.25
279.347	263.25
279.579	249.25
279.81	253.25
280.042	253.25
280.273	267.25
280.505	256.25
280.736	257.25
280.968	252.25
281.199	269.25
281.431	239.25
281.662	267.25
281.894	249.25
282.125	254.25
282.356	248.25
282.588	259.25
282.819	268.25
283.051	276.25
283.282	262.25
283.513	265.25
283.745	268.25
283.976	262.25
284.207	263.25
284.439	255.25
284.67	249.25
284.901	265.25
285.132	299.25
285.364	249.25
285.595	279.25
285.826	269.25
286.057	271.25
286.288	267.25
286.52	265.25
286.751	277.25
286.982	252.25
287.213	271.25
287.444	279.25
287.675	267.25
287.906	277.25
288.138	310.25
288.369	297.25
288.6	287.25
288.831	295.25
289.062	288.25
289.293	284.25
289.524	267.25
289.755	286.25
289.986	269.25
290.217	281.25
290.448	280.25
290.679	272.25
290.91	294.25
291.141	279.25
291.371	295.25
291.602	288.25
291.833	279.25
292.064	286.25
292.295	287.25
292.526	294.25
292.757	289.25
292.987	281.25
293.218	280.25
293.449	311.25
293.68	295.25
293.91	284.25
294.141	296.25
294.372	278.25
294.603	289.25
294.833	289.25
295.064	276.25
295.295	269.25
295.525	291.25
295.756	292.25
295.987	298.25
296.217	285.25
296.448	302.25
296.679	289.25
296.909	298.25
297.14	289.25
297.37	288.25
297.601	299.25
297.831	297.25
298.062	290.25
298.292	293.25
298.523	281.25
298.753	310.25
298.984	300.25
299.214	298.25
299.445	301.25
299.675	301.25
299.905	322.25
300.136	281.25
300.366	307.25
300.597	302.25
300.827	302.25
301.057	319.25
301.288	308.25
301.518	302.25
301.748	321.25
301.979	310.25
302.209	305.25
302.439	325.25
302.669	300.25
302.9	325.25
303.13	298.25
303.36	292.25
303.59	329.25
303.82	312.25
304.051	329.25
304.281	336.25
304.511	320.25
304.741	295.25
304.971	308.25
305.201	307.25
305.431	323.25
305.661	310.25
305.891	314.25
306.121	307.25
306.352	311.25
306.582	321.25
306.812	314.25
307.042	339.25
307.272	321.25
307.502	314.25
307.731	316.25
307.961	320.25
308.191	335.25
308.421	309.25
308.651	317.25
308.881	321.25
309.111	315.25
309.341	329.25
309.571	314.25
309.8	311.25
310.03	335.25
310.26	333.25
310.49	318.25
310.72	338.25
310.949	337.25
311.179	335.25
311.409	345.25
311.639	323.25
311.868	344.25
312.098	330.25
312.328	331.25
312.557	342.25
312.787	343.25
313.017	350.25
313.246	353.25
313.476	352.25
313.706	335.25
313.935	340.25
314.165	354.25
314.394	342.25
314.624	349.25
314.853	346.25
315.083	329.25
315.312	355.25
315.542	356.25
315.771	348.25
316.001	340.25
316.23	333.25
316.46	348.25
316.689	342.25
316.919	347.25
317.148	344.25
317.377	367.25
317.607	346.25
317.836	342.25
318.065	322.25
318.295	339.25
318.524	340.25
318.753	355.25
318.983	358.25
319.212	327.25
319.441	341.25
319.67	355.25
319.9	367.25
320.129	323.25
320.358	357.25
320.587	349.25
320.816	346.25
321.046	357.25
321.275	347.25
321.504	338.25
321.733	353.25
321.962	349.25
322.191	370.25
322.42	365.25
322.649	391.25
322.878	353.25
323.108	379.25
323.337	373.25
323.566	374.25
323.795	379.25
324.024	413.25
324.253	451.25
324.482	542.25
324.71	743.25
324.939	1033.25
325.168	902.25
325.397	539.25
325.626	443.25
325.855	403.25
326.084	409.25
326.313	403.25
326.542	428.25
326.77	418.25
326.999	433.25
327.228	523.25
327.457	696.25
327.686	839.25
327.914	622.25
328.143	466.25
328.372	437.25
328.6	415.25
328.829	413.25
329.058	404.25
329.287	411.25
329.515	401.25
329.744	407.25
329.972	395.25
330.201	400.25
330.43	407.25
330.658	411.25
330.887	424.25
331.115	422.25
331.344	401.25
331.572	397.25
331.801	416.25
332.03	414.25
332.258	421.25
332.486	401.25
332.715	412.25
332.943	411.25
333.172	421.25
333.4	409.25
333.629	446.25
333.857	454.25
334.085	427.25
334.314	439.25
334.542	453.25
334.771	466.25
334.999	446.25
335.227	461.25
335.455	410.25
335.684	431.25
335.912	428.25
336.14	415.25
336.369	423.25
336.597	417.25
336.825	414.25
337.053	417.25
337.281	417.25
337.51	403.25
337.738	430.25
337.966	393.25
338.194	405.25
338.422	421.25
338.65	423.25
338.878	386.25
339.106	408.25
339.334	381.25
339.562	402.25
339.79	391.25
340.018	395.25
340.246	383.25
340.474	390.25
340.702	395.25
340.93	398.25
341.158	395.25
341.386	387.25
341.614	390.25
341.842	392.25
342.07	383.25
342.298	377.25
342.526	399.25
342.754	381.25
342.981	385.25
343.209	385.25
343.437	417.25
343.665	418.25
343.893	438.25
344.12	424.25
344.348	411.25
344.576	421.25
344.804	403.25
345.031	404.25
345.259	417.25
345.487	390.25
345.714	397.25
345.942	384.25
346.17	384.25
346.397	380.25
346.625	392.25
346.853	375.25
347.08	366.25
347.308	381.25
347.535	361.25
347.763	371.25
347.99	385.25
348.218	381.25
348.445	386.25
348.673	373.25
348.9	380.25
349.128	379.25
349.355	362.25
349.583	376.25
349.81	363.25
350.037	379.25
350.265	366.25
350.492	364.25
350.72	369.25
350.947	343.25
351.174	361.25
351.402	366.25
351.629	366.25
351.856	359.25
352.083	371.25
352.311	371.25
352.538	382.25
352.765	365.25
352.992	354.25
353.22	358.25
353.447	377.25
353.674	375.25
353.901	371.25
354.128	372.25
354.355	379.25
354.583	365.25
354.81	365.25
355.037	359.25
355.264	347.25
355.491	355.25
355.718	356.25
355.945	364.25
356.172	339.25
356.399	345.25
356.626	382.25
356.853	371.25
357.08	375.25
357.307	385.25
357.534	340.25
357.761	361.25
357.988	371.25
358.215	387.25
358.441	379.25
358.668	379.25
358.895	378.25
359.122	375.25
359.349	383.25
359.576	380.25
359.802	379.25
360.029	379.25
360.256	368.25
360.483	374.25
360.709	371.25
360.936	370.25
361.163	366.25
361.39	392.25
361.616	369.25
361.843	363.25
362.07	373.25
362.296	366.25
362.523	367.25
362.749	372.25
362.976	378.25
363.203	381.25
363.429	361.25
363.656	362.25
363.882	384.25
364.109	381.25
364.335	357.25
364.562	368.25
364.788	377.25
365.015	381.25
365.241	375.25
365.468	356.25
365.694	371.25
365.92	375.25
366.147	369.25
366.373	374.25
366.599	373.25
366.826	369.25
367.052	367.25
367.278	374.25
367.505	374.25
367.731	372.25
367.957	356.25
368.184	369.25
368.41	369.25
368.636	384.25
368.862	383.25
369.089	383.25
369.315	389.25
369.541	371.25
369.767	386.25
369.993	362.25
370.219	360.25
370.445	357.25
370.672	371.25
370.898	365.25
371.124	373.25
371.35	379.25
371.576	371.25
371.802	374.25
372.028	389.25
372.254	393.25
372.48	396.25
372.706	386.25
372.932	393.25
373.158	389.25
373.384	395.25
373.61	388.25
373.835	382.25
374.061	386.25
374.287	406.25
374.513	382.25
374.739	403.25
374.965	402.25
375.191	393.25
375.416	406.25
375.642	399.25
375.868	396.25
376.094	378.25
376.319	372.25
376.545	386.25
376.771	375.25
376.997	396.25
377.222	379.25
377.448	399.25
377.674	389.25
377.899	379.25
378.125	371.25
378.35	377.25
378.576	371.25
378.802	384.25
379.027	380.25
379.253	366.25
379.478	371.25
379.704	377.25
379.929	375.25
380.155	380.25
380.38	383.25
380.606	382.25
380.831	406.25
381.057	388.25
381.282	386.25
381.507	376.25
381.733	364.25
381.958	397.25
382.184	380.25
382.409	394.25
382.634	399.25
382.86	398.25
383.085	413.25
383.31	409.25
383.535	408.25
383.761	425.25
383.986	424.25
384.211	409.25
384.436	424.25
384.662	436.25
384.887	401.25
385.112	445.25
385.337	455.25
385.562	431.25
385.787	424.25
386.013	441.25
386.238	453.25
386.463	431.25
386.688	428.25
386.913	441.25
387.138	441.25
387.363	448.25
387.588	433.25
387.813	429.25
388.038	466.25
388.263	445.25
388.488	477.25
388.713	428.25
388.938	452.25
389.163	446.25
389.387	440.25
389.612	447.25
389.837	424.25
390.062	436.25
390.287	411.25
390.512	431.25
390.736	445.25
390.961	440.25
391.186	423.25
391.411	444.25
391.636	456.25
391.86	456.25
392.085	456.25
392.31	456.25
392.534	440.25
392.759	463.25
392.984	471.25
393.208	465.25
393.433	473.25
393.658	446.25
393.882	434.25
394.107	471.25
394.331	476.25
394.556	452.25
394.78	456.25
395.005	458.25
395.229	436.25
395.454	449.25
395.678	463.25
395.903	466.25
396.127	487.25
396.352	459.25
396.576	461.25
396.801	472.25
397.025	472.25
397.249	458.25
397.474	466.25
397.698	483.25
397.922	490.25
398.147	472.25
398.371	502.25
398.595	488.25
398.82	513.25
399.044	541.25
399.268	558.25
399.492	597.25
399.717	662.25
399.941	665.25
400.165	661.25
400.389	637.25
400.613	577.25
400.837	556.25
401.062	518.25
401.286	519.25
401.51	526.25
401.734	507.25
401.958	519.25
402.182	512.25
402.406	528.25
402.63	518.25
402.854	509.25
403.078	531.25
403.302	533.25
403.526	535.25
403.75	535.25
403.974	538.25
404.198	526.25
404.422	549.25
404.645	539.25
404.869	539.25
405.093	553.25
405.317	587.25
405.541	597.25
405.765	577.25
405.988	548.25
406.212	553.25
406.436	551.25
406.66	579.25
406.883	577.25
407.107	567.25
407.331	621.25
407.555	649.25
407.778	657.25
408.002	625.25
408.226	595.25
408.449	578.25
408.673	569.25
408.896	599.25
409.12	613.25
409.344	577.25
409.567	557.25
409.791	538.25
410.014	538.25
410.238	555.25
410.461	533.25
410.685	517.25
410.908	526.25
411.132	543.25
411.355	599.25
411.578	545.25
411.802	532.25
412.025	530.25
412.249	532.25
412.472	543.25
412.695	552.25
412.919	532.25
413.142	527.25
413.365	537.25
413.589	521.25
413.812	501.25
414.035	494.25
414.258	499.25
414.482	511.25
414.705	512.25
414.928	489.25
415.151	513.25
415.374	490.25
415.597	487.25
415.821	510.25
416.044	503.25
416.267	493.25
416.49	483.25
416.713	477.25
416.936	474.25
417.159	496.25
417.382	507.25
417.605	513.25
417.828	497.25
418.051	513.25
418.274	507.25
418.497	515.25
418.72	492.25
418.943	473.25
419.166	502.25
419.389	535.25
419.611	532.25
419.834	506.25
420.057	530.25
420.28	515.25
420.503	489.25
420.726	481.25
420.948	514.25
421.171	533.25
421.394	562.25
421.617	517.25
421.839	517.25
422.062	497.25
422.285	516.25
422.507	549.25
422.73	583.25
422.953	566.25
423.175	548.25
423.398	519.25
423.621	525.25
423.843	553.25
424.066	548.25
424.288	531.25
424.511	543.25
424.733	574.25
424.956	588.25
425.178	591.25
425.401	604.25
425.623	599.25
425.846	553.25
426.068	548.25
426.291	524.25
426.513	524.25
426.735	518.25
426.958	528.25
427.18	582.25
427.402	628.25
427.625	725.25
427.847	607.25
428.069	551.25
428.292	526.25
428.514	499.25
428.736	497.25
428.958	494.25
429.181	472.25
429.403	462.25
429.625	475.25
429.847	475.25
430.069	532.25
430.292	513.25
430.514	494.25
430.736	463.25
430.958	466.25
431.18	465.25
431.402	474.25
431.624	451.25
431.846	469.25
432.068	467.25
432.29	469.25
432.512	460.25
432.734	489.25
432.956	483.25
433.178	470.25
433.4	464.25
433.622	476.25
433.844	478.25
434.066	455.25
434.287	483.25
434.509	504.25
434.731	489.25
434.953	498.25
435.175	525.25
435.397	514.25
435.618	483.25
435.84	535.25
436.062	596.25
436.284	633.25
436.505	531.25
436.727	506.25
436.949	485.25
437.17	492.25
437.392	470.25
437.614	482.25
437.835	486.25
438.057	543.25
438.278	585.25
438.5	587.25
438.721	650.25
438.943	628.25
439.165	525.25
439.386	490.25
439.608	475.25
439.829	469.25
440.05	510.25
440.272	524.25
440.493	525.25
440.715	481.25
440.936	477.25
441.158	492.25
441.379	474.25
441.6	518.25
441.822	510.25
442.043	521.25
442.264	563.25
442.486	574.25
442.707	533.25
442.928	528.25
443.149	531.25
443.371	530.25
443.592	552.25
443.813	620.25
444.034	648.25
444.255	566.25
444.476	537.25
444.698	545.25
444.919	562.25
445.14	673.25
445.361	588.25
445.582	538.25
445.803	555.25
446.024	589.25
446.245	606.25
446.466	589.25
446.687	526.25
446.908	498.25
447.129	491.25
447.35	459.25
447.571	456.25
447.792	449.25
448.013	465.25
448.234	476.25
448.455	487.25
448.675	548.25
448.896	605.25
449.117	551.25
449.338	539.25
449.559	599.25
449.779	635.25
450	539.25
450.221	478.25
450.442	448.25
450.662	451.25
450.883	453.25
451.104	479.25
451.324	447.25
451.545	454.25
451.766	452.25
451.986	435.25
452.207	438.25
452.428	425.25
452.648	419.25
452.869	425.25
453.089	441.25
453.31	433.25
453.53	441.25
453.751	421.25
453.971	443.25
454.192	431.25
454.412	412.25
454.633	420.25
454.853	439.25
455.073	406.25
455.294	427.25
455.514	453.25
455.734	450.25
455.955	404.25
456.175	403.25
456.395	404.25
456.616	424.25
456.836	410.25
457.056	403.25
457.276	407.25
457.497	432.25
457.717	417.25
457.937	420.25
458.157	423.25
458.377	418.25
458.598	445.25
458.818	473.25
459.038	483.25
459.258	521.25
459.478	495.25
459.698	489.25
459.918	470.25
460.138	507.25
460.358	503.25
460.578	526.25
460.798	514.25
461.018	514.25
461.238	515.25
461.458	494.25
461.678	484.25
461.898	531.25
462.118	516.25
462.338	533.25
462.558	534.25
462.777	543.25
462.997	559.25
463.217	592.25
463.437	606.25
463.657	582.25
463.876	556.25
464.096	569.25
464.316	540.25
464.536	572.25
464.755	558.25
464.975	540.25
465.195	534.25
465.414	520.25
465.634	492.25
465.854	469.25
466.073	481.25
466.293	449.25
466.512	466.25
466.732	446.25
466.951	454.25
467.171	453.25
467.391	462.25
467.61	464.25
467.829	461.25
468.049	465.25
468.268	445.25
468.488	445.25
468.707	434.25
468.927	439.25
469.146	426.25
469.365	435.25
469.585	446.25
469.804	443.25
470.023	451.25
470.243	450.25
470.462	458.25
470.681	458.25
470.901	476.25
471.12	474.25
471.339	443.25
471.558	451.25
471.777	438.25
471.997	457.25
472.216	470.25
472.435	451.25
472.654	457.25
472.873	467.25
473.092	449.25
473.311	458.25
473.53	466.25
473.749	430.25
473.968	457.25
474.187	528.25
474.406	519.25
474.625	482.25
474.844	460.25
475.063	437.25
475.282	465.25
475.501	475.25
475.72	462.25
475.939	464.25
476.158	452.25
476.377	470.25
476.596	461.25
476.814	478.25
477.033	468.25
477.252	506.25
477.471	494.25
477.69	483.25
477.908	513.25
478.127	489.25
478.346	510.25
478.564	541.25
478.783	515.25
479.002	505.25
479.22	535.25
479.439	542.25
479.658	548.25
479.876	561.25
480.095	563.25
480.313	578.25
480.532	581.25
480.751	561.25
480.969	586.25
481.188	578.25
481.406	563.25
481.624	543.25
481.843	534.25
482.061	527.25
482.28	514.25
482.498	528.25
482.717	532.25
482.935	532.25
483.153	533.25
483.372	506.25
483.59	517.25
483.808	531.25
484.027	524.25
484.245	538.25
484.463	537.25
484.681	541.25
484.9	544.25
485.118	536.25
485.336	557.25
485.554	565.25
485.772	558.25
485.99	556.25
486.209	555.25
486.427	562.25
486.645	565.25
486.863	562.25
487.081	550.25
487.299	551.25
487.517	554.25
487.735	564.25
487.953	574.25
488.171	568.25
488.389	565.25
488.607	583.25
488.825	583.25
489.043	569.25
489.261	545.25
489.479	559.25
489.696	573.25
489.914	559.25
490.132	592.25
490.35	569.25
490.568	575.25
490.786	555.25
491.003	569.25
491.221	601.25
491.439	556.25
491.657	570.25
491.874	571.25
492.092	566.25
492.31	581.25
492.527	593.25
492.745	614.25
492.963	612.25
493.18	606.25
493.398	610.25
493.615	606.25
493.833	596.25
494.05	613.25
494.268	610.25
494.485	629.25
494.703	610.25
494.92	627.25
495.138	590.25
495.355	615.25
495.573	607.25
495.79	606.25
496.008	624.25
496.225	637.25
496.442	621.25
496.66	639.25
496.877	647.25
497.094	661.25
497.312	663.25
497.529	676.25
497.746	662.25
497.963	703.25
498.181	732.25
498.398	738.25
498.615	750.25
498.832	780.25
499.049	827.25
499.267	864.25
499.484	897.25
499.701	935.25
499.918	989.25
500.135	1070.25
500.352	1132.25
500.569	1127.25
500.786	1153.25
501.003	1124.25
501.22	1059.25
501.437	1001.25
501.654	940.25
501.871	903.25
