Data from 1962.PennyLincolnUp.Lamp.En5.5.200Scan.071719.P1._HRD10591_13-53-23-060.txt Node
Date: Thu Jul 18 13:53:23 EDT 2019
User: cochatt
Spectrometer: HR+D1059
Trigger mode: 1
Integration Time (sec): 1.000000E-1
Scans to average: 1
Electric dark correction enabled: true
Nonlinearity correction enabled: false
Boxcar width: 0
XAxis mode: Wavelengths
Number of Pixels in Spectrum: 2048
>>>>>Begin Spectral Data<<<<<
223.165	-19.81
223.4	-19.81
223.635	-19.81
223.869	-9.81
224.104	-22.81
224.338	-23.81
224.573	-12.81
224.808	-22.81
225.042	-13.81
225.277	-7.81
225.511	-9.81
225.746	10.19
225.98	14.19
226.215	2.19
226.449	19.19
226.683	29.19
226.918	35.19
227.152	33.19
227.387	19.19
227.621	42.19
227.856	31.19
228.09	52.19
228.324	47.19
228.559	64.19
228.793	66.19
229.027	100.19
229.262	98.19
229.496	79.19
229.73	106.19
229.964	125.19
230.199	113.19
230.433	102.19
230.667	103.19
230.901	107.19
231.136	108.19
231.37	110.19
231.604	109.19
231.838	107.19
232.072	106.19
232.306	102.19
232.541	108.19
232.775	108.19
233.009	100.19
233.243	112.19
233.477	97.19
233.711	115.19
233.945	107.19
234.179	93.19
234.413	99.19
234.647	129.19
234.881	115.19
235.115	114.19
235.349	97.19
235.583	99.19
235.817	125.19
236.051	107.19
236.285	118.19
236.519	101.19
236.753	106.19
236.987	116.19
237.221	153.19
237.455	168.19
237.689	145.19
237.922	111.19
238.156	132.19
238.39	119.19
238.624	108.19
238.858	123.19
239.091	117.19
239.325	108.19
239.559	121.19
239.793	121.19
240.027	113.19
240.26	136.19
240.494	133.19
240.728	135.19
240.961	119.19
241.195	118.19
241.429	121.19
241.662	129.19
241.896	126.19
242.13	126.19
242.363	136.19
242.597	131.19
242.83	129.19
243.064	122.19
243.298	127.19
243.531	127.19
243.765	126.19
243.998	143.19
244.232	133.19
244.465	137.19
244.699	126.19
244.932	137.19
245.166	126.19
245.399	144.19
245.633	135.19
245.866	132.19
246.099	130.19
246.333	135.19
246.566	149.19
246.8	143.19
247.033	143.19
247.266	141.19
247.5	146.19
247.733	147.19
247.966	155.19
248.2	151.19
248.433	137.19
248.666	142.19
248.899	158.19
249.133	170.19
249.366	182.19
249.599	172.19
249.832	157.19
250.066	154.19
250.299	168.19
250.532	172.19
250.765	169.19
250.998	190.19
251.231	189.19
251.465	181.19
251.698	171.19
251.931	173.19
252.164	169.19
252.397	151.19
252.63	173.19
252.863	172.19
253.096	184.19
253.329	193.19
253.562	192.19
253.795	190.19
254.028	183.19
254.261	167.19
254.494	181.19
254.727	205.19
254.96	206.19
255.193	198.19
255.426	201.19
255.659	189.19
255.892	175.19
256.124	179.19
256.357	179.19
256.59	181.19
256.823	181.19
257.056	184.19
257.289	173.19
257.521	186.19
257.754	182.19
257.987	188.19
258.22	189.19
258.452	193.19
258.685	186.19
258.918	181.19
259.151	197.19
259.383	197.19
259.616	198.19
259.849	185.19
260.081	204.19
260.314	207.19
260.547	203.19
260.779	211.19
261.012	202.19
261.244	207.19
261.477	201.19
261.71	197.19
261.942	198.19
262.175	197.19
262.407	206.19
262.64	209.19
262.872	191.19
263.105	194.19
263.337	194.19
263.57	183.19
263.802	191.19
264.035	191.19
264.267	191.19
264.499	198.19
264.732	204.19
264.964	185.19
265.197	202.19
265.429	204.19
265.661	201.19
265.894	196.19
266.126	202.19
266.358	204.19
266.591	210.19
266.823	219.19
267.055	222.19
267.287	207.19
267.52	207.19
267.752	213.19
267.984	214.19
268.216	197.19
268.448	212.19
268.681	215.19
268.913	210.19
269.145	231.19
269.377	253.19
269.609	220.19
269.841	239.19
270.073	242.19
270.306	246.19
270.538	243.19
270.77	237.19
271.002	247.19
271.234	259.19
271.466	251.19
271.698	260.19
271.93	241.19
272.162	249.19
272.394	264.19
272.626	246.19
272.858	232.19
273.09	230.19
273.322	241.19
273.553	235.19
273.785	244.19
274.017	257.19
274.249	224.19
274.481	229.19
274.713	243.19
274.945	226.19
275.176	242.19
275.408	231.19
275.64	241.19
275.872	245.19
276.104	227.19
276.335	223.19
276.567	244.19
276.799	269.19
277.031	261.19
277.262	265.19
277.494	267.19
277.726	251.19
277.957	265.19
278.189	259.19
278.421	242.19
278.652	254.19
278.884	248.19
279.115	234.19
279.347	256.19
279.579	251.19
279.81	240.19
280.042	252.19
280.273	259.19
280.505	260.19
280.736	249.19
280.968	243.19
281.199	259.19
281.431	249.19
281.662	250.19
281.894	253.19
282.125	252.19
282.356	245.19
282.588	278.19
282.819	285.19
283.051	261.19
283.282	270.19
283.513	254.19
283.745	250.19
283.976	271.19
284.207	273.19
284.439	253.19
284.67	241.19
284.901	274.19
285.132	267.19
285.364	262.19
285.595	253.19
285.826	260.19
286.057	257.19
286.288	272.19
286.52	287.19
286.751	262.19
286.982	277.19
287.213	280.19
287.444	275.19
287.675	270.19
287.906	276.19
288.138	289.19
288.369	278.19
288.6	279.19
288.831	276.19
289.062	281.19
289.293	278.19
289.524	282.19
289.755	289.19
289.986	278.19
290.217	277.19
290.448	281.19
290.679	294.19
290.91	273.19
291.141	274.19
291.371	288.19
291.602	291.19
291.833	282.19
292.064	275.19
292.295	288.19
292.526	285.19
292.757	286.19
292.987	269.19
293.218	267.19
293.449	283.19
293.68	300.19
293.91	286.19
294.141	284.19
294.372	303.19
294.603	299.19
294.833	287.19
295.064	272.19
295.295	284.19
295.525	285.19
295.756	278.19
295.987	296.19
296.217	297.19
296.448	295.19
296.679	299.19
296.909	282.19
297.14	285.19
297.37	318.19
297.601	283.19
297.831	310.19
298.062	305.19
298.292	302.19
298.523	286.19
298.753	276.19
298.984	298.19
299.214	301.19
299.445	293.19
299.675	307.19
299.905	295.19
300.136	312.19
300.366	305.19
300.597	298.19
300.827	323.19
301.057	318.19
301.288	324.19
301.518	321.19
301.748	312.19
301.979	324.19
302.209	315.19
302.439	335.19
302.669	307.19
302.9	316.19
303.13	315.19
303.36	308.19
303.59	307.19
303.82	323.19
304.051	331.19
304.281	328.19
304.511	324.19
304.741	299.19
304.971	303.19
305.201	318.19
305.431	312.19
305.661	311.19
305.891	316.19
306.121	321.19
306.352	293.19
306.582	321.19
306.812	322.19
307.042	332.19
307.272	326.19
307.502	341.19
307.731	293.19
307.961	326.19
308.191	321.19
308.421	310.19
308.651	313.19
308.881	305.19
309.111	331.19
309.341	333.19
309.571	329.19
309.8	301.19
310.03	353.19
310.26	320.19
310.49	336.19
310.72	332.19
310.949	357.19
311.179	346.19
311.409	349.19
311.639	354.19
311.868	358.19
312.098	337.19
312.328	351.19
312.557	364.19
312.787	354.19
313.017	344.19
313.246	359.19
313.476	347.19
313.706	372.19
313.935	359.19
314.165	349.19
314.394	340.19
314.624	344.19
314.853	371.19
315.083	359.19
315.312	357.19
315.542	362.19
315.771	346.19
316.001	350.19
316.23	353.19
316.46	359.19
316.689	338.19
316.919	354.19
317.148	344.19
317.377	356.19
317.607	346.19
317.836	345.19
318.065	336.19
318.295	342.19
318.524	345.19
318.753	344.19
318.983	347.19
319.212	343.19
319.441	355.19
319.67	361.19
319.9	343.19
320.129	340.19
320.358	350.19
320.587	354.19
320.816	371.19
321.046	365.19
321.275	379.19
321.504	375.19
321.733	356.19
321.962	383.19
322.191	364.19
322.42	378.19
322.649	379.19
322.878	402.19
323.108	383.19
323.337	387.19
323.566	392.19
323.795	411.19
324.024	435.19
324.253	495.19
324.482	600.19
324.71	834.19
324.939	1157.19
325.168	1011.19
325.397	615.19
325.626	481.19
325.855	436.19
326.084	401.19
326.313	389.19
326.542	415.19
326.77	435.19
326.999	469.19
327.228	571.19
327.457	782.19
327.686	895.19
327.914	694.19
328.143	492.19
328.372	471.19
328.6	443.19
328.829	445.19
329.058	424.19
329.287	427.19
329.515	415.19
329.744	433.19
329.972	438.19
330.201	411.19
330.43	450.19
330.658	423.19
330.887	467.19
331.115	459.19
331.344	423.19
331.572	418.19
331.801	422.19
332.03	430.19
332.258	426.19
332.486	418.19
332.715	413.19
332.943	431.19
333.172	431.19
333.4	426.19
333.629	438.19
333.857	462.19
334.085	431.19
334.314	450.19
334.542	471.19
334.771	490.19
334.999	461.19
335.227	444.19
335.455	437.19
335.684	431.19
335.912	437.19
336.14	431.19
336.369	423.19
336.597	424.19
336.825	419.19
337.053	424.19
337.281	406.19
337.51	413.19
337.738	409.19
337.966	423.19
338.194	430.19
338.422	406.19
338.65	433.19
338.878	407.19
339.106	399.19
339.334	422.19
339.562	394.19
339.79	396.19
340.018	422.19
340.246	391.19
340.474	385.19
340.702	399.19
340.93	401.19
341.158	395.19
341.386	378.19
341.614	396.19
341.842	385.19
342.07	410.19
342.298	408.19
342.526	398.19
342.754	378.19
342.981	390.19
343.209	375.19
343.437	408.19
343.665	413.19
343.893	407.19
344.12	449.19
344.348	436.19
344.576	437.19
344.804	415.19
345.031	423.19
345.259	398.19
345.487	406.19
345.714	387.19
345.942	381.19
346.17	391.19
346.397	378.19
346.625	386.19
346.853	376.19
347.08	395.19
347.308	394.19
347.535	383.19
347.763	395.19
347.99	382.19
348.218	393.19
348.445	398.19
348.673	384.19
348.9	383.19
349.128	379.19
349.355	366.19
349.583	365.19
349.81	351.19
350.037	370.19
350.265	381.19
350.492	383.19
350.72	367.19
350.947	389.19
351.174	377.19
351.402	381.19
351.629	406.19
351.856	382.19
352.083	389.19
352.311	382.19
352.538	383.19
352.765	389.19
352.992	373.19
353.22	376.19
353.447	390.19
353.674	359.19
353.901	352.19
354.128	378.19
354.355	373.19
354.583	373.19
354.81	373.19
355.037	387.19
355.264	362.19
355.491	373.19
355.718	363.19
355.945	374.19
356.172	361.19
356.399	366.19
356.626	374.19
356.853	366.19
357.08	367.19
357.307	372.19
357.534	361.19
357.761	373.19
357.988	371.19
358.215	376.19
358.441	364.19
358.668	380.19
358.895	361.19
359.122	366.19
359.349	387.19
359.576	381.19
359.802	387.19
360.029	397.19
360.256	407.19
360.483	408.19
360.709	369.19
360.936	369.19
361.163	374.19
361.39	389.19
361.616	390.19
361.843	375.19
362.07	397.19
362.296	372.19
362.523	361.19
362.749	369.19
362.976	385.19
363.203	374.19
363.429	377.19
363.656	384.19
363.882	375.19
364.109	379.19
364.335	391.19
364.562	371.19
364.788	374.19
365.015	379.19
365.241	363.19
365.468	366.19
365.694	348.19
365.92	388.19
366.147	367.19
366.373	370.19
366.599	355.19
366.826	370.19
367.052	370.19
367.278	361.19
367.505	377.19
367.731	378.19
367.957	365.19
368.184	377.19
368.41	390.19
368.636	369.19
368.862	393.19
369.089	375.19
369.315	365.19
369.541	355.19
369.767	365.19
369.993	366.19
370.219	379.19
370.445	382.19
370.672	376.19
370.898	380.19
371.124	390.19
371.35	401.19
371.576	395.19
371.802	394.19
372.028	387.19
372.254	394.19
372.48	384.19
372.706	367.19
372.932	381.19
373.158	414.19
373.384	388.19
373.61	400.19
373.835	390.19
374.061	397.19
374.287	382.19
374.513	392.19
374.739	402.19
374.965	408.19
375.191	397.19
375.416	407.19
375.642	405.19
375.868	402.19
376.094	409.19
376.319	375.19
376.545	392.19
376.771	377.19
376.997	377.19
377.222	404.19
377.448	375.19
377.674	395.19
377.899	383.19
378.125	378.19
378.35	389.19
378.576	385.19
378.802	366.19
379.027	387.19
379.253	385.19
379.478	378.19
379.704	370.19
379.929	382.19
380.155	391.19
380.38	375.19
380.606	379.19
380.831	386.19
381.057	397.19
381.282	390.19
381.507	390.19
381.733	391.19
381.958	388.19
382.184	399.19
382.409	397.19
382.634	392.19
382.86	401.19
383.085	397.19
383.31	427.19
383.535	400.19
383.761	421.19
383.986	418.19
384.211	419.19
384.436	420.19
384.662	433.19
384.887	444.19
385.112	428.19
385.337	410.19
385.562	439.19
385.787	433.19
386.013	471.19
386.238	445.19
386.463	454.19
386.688	450.19
386.913	421.19
387.138	447.19
387.363	433.19
387.588	438.19
387.813	429.19
388.038	439.19
388.263	435.19
388.488	448.19
388.713	442.19
388.938	424.19
389.163	439.19
389.387	443.19
389.612	430.19
389.837	440.19
390.062	437.19
390.287	431.19
390.512	449.19
390.736	426.19
390.961	436.19
391.186	462.19
391.411	428.19
391.636	445.19
391.86	452.19
392.085	453.19
392.31	468.19
392.534	441.19
392.759	465.19
392.984	443.19
393.208	460.19
393.433	463.19
393.658	449.19
393.882	433.19
394.107	451.19
394.331	444.19
394.556	458.19
394.78	462.19
395.005	464.19
395.229	465.19
395.454	478.19
395.678	458.19
395.903	484.19
396.127	493.19
396.352	470.19
396.576	434.19
396.801	464.19
397.025	452.19
397.249	479.19
397.474	479.19
397.698	482.19
397.922	503.19
398.147	518.19
398.371	509.19
398.595	517.19
398.82	514.19
399.044	525.19
399.268	569.19
399.492	593.19
399.717	651.19
399.941	673.19
400.165	674.19
400.389	639.19
400.613	579.19
400.837	549.19
401.062	528.19
401.286	516.19
401.51	507.19
401.734	507.19
401.958	517.19
402.182	535.19
402.406	547.19
402.63	517.19
402.854	526.19
403.078	539.19
403.302	537.19
403.526	537.19
403.75	543.19
403.974	536.19
404.198	551.19
404.422	553.19
404.645	536.19
404.869	564.19
405.093	566.19
405.317	584.19
405.541	616.19
405.765	580.19
405.988	563.19
406.212	555.19
406.436	554.19
406.66	553.19
406.883	562.19
407.107	597.19
407.331	623.19
407.555	680.19
407.778	661.19
408.002	621.19
408.226	611.19
408.449	603.19
408.673	601.19
408.896	592.19
409.12	602.19
409.344	594.19
409.567	570.19
409.791	532.19
410.014	551.19
410.238	534.19
410.461	510.19
410.685	523.19
410.908	537.19
411.132	528.19
411.355	568.19
411.578	569.19
411.802	525.19
412.025	545.19
412.249	549.19
412.472	560.19
412.695	581.19
412.919	553.19
413.142	537.19
413.365	533.19
413.589	519.19
413.812	534.19
414.035	512.19
414.258	500.19
414.482	506.19
414.705	498.19
414.928	501.19
415.151	489.19
415.374	493.19
415.597	499.19
415.821	484.19
416.044	499.19
416.267	483.19
416.49	476.19
416.713	500.19
416.936	504.19
417.159	479.19
417.382	478.19
417.605	502.19
417.828	514.19
418.051	515.19
418.274	483.19
418.497	486.19
418.72	508.19
418.943	499.19
419.166	504.19
419.389	554.19
419.611	537.19
419.834	531.19
420.057	520.19
420.28	520.19
420.503	525.19
420.726	507.19
420.948	485.19
421.171	547.19
421.394	574.19
421.617	513.19
421.839	499.19
422.062	504.19
422.285	513.19
422.507	565.19
422.73	597.19
422.953	574.19
423.175	535.19
423.398	551.19
423.621	540.19
423.843	525.19
424.066	547.19
424.288	527.19
424.511	544.19
424.733	569.19
424.956	623.19
425.178	613.19
425.401	619.19
425.623	625.19
425.846	571.19
426.068	545.19
426.291	524.19
426.513	501.19
426.735	523.19
426.958	564.19
427.18	597.19
427.402	664.19
427.625	721.19
427.847	621.19
428.069	588.19
428.292	526.19
428.514	504.19
428.736	485.19
428.958	491.19
429.181	504.19
429.403	485.19
429.625	482.19
429.847	470.19
430.069	529.19
430.292	537.19
430.514	482.19
430.736	493.19
430.958	482.19
431.18	452.19
431.402	474.19
431.624	439.19
431.846	477.19
432.068	467.19
432.29	461.19
432.512	469.19
432.734	478.19
432.956	481.19
433.178	483.19
433.4	482.19
433.622	482.19
433.844	484.19
434.066	480.19
434.287	489.19
434.509	474.19
434.731	481.19
434.953	496.19
435.175	535.19
435.397	522.19
435.618	512.19
435.84	536.19
436.062	612.19
436.284	659.19
436.505	574.19
436.727	537.19
436.949	482.19
437.17	473.19
437.392	510.19
437.614	496.19
437.835	490.19
438.057	549.19
438.278	625.19
438.5	606.19
438.721	657.19
438.943	667.19
439.165	565.19
439.386	500.19
439.608	508.19
439.829	510.19
440.05	509.19
440.272	549.19
440.493	495.19
440.715	523.19
440.936	498.19
441.158	475.19
441.379	490.19
441.6	523.19
441.822	533.19
442.043	561.19
442.264	592.19
442.486	603.19
442.707	549.19
442.928	527.19
443.149	531.19
443.371	543.19
443.592	570.19
443.813	633.19
444.034	654.19
444.255	601.19
444.476	549.19
444.698	549.19
444.919	556.19
445.14	619.19
445.361	591.19
445.582	558.19
445.803	585.19
446.024	624.19
446.245	624.19
446.466	590.19
446.687	538.19
446.908	498.19
447.129	509.19
447.35	486.19
447.571	462.19
447.792	456.19
448.013	462.19
448.234	491.19
448.455	502.19
448.675	579.19
448.896	636.19
449.117	569.19
449.338	551.19
449.559	597.19
449.779	668.19
450	572.19
450.221	497.19
450.442	474.19
450.662	446.19
450.883	446.19
451.104	450.19
451.324	439.19
451.545	440.19
451.766	448.19
451.986	446.19
452.207	435.19
452.428	441.19
452.648	409.19
452.869	422.19
453.089	406.19
453.31	433.19
453.53	403.19
453.751	408.19
453.971	419.19
454.192	437.19
454.412	419.19
454.633	418.19
454.853	435.19
455.073	419.19
455.294	442.19
455.514	459.19
455.734	476.19
455.955	429.19
456.175	414.19
456.395	405.19
456.616	400.19
456.836	411.19
457.056	418.19
457.276	402.19
457.497	421.19
457.717	421.19
457.937	424.19
458.157	421.19
458.377	425.19
458.598	451.19
458.818	490.19
459.038	501.19
459.258	531.19
459.478	491.19
459.698	477.19
459.918	488.19
460.138	483.19
460.358	500.19
460.578	493.19
460.798	520.19
461.018	516.19
461.238	520.19
461.458	511.19
461.678	507.19
461.898	525.19
462.118	524.19
462.338	537.19
462.558	556.19
462.777	561.19
462.997	568.19
463.217	594.19
463.437	604.19
463.657	566.19
463.876	553.19
464.096	549.19
464.316	559.19
464.536	570.19
464.755	549.19
464.975	559.19
465.195	548.19
465.414	549.19
465.634	513.19
465.854	507.19
466.073	466.19
466.293	472.19
466.512	454.19
466.732	462.19
466.951	470.19
467.171	451.19
467.391	453.19
467.61	457.19
467.829	445.19
468.049	462.19
468.268	440.19
468.488	438.19
468.707	453.19
468.927	437.19
469.146	444.19
469.365	425.19
469.585	461.19
469.804	455.19
470.023	461.19
470.243	467.19
470.462	459.19
470.681	473.19
470.901	467.19
471.12	456.19
471.339	456.19
471.558	456.19
471.777	449.19
471.997	462.19
472.216	451.19
472.435	481.19
472.654	467.19
472.873	427.19
473.092	437.19
473.311	439.19
473.53	445.19
473.749	449.19
473.968	492.19
474.187	521.19
474.406	543.19
474.625	493.19
474.844	485.19
475.063	458.19
475.282	451.19
475.501	440.19
475.72	457.19
475.939	462.19
476.158	468.19
476.377	469.19
476.596	477.19
476.814	477.19
477.033	477.19
477.252	479.19
477.471	474.19
477.69	494.19
477.908	509.19
478.127	526.19
478.346	515.19
478.564	529.19
478.783	521.19
479.002	534.19
479.22	518.19
479.439	540.19
479.658	537.19
479.876	529.19
480.095	533.19
480.313	562.19
480.532	574.19
480.751	581.19
480.969	586.19
481.188	585.19
481.406	586.19
481.624	564.19
481.843	547.19
482.061	540.19
482.28	533.19
482.498	545.19
482.717	545.19
482.935	524.19
483.153	526.19
483.372	513.19
483.59	532.19
483.808	541.19
484.027	515.19
484.245	523.19
484.463	528.19
484.681	529.19
484.9	530.19
485.118	540.19
485.336	533.19
485.554	545.19
485.772	561.19
485.99	563.19
486.209	548.19
486.427	538.19
486.645	545.19
486.863	565.19
487.081	559.19
487.299	563.19
487.517	558.19
487.735	565.19
487.953	563.19
488.171	552.19
488.389	543.19
488.607	567.19
488.825	553.19
489.043	539.19
489.261	557.19
489.479	559.19
489.696	587.19
489.914	573.19
490.132	573.19
490.35	562.19
490.568	561.19
490.786	591.19
491.003	583.19
491.221	593.19
491.439	582.19
491.657	593.19
491.874	590.19
492.092	608.19
492.31	601.19
492.527	629.19
492.745	633.19
492.963	617.19
493.18	635.19
493.398	618.19
493.615	627.19
493.833	633.19
494.05	625.19
494.268	632.19
494.485	619.19
494.703	629.19
494.92	631.19
495.138	636.19
495.355	623.19
495.573	656.19
495.79	633.19
496.008	634.19
496.225	634.19
496.442	641.19
496.66	637.19
496.877	638.19
497.094	648.19
497.312	652.19
497.529	655.19
497.746	669.19
497.963	711.19
498.181	710.19
498.398	727.19
498.615	759.19
498.832	782.19
499.049	819.19
499.267	874.19
499.484	891.19
499.701	921.19
499.918	993.19
500.135	1052.19
500.352	1133.19
500.569	1167.19
500.786	1158.19
501.003	1123.19
501.22	1091.19
501.437	992.19
501.654	928.19
501.871	890.19
