Data from 1962.PennyLincolnUp.Lamp.En5.5.200Scan.071719.P1._HRD10591_13-53-58-061.txt Node
Date: Thu Jul 18 13:53:58 EDT 2019
User: cochatt
Spectrometer: HR+D1059
Trigger mode: 1
Integration Time (sec): 1.000000E-1
Scans to average: 1
Electric dark correction enabled: true
Nonlinearity correction enabled: false
Boxcar width: 0
XAxis mode: Wavelengths
Number of Pixels in Spectrum: 2048
>>>>>Begin Spectral Data<<<<<
223.165	-20.56
223.4	-20.56
223.635	-20.56
223.869	-13.56
224.104	-29.56
224.338	-13.56
224.573	-15.56
224.808	0.44
225.042	-7.56
225.277	-10.56
225.511	6.44
225.746	3.44
225.98	3.44
226.215	8.44
226.449	9.44
226.683	28.44
226.918	20.44
227.152	30.44
227.387	21.44
227.621	32.44
227.856	34.44
228.09	34.44
228.324	54.44
228.559	51.44
228.793	75.44
229.027	84.44
229.262	96.44
229.496	99.44
229.73	113.44
229.964	115.44
230.199	112.44
230.433	105.44
230.667	96.44
230.901	125.44
231.136	117.44
231.37	106.44
231.604	100.44
231.838	101.44
232.072	115.44
232.306	108.44
232.541	104.44
232.775	104.44
233.009	120.44
233.243	114.44
233.477	108.44
233.711	116.44
233.945	107.44
234.179	115.44
234.413	102.44
234.647	106.44
234.881	112.44
235.115	108.44
235.349	119.44
235.583	120.44
235.817	114.44
236.051	119.44
236.285	118.44
236.519	128.44
236.753	113.44
236.987	136.44
237.221	137.44
237.455	192.44
237.689	155.44
237.922	132.44
238.156	121.44
238.39	134.44
238.624	129.44
238.858	112.44
239.091	116.44
239.325	128.44
239.559	125.44
239.793	117.44
240.027	130.44
240.26	130.44
240.494	133.44
240.728	135.44
240.961	138.44
241.195	114.44
241.429	133.44
241.662	125.44
241.896	142.44
242.13	133.44
242.363	122.44
242.597	129.44
242.83	138.44
243.064	125.44
243.298	122.44
243.531	153.44
243.765	129.44
243.998	115.44
244.232	140.44
244.465	148.44
244.699	131.44
244.932	139.44
245.166	152.44
245.399	152.44
245.633	140.44
245.866	141.44
246.099	147.44
246.333	125.44
246.566	135.44
246.8	149.44
247.033	156.44
247.266	120.44
247.5	140.44
247.733	171.44
247.966	178.44
248.2	156.44
248.433	158.44
248.666	144.44
248.899	158.44
249.133	164.44
249.366	182.44
249.599	170.44
249.832	184.44
250.066	172.44
250.299	178.44
250.532	178.44
250.765	188.44
250.998	183.44
251.231	204.44
251.465	206.44
251.698	179.44
251.931	201.44
252.164	181.44
252.397	187.44
252.63	176.44
252.863	190.44
253.096	204.44
253.329	205.44
253.562	210.44
253.795	199.44
254.028	189.44
254.261	202.44
254.494	200.44
254.727	225.44
254.96	217.44
255.193	214.44
255.426	206.44
255.659	212.44
255.892	214.44
256.124	205.44
256.357	205.44
256.59	209.44
256.823	204.44
257.056	192.44
257.289	196.44
257.521	188.44
257.754	195.44
257.987	181.44
258.22	185.44
258.452	196.44
258.685	202.44
258.918	187.44
259.151	202.44
259.383	185.44
259.616	213.44
259.849	203.44
260.081	225.44
260.314	215.44
260.547	226.44
260.779	245.44
261.012	223.44
261.244	200.44
261.477	217.44
261.71	204.44
261.942	206.44
262.175	216.44
262.407	203.44
262.64	194.44
262.872	193.44
263.105	202.44
263.337	226.44
263.57	210.44
263.802	210.44
264.035	203.44
264.267	201.44
264.499	192.44
264.732	200.44
264.964	194.44
265.197	193.44
265.429	203.44
265.661	211.44
265.894	200.44
266.126	209.44
266.358	205.44
266.591	213.44
266.823	226.44
267.055	232.44
267.287	211.44
267.52	204.44
267.752	221.44
267.984	213.44
268.216	227.44
268.448	232.44
268.681	235.44
268.913	222.44
269.145	237.44
269.377	245.44
269.609	254.44
269.841	271.44
270.073	244.44
270.306	265.44
270.538	277.44
270.77	280.44
271.002	264.44
271.234	284.44
271.466	269.44
271.698	252.44
271.93	287.44
272.162	267.44
272.394	289.44
272.626	280.44
272.858	282.44
273.09	248.44
273.322	238.44
273.553	266.44
273.785	268.44
274.017	255.44
274.249	254.44
274.481	262.44
274.713	249.44
274.945	254.44
275.176	253.44
275.408	256.44
275.64	249.44
275.872	264.44
276.104	258.44
276.335	262.44
276.567	270.44
276.799	274.44
277.031	276.44
277.262	302.44
277.494	292.44
277.726	284.44
277.957	273.44
278.189	277.44
278.421	265.44
278.652	266.44
278.884	263.44
279.115	269.44
279.347	254.44
279.579	274.44
279.81	282.44
280.042	265.44
280.273	274.44
280.505	273.44
280.736	270.44
280.968	249.44
281.199	277.44
281.431	282.44
281.662	267.44
281.894	259.44
282.125	270.44
282.356	280.44
282.588	292.44
282.819	285.44
283.051	278.44
283.282	270.44
283.513	274.44
283.745	289.44
283.976	277.44
284.207	297.44
284.439	298.44
284.67	289.44
284.901	294.44
285.132	258.44
285.364	275.44
285.595	290.44
285.826	296.44
286.057	302.44
286.288	296.44
286.52	284.44
286.751	290.44
286.982	291.44
287.213	281.44
287.444	282.44
287.675	299.44
287.906	304.44
288.138	292.44
288.369	308.44
288.6	297.44
288.831	295.44
289.062	306.44
289.293	296.44
289.524	293.44
289.755	307.44
289.986	297.44
290.217	308.44
290.448	300.44
290.679	309.44
290.91	298.44
291.141	295.44
291.371	284.44
291.602	283.44
291.833	313.44
292.064	306.44
292.295	301.44
292.526	295.44
292.757	305.44
292.987	306.44
293.218	306.44
293.449	302.44
293.68	316.44
293.91	305.44
294.141	314.44
294.372	284.44
294.603	305.44
294.833	317.44
295.064	311.44
295.295	304.44
295.525	311.44
295.756	306.44
295.987	313.44
296.217	334.44
296.448	322.44
296.679	284.44
296.909	312.44
297.14	321.44
297.37	322.44
297.601	304.44
297.831	306.44
298.062	286.44
298.292	321.44
298.523	333.44
298.753	308.44
298.984	306.44
299.214	327.44
299.445	316.44
299.675	326.44
299.905	308.44
300.136	332.44
300.366	317.44
300.597	323.44
300.827	330.44
301.057	334.44
301.288	352.44
301.518	341.44
301.748	336.44
301.979	345.44
302.209	333.44
302.439	348.44
302.669	317.44
302.9	335.44
303.13	349.44
303.36	329.44
303.59	352.44
303.82	356.44
304.051	355.44
304.281	340.44
304.511	337.44
304.741	330.44
304.971	355.44
305.201	347.44
305.431	350.44
305.661	355.44
305.891	340.44
306.121	324.44
306.352	324.44
306.582	337.44
306.812	344.44
307.042	340.44
307.272	351.44
307.502	332.44
307.731	347.44
307.961	352.44
308.191	333.44
308.421	344.44
308.651	343.44
308.881	332.44
309.111	352.44
309.341	339.44
309.571	358.44
309.8	355.44
310.03	356.44
310.26	361.44
310.49	348.44
310.72	369.44
310.949	380.44
311.179	372.44
311.409	373.44
311.639	362.44
311.868	372.44
312.098	361.44
312.328	354.44
312.557	370.44
312.787	386.44
313.017	360.44
313.246	374.44
313.476	372.44
313.706	372.44
313.935	387.44
314.165	376.44
314.394	369.44
314.624	382.44
314.853	372.44
315.083	372.44
315.312	371.44
315.542	388.44
315.771	377.44
316.001	390.44
316.23	356.44
316.46	345.44
316.689	364.44
316.919	371.44
317.148	392.44
317.377	389.44
317.607	371.44
317.836	375.44
318.065	376.44
318.295	373.44
318.524	379.44
318.753	375.44
318.983	383.44
319.212	375.44
319.441	371.44
319.67	380.44
319.9	380.44
320.129	375.44
320.358	394.44
320.587	379.44
320.816	376.44
321.046	402.44
321.275	377.44
321.504	386.44
321.733	381.44
321.962	382.44
322.191	391.44
322.42	410.44
322.649	406.44
322.878	419.44
323.108	404.44
323.337	438.44
323.566	423.44
323.795	469.44
324.024	483.44
324.253	546.44
324.482	718.44
324.71	987.44
324.939	1406.44
325.168	1242.44
325.397	710.44
325.626	500.44
325.855	463.44
326.084	442.44
326.313	454.44
326.542	450.44
326.77	459.44
326.999	542.44
327.228	663.44
327.457	948.44
327.686	1103.44
327.914	776.44
328.143	569.44
328.372	502.44
328.6	483.44
328.829	504.44
329.058	490.44
329.287	483.44
329.515	448.44
329.744	459.44
329.972	453.44
330.201	465.44
330.43	492.44
330.658	495.44
330.887	520.44
331.115	488.44
331.344	473.44
331.572	467.44
331.801	446.44
332.03	465.44
332.258	450.44
332.486	477.44
332.715	439.44
332.943	467.44
333.172	460.44
333.4	475.44
333.629	472.44
333.857	500.44
334.085	512.44
334.314	515.44
334.542	506.44
334.771	515.44
334.999	479.44
335.227	490.44
335.455	472.44
335.684	461.44
335.912	463.44
336.14	444.44
336.369	459.44
336.597	461.44
336.825	449.44
337.053	451.44
337.281	453.44
337.51	445.44
337.738	457.44
337.966	433.44
338.194	438.44
338.422	448.44
338.65	450.44
338.878	451.44
339.106	437.44
339.334	441.44
339.562	440.44
339.79	433.44
340.018	417.44
340.246	431.44
340.474	443.44
340.702	434.44
340.93	403.44
341.158	448.44
341.386	422.44
341.614	425.44
341.842	432.44
342.07	436.44
342.298	407.44
342.526	436.44
342.754	428.44
342.981	416.44
343.209	413.44
343.437	416.44
343.665	440.44
343.893	458.44
344.12	461.44
344.348	459.44
344.576	457.44
344.804	453.44
345.031	445.44
345.259	457.44
345.487	438.44
345.714	435.44
345.942	419.44
346.17	412.44
346.397	426.44
346.625	425.44
346.853	388.44
347.08	427.44
347.308	407.44
347.535	429.44
347.763	417.44
347.99	423.44
348.218	423.44
348.445	423.44
348.673	412.44
348.9	408.44
349.128	438.44
349.355	409.44
349.583	403.44
349.81	396.44
350.037	420.44
350.265	420.44
350.492	412.44
350.72	398.44
350.947	406.44
351.174	401.44
351.402	387.44
351.629	408.44
351.856	392.44
352.083	399.44
352.311	388.44
352.538	433.44
352.765	408.44
352.992	402.44
353.22	400.44
353.447	421.44
353.674	391.44
353.901	376.44
354.128	397.44
354.355	392.44
354.583	394.44
354.81	391.44
355.037	405.44
355.264	389.44
355.491	398.44
355.718	376.44
355.945	391.44
356.172	388.44
356.399	393.44
356.626	396.44
356.853	405.44
357.08	402.44
357.307	385.44
357.534	402.44
357.761	384.44
357.988	397.44
358.215	369.44
358.441	384.44
358.668	381.44
358.895	408.44
359.122	407.44
359.349	398.44
359.576	429.44
359.802	438.44
360.029	424.44
360.256	439.44
360.483	420.44
360.709	402.44
360.936	419.44
361.163	380.44
361.39	395.44
361.616	408.44
361.843	404.44
362.07	402.44
362.296	399.44
362.523	411.44
362.749	410.44
362.976	408.44
363.203	405.44
363.429	409.44
363.656	386.44
363.882	416.44
364.109	389.44
364.335	386.44
364.562	394.44
364.788	416.44
365.015	395.44
365.241	395.44
365.468	413.44
365.694	415.44
365.92	402.44
366.147	400.44
366.373	372.44
366.599	389.44
366.826	399.44
367.052	416.44
367.278	413.44
367.505	402.44
367.731	384.44
367.957	398.44
368.184	411.44
368.41	398.44
368.636	412.44
368.862	411.44
369.089	409.44
369.315	400.44
369.541	405.44
369.767	395.44
369.993	392.44
370.219	419.44
370.445	405.44
370.672	409.44
370.898	406.44
371.124	389.44
371.35	416.44
371.576	419.44
371.802	417.44
372.028	390.44
372.254	413.44
372.48	420.44
372.706	404.44
372.932	427.44
373.158	419.44
373.384	412.44
373.61	416.44
373.835	424.44
374.061	421.44
374.287	422.44
374.513	423.44
374.739	413.44
374.965	425.44
375.191	444.44
375.416	432.44
375.642	425.44
375.868	408.44
376.094	401.44
376.319	398.44
376.545	406.44
376.771	437.44
376.997	440.44
377.222	420.44
377.448	420.44
377.674	409.44
377.899	426.44
378.125	413.44
378.35	417.44
378.576	386.44
378.802	397.44
379.027	425.44
379.253	410.44
379.478	391.44
379.704	408.44
379.929	412.44
380.155	397.44
380.38	413.44
380.606	407.44
380.831	413.44
381.057	402.44
381.282	402.44
381.507	420.44
381.733	418.44
381.958	425.44
382.184	416.44
382.409	428.44
382.634	428.44
382.86	430.44
383.085	425.44
383.31	433.44
383.535	428.44
383.761	437.44
383.986	434.44
384.211	448.44
384.436	425.44
384.662	448.44
384.887	459.44
385.112	450.44
385.337	465.44
385.562	457.44
385.787	460.44
386.013	476.44
386.238	448.44
386.463	463.44
386.688	471.44
386.913	459.44
387.138	437.44
387.363	468.44
387.588	433.44
387.813	433.44
388.038	477.44
388.263	446.44
388.488	475.44
388.713	454.44
388.938	448.44
389.163	433.44
389.387	477.44
389.612	465.44
389.837	449.44
390.062	483.44
390.287	467.44
390.512	478.44
390.736	455.44
390.961	485.44
391.186	451.44
391.411	493.44
391.636	492.44
391.86	492.44
392.085	518.44
392.31	505.44
392.534	491.44
392.759	489.44
392.984	475.44
393.208	481.44
393.433	483.44
393.658	472.44
393.882	470.44
394.107	478.44
394.331	479.44
394.556	476.44
394.78	474.44
395.005	489.44
395.229	490.44
395.454	487.44
395.678	509.44
395.903	517.44
396.127	524.44
396.352	517.44
396.576	504.44
396.801	508.44
397.025	499.44
397.249	493.44
397.474	498.44
397.698	517.44
397.922	537.44
398.147	547.44
398.371	531.44
398.595	536.44
398.82	532.44
399.044	567.44
399.268	604.44
399.492	632.44
399.717	667.44
399.941	691.44
400.165	672.44
400.389	674.44
400.613	608.44
400.837	620.44
401.062	556.44
401.286	566.44
401.51	548.44
401.734	554.44
401.958	567.44
402.182	553.44
402.406	556.44
402.63	571.44
402.854	553.44
403.078	570.44
403.302	589.44
403.526	553.44
403.75	588.44
403.974	603.44
404.198	600.44
404.422	593.44
404.645	566.44
404.869	588.44
405.093	587.44
405.317	658.44
405.541	673.44
405.765	622.44
405.988	618.44
406.212	588.44
406.436	611.44
406.66	607.44
406.883	597.44
407.107	637.44
407.331	688.44
407.555	750.44
407.778	727.44
408.002	677.44
408.226	662.44
408.449	634.44
408.673	599.44
408.896	654.44
409.12	662.44
409.344	611.44
409.567	596.44
409.791	598.44
410.014	598.44
410.238	574.44
410.461	586.44
410.685	586.44
410.908	583.44
411.132	609.44
411.355	610.44
411.578	617.44
411.802	574.44
412.025	566.44
412.249	567.44
412.472	590.44
412.695	605.44
412.919	603.44
413.142	572.44
413.365	558.44
413.589	552.44
413.812	548.44
414.035	550.44
414.258	540.44
414.482	518.44
414.705	572.44
414.928	552.44
415.151	519.44
415.374	537.44
415.597	539.44
415.821	539.44
416.044	528.44
416.267	544.44
416.49	534.44
416.713	547.44
416.936	538.44
417.159	530.44
417.382	509.44
417.605	513.44
417.828	530.44
418.051	565.44
418.274	562.44
418.497	543.44
418.72	542.44
418.943	541.44
419.166	550.44
419.389	595.44
419.611	582.44
419.834	567.44
420.057	576.44
420.28	573.44
420.503	573.44
420.726	561.44
420.948	547.44
421.171	588.44
421.394	589.44
421.617	557.44
421.839	536.44
422.062	552.44
422.285	553.44
422.507	605.44
422.73	651.44
422.953	644.44
423.175	603.44
423.398	564.44
423.621	570.44
423.843	587.44
424.066	567.44
424.288	579.44
424.511	593.44
424.733	619.44
424.956	684.44
425.178	636.44
425.401	654.44
425.623	689.44
425.846	587.44
426.068	562.44
426.291	558.44
426.513	561.44
426.735	578.44
426.958	592.44
427.18	654.44
427.402	752.44
427.625	810.44
427.847	678.44
428.069	616.44
428.292	579.44
428.514	549.44
428.736	535.44
428.958	550.44
429.181	510.44
429.403	486.44
429.625	522.44
429.847	539.44
430.069	589.44
430.292	571.44
430.514	554.44
430.736	532.44
430.958	522.44
431.18	492.44
431.402	513.44
431.624	525.44
431.846	507.44
432.068	488.44
432.29	513.44
432.512	503.44
432.734	508.44
432.956	532.44
433.178	517.44
433.4	514.44
433.622	511.44
433.844	529.44
434.066	531.44
434.287	519.44
434.509	506.44
434.731	529.44
434.953	541.44
435.175	550.44
435.397	570.44
435.618	538.44
435.84	582.44
436.062	642.44
436.284	692.44
436.505	582.44
436.727	550.44
436.949	536.44
437.17	526.44
437.392	508.44
437.614	536.44
437.835	519.44
438.057	611.44
438.278	696.44
438.5	668.44
438.721	728.44
438.943	709.44
439.165	586.44
439.386	568.44
439.608	554.44
439.829	547.44
440.05	562.44
440.272	578.44
440.493	581.44
440.715	536.44
440.936	532.44
441.158	520.44
441.379	527.44
441.6	564.44
441.822	579.44
442.043	558.44
442.264	660.44
442.486	669.44
442.707	596.44
442.928	556.44
443.149	568.44
443.371	580.44
443.592	618.44
443.813	672.44
444.034	747.44
444.255	616.44
444.476	606.44
444.698	598.44
444.919	605.44
445.14	718.44
445.361	661.44
445.582	603.44
445.803	630.44
446.024	688.44
446.245	687.44
446.466	618.44
446.687	590.44
446.908	551.44
447.129	512.44
447.35	514.44
447.571	536.44
447.792	510.44
448.013	521.44
448.234	538.44
448.455	556.44
448.675	621.44
448.896	738.44
449.117	630.44
449.338	568.44
449.559	652.44
449.779	743.44
450	637.44
450.221	527.44
450.442	498.44
450.662	488.44
450.883	501.44
451.104	516.44
451.324	488.44
451.545	492.44
451.766	458.44
451.986	477.44
452.207	457.44
452.428	466.44
452.648	467.44
452.869	450.44
453.089	468.44
453.31	471.44
453.53	480.44
453.751	464.44
453.971	481.44
454.192	455.44
454.412	447.44
454.633	470.44
454.853	441.44
455.073	450.44
455.294	470.44
455.514	516.44
455.734	499.44
455.955	466.44
456.175	431.44
456.395	438.44
456.616	441.44
456.836	444.44
457.056	449.44
457.276	410.44
457.497	444.44
457.717	455.44
457.937	448.44
458.157	454.44
458.377	438.44
458.598	479.44
458.818	522.44
459.038	580.44
459.258	590.44
459.478	528.44
459.698	523.44
459.918	522.44
460.138	519.44
460.358	531.44
460.578	542.44
460.798	533.44
461.018	543.44
461.238	536.44
461.458	539.44
461.678	539.44
461.898	557.44
462.118	542.44
462.338	573.44
462.558	582.44
462.777	590.44
462.997	619.44
463.217	646.44
463.437	640.44
463.657	619.44
463.876	609.44
464.096	602.44
464.316	575.44
464.536	593.44
464.755	590.44
464.975	566.44
465.195	607.44
465.414	569.44
465.634	549.44
465.854	541.44
466.073	493.44
466.293	516.44
466.512	503.44
466.732	485.44
466.951	483.44
467.171	467.44
467.391	476.44
467.61	480.44
467.829	492.44
468.049	491.44
468.268	488.44
468.488	475.44
468.707	463.44
468.927	483.44
469.146	497.44
469.365	480.44
469.585	475.44
469.804	456.44
470.023	502.44
470.243	485.44
470.462	486.44
470.681	498.44
470.901	512.44
471.12	488.44
471.339	485.44
471.558	486.44
471.777	509.44
471.997	492.44
472.216	489.44
472.435	482.44
472.654	529.44
472.873	496.44
473.092	488.44
473.311	474.44
473.53	484.44
473.749	500.44
473.968	514.44
474.187	582.44
474.406	556.44
474.625	516.44
474.844	494.44
475.063	467.44
475.282	476.44
475.501	483.44
475.72	514.44
475.939	510.44
476.158	507.44
476.377	486.44
476.596	479.44
476.814	520.44
477.033	524.44
477.252	516.44
477.471	527.44
477.69	555.44
477.908	543.44
478.127	547.44
478.346	544.44
478.564	580.44
478.783	562.44
479.002	576.44
479.22	560.44
479.439	589.44
479.658	560.44
479.876	590.44
480.095	589.44
480.313	629.44
480.532	624.44
480.751	612.44
480.969	626.44
481.188	620.44
481.406	627.44
481.624	580.44
481.843	571.44
482.061	589.44
482.28	567.44
482.498	574.44
482.717	555.44
482.935	571.44
483.153	547.44
483.372	556.44
483.59	569.44
483.808	562.44
484.027	567.44
484.245	554.44
484.463	565.44
484.681	575.44
484.9	576.44
485.118	564.44
485.336	591.44
485.554	588.44
485.772	587.44
485.99	597.44
486.209	616.44
486.427	585.44
486.645	584.44
486.863	608.44
487.081	596.44
487.299	606.44
487.517	582.44
487.735	592.44
487.953	616.44
488.171	588.44
488.389	582.44
488.607	591.44
488.825	610.44
489.043	619.44
489.261	580.44
489.479	614.44
489.696	622.44
489.914	615.44
490.132	612.44
490.35	606.44
490.568	589.44
490.786	601.44
491.003	642.44
491.221	635.44
491.439	621.44
491.657	655.44
491.874	654.44
492.092	666.44
492.31	646.44
492.527	639.44
492.745	656.44
492.963	674.44
493.18	696.44
493.398	660.44
493.615	654.44
493.833	682.44
494.05	664.44
494.268	681.44
494.485	688.44
494.703	678.44
494.92	670.44
495.138	693.44
495.355	674.44
495.573	701.44
495.79	659.44
496.008	692.44
496.225	697.44
496.442	695.44
496.66	698.44
496.877	708.44
497.094	732.44
497.312	686.44
497.529	722.44
497.746	740.44
497.963	728.44
498.181	797.44
498.398	779.44
498.615	802.44
498.832	829.44
499.049	864.44
499.267	915.44
499.484	946.44
499.701	1040.44
499.918	1094.44
500.135	1144.44
500.352	1227.44
500.569	1228.44
500.786	1217.44
501.003	1208.44
501.22	1138.44
501.437	1085.44
501.654	1032.44
501.871	987.44
