Data from 1962.PennyLincolnUp.Lamp.En5.5.200Scan.071719.P1._HRD10591_13-53-41-060.txt Node
Date: Thu Jul 18 13:53:41 EDT 2019
User: cochatt
Spectrometer: HR+D1059
Trigger mode: 1
Integration Time (sec): 1.000000E-1
Scans to average: 1
Electric dark correction enabled: true
Nonlinearity correction enabled: false
Boxcar width: 0
XAxis mode: Wavelengths
Number of Pixels in Spectrum: 2048
>>>>>Begin Spectral Data<<<<<
223.165	-6.94
223.4	-6.94
223.635	-6.94
223.869	-19.94
224.104	-18.94
224.338	-21.94
224.573	-14.94
224.808	-8.94
225.042	-12.94
225.277	4.06
225.511	3.06
225.746	5.06
225.98	8.06
226.215	12.06
226.449	11.06
226.683	14.06
226.918	23.06
227.152	24.06
227.387	28.06
227.621	40.06
227.856	41.06
228.09	58.06
228.324	60.06
228.559	64.06
228.793	76.06
229.027	86.06
229.262	75.06
229.496	94.06
229.73	116.06
229.964	120.06
230.199	111.06
230.433	109.06
230.667	108.06
230.901	88.06
231.136	104.06
231.37	106.06
231.604	126.06
231.838	109.06
232.072	96.06
232.306	122.06
232.541	126.06
232.775	117.06
233.009	120.06
233.243	109.06
233.477	121.06
233.711	121.06
233.945	126.06
234.179	118.06
234.413	116.06
234.647	105.06
234.881	132.06
235.115	105.06
235.349	120.06
235.583	120.06
235.817	121.06
236.051	111.06
236.285	121.06
236.519	114.06
236.753	128.06
236.987	126.06
237.221	133.06
237.455	175.06
237.689	175.06
237.922	125.06
238.156	139.06
238.39	123.06
238.624	119.06
238.858	116.06
239.091	129.06
239.325	116.06
239.559	118.06
239.793	109.06
240.027	112.06
240.26	123.06
240.494	143.06
240.728	134.06
240.961	129.06
241.195	134.06
241.429	120.06
241.662	128.06
241.896	122.06
242.13	131.06
242.363	112.06
242.597	128.06
242.83	131.06
243.064	135.06
243.298	136.06
243.531	133.06
243.765	136.06
243.998	142.06
244.232	145.06
244.465	139.06
244.699	147.06
244.932	144.06
245.166	141.06
245.399	139.06
245.633	144.06
245.866	131.06
246.099	140.06
246.333	135.06
246.566	155.06
246.8	137.06
247.033	154.06
247.266	138.06
247.5	145.06
247.733	154.06
247.966	180.06
248.2	159.06
248.433	160.06
248.666	172.06
248.899	173.06
249.133	178.06
249.366	184.06
249.599	162.06
249.832	175.06
250.066	166.06
250.299	158.06
250.532	172.06
250.765	157.06
250.998	186.06
251.231	208.06
251.465	191.06
251.698	190.06
251.931	176.06
252.164	173.06
252.397	175.06
252.63	166.06
252.863	184.06
253.096	178.06
253.329	198.06
253.562	196.06
253.795	203.06
254.028	193.06
254.261	195.06
254.494	203.06
254.727	204.06
254.96	217.06
255.193	226.06
255.426	206.06
255.659	201.06
255.892	206.06
256.124	216.06
256.357	218.06
256.59	203.06
256.823	200.06
257.056	187.06
257.289	202.06
257.521	184.06
257.754	187.06
257.987	190.06
258.22	196.06
258.452	185.06
258.685	189.06
258.918	204.06
259.151	202.06
259.383	191.06
259.616	200.06
259.849	222.06
260.081	209.06
260.314	199.06
260.547	227.06
260.779	208.06
261.012	197.06
261.244	201.06
261.477	216.06
261.71	208.06
261.942	198.06
262.175	187.06
262.407	208.06
262.64	206.06
262.872	203.06
263.105	208.06
263.337	194.06
263.57	201.06
263.802	200.06
264.035	197.06
264.267	192.06
264.499	198.06
264.732	212.06
264.964	196.06
265.197	205.06
265.429	209.06
265.661	204.06
265.894	213.06
266.126	200.06
266.358	209.06
266.591	202.06
266.823	218.06
267.055	219.06
267.287	200.06
267.52	223.06
267.752	217.06
267.984	210.06
268.216	219.06
268.448	216.06
268.681	220.06
268.913	231.06
269.145	228.06
269.377	231.06
269.609	241.06
269.841	253.06
270.073	244.06
270.306	266.06
270.538	251.06
270.77	266.06
271.002	267.06
271.234	255.06
271.466	255.06
271.698	269.06
271.93	273.06
272.162	281.06
272.394	281.06
272.626	262.06
272.858	237.06
273.09	248.06
273.322	237.06
273.553	250.06
273.785	254.06
274.017	238.06
274.249	277.06
274.481	256.06
274.713	246.06
274.945	257.06
275.176	258.06
275.408	245.06
275.64	237.06
275.872	256.06
276.104	254.06
276.335	251.06
276.567	256.06
276.799	250.06
277.031	251.06
277.262	271.06
277.494	268.06
277.726	259.06
277.957	272.06
278.189	257.06
278.421	263.06
278.652	261.06
278.884	263.06
279.115	265.06
279.347	252.06
279.579	251.06
279.81	264.06
280.042	242.06
280.273	265.06
280.505	300.06
280.736	267.06
280.968	248.06
281.199	256.06
281.431	257.06
281.662	267.06
281.894	257.06
282.125	252.06
282.356	261.06
282.588	284.06
282.819	284.06
283.051	271.06
283.282	253.06
283.513	267.06
283.745	271.06
283.976	277.06
284.207	281.06
284.439	285.06
284.67	273.06
284.901	264.06
285.132	270.06
285.364	267.06
285.595	277.06
285.826	259.06
286.057	289.06
286.288	265.06
286.52	274.06
286.751	264.06
286.982	286.06
287.213	290.06
287.444	296.06
287.675	284.06
287.906	279.06
288.138	297.06
288.369	290.06
288.6	295.06
288.831	286.06
289.062	287.06
289.293	287.06
289.524	283.06
289.755	299.06
289.986	300.06
290.217	277.06
290.448	278.06
290.679	297.06
290.91	286.06
291.141	288.06
291.371	295.06
291.602	285.06
291.833	296.06
292.064	269.06
292.295	282.06
292.526	291.06
292.757	290.06
292.987	287.06
293.218	282.06
293.449	297.06
293.68	277.06
293.91	301.06
294.141	285.06
294.372	295.06
294.603	283.06
294.833	310.06
295.064	294.06
295.295	303.06
295.525	301.06
295.756	309.06
295.987	314.06
296.217	321.06
296.448	316.06
296.679	311.06
296.909	299.06
297.14	305.06
297.37	310.06
297.601	311.06
297.831	313.06
298.062	316.06
298.292	309.06
298.523	306.06
298.753	304.06
298.984	315.06
299.214	305.06
299.445	328.06
299.675	318.06
299.905	330.06
300.136	301.06
300.366	293.06
300.597	319.06
300.827	302.06
301.057	320.06
301.288	331.06
301.518	315.06
301.748	324.06
301.979	322.06
302.209	316.06
302.439	317.06
302.669	340.06
302.9	329.06
303.13	314.06
303.36	334.06
303.59	328.06
303.82	328.06
304.051	333.06
304.281	346.06
304.511	334.06
304.741	339.06
304.971	302.06
305.201	320.06
305.431	317.06
305.661	332.06
305.891	326.06
306.121	329.06
306.352	326.06
306.582	343.06
306.812	338.06
307.042	333.06
307.272	329.06
307.502	306.06
307.731	334.06
307.961	325.06
308.191	329.06
308.421	332.06
308.651	334.06
308.881	320.06
309.111	323.06
309.341	315.06
309.571	336.06
309.8	330.06
310.03	319.06
310.26	358.06
310.49	348.06
310.72	342.06
310.949	365.06
311.179	361.06
311.409	352.06
311.639	347.06
311.868	351.06
312.098	352.06
312.328	353.06
312.557	364.06
312.787	368.06
313.017	364.06
313.246	363.06
313.476	339.06
313.706	349.06
313.935	333.06
314.165	361.06
314.394	358.06
314.624	370.06
314.853	362.06
315.083	376.06
315.312	356.06
315.542	350.06
315.771	340.06
316.001	350.06
316.23	360.06
316.46	334.06
316.689	346.06
316.919	354.06
317.148	384.06
317.377	354.06
317.607	358.06
317.836	353.06
318.065	366.06
318.295	361.06
318.524	377.06
318.753	360.06
318.983	360.06
319.212	369.06
319.441	342.06
319.67	369.06
319.9	355.06
320.129	375.06
320.358	362.06
320.587	367.06
320.816	360.06
321.046	360.06
321.275	357.06
321.504	379.06
321.733	366.06
321.962	384.06
322.191	384.06
322.42	385.06
322.649	382.06
322.878	373.06
323.108	398.06
323.337	399.06
323.566	404.06
323.795	420.06
324.024	434.06
324.253	506.06
324.482	641.06
324.71	901.06
324.939	1218.06
325.168	1078.06
325.397	640.06
325.626	472.06
325.855	453.06
326.084	431.06
326.313	441.06
326.542	421.06
326.77	455.06
326.999	495.06
327.228	617.06
327.457	826.06
327.686	953.06
327.914	685.06
328.143	518.06
328.372	486.06
328.6	455.06
328.829	454.06
329.058	452.06
329.287	449.06
329.515	454.06
329.744	428.06
329.972	420.06
330.201	435.06
330.43	444.06
330.658	476.06
330.887	485.06
331.115	477.06
331.344	443.06
331.572	431.06
331.801	452.06
332.03	452.06
332.258	419.06
332.486	425.06
332.715	436.06
332.943	442.06
333.172	430.06
333.4	425.06
333.629	452.06
333.857	461.06
334.085	484.06
334.314	482.06
334.542	492.06
334.771	482.06
334.999	479.06
335.227	458.06
335.455	476.06
335.684	445.06
335.912	447.06
336.14	454.06
336.369	435.06
336.597	444.06
336.825	440.06
337.053	428.06
337.281	446.06
337.51	433.06
337.738	414.06
337.966	414.06
338.194	410.06
338.422	423.06
338.65	422.06
338.878	439.06
339.106	419.06
339.334	417.06
339.562	419.06
339.79	429.06
340.018	415.06
340.246	428.06
340.474	428.06
340.702	416.06
340.93	424.06
341.158	416.06
341.386	406.06
341.614	406.06
341.842	402.06
342.07	396.06
342.298	410.06
342.526	410.06
342.754	402.06
342.981	395.06
343.209	401.06
343.437	410.06
343.665	420.06
343.893	443.06
344.12	474.06
344.348	458.06
344.576	448.06
344.804	428.06
345.031	442.06
345.259	434.06
345.487	421.06
345.714	403.06
345.942	388.06
346.17	398.06
346.397	388.06
346.625	398.06
346.853	375.06
347.08	377.06
347.308	396.06
347.535	396.06
347.763	415.06
347.99	401.06
348.218	409.06
348.445	391.06
348.673	399.06
348.9	390.06
349.128	418.06
349.355	379.06
349.583	384.06
349.81	390.06
350.037	368.06
350.265	377.06
350.492	390.06
350.72	388.06
350.947	403.06
351.174	380.06
351.402	398.06
351.629	419.06
351.856	393.06
352.083	386.06
352.311	396.06
352.538	387.06
352.765	410.06
352.992	405.06
353.22	398.06
353.447	381.06
353.674	369.06
353.901	387.06
354.128	389.06
354.355	355.06
354.583	377.06
354.81	360.06
355.037	380.06
355.264	372.06
355.491	377.06
355.718	368.06
355.945	368.06
356.172	380.06
356.399	374.06
356.626	378.06
356.853	378.06
357.08	357.06
357.307	382.06
357.534	377.06
357.761	382.06
357.988	386.06
358.215	364.06
358.441	392.06
358.668	389.06
358.895	379.06
359.122	376.06
359.349	381.06
359.576	383.06
359.802	398.06
360.029	414.06
360.256	421.06
360.483	401.06
360.709	393.06
360.936	399.06
361.163	370.06
361.39	391.06
361.616	405.06
361.843	394.06
362.07	384.06
362.296	392.06
362.523	409.06
362.749	398.06
362.976	379.06
363.203	415.06
363.429	381.06
363.656	378.06
363.882	408.06
364.109	385.06
364.335	386.06
364.562	386.06
364.788	377.06
365.015	377.06
365.241	375.06
365.468	386.06
365.694	392.06
365.92	398.06
366.147	376.06
366.373	380.06
366.599	386.06
366.826	402.06
367.052	381.06
367.278	375.06
367.505	378.06
367.731	377.06
367.957	392.06
368.184	406.06
368.41	376.06
368.636	388.06
368.862	388.06
369.089	388.06
369.315	384.06
369.541	374.06
369.767	386.06
369.993	376.06
370.219	389.06
370.445	396.06
370.672	384.06
370.898	386.06
371.124	390.06
371.35	378.06
371.576	380.06
371.802	395.06
372.028	396.06
372.254	400.06
372.48	402.06
372.706	400.06
372.932	410.06
373.158	385.06
373.384	390.06
373.61	409.06
373.835	420.06
374.061	385.06
374.287	399.06
374.513	407.06
374.739	414.06
374.965	416.06
375.191	414.06
375.416	401.06
375.642	402.06
375.868	396.06
376.094	383.06
376.319	406.06
376.545	397.06
376.771	376.06
376.997	384.06
377.222	400.06
377.448	390.06
377.674	400.06
377.899	372.06
378.125	380.06
378.35	385.06
378.576	381.06
378.802	401.06
379.027	395.06
379.253	386.06
379.478	365.06
379.704	399.06
379.929	387.06
380.155	402.06
380.38	394.06
380.606	402.06
380.831	385.06
381.057	410.06
381.282	385.06
381.507	389.06
381.733	405.06
381.958	402.06
382.184	415.06
382.409	390.06
382.634	410.06
382.86	410.06
383.085	423.06
383.31	418.06
383.535	440.06
383.761	423.06
383.986	438.06
384.211	410.06
384.436	433.06
384.662	444.06
384.887	434.06
385.112	460.06
385.337	436.06
385.562	445.06
385.787	460.06
386.013	446.06
386.238	458.06
386.463	457.06
386.688	440.06
386.913	456.06
387.138	440.06
387.363	419.06
387.588	453.06
387.813	429.06
388.038	433.06
388.263	438.06
388.488	436.06
388.713	441.06
388.938	447.06
389.163	435.06
389.387	459.06
389.612	426.06
389.837	440.06
390.062	446.06
390.287	422.06
390.512	431.06
390.736	438.06
390.961	450.06
391.186	430.06
391.411	446.06
391.636	459.06
391.86	454.06
392.085	473.06
392.31	488.06
392.534	470.06
392.759	486.06
392.984	455.06
393.208	470.06
393.433	472.06
393.658	471.06
393.882	460.06
394.107	447.06
394.331	457.06
394.556	471.06
394.78	460.06
395.005	465.06
395.229	454.06
395.454	470.06
395.678	477.06
395.903	492.06
396.127	492.06
396.352	482.06
396.576	480.06
396.801	456.06
397.025	487.06
397.249	479.06
397.474	480.06
397.698	486.06
397.922	499.06
398.147	518.06
398.371	504.06
398.595	529.06
398.82	540.06
399.044	548.06
399.268	571.06
399.492	600.06
399.717	653.06
399.941	705.06
400.165	668.06
400.389	636.06
400.613	599.06
400.837	574.06
401.062	551.06
401.286	554.06
401.51	522.06
401.734	535.06
401.958	536.06
402.182	536.06
402.406	534.06
402.63	520.06
402.854	549.06
403.078	548.06
403.302	559.06
403.526	538.06
403.75	573.06
403.974	561.06
404.198	583.06
404.422	574.06
404.645	535.06
404.869	553.06
405.093	572.06
405.317	615.06
405.541	635.06
405.765	601.06
405.988	570.06
406.212	570.06
406.436	577.06
406.66	592.06
406.883	579.06
407.107	616.06
407.331	656.06
407.555	697.06
407.778	686.06
408.002	632.06
408.226	608.06
408.449	586.06
408.673	610.06
408.896	599.06
409.12	629.06
409.344	632.06
409.567	556.06
409.791	576.06
410.014	546.06
410.238	548.06
410.461	546.06
410.685	547.06
410.908	576.06
411.132	578.06
411.355	578.06
411.578	588.06
411.802	558.06
412.025	548.06
412.249	561.06
412.472	548.06
412.695	602.06
412.919	571.06
413.142	530.06
413.365	550.06
413.589	524.06
413.812	500.06
414.035	524.06
414.258	493.06
414.482	511.06
414.705	518.06
414.928	510.06
415.151	532.06
415.374	517.06
415.597	508.06
415.821	499.06
416.044	497.06
416.267	503.06
416.49	508.06
416.713	497.06
416.936	496.06
417.159	512.06
417.382	502.06
417.605	515.06
417.828	496.06
418.051	529.06
418.274	517.06
418.497	516.06
418.72	526.06
418.943	519.06
419.166	544.06
419.389	560.06
419.611	545.06
419.834	554.06
420.057	548.06
420.28	538.06
420.503	512.06
420.726	513.06
420.948	522.06
421.171	554.06
421.394	553.06
421.617	530.06
421.839	535.06
422.062	534.06
422.285	525.06
422.507	569.06
422.73	628.06
422.953	611.06
423.175	575.06
423.398	554.06
423.621	548.06
423.843	542.06
424.066	568.06
424.288	543.06
424.511	564.06
424.733	603.06
424.956	652.06
425.178	623.06
425.401	617.06
425.623	643.06
425.846	534.06
426.068	548.06
426.291	535.06
426.513	506.06
426.735	551.06
426.958	568.06
427.18	584.06
427.402	711.06
427.625	739.06
427.847	630.06
428.069	563.06
428.292	540.06
428.514	520.06
428.736	496.06
428.958	512.06
429.181	510.06
429.403	518.06
429.625	491.06
429.847	522.06
430.069	550.06
430.292	544.06
430.514	517.06
430.736	487.06
430.958	500.06
431.18	469.06
431.402	483.06
431.624	496.06
431.846	476.06
432.068	487.06
432.29	466.06
432.512	489.06
432.734	482.06
432.956	479.06
433.178	508.06
433.4	494.06
433.622	486.06
433.844	496.06
434.066	492.06
434.287	489.06
434.509	480.06
434.731	520.06
434.953	518.06
435.175	522.06
435.397	563.06
435.618	545.06
435.84	564.06
436.062	601.06
436.284	648.06
436.505	563.06
436.727	540.06
436.949	520.06
437.17	502.06
437.392	492.06
437.614	512.06
437.835	525.06
438.057	566.06
438.278	646.06
438.5	648.06
438.721	674.06
438.943	672.06
439.165	554.06
439.386	517.06
439.608	522.06
439.829	542.06
440.05	510.06
440.272	564.06
440.493	544.06
440.715	509.06
440.936	524.06
441.158	497.06
441.379	529.06
441.6	528.06
441.822	566.06
442.043	557.06
442.264	613.06
442.486	619.06
442.707	560.06
442.928	563.06
443.149	542.06
443.371	535.06
443.592	580.06
443.813	649.06
444.034	704.06
444.255	588.06
444.476	568.06
444.698	569.06
444.919	592.06
445.14	664.06
445.361	630.06
445.582	579.06
445.803	600.06
446.024	653.06
446.245	650.06
446.466	617.06
446.687	543.06
446.908	542.06
447.129	504.06
447.35	501.06
447.571	484.06
447.792	475.06
448.013	477.06
448.234	488.06
448.455	518.06
448.675	605.06
448.896	671.06
449.117	588.06
449.338	568.06
449.559	628.06
449.779	705.06
450	587.06
450.221	505.06
450.442	492.06
450.662	459.06
450.883	463.06
451.104	466.06
451.324	474.06
451.545	457.06
451.766	467.06
451.986	465.06
452.207	442.06
452.428	458.06
452.648	448.06
452.869	440.06
453.089	450.06
453.31	443.06
453.53	450.06
453.751	452.06
453.971	448.06
454.192	455.06
454.412	440.06
454.633	435.06
454.853	447.06
455.073	434.06
455.294	460.06
455.514	497.06
455.734	464.06
455.955	425.06
456.175	418.06
456.395	409.06
456.616	420.06
456.836	418.06
457.056	424.06
457.276	432.06
457.497	420.06
457.717	430.06
457.937	437.06
458.157	449.06
458.377	436.06
458.598	465.06
458.818	490.06
459.038	546.06
459.258	548.06
459.478	524.06
459.698	496.06
459.918	469.06
460.138	494.06
460.358	514.06
460.578	519.06
460.798	517.06
461.018	549.06
461.238	537.06
461.458	555.06
461.678	512.06
461.898	527.06
462.118	542.06
462.338	545.06
462.558	587.06
462.777	553.06
462.997	560.06
463.217	605.06
463.437	617.06
463.657	612.06
463.876	580.06
464.096	560.06
464.316	582.06
464.536	580.06
464.755	555.06
464.975	559.06
465.195	574.06
465.414	559.06
465.634	529.06
465.854	519.06
466.073	501.06
466.293	493.06
466.512	477.06
466.732	472.06
466.951	471.06
467.171	455.06
467.391	462.06
467.61	476.06
467.829	455.06
468.049	463.06
468.268	454.06
468.488	453.06
468.707	424.06
468.927	440.06
469.146	454.06
469.365	468.06
469.585	465.06
469.804	479.06
470.023	484.06
470.243	470.06
470.462	476.06
470.681	480.06
470.901	477.06
471.12	452.06
471.339	470.06
471.558	467.06
471.777	472.06
471.997	469.06
472.216	468.06
472.435	479.06
472.654	467.06
472.873	460.06
473.092	457.06
473.311	462.06
473.53	470.06
473.749	461.06
473.968	480.06
474.187	544.06
474.406	548.06
474.625	497.06
474.844	478.06
475.063	460.06
475.282	476.06
475.501	472.06
475.72	464.06
475.939	483.06
476.158	478.06
476.377	473.06
476.596	485.06
476.814	483.06
477.033	478.06
477.252	496.06
477.471	511.06
477.69	487.06
477.908	487.06
478.127	513.06
478.346	538.06
478.564	532.06
478.783	546.06
479.002	536.06
479.22	551.06
479.439	542.06
479.658	559.06
479.876	538.06
480.095	580.06
480.313	593.06
480.532	593.06
480.751	594.06
480.969	593.06
481.188	602.06
481.406	592.06
481.624	557.06
481.843	566.06
482.061	554.06
482.28	544.06
482.498	536.06
482.717	522.06
482.935	530.06
483.153	534.06
483.372	523.06
483.59	562.06
483.808	527.06
484.027	553.06
484.245	545.06
484.463	550.06
484.681	555.06
484.9	542.06
485.118	561.06
485.336	567.06
485.554	586.06
485.772	558.06
485.99	585.06
486.209	566.06
486.427	553.06
486.645	553.06
486.863	569.06
487.081	560.06
487.299	570.06
487.517	570.06
487.735	562.06
487.953	589.06
488.171	563.06
488.389	574.06
488.607	555.06
488.825	578.06
489.043	565.06
489.261	565.06
489.479	586.06
489.696	580.06
489.914	562.06
490.132	597.06
490.35	596.06
490.568	575.06
490.786	570.06
491.003	597.06
491.221	613.06
491.439	597.06
491.657	617.06
491.874	632.06
492.092	602.06
492.31	621.06
492.527	638.06
492.745	605.06
492.963	616.06
493.18	619.06
493.398	649.06
493.615	623.06
493.833	640.06
494.05	640.06
494.268	650.06
494.485	630.06
494.703	644.06
494.92	621.06
495.138	658.06
495.355	650.06
495.573	665.06
495.79	646.06
496.008	654.06
496.225	648.06
496.442	671.06
496.66	668.06
496.877	652.06
497.094	668.06
497.312	653.06
497.529	692.06
497.746	694.06
497.963	717.06
498.181	728.06
498.398	756.06
498.615	783.06
498.832	794.06
499.049	840.06
499.267	874.06
499.484	896.06
499.701	948.06
499.918	1016.06
500.135	1076.06
500.352	1148.06
500.569	1184.06
500.786	1170.06
501.003	1160.06
501.22	1074.06
501.437	1001.06
501.654	961.06
501.871	922.06
502.088	897.06
