Data from 1962.PennyLincolnUp.Lamp.En5.5.200Scan.071719.P1._HRD10591_13-55-27-061.txt Node
Date: Thu Jul 18 13:55:27 EDT 2019
User: cochatt
Spectrometer: HR+D1059
Trigger mode: 1
Integration Time (sec): 1.000000E-1
Scans to average: 1
Electric dark correction enabled: true
Nonlinearity correction enabled: false
Boxcar width: 0
XAxis mode: Wavelengths
Number of Pixels in Spectrum: 2048
>>>>>Begin Spectral Data<<<<<
223.165	-20.69
223.4	-20.69
223.635	-20.69
223.869	-15.69
224.104	-11.69
224.338	-5.69
224.573	-19.69
224.808	-8.69
225.042	-15.69
225.277	-6.69
225.511	1.31
225.746	-0.69
225.98	0.31
226.215	18.31
226.449	2.31
226.683	19.31
226.918	37.31
227.152	26.31
227.387	25.31
227.621	34.31
227.856	44.31
228.09	35.31
228.324	49.31
228.559	63.31
228.793	53.31
229.027	81.31
229.262	108.31
229.496	105.31
229.73	104.31
229.964	117.31
230.199	122.31
230.433	98.31
230.667	124.31
230.901	110.31
231.136	122.31
231.37	100.31
231.604	116.31
231.838	108.31
232.072	113.31
232.306	112.31
232.541	128.31
232.775	108.31
233.009	115.31
233.243	111.31
233.477	111.31
233.711	112.31
233.945	122.31
234.179	119.31
234.413	112.31
234.647	111.31
234.881	118.31
235.115	122.31
235.349	119.31
235.583	120.31
235.817	120.31
236.051	116.31
236.285	130.31
236.519	119.31
236.753	122.31
236.987	144.31
237.221	149.31
237.455	201.31
237.689	171.31
237.922	123.31
238.156	114.31
238.39	127.31
238.624	129.31
238.858	121.31
239.091	127.31
239.325	120.31
239.559	134.31
239.793	119.31
240.027	135.31
240.26	148.31
240.494	147.31
240.728	136.31
240.961	139.31
241.195	138.31
241.429	138.31
241.662	142.31
241.896	126.31
242.13	115.31
242.363	134.31
242.597	139.31
242.83	136.31
243.064	129.31
243.298	130.31
243.531	134.31
243.765	133.31
243.998	145.31
244.232	139.31
244.465	141.31
244.699	135.31
244.932	137.31
245.166	137.31
245.399	156.31
245.633	136.31
245.866	129.31
246.099	134.31
246.333	152.31
246.566	154.31
246.8	165.31
247.033	144.31
247.266	150.31
247.5	156.31
247.733	160.31
247.966	167.31
248.2	147.31
248.433	156.31
248.666	165.31
248.899	161.31
249.133	173.31
249.366	171.31
249.599	183.31
249.832	181.31
250.066	192.31
250.299	164.31
250.532	172.31
250.765	194.31
250.998	197.31
251.231	222.31
251.465	203.31
251.698	199.31
251.931	193.31
252.164	187.31
252.397	176.31
252.63	172.31
252.863	200.31
253.096	183.31
253.329	216.31
253.562	202.31
253.795	206.31
254.028	203.31
254.261	204.31
254.494	202.31
254.727	221.31
254.96	226.31
255.193	241.31
255.426	234.31
255.659	209.31
255.892	216.31
256.124	205.31
256.357	212.31
256.59	212.31
256.823	202.31
257.056	197.31
257.289	192.31
257.521	177.31
257.754	188.31
257.987	204.31
258.22	203.31
258.452	192.31
258.685	199.31
258.918	204.31
259.151	192.31
259.383	219.31
259.616	220.31
259.849	212.31
260.081	222.31
260.314	229.31
260.547	231.31
260.779	212.31
261.012	219.31
261.244	214.31
261.477	197.31
261.71	199.31
261.942	226.31
262.175	206.31
262.407	211.31
262.64	204.31
262.872	222.31
263.105	207.31
263.337	223.31
263.57	211.31
263.802	213.31
264.035	202.31
264.267	193.31
264.499	219.31
264.732	212.31
264.964	203.31
265.197	211.31
265.429	200.31
265.661	217.31
265.894	218.31
266.126	223.31
266.358	212.31
266.591	211.31
266.823	211.31
267.055	210.31
267.287	222.31
267.52	217.31
267.752	225.31
267.984	231.31
268.216	214.31
268.448	223.31
268.681	236.31
268.913	229.31
269.145	247.31
269.377	249.31
269.609	279.31
269.841	257.31
270.073	258.31
270.306	281.31
270.538	305.31
270.77	292.31
271.002	271.31
271.234	257.31
271.466	281.31
271.698	289.31
271.93	281.31
272.162	293.31
272.394	293.31
272.626	298.31
272.858	275.31
273.09	270.31
273.322	270.31
273.553	253.31
273.785	262.31
274.017	258.31
274.249	269.31
274.481	293.31
274.713	260.31
274.945	245.31
275.176	261.31
275.408	256.31
275.64	264.31
275.872	259.31
276.104	275.31
276.335	278.31
276.567	273.31
276.799	266.31
277.031	298.31
277.262	308.31
277.494	326.31
277.726	303.31
277.957	297.31
278.189	274.31
278.421	269.31
278.652	269.31
278.884	269.31
279.115	256.31
279.347	276.31
279.579	281.31
279.81	284.31
280.042	277.31
280.273	265.31
280.505	269.31
280.736	267.31
280.968	246.31
281.199	265.31
281.431	274.31
281.662	284.31
281.894	268.31
282.125	287.31
282.356	286.31
282.588	277.31
282.819	300.31
283.051	284.31
283.282	289.31
283.513	285.31
283.745	270.31
283.976	287.31
284.207	292.31
284.439	290.31
284.67	291.31
284.901	304.31
285.132	300.31
285.364	272.31
285.595	295.31
285.826	291.31
286.057	278.31
286.288	287.31
286.52	279.31
286.751	287.31
286.982	319.31
287.213	317.31
287.444	301.31
287.675	292.31
287.906	301.31
288.138	320.31
288.369	307.31
288.6	308.31
288.831	298.31
289.062	305.31
289.293	293.31
289.524	309.31
289.755	293.31
289.986	298.31
290.217	295.31
290.448	309.31
290.679	292.31
290.91	309.31
291.141	296.31
291.371	298.31
291.602	299.31
291.833	298.31
292.064	297.31
292.295	289.31
292.526	294.31
292.757	319.31
292.987	290.31
293.218	280.31
293.449	292.31
293.68	298.31
293.91	290.31
294.141	283.31
294.372	302.31
294.603	299.31
294.833	285.31
295.064	292.31
295.295	316.31
295.525	309.31
295.756	311.31
295.987	318.31
296.217	326.31
296.448	340.31
296.679	317.31
296.909	310.31
297.14	329.31
297.37	323.31
297.601	322.31
297.831	331.31
298.062	313.31
298.292	326.31
298.523	307.31
298.753	304.31
298.984	341.31
299.214	323.31
299.445	333.31
299.675	328.31
299.905	324.31
300.136	323.31
300.366	312.31
300.597	317.31
300.827	331.31
301.057	345.31
301.288	347.31
301.518	333.31
301.748	325.31
301.979	363.31
302.209	344.31
302.439	339.31
302.669	338.31
302.9	342.31
303.13	341.31
303.36	341.31
303.59	339.31
303.82	343.31
304.051	350.31
304.281	352.31
304.511	327.31
304.741	338.31
304.971	350.31
305.201	341.31
305.431	339.31
305.661	342.31
305.891	323.31
306.121	348.31
306.352	369.31
306.582	333.31
306.812	355.31
307.042	350.31
307.272	335.31
307.502	346.31
307.731	354.31
307.961	368.31
308.191	339.31
308.421	332.31
308.651	333.31
308.881	344.31
309.111	348.31
309.341	340.31
309.571	358.31
309.8	363.31
310.03	360.31
310.26	372.31
310.49	352.31
310.72	359.31
310.949	364.31
311.179	379.31
311.409	390.31
311.639	363.31
311.868	371.31
312.098	375.31
312.328	408.31
312.557	390.31
312.787	388.31
313.017	392.31
313.246	395.31
313.476	373.31
313.706	392.31
313.935	376.31
314.165	371.31
314.394	378.31
314.624	370.31
314.853	386.31
315.083	373.31
315.312	374.31
315.542	388.31
315.771	379.31
316.001	365.31
316.23	370.31
316.46	391.31
316.689	377.31
316.919	380.31
317.148	383.31
317.377	377.31
317.607	378.31
317.836	375.31
318.065	388.31
318.295	390.31
318.524	387.31
318.753	376.31
318.983	377.31
319.212	378.31
319.441	371.31
319.67	387.31
319.9	378.31
320.129	379.31
320.358	384.31
320.587	384.31
320.816	369.31
321.046	393.31
321.275	400.31
321.504	390.31
321.733	385.31
321.962	402.31
322.191	421.31
322.42	403.31
322.649	409.31
322.878	416.31
323.108	446.31
323.337	440.31
323.566	450.31
323.795	483.31
324.024	495.31
324.253	561.31
324.482	766.31
324.71	1106.31
324.939	1574.31
325.168	1378.31
325.397	745.31
325.626	575.31
325.855	479.31
326.084	469.31
326.313	462.31
326.542	458.31
326.77	512.31
326.999	563.31
327.228	725.31
327.457	1001.31
327.686	1197.31
327.914	818.31
328.143	593.31
328.372	552.31
328.6	544.31
328.829	505.31
329.058	487.31
329.287	516.31
329.515	499.31
329.744	459.31
329.972	462.31
330.201	473.31
330.43	506.31
330.658	500.31
330.887	529.31
331.115	523.31
331.344	512.31
331.572	482.31
331.801	472.31
332.03	451.31
332.258	442.31
332.486	456.31
332.715	468.31
332.943	451.31
333.172	483.31
333.4	502.31
333.629	460.31
333.857	495.31
334.085	521.31
334.314	489.31
334.542	515.31
334.771	526.31
334.999	507.31
335.227	483.31
335.455	485.31
335.684	459.31
335.912	481.31
336.14	470.31
336.369	459.31
336.597	469.31
336.825	460.31
337.053	451.31
337.281	449.31
337.51	435.31
337.738	471.31
337.966	457.31
338.194	450.31
338.422	439.31
338.65	423.31
338.878	451.31
339.106	448.31
339.334	443.31
339.562	424.31
339.79	423.31
340.018	433.31
340.246	440.31
340.474	447.31
340.702	427.31
340.93	426.31
341.158	423.31
341.386	443.31
341.614	424.31
341.842	444.31
342.07	405.31
342.298	429.31
342.526	437.31
342.754	427.31
342.981	407.31
343.209	420.31
343.437	448.31
343.665	450.31
343.893	471.31
344.12	477.31
344.348	479.31
344.576	459.31
344.804	451.31
345.031	428.31
345.259	453.31
345.487	457.31
345.714	418.31
345.942	420.31
346.17	430.31
346.397	429.31
346.625	417.31
346.853	416.31
347.08	429.31
347.308	426.31
347.535	423.31
347.763	417.31
347.99	407.31
348.218	413.31
348.445	436.31
348.673	422.31
348.9	410.31
349.128	435.31
349.355	425.31
349.583	419.31
349.81	401.31
350.037	392.31
350.265	410.31
350.492	417.31
350.72	391.31
350.947	409.31
351.174	397.31
351.402	403.31
351.629	419.31
351.856	411.31
352.083	425.31
352.311	410.31
352.538	397.31
352.765	414.31
352.992	424.31
353.22	433.31
353.447	414.31
353.674	404.31
353.901	384.31
354.128	391.31
354.355	381.31
354.583	401.31
354.81	418.31
355.037	397.31
355.264	392.31
355.491	402.31
355.718	410.31
355.945	385.31
356.172	409.31
356.399	386.31
356.626	379.31
356.853	383.31
357.08	383.31
357.307	408.31
357.534	409.31
357.761	393.31
357.988	374.31
358.215	385.31
358.441	386.31
358.668	397.31
358.895	397.31
359.122	426.31
359.349	397.31
359.576	406.31
359.802	407.31
360.029	440.31
360.256	429.31
360.483	416.31
360.709	409.31
360.936	427.31
361.163	415.31
361.39	409.31
361.616	396.31
361.843	403.31
362.07	414.31
362.296	420.31
362.523	418.31
362.749	403.31
362.976	404.31
363.203	400.31
363.429	418.31
363.656	413.31
363.882	422.31
364.109	413.31
364.335	389.31
364.562	419.31
364.788	398.31
365.015	411.31
365.241	414.31
365.468	398.31
365.694	389.31
365.92	414.31
366.147	400.31
366.373	370.31
366.599	380.31
366.826	415.31
367.052	397.31
367.278	401.31
367.505	407.31
367.731	416.31
367.957	391.31
368.184	410.31
368.41	422.31
368.636	420.31
368.862	420.31
369.089	413.31
369.315	411.31
369.541	408.31
369.767	418.31
369.993	399.31
370.219	426.31
370.445	401.31
370.672	385.31
370.898	409.31
371.124	418.31
371.35	403.31
371.576	417.31
371.802	396.31
372.028	420.31
372.254	411.31
372.48	419.31
372.706	425.31
372.932	416.31
373.158	420.31
373.384	414.31
373.61	423.31
373.835	418.31
374.061	426.31
374.287	442.31
374.513	425.31
374.739	435.31
374.965	436.31
375.191	437.31
375.416	433.31
375.642	422.31
375.868	423.31
376.094	418.31
376.319	411.31
376.545	434.31
376.771	407.31
376.997	394.31
377.222	419.31
377.448	419.31
377.674	432.31
377.899	415.31
378.125	420.31
378.35	403.31
378.576	420.31
378.802	407.31
379.027	398.31
379.253	403.31
379.478	408.31
379.704	394.31
379.929	402.31
380.155	410.31
380.38	387.31
380.606	404.31
380.831	399.31
381.057	418.31
381.282	417.31
381.507	402.31
381.733	401.31
381.958	417.31
382.184	429.31
382.409	411.31
382.634	443.31
382.86	434.31
383.085	419.31
383.31	420.31
383.535	435.31
383.761	441.31
383.986	450.31
384.211	447.31
384.436	459.31
384.662	451.31
384.887	471.31
385.112	460.31
385.337	474.31
385.562	473.31
385.787	469.31
386.013	473.31
386.238	472.31
386.463	457.31
386.688	451.31
386.913	453.31
387.138	477.31
387.363	467.31
387.588	460.31
387.813	474.31
388.038	461.31
388.263	471.31
388.488	474.31
388.713	469.31
388.938	466.31
389.163	487.31
389.387	476.31
389.612	474.31
389.837	483.31
390.062	478.31
390.287	476.31
390.512	460.31
390.736	463.31
390.961	461.31
391.186	467.31
391.411	463.31
391.636	487.31
391.86	500.31
392.085	495.31
392.31	492.31
392.534	475.31
392.759	481.31
392.984	478.31
393.208	462.31
393.433	492.31
393.658	481.31
393.882	467.31
394.107	465.31
394.331	470.31
394.556	455.31
394.78	487.31
395.005	480.31
395.229	471.31
395.454	488.31
395.678	511.31
395.903	515.31
396.127	497.31
396.352	511.31
396.576	501.31
396.801	489.31
397.025	501.31
397.249	511.31
397.474	495.31
397.698	509.31
397.922	514.31
398.147	515.31
398.371	530.31
398.595	543.31
398.82	544.31
399.044	567.31
399.268	608.31
399.492	643.31
399.717	693.31
399.941	687.31
400.165	681.31
400.389	712.31
400.613	632.31
400.837	577.31
401.062	580.31
401.286	569.31
401.51	552.31
401.734	550.31
401.958	542.31
402.182	548.31
402.406	570.31
402.63	585.31
402.854	567.31
403.078	560.31
403.302	577.31
403.526	589.31
403.75	577.31
403.974	590.31
404.198	572.31
404.422	585.31
404.645	596.31
404.869	569.31
405.093	612.31
405.317	624.31
405.541	661.31
405.765	612.31
405.988	603.31
406.212	592.31
406.436	595.31
406.66	628.31
406.883	618.31
407.107	644.31
407.331	679.31
407.555	731.31
407.778	727.31
408.002	678.31
408.226	659.31
408.449	625.31
408.673	626.31
408.896	632.31
409.12	662.31
409.344	645.31
409.567	575.31
409.791	585.31
410.014	592.31
410.238	568.31
410.461	575.31
410.685	582.31
410.908	588.31
411.132	585.31
411.355	648.31
411.578	630.31
411.802	586.31
412.025	571.31
412.249	590.31
412.472	597.31
412.695	626.31
412.919	592.31
413.142	569.31
413.365	564.31
413.589	565.31
413.812	522.31
414.035	544.31
414.258	529.31
414.482	548.31
414.705	564.31
414.928	550.31
415.151	541.31
415.374	521.31
415.597	523.31
415.821	543.31
416.044	540.31
416.267	551.31
416.49	547.31
416.713	513.31
416.936	536.31
417.159	526.31
417.382	545.31
417.605	531.31
417.828	530.31
418.051	543.31
418.274	541.31
418.497	548.31
418.72	561.31
418.943	525.31
419.166	556.31
419.389	605.31
419.611	596.31
419.834	579.31
420.057	579.31
420.28	529.31
420.503	536.31
420.726	581.31
420.948	562.31
421.171	586.31
421.394	616.31
421.617	560.31
421.839	561.31
422.062	556.31
422.285	548.31
422.507	603.31
422.73	657.31
422.953	630.31
423.175	603.31
423.398	566.31
423.621	562.31
423.843	588.31
424.066	597.31
424.288	601.31
424.511	616.31
424.733	625.31
424.956	713.31
425.178	672.31
425.401	662.31
425.623	681.31
425.846	597.31
426.068	563.31
426.291	555.31
426.513	566.31
426.735	565.31
426.958	613.31
427.18	650.31
427.402	761.31
427.625	839.31
427.847	713.31
428.069	630.31
428.292	597.31
428.514	568.31
428.736	534.31
428.958	536.31
429.181	519.31
429.403	525.31
429.625	538.31
429.847	553.31
430.069	622.31
430.292	609.31
430.514	543.31
430.736	543.31
430.958	517.31
431.18	492.31
431.402	525.31
431.624	523.31
431.846	521.31
432.068	514.31
432.29	515.31
432.512	495.31
432.734	514.31
432.956	497.31
433.178	504.31
433.4	525.31
433.622	514.31
433.844	529.31
434.066	515.31
434.287	536.31
434.509	531.31
434.731	529.31
434.953	547.31
435.175	560.31
435.397	570.31
435.618	567.31
435.84	586.31
436.062	672.31
436.284	717.31
436.505	617.31
436.727	566.31
436.949	535.31
437.17	533.31
437.392	528.31
437.614	530.31
437.835	537.31
438.057	617.31
438.278	703.31
438.5	704.31
438.721	761.31
438.943	743.31
439.165	619.31
439.386	564.31
439.608	568.31
439.829	548.31
440.05	569.31
440.272	628.31
440.493	577.31
440.715	536.31
440.936	541.31
441.158	554.31
441.379	537.31
441.6	560.31
441.822	555.31
442.043	610.31
442.264	638.31
442.486	662.31
442.707	613.31
442.928	597.31
443.149	586.31
443.371	597.31
443.592	631.31
443.813	729.31
444.034	748.31
444.255	660.31
444.476	604.31
444.698	612.31
444.919	608.31
445.14	719.31
445.361	650.31
445.582	607.31
445.803	646.31
446.024	720.31
446.245	745.31
446.466	666.31
446.687	593.31
446.908	563.31
447.129	534.31
447.35	508.31
447.571	514.31
447.792	507.31
448.013	495.31
448.234	508.31
448.455	575.31
448.675	629.31
448.896	733.31
449.117	640.31
449.338	608.31
449.559	725.31
449.779	816.31
450	652.31
450.221	541.31
450.442	512.31
450.662	494.31
450.883	497.31
451.104	493.31
451.324	487.31
451.545	487.31
451.766	477.31
451.986	477.31
452.207	464.31
452.428	483.31
452.648	449.31
452.869	449.31
453.089	473.31
453.31	482.31
453.53	512.31
453.751	471.31
453.971	465.31
454.192	476.31
454.412	478.31
454.633	468.31
454.853	475.31
455.073	451.31
455.294	475.31
455.514	544.31
455.734	517.31
455.955	491.31
456.175	460.31
456.395	442.31
456.616	471.31
456.836	451.31
457.056	451.31
457.276	447.31
457.497	433.31
457.717	435.31
457.937	441.31
458.157	441.31
458.377	458.31
458.598	477.31
458.818	501.31
459.038	545.31
459.258	594.31
459.478	538.31
459.698	527.31
459.918	528.31
460.138	530.31
460.358	535.31
460.578	552.31
460.798	535.31
461.018	553.31
461.238	539.31
461.458	545.31
461.678	555.31
461.898	551.31
462.118	551.31
462.338	541.31
462.558	576.31
462.777	588.31
462.997	623.31
463.217	635.31
463.437	655.31
463.657	601.31
463.876	585.31
464.096	588.31
464.316	590.31
464.536	604.31
464.755	599.31
464.975	567.31
465.195	574.31
465.414	626.31
465.634	570.31
465.854	527.31
466.073	499.31
466.293	523.31
466.512	503.31
466.732	508.31
466.951	513.31
467.171	497.31
467.391	487.31
467.61	491.31
467.829	488.31
468.049	486.31
468.268	489.31
468.488	467.31
468.707	450.31
468.927	469.31
469.146	460.31
469.365	483.31
469.585	462.31
469.804	461.31
470.023	498.31
470.243	489.31
470.462	490.31
470.681	513.31
470.901	527.31
471.12	498.31
471.339	498.31
471.558	491.31
471.777	487.31
471.997	484.31
472.216	502.31
472.435	511.31
472.654	475.31
472.873	488.31
473.092	488.31
473.311	479.31
473.53	504.31
473.749	505.31
473.968	504.31
474.187	585.31
474.406	610.31
474.625	541.31
474.844	513.31
475.063	487.31
475.282	496.31
475.501	487.31
475.72	498.31
475.939	493.31
476.158	492.31
476.377	500.31
476.596	490.31
476.814	511.31
477.033	505.31
477.252	549.31
477.471	523.31
477.69	540.31
477.908	541.31
478.127	545.31
478.346	543.31
478.564	539.31
478.783	567.31
479.002	576.31
479.22	559.31
479.439	572.31
479.658	583.31
479.876	567.31
480.095	579.31
480.313	624.31
480.532	606.31
480.751	620.31
480.969	628.31
481.188	655.31
481.406	627.31
481.624	597.31
481.843	587.31
482.061	602.31
482.28	579.31
482.498	565.31
482.717	550.31
482.935	577.31
483.153	588.31
483.372	592.31
483.59	561.31
483.808	541.31
484.027	550.31
484.245	569.31
484.463	562.31
484.681	560.31
484.9	583.31
485.118	602.31
485.336	594.31
485.554	587.31
485.772	606.31
485.99	595.31
486.209	584.31
486.427	602.31
486.645	590.31
486.863	600.31
487.081	580.31
487.299	589.31
487.517	613.31
487.735	594.31
487.953	604.31
488.171	585.31
488.389	594.31
488.607	607.31
488.825	607.31
489.043	592.31
489.261	610.31
489.479	595.31
489.696	624.31
489.914	623.31
490.132	611.31
490.35	628.31
490.568	645.31
490.786	621.31
491.003	665.31
491.221	651.31
491.439	649.31
491.657	646.31
491.874	659.31
492.092	674.31
492.31	663.31
492.527	688.31
492.745	691.31
492.963	661.31
493.18	673.31
493.398	688.31
493.615	653.31
493.833	665.31
494.05	679.31
494.268	693.31
494.485	684.31
494.703	669.31
494.92	670.31
495.138	673.31
495.355	688.31
495.573	704.31
495.79	682.31
496.008	701.31
496.225	680.31
496.442	689.31
496.66	714.31
496.877	697.31
497.094	703.31
497.312	743.31
497.529	736.31
497.746	759.31
497.963	759.31
498.181	781.31
498.398	803.31
498.615	827.31
498.832	860.31
499.049	874.31
499.267	898.31
499.484	952.31
499.701	1009.31
499.918	1040.31
500.135	1136.31
500.352	1173.31
500.569	1229.31
500.786	1241.31
501.003	1195.31
501.22	1129.31
501.437	1044.31
501.654	997.31
501.871	979.31
