Data from 1962.PennyLincolnUp.Lamp.En5.5.200Scan.071719.P1._HRD10591_13-52-58-060.txt Node
Date: Thu Jul 18 13:52:58 EDT 2019
User: cochatt
Spectrometer: HR+D1059
Trigger mode: 1
Integration Time (sec): 1.000000E-1
Scans to average: 1
Electric dark correction enabled: true
Nonlinearity correction enabled: false
Boxcar width: 0
XAxis mode: Wavelengths
Number of Pixels in Spectrum: 2048
>>>>>Begin Spectral Data<<<<<
223.165	-18.44
223.4	-18.44
223.635	-18.44
223.869	-27.44
224.104	-10.44
224.338	-25.44
224.573	-27.44
224.808	-10.44
225.042	-21.44
225.277	-1.44
225.511	1.56
225.746	7.56
225.98	3.56
226.215	26.56
226.449	15.56
226.683	29.56
226.918	26.56
227.152	31.56
227.387	30.56
227.621	36.56
227.856	35.56
228.09	44.56
228.324	58.56
228.559	59.56
228.793	64.56
229.027	97.56
229.262	92.56
229.496	97.56
229.73	100.56
229.964	121.56
230.199	112.56
230.433	86.56
230.667	115.56
230.901	100.56
231.136	101.56
231.37	120.56
231.604	99.56
231.838	109.56
232.072	124.56
232.306	108.56
232.541	101.56
232.775	119.56
233.009	100.56
233.243	96.56
233.477	111.56
233.711	99.56
233.945	97.56
234.179	110.56
234.413	104.56
234.647	107.56
234.881	113.56
235.115	114.56
235.349	105.56
235.583	113.56
235.817	112.56
236.051	110.56
236.285	125.56
236.519	108.56
236.753	112.56
236.987	120.56
237.221	143.56
237.455	160.56
237.689	149.56
237.922	119.56
238.156	122.56
238.39	109.56
238.624	104.56
238.858	121.56
239.091	121.56
239.325	128.56
239.559	116.56
239.793	111.56
240.027	116.56
240.26	118.56
240.494	130.56
240.728	135.56
240.961	115.56
241.195	125.56
241.429	127.56
241.662	149.56
241.896	136.56
242.13	126.56
242.363	124.56
242.597	113.56
242.83	125.56
243.064	126.56
243.298	128.56
243.531	134.56
243.765	110.56
243.998	137.56
244.232	128.56
244.465	139.56
244.699	120.56
244.932	138.56
245.166	121.56
245.399	151.56
245.633	149.56
245.866	151.56
246.099	138.56
246.333	143.56
246.566	124.56
246.8	134.56
247.033	140.56
247.266	153.56
247.5	141.56
247.733	155.56
247.966	132.56
248.2	141.56
248.433	142.56
248.666	163.56
248.899	153.56
249.133	159.56
249.366	182.56
249.599	157.56
249.832	166.56
250.066	163.56
250.299	142.56
250.532	156.56
250.765	176.56
250.998	186.56
251.231	182.56
251.465	197.56
251.698	185.56
251.931	157.56
252.164	162.56
252.397	172.56
252.63	177.56
252.863	162.56
253.096	175.56
253.329	184.56
253.562	183.56
253.795	180.56
254.028	185.56
254.261	185.56
254.494	188.56
254.727	189.56
254.96	210.56
255.193	218.56
255.426	196.56
255.659	193.56
255.892	191.56
256.124	191.56
256.357	177.56
256.59	196.56
256.823	184.56
257.056	177.56
257.289	176.56
257.521	177.56
257.754	197.56
257.987	188.56
258.22	178.56
258.452	181.56
258.685	181.56
258.918	205.56
259.151	196.56
259.383	205.56
259.616	197.56
259.849	183.56
260.081	178.56
260.314	225.56
260.547	205.56
260.779	211.56
261.012	213.56
261.244	211.56
261.477	197.56
261.71	196.56
261.942	191.56
262.175	204.56
262.407	206.56
262.64	202.56
262.872	199.56
263.105	197.56
263.337	204.56
263.57	205.56
263.802	180.56
264.035	199.56
264.267	198.56
264.499	199.56
264.732	211.56
264.964	211.56
265.197	204.56
265.429	191.56
265.661	210.56
265.894	188.56
266.126	201.56
266.358	213.56
266.591	209.56
266.823	210.56
267.055	210.56
267.287	216.56
267.52	200.56
267.752	201.56
267.984	221.56
268.216	219.56
268.448	219.56
268.681	225.56
268.913	216.56
269.145	220.56
269.377	242.56
269.609	213.56
269.841	235.56
270.073	249.56
270.306	244.56
270.538	249.56
270.77	267.56
271.002	232.56
271.234	245.56
271.466	258.56
271.698	250.56
271.93	261.56
272.162	260.56
272.394	265.56
272.626	248.56
272.858	258.56
273.09	253.56
273.322	236.56
273.553	238.56
273.785	238.56
274.017	235.56
274.249	244.56
274.481	248.56
274.713	243.56
274.945	246.56
275.176	247.56
275.408	248.56
275.64	251.56
275.872	249.56
276.104	258.56
276.335	254.56
276.567	258.56
276.799	233.56
277.031	242.56
277.262	258.56
277.494	259.56
277.726	273.56
277.957	267.56
278.189	248.56
278.421	241.56
278.652	261.56
278.884	233.56
279.115	246.56
279.347	252.56
279.579	238.56
279.81	254.56
280.042	244.56
280.273	260.56
280.505	243.56
280.736	229.56
280.968	272.56
281.199	266.56
281.431	257.56
281.662	258.56
281.894	276.56
282.125	240.56
282.356	273.56
282.588	276.56
282.819	278.56
283.051	289.56
283.282	268.56
283.513	274.56
283.745	277.56
283.976	273.56
284.207	268.56
284.439	264.56
284.67	261.56
284.901	259.56
285.132	271.56
285.364	265.56
285.595	262.56
285.826	277.56
286.057	265.56
286.288	284.56
286.52	262.56
286.751	289.56
286.982	272.56
287.213	266.56
287.444	279.56
287.675	269.56
287.906	276.56
288.138	298.56
288.369	281.56
288.6	302.56
288.831	291.56
289.062	277.56
289.293	274.56
289.524	286.56
289.755	291.56
289.986	273.56
290.217	271.56
290.448	285.56
290.679	279.56
290.91	289.56
291.141	301.56
291.371	287.56
291.602	290.56
291.833	294.56
292.064	288.56
292.295	277.56
292.526	256.56
292.757	300.56
292.987	284.56
293.218	269.56
293.449	308.56
293.68	267.56
293.91	286.56
294.141	297.56
294.372	307.56
294.603	283.56
294.833	293.56
295.064	294.56
295.295	290.56
295.525	277.56
295.756	286.56
295.987	284.56
296.217	298.56
296.448	307.56
296.679	294.56
296.909	284.56
297.14	313.56
297.37	316.56
297.601	277.56
297.831	307.56
298.062	316.56
298.292	292.56
298.523	288.56
298.753	308.56
298.984	316.56
299.214	308.56
299.445	297.56
299.675	320.56
299.905	289.56
300.136	296.56
300.366	300.56
300.597	309.56
300.827	312.56
301.057	309.56
301.288	294.56
301.518	314.56
301.748	313.56
301.979	322.56
302.209	320.56
302.439	324.56
302.669	335.56
302.9	308.56
303.13	308.56
303.36	315.56
303.59	313.56
303.82	333.56
304.051	317.56
304.281	316.56
304.511	313.56
304.741	317.56
304.971	303.56
305.201	315.56
305.431	315.56
305.661	310.56
305.891	310.56
306.121	310.56
306.352	327.56
306.582	322.56
306.812	316.56
307.042	330.56
307.272	314.56
307.502	338.56
307.731	333.56
307.961	318.56
308.191	333.56
308.421	316.56
308.651	315.56
308.881	324.56
309.111	331.56
309.341	329.56
309.571	344.56
309.8	331.56
310.03	334.56
310.26	330.56
310.49	331.56
310.72	341.56
310.949	318.56
311.179	349.56
311.409	345.56
311.639	329.56
311.868	328.56
312.098	348.56
312.328	364.56
312.557	358.56
312.787	341.56
313.017	361.56
313.246	358.56
313.476	356.56
313.706	357.56
313.935	331.56
314.165	366.56
314.394	364.56
314.624	332.56
314.853	342.56
315.083	346.56
315.312	340.56
315.542	361.56
315.771	364.56
316.001	346.56
316.23	365.56
316.46	356.56
316.689	353.56
316.919	348.56
317.148	357.56
317.377	350.56
317.607	342.56
317.836	348.56
318.065	355.56
318.295	358.56
318.524	348.56
318.753	344.56
318.983	368.56
319.212	368.56
319.441	368.56
319.67	368.56
319.9	357.56
320.129	353.56
320.358	350.56
320.587	353.56
320.816	356.56
321.046	346.56
321.275	359.56
321.504	361.56
321.733	363.56
321.962	342.56
322.191	372.56
322.42	387.56
322.649	357.56
322.878	373.56
323.108	391.56
323.337	390.56
323.566	411.56
323.795	407.56
324.024	429.56
324.253	483.56
324.482	581.56
324.71	783.56
324.939	1112.56
325.168	973.56
325.397	583.56
325.626	438.56
325.855	406.56
326.084	411.56
326.313	414.56
326.542	416.56
326.77	417.56
326.999	460.56
327.228	557.56
327.457	738.56
327.686	854.56
327.914	625.56
328.143	485.56
328.372	468.56
328.6	435.56
328.829	441.56
329.058	413.56
329.287	449.56
329.515	422.56
329.744	409.56
329.972	413.56
330.201	412.56
330.43	425.56
330.658	434.56
330.887	438.56
331.115	457.56
331.344	415.56
331.572	422.56
331.801	413.56
332.03	429.56
332.258	417.56
332.486	414.56
332.715	435.56
332.943	434.56
333.172	451.56
333.4	452.56
333.629	471.56
333.857	488.56
334.085	459.56
334.314	485.56
334.542	471.56
334.771	456.56
334.999	457.56
335.227	437.56
335.455	449.56
335.684	436.56
335.912	436.56
336.14	432.56
336.369	433.56
336.597	423.56
336.825	449.56
337.053	432.56
337.281	416.56
337.51	441.56
337.738	426.56
337.966	414.56
338.194	435.56
338.422	420.56
338.65	428.56
338.878	431.56
339.106	435.56
339.334	406.56
339.562	405.56
339.79	404.56
340.018	387.56
340.246	413.56
340.474	401.56
340.702	392.56
340.93	398.56
341.158	405.56
341.386	392.56
341.614	404.56
341.842	396.56
342.07	403.56
342.298	393.56
342.526	379.56
342.754	396.56
342.981	390.56
343.209	393.56
343.437	427.56
343.665	415.56
343.893	406.56
344.12	441.56
344.348	446.56
344.576	461.56
344.804	421.56
345.031	413.56
345.259	421.56
345.487	417.56
345.714	404.56
345.942	388.56
346.17	374.56
346.397	384.56
346.625	382.56
346.853	387.56
347.08	371.56
347.308	377.56
347.535	395.56
347.763	393.56
347.99	383.56
348.218	384.56
348.445	361.56
348.673	364.56
348.9	385.56
349.128	377.56
349.355	374.56
349.583	372.56
349.81	393.56
350.037	384.56
350.265	386.56
350.492	374.56
350.72	384.56
350.947	369.56
351.174	378.56
351.402	381.56
351.629	375.56
351.856	376.56
352.083	375.56
352.311	384.56
352.538	404.56
352.765	397.56
352.992	384.56
353.22	390.56
353.447	390.56
353.674	374.56
353.901	383.56
354.128	375.56
354.355	376.56
354.583	368.56
354.81	384.56
355.037	376.56
355.264	357.56
355.491	372.56
355.718	358.56
355.945	372.56
356.172	366.56
356.399	373.56
356.626	361.56
356.853	365.56
357.08	375.56
357.307	373.56
357.534	371.56
357.761	381.56
357.988	366.56
358.215	380.56
358.441	354.56
358.668	369.56
358.895	388.56
359.122	363.56
359.349	394.56
359.576	387.56
359.802	394.56
360.029	386.56
360.256	389.56
360.483	394.56
360.709	411.56
360.936	376.56
361.163	360.56
361.39	384.56
361.616	388.56
361.843	390.56
362.07	370.56
362.296	384.56
362.523	385.56
362.749	397.56
362.976	368.56
363.203	356.56
363.429	370.56
363.656	387.56
363.882	363.56
364.109	366.56
364.335	356.56
364.562	364.56
364.788	381.56
365.015	375.56
365.241	384.56
365.468	385.56
365.694	394.56
365.92	382.56
366.147	382.56
366.373	369.56
366.599	380.56
366.826	379.56
367.052	386.56
367.278	379.56
367.505	357.56
367.731	375.56
367.957	368.56
368.184	373.56
368.41	380.56
368.636	370.56
368.862	405.56
369.089	387.56
369.315	372.56
369.541	370.56
369.767	374.56
369.993	379.56
370.219	372.56
370.445	351.56
370.672	379.56
370.898	366.56
371.124	390.56
371.35	392.56
371.576	383.56
371.802	395.56
372.028	381.56
372.254	373.56
372.48	391.56
372.706	402.56
372.932	396.56
373.158	399.56
373.384	398.56
373.61	406.56
373.835	399.56
374.061	391.56
374.287	386.56
374.513	386.56
374.739	398.56
374.965	405.56
375.191	418.56
375.416	412.56
375.642	404.56
375.868	420.56
376.094	390.56
376.319	400.56
376.545	398.56
376.771	392.56
376.997	388.56
377.222	404.56
377.448	381.56
377.674	396.56
377.899	385.56
378.125	390.56
378.35	383.56
378.576	389.56
378.802	378.56
379.027	394.56
379.253	396.56
379.478	392.56
379.704	371.56
379.929	368.56
380.155	377.56
380.38	379.56
380.606	387.56
380.831	389.56
381.057	393.56
381.282	413.56
381.507	406.56
381.733	396.56
381.958	393.56
382.184	398.56
382.409	392.56
382.634	402.56
382.86	412.56
383.085	380.56
383.31	433.56
383.535	420.56
383.761	403.56
383.986	416.56
384.211	428.56
384.436	418.56
384.662	441.56
384.887	430.56
385.112	421.56
385.337	457.56
385.562	415.56
385.787	432.56
386.013	451.56
386.238	437.56
386.463	434.56
386.688	428.56
386.913	417.56
387.138	464.56
387.363	440.56
387.588	442.56
387.813	448.56
388.038	434.56
388.263	430.56
388.488	462.56
388.713	428.56
388.938	435.56
389.163	450.56
389.387	448.56
389.612	441.56
389.837	422.56
390.062	440.56
390.287	433.56
390.512	445.56
390.736	438.56
390.961	442.56
391.186	446.56
391.411	427.56
391.636	452.56
391.86	442.56
392.085	452.56
392.31	456.56
392.534	465.56
392.759	460.56
392.984	459.56
393.208	454.56
393.433	458.56
393.658	444.56
393.882	452.56
394.107	445.56
394.331	461.56
394.556	455.56
394.78	469.56
395.005	448.56
395.229	459.56
395.454	480.56
395.678	466.56
395.903	465.56
396.127	504.56
396.352	489.56
396.576	471.56
396.801	445.56
397.025	483.56
397.249	474.56
397.474	475.56
397.698	498.56
397.922	468.56
398.147	498.56
398.371	494.56
398.595	517.56
398.82	517.56
399.044	539.56
399.268	542.56
399.492	605.56
399.717	662.56
399.941	646.56
400.165	653.56
400.389	648.56
400.613	582.56
400.837	553.56
401.062	535.56
401.286	529.56
401.51	500.56
401.734	508.56
401.958	532.56
402.182	518.56
402.406	529.56
402.63	543.56
402.854	520.56
403.078	553.56
403.302	529.56
403.526	573.56
403.75	540.56
403.974	551.56
404.198	546.56
404.422	537.56
404.645	555.56
404.869	535.56
405.093	594.56
405.317	590.56
405.541	593.56
405.765	550.56
405.988	563.56
406.212	558.56
406.436	572.56
406.66	587.56
406.883	582.56
407.107	590.56
407.331	635.56
407.555	668.56
407.778	701.56
408.002	632.56
408.226	585.56
408.449	591.56
408.673	569.56
408.896	571.56
409.12	593.56
409.344	602.56
409.567	553.56
409.791	552.56
410.014	548.56
410.238	557.56
410.461	561.56
410.685	544.56
410.908	530.56
411.132	557.56
411.355	572.56
411.578	552.56
411.802	545.56
412.025	524.56
412.249	540.56
412.472	557.56
412.695	562.56
412.919	554.56
413.142	518.56
413.365	539.56
413.589	525.56
413.812	521.56
414.035	509.56
414.258	504.56
414.482	517.56
414.705	482.56
414.928	515.56
415.151	509.56
415.374	513.56
415.597	519.56
415.821	514.56
416.044	500.56
416.267	492.56
416.49	502.56
416.713	501.56
416.936	514.56
417.159	481.56
417.382	502.56
417.605	499.56
417.828	520.56
418.051	485.56
418.274	514.56
418.497	503.56
418.72	486.56
418.943	516.56
419.166	505.56
419.389	564.56
419.611	543.56
419.834	542.56
420.057	516.56
420.28	549.56
420.503	536.56
420.726	518.56
420.948	524.56
421.171	555.56
421.394	549.56
421.617	536.56
421.839	522.56
422.062	514.56
422.285	513.56
422.507	571.56
422.73	614.56
422.953	600.56
423.175	552.56
423.398	535.56
423.621	512.56
423.843	563.56
424.066	549.56
424.288	557.56
424.511	550.56
424.733	589.56
424.956	617.56
425.178	594.56
425.401	615.56
425.623	603.56
425.846	561.56
426.068	539.56
426.291	532.56
426.513	519.56
426.735	521.56
426.958	555.56
427.18	594.56
427.402	673.56
427.625	717.56
427.847	633.56
428.069	581.56
428.292	538.56
428.514	483.56
428.736	506.56
428.958	496.56
429.181	488.56
429.403	484.56
429.625	482.56
429.847	509.56
430.069	557.56
430.292	533.56
430.514	486.56
430.736	485.56
430.958	485.56
431.18	485.56
431.402	474.56
431.624	486.56
431.846	466.56
432.068	467.56
432.29	471.56
432.512	488.56
432.734	464.56
432.956	469.56
433.178	489.56
433.4	478.56
433.622	467.56
433.844	493.56
434.066	498.56
434.287	477.56
434.509	484.56
434.731	496.56
434.953	498.56
435.175	504.56
435.397	539.56
435.618	531.56
435.84	540.56
436.062	590.56
436.284	639.56
436.505	562.56
436.727	544.56
436.949	540.56
437.17	500.56
437.392	496.56
437.614	518.56
437.835	487.56
438.057	547.56
438.278	606.56
438.5	600.56
438.721	651.56
438.943	638.56
439.165	537.56
439.386	481.56
439.608	520.56
439.829	503.56
440.05	508.56
440.272	557.56
440.493	530.56
440.715	515.56
440.936	498.56
441.158	509.56
441.379	508.56
441.6	536.56
441.822	517.56
442.043	551.56
442.264	604.56
442.486	608.56
442.707	550.56
442.928	523.56
443.149	530.56
443.371	551.56
443.592	540.56
443.813	640.56
444.034	672.56
444.255	603.56
444.476	570.56
444.698	561.56
444.919	585.56
445.14	668.56
445.361	600.56
445.582	569.56
445.803	585.56
446.024	620.56
446.245	640.56
446.466	585.56
446.687	519.56
446.908	510.56
447.129	505.56
447.35	467.56
447.571	498.56
447.792	470.56
448.013	481.56
448.234	474.56
448.455	488.56
448.675	576.56
448.896	644.56
449.117	586.56
449.338	523.56
449.559	610.56
449.779	647.56
450	568.56
450.221	494.56
450.442	473.56
450.662	440.56
450.883	433.56
451.104	470.56
451.324	456.56
451.545	438.56
451.766	436.56
451.986	444.56
452.207	422.56
452.428	408.56
452.648	437.56
452.869	420.56
453.089	443.56
453.31	444.56
453.53	415.56
453.751	439.56
453.971	452.56
454.192	437.56
454.412	442.56
454.633	406.56
454.853	419.56
455.073	413.56
455.294	435.56
455.514	459.56
455.734	457.56
455.955	433.56
456.175	403.56
456.395	400.56
456.616	433.56
456.836	421.56
457.056	418.56
457.276	421.56
457.497	420.56
457.717	410.56
457.937	434.56
458.157	422.56
458.377	433.56
458.598	426.56
458.818	481.56
459.038	494.56
459.258	516.56
459.478	485.56
459.698	457.56
459.918	476.56
460.138	496.56
460.358	489.56
460.578	504.56
460.798	507.56
461.018	504.56
461.238	521.56
461.458	496.56
461.678	515.56
461.898	529.56
462.118	512.56
462.338	531.56
462.558	530.56
462.777	564.56
462.997	582.56
463.217	606.56
463.437	604.56
463.657	600.56
463.876	577.56
464.096	588.56
464.316	567.56
464.536	572.56
464.755	553.56
464.975	544.56
465.195	534.56
465.414	544.56
465.634	504.56
465.854	501.56
466.073	480.56
466.293	468.56
466.512	464.56
466.732	466.56
466.951	463.56
467.171	436.56
467.391	462.56
467.61	459.56
467.829	450.56
468.049	469.56
468.268	460.56
468.488	461.56
468.707	433.56
468.927	456.56
469.146	426.56
469.365	450.56
469.585	446.56
469.804	471.56
470.023	454.56
470.243	467.56
470.462	472.56
470.681	448.56
470.901	481.56
471.12	447.56
471.339	443.56
471.558	458.56
471.777	460.56
471.997	451.56
472.216	461.56
472.435	482.56
472.654	456.56
472.873	457.56
473.092	447.56
473.311	434.56
473.53	442.56
473.749	454.56
473.968	468.56
474.187	518.56
474.406	536.56
474.625	493.56
474.844	457.56
475.063	450.56
475.282	462.56
475.501	455.56
475.72	460.56
475.939	465.56
476.158	469.56
476.377	482.56
476.596	482.56
476.814	469.56
477.033	481.56
477.252	468.56
477.471	479.56
477.69	502.56
477.908	514.56
478.127	517.56
478.346	496.56
478.564	516.56
478.783	525.56
479.002	537.56
479.22	547.56
479.439	547.56
479.658	552.56
479.876	550.56
480.095	573.56
480.313	578.56
480.532	566.56
480.751	570.56
480.969	566.56
481.188	577.56
481.406	578.56
481.624	567.56
481.843	561.56
482.061	552.56
482.28	538.56
482.498	526.56
482.717	522.56
482.935	524.56
483.153	525.56
483.372	509.56
483.59	531.56
483.808	525.56
484.027	536.56
484.245	540.56
484.463	549.56
484.681	560.56
484.9	532.56
485.118	536.56
485.336	562.56
485.554	553.56
485.772	557.56
485.99	570.56
486.209	559.56
486.427	560.56
486.645	568.56
486.863	569.56
487.081	574.56
487.299	555.56
487.517	570.56
487.735	564.56
487.953	557.56
488.171	579.56
488.389	573.56
488.607	565.56
488.825	549.56
489.043	574.56
489.261	577.56
489.479	570.56
489.696	560.56
489.914	584.56
490.132	567.56
490.35	580.56
490.568	599.56
490.786	600.56
491.003	565.56
491.221	600.56
491.439	600.56
491.657	605.56
491.874	594.56
492.092	600.56
492.31	578.56
492.527	615.56
492.745	621.56
492.963	596.56
493.18	625.56
493.398	616.56
493.615	629.56
493.833	612.56
494.05	630.56
494.268	594.56
494.485	627.56
494.703	638.56
494.92	626.56
495.138	609.56
495.355	613.56
495.573	619.56
495.79	633.56
496.008	621.56
496.225	661.56
496.442	661.56
496.66	668.56
496.877	640.56
497.094	645.56
497.312	662.56
497.529	656.56
497.746	678.56
497.963	698.56
498.181	740.56
498.398	769.56
498.615	781.56
498.832	796.56
499.049	820.56
499.267	844.56
499.484	895.56
499.701	946.56
499.918	984.56
500.135	1052.56
500.352	1144.56
500.569	1176.56
500.786	1211.56
501.003	1145.56
501.22	1090.56
501.437	1010.56
501.654	961.56
501.871	917.56
502.088	841.56
