Data from 1962.PennyLincolnUp.Lamp.En5.5.200Scan.071719.P1._HRD10591_13-53-06-059.txt Node
Date: Thu Jul 18 13:53:06 EDT 2019
User: cochatt
Spectrometer: HR+D1059
Trigger mode: 1
Integration Time (sec): 1.000000E-1
Scans to average: 1
Electric dark correction enabled: true
Nonlinearity correction enabled: false
Boxcar width: 0
XAxis mode: Wavelengths
Number of Pixels in Spectrum: 2048
>>>>>Begin Spectral Data<<<<<
223.165	-9.44
223.4	-9.44
223.635	-9.44
223.869	-29.44
224.104	-6.44
224.338	-22.44
224.573	-23.44
224.808	-8.44
225.042	0.56
225.277	-1.44
225.511	-3.44
225.746	6.56
225.98	6.56
226.215	11.56
226.449	14.56
226.683	3.56
226.918	31.56
227.152	29.56
227.387	33.56
227.621	46.56
227.856	49.56
228.09	39.56
228.324	56.56
228.559	67.56
228.793	75.56
229.027	94.56
229.262	90.56
229.496	99.56
229.73	107.56
229.964	131.56
230.199	124.56
230.433	105.56
230.667	106.56
230.901	106.56
231.136	100.56
231.37	103.56
231.604	108.56
231.838	97.56
232.072	115.56
232.306	121.56
232.541	109.56
232.775	105.56
233.009	105.56
233.243	110.56
233.477	112.56
233.711	117.56
233.945	109.56
234.179	115.56
234.413	119.56
234.647	108.56
234.881	121.56
235.115	114.56
235.349	103.56
235.583	109.56
235.817	122.56
236.051	119.56
236.285	98.56
236.519	118.56
236.753	119.56
236.987	131.56
237.221	127.56
237.455	168.56
237.689	149.56
237.922	130.56
238.156	138.56
238.39	106.56
238.624	109.56
238.858	114.56
239.091	99.56
239.325	108.56
239.559	113.56
239.793	125.56
240.027	111.56
240.26	121.56
240.494	135.56
240.728	142.56
240.961	115.56
241.195	133.56
241.429	123.56
241.662	120.56
241.896	118.56
242.13	126.56
242.363	134.56
242.597	125.56
242.83	131.56
243.064	126.56
243.298	142.56
243.531	130.56
243.765	139.56
243.998	140.56
244.232	133.56
244.465	139.56
244.699	126.56
244.932	145.56
245.166	134.56
245.399	133.56
245.633	151.56
245.866	137.56
246.099	143.56
246.333	151.56
246.566	148.56
246.8	134.56
247.033	146.56
247.266	156.56
247.5	150.56
247.733	146.56
247.966	166.56
248.2	158.56
248.433	140.56
248.666	170.56
248.899	170.56
249.133	181.56
249.366	181.56
249.599	164.56
249.832	173.56
250.066	165.56
250.299	171.56
250.532	163.56
250.765	166.56
250.998	179.56
251.231	193.56
251.465	185.56
251.698	188.56
251.931	170.56
252.164	168.56
252.397	176.56
252.63	166.56
252.863	181.56
253.096	178.56
253.329	193.56
253.562	201.56
253.795	175.56
254.028	197.56
254.261	186.56
254.494	193.56
254.727	200.56
254.96	229.56
255.193	206.56
255.426	189.56
255.659	189.56
255.892	183.56
256.124	206.56
256.357	188.56
256.59	194.56
256.823	174.56
257.056	185.56
257.289	191.56
257.521	188.56
257.754	183.56
257.987	183.56
258.22	169.56
258.452	190.56
258.685	185.56
258.918	192.56
259.151	197.56
259.383	198.56
259.616	194.56
259.849	188.56
260.081	210.56
260.314	215.56
260.547	222.56
260.779	203.56
261.012	202.56
261.244	214.56
261.477	201.56
261.71	196.56
261.942	202.56
262.175	201.56
262.407	195.56
262.64	217.56
262.872	181.56
263.105	188.56
263.337	200.56
263.57	195.56
263.802	188.56
264.035	192.56
264.267	205.56
264.499	213.56
264.732	211.56
264.964	211.56
265.197	202.56
265.429	194.56
265.661	198.56
265.894	221.56
266.126	207.56
266.358	218.56
266.591	209.56
266.823	212.56
267.055	197.56
267.287	221.56
267.52	212.56
267.752	211.56
267.984	222.56
268.216	190.56
268.448	211.56
268.681	218.56
268.913	220.56
269.145	230.56
269.377	233.56
269.609	231.56
269.841	242.56
270.073	230.56
270.306	244.56
270.538	252.56
270.77	260.56
271.002	247.56
271.234	248.56
271.466	249.56
271.698	266.56
271.93	275.56
272.162	262.56
272.394	261.56
272.626	261.56
272.858	239.56
273.09	256.56
273.322	256.56
273.553	247.56
273.785	246.56
274.017	235.56
274.249	246.56
274.481	236.56
274.713	246.56
274.945	229.56
275.176	261.56
275.408	243.56
275.64	241.56
275.872	246.56
276.104	261.56
276.335	229.56
276.567	261.56
276.799	272.56
277.031	247.56
277.262	277.56
277.494	275.56
277.726	252.56
277.957	259.56
278.189	262.56
278.421	258.56
278.652	252.56
278.884	246.56
279.115	254.56
279.347	242.56
279.579	247.56
279.81	261.56
280.042	270.56
280.273	268.56
280.505	269.56
280.736	271.56
280.968	253.56
281.199	266.56
281.431	260.56
281.662	252.56
281.894	261.56
282.125	250.56
282.356	263.56
282.588	263.56
282.819	265.56
283.051	259.56
283.282	247.56
283.513	280.56
283.745	260.56
283.976	258.56
284.207	266.56
284.439	263.56
284.67	283.56
284.901	271.56
285.132	278.56
285.364	278.56
285.595	262.56
285.826	290.56
286.057	261.56
286.288	279.56
286.52	277.56
286.751	266.56
286.982	286.56
287.213	282.56
287.444	279.56
287.675	285.56
287.906	295.56
288.138	268.56
288.369	294.56
288.6	295.56
288.831	291.56
289.062	273.56
289.293	295.56
289.524	280.56
289.755	289.56
289.986	289.56
290.217	272.56
290.448	285.56
290.679	284.56
290.91	285.56
291.141	289.56
291.371	287.56
291.602	283.56
291.833	274.56
292.064	294.56
292.295	288.56
292.526	279.56
292.757	282.56
292.987	281.56
293.218	263.56
293.449	294.56
293.68	294.56
293.91	281.56
294.141	287.56
294.372	283.56
294.603	287.56
294.833	285.56
295.064	288.56
295.295	299.56
295.525	272.56
295.756	273.56
295.987	305.56
296.217	291.56
296.448	297.56
296.679	295.56
296.909	294.56
297.14	310.56
297.37	309.56
297.601	303.56
297.831	295.56
298.062	299.56
298.292	314.56
298.523	307.56
298.753	313.56
298.984	318.56
299.214	300.56
299.445	317.56
299.675	309.56
299.905	305.56
300.136	314.56
300.366	309.56
300.597	313.56
300.827	333.56
301.057	327.56
301.288	308.56
301.518	327.56
301.748	325.56
301.979	334.56
302.209	312.56
302.439	323.56
302.669	313.56
302.9	334.56
303.13	319.56
303.36	339.56
303.59	325.56
303.82	340.56
304.051	339.56
304.281	315.56
304.511	326.56
304.741	321.56
304.971	337.56
305.201	307.56
305.431	333.56
305.661	314.56
305.891	330.56
306.121	325.56
306.352	323.56
306.582	314.56
306.812	325.56
307.042	340.56
307.272	322.56
307.502	313.56
307.731	314.56
307.961	329.56
308.191	323.56
308.421	318.56
308.651	321.56
308.881	311.56
309.111	344.56
309.341	342.56
309.571	319.56
309.8	332.56
310.03	346.56
310.26	329.56
310.49	351.56
310.72	348.56
310.949	345.56
311.179	361.56
311.409	342.56
311.639	338.56
311.868	328.56
312.098	346.56
312.328	354.56
312.557	359.56
312.787	352.56
313.017	349.56
313.246	354.56
313.476	358.56
313.706	355.56
313.935	358.56
314.165	362.56
314.394	375.56
314.624	364.56
314.853	353.56
315.083	375.56
315.312	367.56
315.542	372.56
315.771	366.56
316.001	356.56
316.23	340.56
316.46	353.56
316.689	346.56
316.919	374.56
317.148	361.56
317.377	347.56
317.607	364.56
317.836	372.56
318.065	369.56
318.295	355.56
318.524	362.56
318.753	352.56
318.983	353.56
319.212	351.56
319.441	362.56
319.67	349.56
319.9	340.56
320.129	351.56
320.358	357.56
320.587	365.56
320.816	353.56
321.046	380.56
321.275	381.56
321.504	370.56
321.733	374.56
321.962	388.56
322.191	370.56
322.42	375.56
322.649	383.56
322.878	374.56
323.108	398.56
323.337	390.56
323.566	405.56
323.795	420.56
324.024	430.56
324.253	503.56
324.482	604.56
324.71	839.56
324.939	1143.56
325.168	996.56
325.397	578.56
325.626	482.56
325.855	445.56
326.084	435.56
326.313	402.56
326.542	383.56
326.77	432.56
326.999	458.56
327.228	584.56
327.457	772.56
327.686	897.56
327.914	659.56
328.143	505.56
328.372	493.56
328.6	443.56
328.829	453.56
329.058	435.56
329.287	411.56
329.515	428.56
329.744	419.56
329.972	412.56
330.201	413.56
330.43	437.56
330.658	444.56
330.887	466.56
331.115	459.56
331.344	429.56
331.572	422.56
331.801	433.56
332.03	441.56
332.258	425.56
332.486	428.56
332.715	455.56
332.943	433.56
333.172	450.56
333.4	439.56
333.629	459.56
333.857	473.56
334.085	470.56
334.314	484.56
334.542	482.56
334.771	480.56
334.999	454.56
335.227	435.56
335.455	438.56
335.684	464.56
335.912	435.56
336.14	453.56
336.369	436.56
336.597	446.56
336.825	430.56
337.053	435.56
337.281	440.56
337.51	439.56
337.738	449.56
337.966	419.56
338.194	408.56
338.422	442.56
338.65	434.56
338.878	418.56
339.106	403.56
339.334	433.56
339.562	406.56
339.79	417.56
340.018	405.56
340.246	398.56
340.474	400.56
340.702	389.56
340.93	405.56
341.158	412.56
341.386	397.56
341.614	406.56
341.842	403.56
342.07	406.56
342.298	405.56
342.526	394.56
342.754	401.56
342.981	423.56
343.209	398.56
343.437	404.56
343.665	415.56
343.893	447.56
344.12	438.56
344.348	441.56
344.576	432.56
344.804	436.56
345.031	402.56
345.259	437.56
345.487	403.56
345.714	409.56
345.942	396.56
346.17	388.56
346.397	383.56
346.625	394.56
346.853	383.56
347.08	392.56
347.308	413.56
347.535	380.56
347.763	393.56
347.99	413.56
348.218	394.56
348.445	399.56
348.673	391.56
348.9	395.56
349.128	379.56
349.355	406.56
349.583	371.56
349.81	397.56
350.037	390.56
350.265	369.56
350.492	385.56
350.72	380.56
350.947	378.56
351.174	372.56
351.402	365.56
351.629	365.56
351.856	388.56
352.083	353.56
352.311	385.56
352.538	402.56
352.765	365.56
352.992	382.56
353.22	383.56
353.447	370.56
353.674	391.56
353.901	396.56
354.128	369.56
354.355	370.56
354.583	372.56
354.81	371.56
355.037	366.56
355.264	366.56
355.491	380.56
355.718	371.56
355.945	381.56
356.172	358.56
356.399	385.56
356.626	364.56
356.853	361.56
357.08	375.56
357.307	375.56
357.534	385.56
357.761	380.56
357.988	372.56
358.215	355.56
358.441	381.56
358.668	371.56
358.895	369.56
359.122	384.56
359.349	381.56
359.576	376.56
359.802	395.56
360.029	391.56
360.256	409.56
360.483	405.56
360.709	380.56
360.936	386.56
361.163	375.56
361.39	402.56
361.616	390.56
361.843	392.56
362.07	393.56
362.296	379.56
362.523	381.56
362.749	381.56
362.976	388.56
363.203	370.56
363.429	379.56
363.656	373.56
363.882	392.56
364.109	381.56
364.335	360.56
364.562	379.56
364.788	392.56
365.015	377.56
365.241	399.56
365.468	367.56
365.694	373.56
365.92	387.56
366.147	373.56
366.373	369.56
366.599	379.56
366.826	378.56
367.052	372.56
367.278	366.56
367.505	383.56
367.731	383.56
367.957	374.56
368.184	366.56
368.41	377.56
368.636	376.56
368.862	378.56
369.089	380.56
369.315	372.56
369.541	391.56
369.767	377.56
369.993	388.56
370.219	367.56
370.445	384.56
370.672	383.56
370.898	378.56
371.124	388.56
371.35	394.56
371.576	382.56
371.802	399.56
372.028	385.56
372.254	386.56
372.48	390.56
372.706	389.56
372.932	400.56
373.158	390.56
373.384	397.56
373.61	405.56
373.835	404.56
374.061	389.56
374.287	383.56
374.513	403.56
374.739	398.56
374.965	403.56
375.191	424.56
375.416	402.56
375.642	404.56
375.868	405.56
376.094	407.56
376.319	363.56
376.545	373.56
376.771	376.56
376.997	405.56
377.222	395.56
377.448	391.56
377.674	363.56
377.899	389.56
378.125	377.56
378.35	396.56
378.576	405.56
378.802	381.56
379.027	394.56
379.253	386.56
379.478	387.56
379.704	375.56
379.929	378.56
380.155	372.56
380.38	391.56
380.606	365.56
380.831	385.56
381.057	400.56
381.282	402.56
381.507	390.56
381.733	410.56
381.958	383.56
382.184	408.56
382.409	411.56
382.634	388.56
382.86	395.56
383.085	414.56
383.31	411.56
383.535	428.56
383.761	421.56
383.986	413.56
384.211	407.56
384.436	421.56
384.662	428.56
384.887	429.56
385.112	439.56
385.337	426.56
385.562	444.56
385.787	412.56
386.013	462.56
386.238	458.56
386.463	439.56
386.688	435.56
386.913	446.56
387.138	437.56
387.363	451.56
387.588	451.56
387.813	447.56
388.038	450.56
388.263	446.56
388.488	446.56
388.713	450.56
388.938	443.56
389.163	464.56
389.387	480.56
389.612	437.56
389.837	450.56
390.062	417.56
390.287	440.56
390.512	423.56
390.736	421.56
390.961	433.56
391.186	466.56
391.411	431.56
391.636	456.56
391.86	460.56
392.085	489.56
392.31	460.56
392.534	457.56
392.759	455.56
392.984	462.56
393.208	457.56
393.433	463.56
393.658	451.56
393.882	455.56
394.107	452.56
394.331	469.56
394.556	459.56
394.78	450.56
395.005	477.56
395.229	467.56
395.454	463.56
395.678	446.56
395.903	480.56
396.127	488.56
396.352	482.56
396.576	491.56
396.801	479.56
397.025	472.56
397.249	480.56
397.474	471.56
397.698	472.56
397.922	488.56
398.147	478.56
398.371	484.56
398.595	527.56
398.82	518.56
399.044	549.56
399.268	549.56
399.492	609.56
399.717	639.56
399.941	675.56
400.165	666.56
400.389	634.56
400.613	589.56
400.837	563.56
401.062	531.56
401.286	543.56
401.51	542.56
401.734	521.56
401.958	528.56
402.182	556.56
402.406	528.56
402.63	554.56
402.854	557.56
403.078	511.56
403.302	539.56
403.526	557.56
403.75	563.56
403.974	550.56
404.198	567.56
404.422	570.56
404.645	555.56
404.869	552.56
405.093	574.56
405.317	612.56
405.541	611.56
405.765	596.56
405.988	569.56
406.212	565.56
406.436	575.56
406.66	597.56
406.883	591.56
407.107	592.56
407.331	639.56
407.555	677.56
407.778	683.56
408.002	641.56
408.226	614.56
408.449	592.56
408.673	602.56
408.896	591.56
409.12	617.56
409.344	589.56
409.567	532.56
409.791	566.56
410.014	547.56
410.238	541.56
410.461	564.56
410.685	547.56
410.908	547.56
411.132	566.56
411.355	584.56
411.578	583.56
411.802	546.56
412.025	535.56
412.249	539.56
412.472	547.56
412.695	577.56
412.919	563.56
413.142	532.56
413.365	528.56
413.589	536.56
413.812	507.56
414.035	518.56
414.258	499.56
414.482	518.56
414.705	537.56
414.928	524.56
415.151	516.56
415.374	516.56
415.597	540.56
415.821	501.56
416.044	503.56
416.267	536.56
416.49	507.56
416.713	496.56
416.936	507.56
417.159	522.56
417.382	501.56
417.605	502.56
417.828	506.56
418.051	522.56
418.274	519.56
418.497	514.56
418.72	514.56
418.943	510.56
419.166	519.56
419.389	550.56
419.611	565.56
419.834	554.56
420.057	526.56
420.28	527.56
420.503	502.56
420.726	504.56
420.948	525.56
421.171	538.56
421.394	583.56
421.617	531.56
421.839	507.56
422.062	540.56
422.285	523.56
422.507	565.56
422.73	593.56
422.953	584.56
423.175	539.56
423.398	524.56
423.621	533.56
423.843	543.56
424.066	551.56
424.288	552.56
424.511	542.56
424.733	587.56
424.956	627.56
425.178	623.56
425.401	583.56
425.623	642.56
425.846	574.56
426.068	515.56
426.291	530.56
426.513	517.56
426.735	509.56
426.958	548.56
427.18	612.56
427.402	687.56
427.625	725.56
427.847	657.56
428.069	581.56
428.292	567.56
428.514	520.56
428.736	515.56
428.958	498.56
429.181	482.56
429.403	481.56
429.625	509.56
429.847	507.56
430.069	554.56
430.292	556.56
430.514	493.56
430.736	491.56
430.958	473.56
431.18	478.56
431.402	484.56
431.624	494.56
431.846	477.56
432.068	477.56
432.29	482.56
432.512	474.56
432.734	476.56
432.956	499.56
433.178	491.56
433.4	511.56
433.622	471.56
433.844	509.56
434.066	458.56
434.287	501.56
434.509	509.56
434.731	484.56
434.953	514.56
435.175	518.56
435.397	540.56
435.618	531.56
435.84	573.56
436.062	608.56
436.284	636.56
436.505	554.56
436.727	511.56
436.949	514.56
437.17	493.56
437.392	489.56
437.614	509.56
437.835	487.56
438.057	565.56
438.278	607.56
438.5	604.56
438.721	677.56
438.943	649.56
439.165	541.56
439.386	502.56
439.608	505.56
439.829	523.56
440.05	514.56
440.272	531.56
440.493	547.56
440.715	517.56
440.936	510.56
441.158	524.56
441.379	522.56
441.6	524.56
441.822	541.56
442.043	524.56
442.264	582.56
442.486	602.56
442.707	569.56
442.928	540.56
443.149	546.56
443.371	556.56
443.592	579.56
443.813	642.56
444.034	656.56
444.255	590.56
444.476	573.56
444.698	568.56
444.919	557.56
445.14	670.56
445.361	595.56
445.582	564.56
445.803	587.56
446.024	635.56
446.245	635.56
446.466	577.56
446.687	543.56
446.908	502.56
447.129	497.56
447.35	490.56
447.571	487.56
447.792	463.56
448.013	502.56
448.234	483.56
448.455	521.56
448.675	575.56
448.896	654.56
449.117	581.56
449.338	541.56
449.559	644.56
449.779	701.56
450	591.56
450.221	496.56
450.442	481.56
450.662	460.56
450.883	460.56
451.104	457.56
451.324	444.56
451.545	450.56
451.766	435.56
451.986	446.56
452.207	421.56
452.428	441.56
452.648	430.56
452.869	435.56
453.089	443.56
453.31	451.56
453.53	426.56
453.751	429.56
453.971	422.56
454.192	436.56
454.412	445.56
454.633	437.56
454.853	444.56
455.073	437.56
455.294	425.56
455.514	470.56
455.734	460.56
455.955	414.56
456.175	446.56
456.395	430.56
456.616	431.56
456.836	431.56
457.056	408.56
457.276	405.56
457.497	426.56
457.717	427.56
457.937	411.56
458.157	425.56
458.377	429.56
458.598	449.56
458.818	452.56
459.038	519.56
459.258	545.56
459.478	503.56
459.698	465.56
459.918	456.56
460.138	491.56
460.358	509.56
460.578	533.56
460.798	518.56
461.018	523.56
461.238	532.56
461.458	503.56
461.678	506.56
461.898	537.56
462.118	533.56
462.338	528.56
462.558	554.56
462.777	573.56
462.997	583.56
463.217	597.56
463.437	604.56
463.657	587.56
463.876	586.56
464.096	571.56
464.316	555.56
464.536	565.56
464.755	562.56
464.975	542.56
465.195	545.56
465.414	562.56
465.634	519.56
465.854	498.56
466.073	487.56
466.293	461.56
466.512	468.56
466.732	463.56
466.951	461.56
467.171	452.56
467.391	461.56
467.61	474.56
467.829	473.56
468.049	476.56
468.268	444.56
468.488	442.56
468.707	454.56
468.927	450.56
469.146	446.56
469.365	446.56
469.585	446.56
469.804	452.56
470.023	479.56
470.243	470.56
470.462	467.56
470.681	482.56
470.901	472.56
471.12	439.56
471.339	467.56
471.558	457.56
471.777	461.56
471.997	474.56
472.216	437.56
472.435	455.56
472.654	454.56
472.873	447.56
473.092	453.56
473.311	459.56
473.53	439.56
473.749	461.56
473.968	490.56
474.187	518.56
474.406	540.56
474.625	493.56
474.844	441.56
475.063	474.56
475.282	446.56
475.501	452.56
475.72	474.56
475.939	470.56
476.158	461.56
476.377	458.56
476.596	466.56
476.814	473.56
477.033	488.56
477.252	502.56
477.471	486.56
477.69	471.56
477.908	502.56
478.127	525.56
478.346	521.56
478.564	514.56
478.783	507.56
479.002	528.56
479.22	537.56
479.439	554.56
479.658	537.56
479.876	553.56
480.095	547.56
480.313	581.56
480.532	614.56
480.751	590.56
480.969	561.56
481.188	577.56
481.406	584.56
481.624	563.56
481.843	549.56
482.061	550.56
482.28	543.56
482.498	532.56
482.717	517.56
482.935	523.56
483.153	535.56
483.372	526.56
483.59	535.56
483.808	532.56
484.027	532.56
484.245	567.56
484.463	562.56
484.681	550.56
484.9	540.56
485.118	548.56
485.336	531.56
485.554	542.56
485.772	561.56
485.99	545.56
486.209	568.56
486.427	564.56
486.645	553.56
486.863	581.56
487.081	590.56
487.299	565.56
487.517	557.56
487.735	569.56
487.953	567.56
488.171	577.56
488.389	552.56
488.607	580.56
488.825	555.56
489.043	555.56
489.261	559.56
489.479	542.56
489.696	561.56
489.914	552.56
490.132	569.56
490.35	561.56
490.568	587.56
490.786	582.56
491.003	583.56
491.221	594.56
491.439	587.56
491.657	605.56
491.874	586.56
492.092	608.56
492.31	598.56
492.527	613.56
492.745	644.56
492.963	634.56
493.18	658.56
493.398	652.56
493.615	618.56
493.833	630.56
494.05	612.56
494.268	630.56
494.485	618.56
494.703	606.56
494.92	636.56
495.138	630.56
495.355	633.56
495.573	637.56
495.79	633.56
496.008	618.56
496.225	640.56
496.442	635.56
496.66	641.56
496.877	664.56
497.094	665.56
497.312	674.56
497.529	681.56
497.746	697.56
497.963	703.56
498.181	737.56
498.398	730.56
498.615	757.56
498.832	801.56
499.049	810.56
499.267	869.56
499.484	907.56
499.701	959.56
499.918	986.56
500.135	1070.56
500.352	1158.56
500.569	1172.56
500.786	1191.56
501.003	1152.56
501.22	1099.56
501.437	1001.56
501.654	960.56
501.871	907.56
502.088	891.56
