Data from 1962.PennyLincolnUp.Lamp.En5.5.200Scan.071719.P1._HRD10591_13-55-52-062.txt Node
Date: Thu Jul 18 13:55:52 EDT 2019
User: cochatt
Spectrometer: HR+D1059
Trigger mode: 1
Integration Time (sec): 1.000000E-1
Scans to average: 1
Electric dark correction enabled: true
Nonlinearity correction enabled: false
Boxcar width: 0
XAxis mode: Wavelengths
Number of Pixels in Spectrum: 2048
>>>>>Begin Spectral Data<<<<<
223.165	-11.69
223.4	-11.69
223.635	-11.69
223.869	-12.69
224.104	-20.69
224.338	-20.69
224.573	-4.69
224.808	-10.69
225.042	-6.69
225.277	-10.69
225.511	4.31
225.746	2.31
225.98	0.31
226.215	16.31
226.449	-5.69
226.683	21.31
226.918	22.31
227.152	37.31
227.387	22.31
227.621	61.31
227.856	55.31
228.09	57.31
228.324	61.31
228.559	68.31
228.793	76.31
229.027	89.31
229.262	100.31
229.496	107.31
229.73	123.31
229.964	134.31
230.199	111.31
230.433	111.31
230.667	116.31
230.901	116.31
231.136	95.31
231.37	115.31
231.604	111.31
231.838	115.31
232.072	120.31
232.306	116.31
232.541	109.31
232.775	119.31
233.009	112.31
233.243	122.31
233.477	100.31
233.711	116.31
233.945	119.31
234.179	129.31
234.413	127.31
234.647	111.31
234.881	135.31
235.115	115.31
235.349	118.31
235.583	120.31
235.817	111.31
236.051	127.31
236.285	125.31
236.519	118.31
236.753	123.31
236.987	143.31
237.221	166.31
237.455	190.31
237.689	164.31
237.922	143.31
238.156	127.31
238.39	118.31
238.624	124.31
238.858	139.31
239.091	123.31
239.325	124.31
239.559	129.31
239.793	124.31
240.027	128.31
240.26	136.31
240.494	142.31
240.728	136.31
240.961	143.31
241.195	140.31
241.429	155.31
241.662	135.31
241.896	148.31
242.13	131.31
242.363	138.31
242.597	144.31
242.83	143.31
243.064	123.31
243.298	135.31
243.531	143.31
243.765	142.31
243.998	141.31
244.232	148.31
244.465	135.31
244.699	159.31
244.932	136.31
245.166	145.31
245.399	151.31
245.633	141.31
245.866	125.31
246.099	160.31
246.333	145.31
246.566	150.31
246.8	144.31
247.033	165.31
247.266	153.31
247.5	145.31
247.733	160.31
247.966	170.31
248.2	157.31
248.433	163.31
248.666	153.31
248.899	169.31
249.133	193.31
249.366	192.31
249.599	173.31
249.832	161.31
250.066	170.31
250.299	184.31
250.532	186.31
250.765	189.31
250.998	208.31
251.231	213.31
251.465	208.31
251.698	192.31
251.931	187.31
252.164	186.31
252.397	184.31
252.63	192.31
252.863	197.31
253.096	209.31
253.329	207.31
253.562	193.31
253.795	209.31
254.028	209.31
254.261	205.31
254.494	208.31
254.727	227.31
254.96	267.31
255.193	243.31
255.426	227.31
255.659	209.31
255.892	196.31
256.124	223.31
256.357	201.31
256.59	216.31
256.823	197.31
257.056	192.31
257.289	195.31
257.521	207.31
257.754	202.31
257.987	200.31
258.22	187.31
258.452	222.31
258.685	204.31
258.918	193.31
259.151	220.31
259.383	207.31
259.616	205.31
259.849	208.31
260.081	207.31
260.314	242.31
260.547	248.31
260.779	226.31
261.012	220.31
261.244	221.31
261.477	219.31
261.71	212.31
261.942	211.31
262.175	217.31
262.407	220.31
262.64	219.31
262.872	217.31
263.105	213.31
263.337	214.31
263.57	204.31
263.802	200.31
264.035	220.31
264.267	207.31
264.499	228.31
264.732	230.31
264.964	212.31
265.197	218.31
265.429	228.31
265.661	219.31
265.894	210.31
266.126	216.31
266.358	215.31
266.591	219.31
266.823	221.31
267.055	219.31
267.287	233.31
267.52	228.31
267.752	222.31
267.984	230.31
268.216	218.31
268.448	249.31
268.681	244.31
268.913	242.31
269.145	265.31
269.377	265.31
269.609	270.31
269.841	268.31
270.073	276.31
270.306	283.31
270.538	313.31
270.77	270.31
271.002	286.31
271.234	293.31
271.466	292.31
271.698	305.31
271.93	287.31
272.162	312.31
272.394	294.31
272.626	288.31
272.858	274.31
273.09	284.31
273.322	270.31
273.553	257.31
273.785	254.31
274.017	263.31
274.249	268.31
274.481	268.31
274.713	262.31
274.945	257.31
275.176	258.31
275.408	268.31
275.64	267.31
275.872	253.31
276.104	258.31
276.335	267.31
276.567	272.31
276.799	282.31
277.031	309.31
277.262	301.31
277.494	309.31
277.726	304.31
277.957	288.31
278.189	294.31
278.421	270.31
278.652	272.31
278.884	261.31
279.115	273.31
279.347	276.31
279.579	267.31
279.81	266.31
280.042	259.31
280.273	275.31
280.505	285.31
280.736	260.31
280.968	252.31
281.199	279.31
281.431	281.31
281.662	273.31
281.894	281.31
282.125	292.31
282.356	301.31
282.588	309.31
282.819	312.31
283.051	289.31
283.282	277.31
283.513	286.31
283.745	280.31
283.976	280.31
284.207	287.31
284.439	292.31
284.67	296.31
284.901	287.31
285.132	284.31
285.364	273.31
285.595	281.31
285.826	289.31
286.057	318.31
286.288	285.31
286.52	288.31
286.751	288.31
286.982	303.31
287.213	285.31
287.444	299.31
287.675	307.31
287.906	299.31
288.138	316.31
288.369	309.31
288.6	311.31
288.831	302.31
289.062	318.31
289.293	293.31
289.524	299.31
289.755	299.31
289.986	292.31
290.217	297.31
290.448	294.31
290.679	295.31
290.91	290.31
291.141	303.31
291.371	302.31
291.602	302.31
291.833	301.31
292.064	317.31
292.295	282.31
292.526	302.31
292.757	304.31
292.987	304.31
293.218	295.31
293.449	303.31
293.68	311.31
293.91	301.31
294.141	311.31
294.372	306.31
294.603	312.31
294.833	324.31
295.064	302.31
295.295	312.31
295.525	309.31
295.756	323.31
295.987	320.31
296.217	327.31
296.448	340.31
296.679	313.31
296.909	320.31
297.14	328.31
297.37	324.31
297.601	338.31
297.831	324.31
298.062	314.31
298.292	322.31
298.523	345.31
298.753	315.31
298.984	326.31
299.214	319.31
299.445	330.31
299.675	335.31
299.905	318.31
300.136	334.31
300.366	331.31
300.597	339.31
300.827	329.31
301.057	339.31
301.288	346.31
301.518	337.31
301.748	341.31
301.979	338.31
302.209	350.31
302.439	335.31
302.669	357.31
302.9	339.31
303.13	343.31
303.36	352.31
303.59	357.31
303.82	326.31
304.051	364.31
304.281	321.31
304.511	356.31
304.741	335.31
304.971	345.31
305.201	330.31
305.431	359.31
305.661	344.31
305.891	340.31
306.121	338.31
306.352	342.31
306.582	358.31
306.812	341.31
307.042	353.31
307.272	355.31
307.502	345.31
307.731	364.31
307.961	345.31
308.191	338.31
308.421	347.31
308.651	363.31
308.881	360.31
309.111	347.31
309.341	351.31
309.571	348.31
309.8	355.31
310.03	368.31
310.26	375.31
310.49	380.31
310.72	369.31
310.949	379.31
311.179	377.31
311.409	391.31
311.639	353.31
311.868	374.31
312.098	391.31
312.328	394.31
312.557	383.31
312.787	396.31
313.017	385.31
313.246	395.31
313.476	380.31
313.706	378.31
313.935	382.31
314.165	379.31
314.394	384.31
314.624	402.31
314.853	403.31
315.083	391.31
315.312	390.31
315.542	408.31
315.771	387.31
316.001	361.31
316.23	372.31
316.46	399.31
316.689	373.31
316.919	385.31
317.148	387.31
317.377	406.31
317.607	385.31
317.836	378.31
318.065	376.31
318.295	379.31
318.524	371.31
318.753	380.31
318.983	385.31
319.212	380.31
319.441	383.31
319.67	377.31
319.9	383.31
320.129	382.31
320.358	382.31
320.587	390.31
320.816	392.31
321.046	398.31
321.275	401.31
321.504	382.31
321.733	398.31
321.962	405.31
322.191	399.31
322.42	393.31
322.649	411.31
322.878	417.31
323.108	420.31
323.337	447.31
323.566	453.31
323.795	465.31
324.024	496.31
324.253	574.31
324.482	777.31
324.71	1114.31
324.939	1633.31
325.168	1395.31
325.397	768.31
325.626	559.31
325.855	477.31
326.084	486.31
326.313	470.31
326.542	485.31
326.77	520.31
326.999	571.31
327.228	722.31
327.457	1031.31
327.686	1254.31
327.914	874.31
328.143	603.31
328.372	535.31
328.6	532.31
328.829	520.31
329.058	508.31
329.287	505.31
329.515	496.31
329.744	485.31
329.972	480.31
330.201	484.31
330.43	513.31
330.658	517.31
330.887	525.31
331.115	531.31
331.344	487.31
331.572	480.31
331.801	472.31
332.03	459.31
332.258	471.31
332.486	463.31
332.715	455.31
332.943	444.31
333.172	469.31
333.4	503.31
333.629	473.31
333.857	529.31
334.085	506.31
334.314	517.31
334.542	520.31
334.771	520.31
334.999	504.31
335.227	487.31
335.455	473.31
335.684	485.31
335.912	484.31
336.14	472.31
336.369	474.31
336.597	470.31
336.825	481.31
337.053	468.31
337.281	459.31
337.51	450.31
337.738	445.31
337.966	445.31
338.194	463.31
338.422	469.31
338.65	439.31
338.878	446.31
339.106	418.31
339.334	459.31
339.562	445.31
339.79	437.31
340.018	427.31
340.246	437.31
340.474	436.31
340.702	461.31
340.93	430.31
341.158	426.31
341.386	430.31
341.614	448.31
341.842	427.31
342.07	432.31
342.298	446.31
342.526	415.31
342.754	412.31
342.981	427.31
343.209	450.31
343.437	447.31
343.665	447.31
343.893	476.31
344.12	477.31
344.348	458.31
344.576	470.31
344.804	449.31
345.031	467.31
345.259	451.31
345.487	461.31
345.714	442.31
345.942	424.31
346.17	423.31
346.397	429.31
346.625	417.31
346.853	435.31
347.08	419.31
347.308	415.31
347.535	437.31
347.763	423.31
347.99	415.31
348.218	416.31
348.445	413.31
348.673	425.31
348.9	401.31
349.128	422.31
349.355	414.31
349.583	405.31
349.81	401.31
350.037	403.31
350.265	396.31
350.492	405.31
350.72	415.31
350.947	409.31
351.174	418.31
351.402	441.31
351.629	421.31
351.856	409.31
352.083	426.31
352.311	423.31
352.538	422.31
352.765	425.31
352.992	419.31
353.22	420.31
353.447	406.31
353.674	420.31
353.901	412.31
354.128	419.31
354.355	379.31
354.583	396.31
354.81	389.31
355.037	407.31
355.264	378.31
355.491	385.31
355.718	394.31
355.945	399.31
356.172	412.31
356.399	395.31
356.626	375.31
356.853	395.31
357.08	400.31
357.307	401.31
357.534	406.31
357.761	408.31
357.988	424.31
358.215	383.31
358.441	415.31
358.668	387.31
358.895	402.31
359.122	387.31
359.349	415.31
359.576	402.31
359.802	431.31
360.029	444.31
360.256	449.31
360.483	439.31
360.709	415.31
360.936	437.31
361.163	423.31
361.39	394.31
361.616	417.31
361.843	413.31
362.07	408.31
362.296	397.31
362.523	394.31
362.749	409.31
362.976	403.31
363.203	413.31
363.429	408.31
363.656	401.31
363.882	414.31
364.109	404.31
364.335	408.31
364.562	386.31
364.788	383.31
365.015	397.31
365.241	406.31
365.468	413.31
365.694	432.31
365.92	396.31
366.147	412.31
366.373	400.31
366.599	407.31
366.826	394.31
367.052	403.31
367.278	406.31
367.505	397.31
367.731	386.31
367.957	391.31
368.184	406.31
368.41	429.31
368.636	425.31
368.862	419.31
369.089	407.31
369.315	406.31
369.541	417.31
369.767	404.31
369.993	395.31
370.219	417.31
370.445	404.31
370.672	404.31
370.898	448.31
371.124	393.31
371.35	405.31
371.576	403.31
371.802	399.31
372.028	392.31
372.254	420.31
372.48	412.31
372.706	425.31
372.932	417.31
373.158	416.31
373.384	423.31
373.61	422.31
373.835	417.31
374.061	413.31
374.287	406.31
374.513	413.31
374.739	428.31
374.965	417.31
375.191	443.31
375.416	429.31
375.642	437.31
375.868	419.31
376.094	412.31
376.319	420.31
376.545	409.31
376.771	406.31
376.997	410.31
377.222	428.31
377.448	407.31
377.674	393.31
377.899	409.31
378.125	406.31
378.35	408.31
378.576	409.31
378.802	427.31
379.027	419.31
379.253	413.31
379.478	419.31
379.704	429.31
379.929	406.31
380.155	429.31
380.38	392.31
380.606	410.31
380.831	387.31
381.057	397.31
381.282	411.31
381.507	409.31
381.733	429.31
381.958	415.31
382.184	437.31
382.409	426.31
382.634	432.31
382.86	433.31
383.085	426.31
383.31	432.31
383.535	453.31
383.761	444.31
383.986	412.31
384.211	431.31
384.436	446.31
384.662	460.31
384.887	451.31
385.112	461.31
385.337	449.31
385.562	459.31
385.787	458.31
386.013	472.31
386.238	473.31
386.463	471.31
386.688	477.31
386.913	464.31
387.138	466.31
387.363	488.31
387.588	479.31
387.813	478.31
388.038	456.31
388.263	473.31
388.488	483.31
388.713	477.31
388.938	472.31
389.163	477.31
389.387	467.31
389.612	456.31
389.837	465.31
390.062	462.31
390.287	465.31
390.512	473.31
390.736	460.31
390.961	467.31
391.186	456.31
391.411	477.31
391.636	467.31
391.86	479.31
392.085	481.31
392.31	483.31
392.534	491.31
392.759	485.31
392.984	482.31
393.208	478.31
393.433	485.31
393.658	472.31
393.882	474.31
394.107	465.31
394.331	473.31
394.556	457.31
394.78	480.31
395.005	464.31
395.229	474.31
395.454	501.31
395.678	488.31
395.903	506.31
396.127	514.31
396.352	518.31
396.576	486.31
396.801	485.31
397.025	504.31
397.249	499.31
397.474	528.31
397.698	509.31
397.922	512.31
398.147	526.31
398.371	526.31
398.595	537.31
398.82	544.31
399.044	554.31
399.268	627.31
399.492	649.31
399.717	691.31
399.941	718.31
400.165	715.31
400.389	689.31
400.613	618.31
400.837	584.31
401.062	573.31
401.286	561.31
401.51	551.31
401.734	539.31
401.958	572.31
402.182	547.31
402.406	581.31
402.63	575.31
402.854	567.31
403.078	568.31
403.302	610.31
403.526	615.31
403.75	587.31
403.974	580.31
404.198	597.31
404.422	599.31
404.645	589.31
404.869	611.31
405.093	613.31
405.317	618.31
405.541	675.31
405.765	621.31
405.988	604.31
406.212	603.31
406.436	616.31
406.66	622.31
406.883	641.31
407.107	651.31
407.331	691.31
407.555	738.31
407.778	741.31
408.002	704.31
408.226	645.31
408.449	631.31
408.673	633.31
408.896	662.31
409.12	705.31
409.344	647.31
409.567	586.31
409.791	586.31
410.014	572.31
410.238	569.31
410.461	560.31
410.685	586.31
410.908	577.31
411.132	601.31
411.355	643.31
411.578	617.31
411.802	597.31
412.025	548.31
412.249	583.31
412.472	590.31
412.695	623.31
412.919	604.31
413.142	551.31
413.365	559.31
413.589	563.31
413.812	543.31
414.035	557.31
414.258	555.31
414.482	523.31
414.705	539.31
414.928	530.31
415.151	545.31
415.374	525.31
415.597	549.31
415.821	520.31
416.044	544.31
416.267	538.31
416.49	542.31
416.713	534.31
416.936	544.31
417.159	524.31
417.382	534.31
417.605	543.31
417.828	581.31
418.051	567.31
418.274	554.31
418.497	549.31
418.72	546.31
418.943	526.31
419.166	568.31
419.389	608.31
419.611	584.31
419.834	572.31
420.057	596.31
420.28	559.31
420.503	559.31
420.726	550.31
420.948	553.31
421.171	584.31
421.394	627.31
421.617	573.31
421.839	553.31
422.062	556.31
422.285	556.31
422.507	608.31
422.73	673.31
422.953	639.31
423.175	598.31
423.398	565.31
423.621	586.31
423.843	573.31
424.066	578.31
424.288	592.31
424.511	597.31
424.733	630.31
424.956	710.31
425.178	667.31
425.401	661.31
425.623	687.31
425.846	596.31
426.068	573.31
426.291	565.31
426.513	557.31
426.735	557.31
426.958	580.31
427.18	669.31
427.402	779.31
427.625	849.31
427.847	715.31
428.069	635.31
428.292	614.31
428.514	549.31
428.736	549.31
428.958	540.31
429.181	530.31
429.403	508.31
429.625	512.31
429.847	555.31
430.069	592.31
430.292	618.31
430.514	530.31
430.736	539.31
430.958	533.31
431.18	508.31
431.402	495.31
431.624	516.31
431.846	501.31
432.068	520.31
432.29	515.31
432.512	502.31
432.734	525.31
432.956	530.31
433.178	526.31
433.4	518.31
433.622	512.31
433.844	531.31
434.066	503.31
434.287	504.31
434.509	536.31
434.731	534.31
434.953	544.31
435.175	556.31
435.397	559.31
435.618	570.31
435.84	597.31
436.062	655.31
436.284	728.31
436.505	629.31
436.727	579.31
436.949	556.31
437.17	551.31
437.392	507.31
437.614	548.31
437.835	574.31
438.057	620.31
438.278	713.31
438.5	697.31
438.721	773.31
438.943	746.31
439.165	627.31
439.386	570.31
439.608	562.31
439.829	582.31
440.05	572.31
440.272	604.31
440.493	581.31
440.715	546.31
440.936	550.31
441.158	543.31
441.379	548.31
441.6	570.31
441.822	554.31
442.043	602.31
442.264	702.31
442.486	679.31
442.707	599.31
442.928	605.31
443.149	575.31
443.371	604.31
443.592	633.31
443.813	709.31
444.034	766.31
444.255	649.31
444.476	632.31
444.698	625.31
444.919	627.31
445.14	743.31
445.361	673.31
445.582	635.31
445.803	667.31
446.024	726.31
446.245	723.31
446.466	666.31
446.687	590.31
446.908	557.31
447.129	544.31
447.35	536.31
447.571	516.31
447.792	505.31
448.013	528.31
448.234	527.31
448.455	561.31
448.675	646.31
448.896	741.31
449.117	633.31
449.338	619.31
449.559	668.31
449.779	796.31
450	643.31
450.221	550.31
450.442	503.31
450.662	495.31
450.883	523.31
451.104	511.31
451.324	495.31
451.545	479.31
451.766	470.31
451.986	469.31
452.207	484.31
452.428	491.31
452.648	487.31
452.869	457.31
453.089	465.31
453.31	493.31
453.53	462.31
453.751	465.31
453.971	502.31
454.192	495.31
454.412	469.31
454.633	461.31
454.853	464.31
455.073	448.31
455.294	492.31
455.514	523.31
455.734	506.31
455.955	478.31
456.175	442.31
456.395	472.31
456.616	441.31
456.836	448.31
457.056	435.31
457.276	437.31
457.497	454.31
457.717	436.31
457.937	461.31
458.157	462.31
458.377	447.31
458.598	491.31
458.818	494.31
459.038	593.31
459.258	594.31
459.478	539.31
459.698	511.31
459.918	528.31
460.138	551.31
460.358	540.31
460.578	546.31
460.798	533.31
461.018	534.31
461.238	537.31
461.458	565.31
461.678	542.31
461.898	549.31
462.118	533.31
462.338	577.31
462.558	593.31
462.777	579.31
462.997	605.31
463.217	609.31
463.437	654.31
463.657	628.31
463.876	593.31
464.096	586.31
464.316	590.31
464.536	592.31
464.755	566.31
464.975	584.31
465.195	576.31
465.414	602.31
465.634	555.31
465.854	545.31
466.073	506.31
466.293	511.31
466.512	504.31
466.732	480.31
466.951	474.31
467.171	477.31
467.391	493.31
467.61	488.31
467.829	476.31
468.049	495.31
468.268	490.31
468.488	457.31
468.707	477.31
468.927	488.31
469.146	477.31
469.365	480.31
469.585	500.31
469.804	486.31
470.023	474.31
470.243	477.31
470.462	516.31
470.681	492.31
470.901	495.31
471.12	488.31
471.339	489.31
471.558	514.31
471.777	491.31
471.997	480.31
472.216	501.31
472.435	506.31
472.654	519.31
472.873	487.31
473.092	486.31
473.311	494.31
473.53	495.31
473.749	501.31
473.968	503.31
474.187	605.31
474.406	605.31
474.625	528.31
474.844	486.31
475.063	500.31
475.282	481.31
475.501	480.31
475.72	518.31
475.939	487.31
476.158	507.31
476.377	516.31
476.596	500.31
476.814	528.31
477.033	515.31
477.252	509.31
477.471	541.31
477.69	527.31
477.908	533.31
478.127	545.31
478.346	540.31
478.564	546.31
478.783	571.31
479.002	600.31
479.22	595.31
479.439	587.31
479.658	595.31
479.876	577.31
480.095	600.31
480.313	638.31
480.532	643.31
480.751	607.31
480.969	628.31
481.188	658.31
481.406	645.31
481.624	620.31
481.843	567.31
482.061	582.31
482.28	551.31
482.498	574.31
482.717	560.31
482.935	551.31
483.153	574.31
483.372	551.31
483.59	565.31
483.808	552.31
484.027	570.31
484.245	567.31
484.463	581.31
484.681	597.31
484.9	585.31
485.118	573.31
485.336	596.31
485.554	597.31
485.772	620.31
485.99	579.31
486.209	588.31
486.427	585.31
486.645	621.31
486.863	594.31
487.081	617.31
487.299	593.31
487.517	615.31
487.735	593.31
487.953	624.31
488.171	621.31
488.389	602.31
488.607	588.31
488.825	604.31
489.043	615.31
489.261	614.31
489.479	614.31
489.696	609.31
489.914	619.31
490.132	623.31
490.35	600.31
490.568	622.31
490.786	620.31
491.003	641.31
491.221	640.31
491.439	655.31
491.657	665.31
491.874	666.31
492.092	657.31
492.31	656.31
492.527	648.31
492.745	679.31
492.963	669.31
493.18	693.31
493.398	691.31
493.615	677.31
493.833	681.31
494.05	706.31
494.268	706.31
494.485	681.31
494.703	664.31
494.92	675.31
495.138	681.31
495.355	699.31
495.573	715.31
495.79	694.31
496.008	705.31
496.225	720.31
496.442	670.31
496.66	700.31
496.877	704.31
497.094	704.31
497.312	742.31
497.529	735.31
497.746	741.31
497.963	775.31
498.181	779.31
498.398	794.31
498.615	822.31
498.832	838.31
499.049	868.31
499.267	909.31
499.484	972.31
499.701	988.31
499.918	1064.31
500.135	1151.31
500.352	1219.31
500.569	1243.31
500.786	1265.31
501.003	1196.31
501.22	1154.31
501.437	1118.31
501.654	1053.31
501.871	1022.31
