Data from 1962.PennyLincolnUp.Lamp.En5.5.200Scan.071719.P1._HRD10591_13-54-01-061.txt Node
Date: Thu Jul 18 13:54:01 EDT 2019
User: cochatt
Spectrometer: HR+D1059
Trigger mode: 1
Integration Time (sec): 1.000000E-1
Scans to average: 1
Electric dark correction enabled: true
Nonlinearity correction enabled: false
Boxcar width: 0
XAxis mode: Wavelengths
Number of Pixels in Spectrum: 2048
>>>>>Begin Spectral Data<<<<<
223.165	-21.5
223.4	-21.5
223.635	-21.5
223.869	-9.5
224.104	-24.5
224.338	-8.5
224.573	-15.5
224.808	-3.5
225.042	-10.5
225.277	1.5
225.511	-14.5
225.746	-8.5
225.98	-3.5
226.215	16.5
226.449	22.5
226.683	23.5
226.918	22.5
227.152	33.5
227.387	26.5
227.621	28.5
227.856	54.5
228.09	39.5
228.324	27.5
228.559	49.5
228.793	68.5
229.027	90.5
229.262	96.5
229.496	114.5
229.73	95.5
229.964	119.5
230.199	109.5
230.433	94.5
230.667	107.5
230.901	98.5
231.136	108.5
231.37	102.5
231.604	106.5
231.838	110.5
232.072	126.5
232.306	103.5
232.541	110.5
232.775	107.5
233.009	118.5
233.243	114.5
233.477	121.5
233.711	112.5
233.945	113.5
234.179	112.5
234.413	107.5
234.647	115.5
234.881	119.5
235.115	103.5
235.349	124.5
235.583	127.5
235.817	116.5
236.051	105.5
236.285	97.5
236.519	134.5
236.753	105.5
236.987	141.5
237.221	134.5
237.455	176.5
237.689	146.5
237.922	112.5
238.156	127.5
238.39	105.5
238.624	123.5
238.858	125.5
239.091	130.5
239.325	123.5
239.559	122.5
239.793	121.5
240.027	126.5
240.26	131.5
240.494	123.5
240.728	122.5
240.961	133.5
241.195	124.5
241.429	141.5
241.662	144.5
241.896	110.5
242.13	128.5
242.363	124.5
242.597	129.5
242.83	132.5
243.064	130.5
243.298	128.5
243.531	117.5
243.765	141.5
243.998	138.5
244.232	138.5
244.465	120.5
244.699	155.5
244.932	130.5
245.166	139.5
245.399	143.5
245.633	128.5
245.866	151.5
246.099	139.5
246.333	151.5
246.566	146.5
246.8	148.5
247.033	154.5
247.266	132.5
247.5	145.5
247.733	158.5
247.966	160.5
248.2	163.5
248.433	144.5
248.666	159.5
248.899	142.5
249.133	175.5
249.366	182.5
249.599	165.5
249.832	172.5
250.066	170.5
250.299	171.5
250.532	160.5
250.765	178.5
250.998	184.5
251.231	182.5
251.465	192.5
251.698	183.5
251.931	174.5
252.164	185.5
252.397	185.5
252.63	190.5
252.863	185.5
253.096	187.5
253.329	186.5
253.562	197.5
253.795	184.5
254.028	185.5
254.261	181.5
254.494	204.5
254.727	197.5
254.96	216.5
255.193	218.5
255.426	211.5
255.659	202.5
255.892	201.5
256.124	219.5
256.357	197.5
256.59	201.5
256.823	195.5
257.056	197.5
257.289	191.5
257.521	196.5
257.754	185.5
257.987	182.5
258.22	198.5
258.452	197.5
258.685	198.5
258.918	189.5
259.151	199.5
259.383	210.5
259.616	188.5
259.849	209.5
260.081	215.5
260.314	227.5
260.547	222.5
260.779	211.5
261.012	205.5
261.244	209.5
261.477	196.5
261.71	199.5
261.942	190.5
262.175	225.5
262.407	218.5
262.64	209.5
262.872	186.5
263.105	205.5
263.337	193.5
263.57	203.5
263.802	205.5
264.035	189.5
264.267	194.5
264.499	200.5
264.732	203.5
264.964	204.5
265.197	205.5
265.429	214.5
265.661	196.5
265.894	196.5
266.126	201.5
266.358	214.5
266.591	220.5
266.823	217.5
267.055	201.5
267.287	224.5
267.52	199.5
267.752	212.5
267.984	222.5
268.216	232.5
268.448	208.5
268.681	233.5
268.913	228.5
269.145	236.5
269.377	244.5
269.609	266.5
269.841	239.5
270.073	259.5
270.306	235.5
270.538	264.5
270.77	272.5
271.002	281.5
271.234	255.5
271.466	260.5
271.698	294.5
271.93	268.5
272.162	276.5
272.394	266.5
272.626	261.5
272.858	266.5
273.09	255.5
273.322	252.5
273.553	238.5
273.785	234.5
274.017	247.5
274.249	238.5
274.481	250.5
274.713	250.5
274.945	239.5
275.176	265.5
275.408	240.5
275.64	250.5
275.872	238.5
276.104	249.5
276.335	258.5
276.567	254.5
276.799	258.5
277.031	267.5
277.262	281.5
277.494	284.5
277.726	280.5
277.957	276.5
278.189	255.5
278.421	251.5
278.652	253.5
278.884	260.5
279.115	267.5
279.347	246.5
279.579	283.5
279.81	279.5
280.042	274.5
280.273	264.5
280.505	275.5
280.736	274.5
280.968	280.5
281.199	260.5
281.431	262.5
281.662	280.5
281.894	243.5
282.125	264.5
282.356	296.5
282.588	275.5
282.819	291.5
283.051	263.5
283.282	263.5
283.513	287.5
283.745	267.5
283.976	273.5
284.207	291.5
284.439	263.5
284.67	258.5
284.901	266.5
285.132	266.5
285.364	282.5
285.595	279.5
285.826	286.5
286.057	280.5
286.288	281.5
286.52	288.5
286.751	293.5
286.982	273.5
287.213	279.5
287.444	287.5
287.675	276.5
287.906	293.5
288.138	306.5
288.369	302.5
288.6	291.5
288.831	310.5
289.062	282.5
289.293	305.5
289.524	287.5
289.755	289.5
289.986	286.5
290.217	280.5
290.448	290.5
290.679	291.5
290.91	304.5
291.141	283.5
291.371	267.5
291.602	288.5
291.833	286.5
292.064	275.5
292.295	279.5
292.526	278.5
292.757	280.5
292.987	278.5
293.218	298.5
293.449	305.5
293.68	291.5
293.91	281.5
294.141	293.5
294.372	293.5
294.603	284.5
294.833	295.5
295.064	283.5
295.295	298.5
295.525	303.5
295.756	326.5
295.987	300.5
296.217	319.5
296.448	312.5
296.679	302.5
296.909	308.5
297.14	295.5
297.37	298.5
297.601	307.5
297.831	289.5
298.062	306.5
298.292	321.5
298.523	334.5
298.753	308.5
298.984	298.5
299.214	295.5
299.445	311.5
299.675	331.5
299.905	323.5
300.136	295.5
300.366	311.5
300.597	323.5
300.827	311.5
301.057	323.5
301.288	317.5
301.518	330.5
301.748	330.5
301.979	340.5
302.209	329.5
302.439	327.5
302.669	333.5
302.9	331.5
303.13	349.5
303.36	324.5
303.59	347.5
303.82	335.5
304.051	331.5
304.281	336.5
304.511	367.5
304.741	345.5
304.971	334.5
305.201	321.5
305.431	342.5
305.661	323.5
305.891	312.5
306.121	323.5
306.352	324.5
306.582	343.5
306.812	315.5
307.042	314.5
307.272	320.5
307.502	330.5
307.731	341.5
307.961	322.5
308.191	323.5
308.421	324.5
308.651	344.5
308.881	339.5
309.111	330.5
309.341	341.5
309.571	342.5
309.8	357.5
310.03	323.5
310.26	348.5
310.49	335.5
310.72	356.5
310.949	354.5
311.179	363.5
311.409	362.5
311.639	368.5
311.868	367.5
312.098	355.5
312.328	372.5
312.557	368.5
312.787	351.5
313.017	355.5
313.246	370.5
313.476	354.5
313.706	348.5
313.935	361.5
314.165	386.5
314.394	361.5
314.624	364.5
314.853	370.5
315.083	363.5
315.312	373.5
315.542	362.5
315.771	336.5
316.001	369.5
316.23	358.5
316.46	364.5
316.689	345.5
316.919	359.5
317.148	354.5
317.377	362.5
317.607	380.5
317.836	384.5
318.065	385.5
318.295	374.5
318.524	355.5
318.753	353.5
318.983	367.5
319.212	376.5
319.441	350.5
319.67	364.5
319.9	399.5
320.129	357.5
320.358	368.5
320.587	374.5
320.816	379.5
321.046	367.5
321.275	381.5
321.504	346.5
321.733	382.5
321.962	373.5
322.191	378.5
322.42	365.5
322.649	378.5
322.878	409.5
323.108	416.5
323.337	410.5
323.566	411.5
323.795	442.5
324.024	440.5
324.253	499.5
324.482	687.5
324.71	930.5
324.939	1330.5
325.168	1149.5
325.397	683.5
325.626	518.5
325.855	460.5
326.084	441.5
326.313	442.5
326.542	456.5
326.77	442.5
326.999	513.5
327.228	633.5
327.457	846.5
327.686	996.5
327.914	711.5
328.143	534.5
328.372	500.5
328.6	452.5
328.829	482.5
329.058	477.5
329.287	468.5
329.515	464.5
329.744	448.5
329.972	457.5
330.201	488.5
330.43	460.5
330.658	473.5
330.887	464.5
331.115	453.5
331.344	443.5
331.572	447.5
331.801	434.5
332.03	471.5
332.258	464.5
332.486	445.5
332.715	451.5
332.943	468.5
333.172	448.5
333.4	444.5
333.629	457.5
333.857	488.5
334.085	480.5
334.314	473.5
334.542	500.5
334.771	517.5
334.999	494.5
335.227	466.5
335.455	448.5
335.684	464.5
335.912	449.5
336.14	432.5
336.369	444.5
336.597	462.5
336.825	452.5
337.053	445.5
337.281	452.5
337.51	429.5
337.738	430.5
337.966	402.5
338.194	445.5
338.422	448.5
338.65	427.5
338.878	446.5
339.106	426.5
339.334	432.5
339.562	423.5
339.79	415.5
340.018	401.5
340.246	419.5
340.474	425.5
340.702	412.5
340.93	418.5
341.158	419.5
341.386	409.5
341.614	408.5
341.842	414.5
342.07	396.5
342.298	404.5
342.526	399.5
342.754	392.5
342.981	407.5
343.209	410.5
343.437	436.5
343.665	435.5
343.893	425.5
344.12	434.5
344.348	450.5
344.576	447.5
344.804	453.5
345.031	432.5
345.259	445.5
345.487	425.5
345.714	432.5
345.942	421.5
346.17	406.5
346.397	389.5
346.625	394.5
346.853	397.5
347.08	387.5
347.308	412.5
347.535	417.5
347.763	405.5
347.99	404.5
348.218	394.5
348.445	402.5
348.673	411.5
348.9	384.5
349.128	401.5
349.355	391.5
349.583	383.5
349.81	381.5
350.037	382.5
350.265	383.5
350.492	376.5
350.72	375.5
350.947	390.5
351.174	383.5
351.402	395.5
351.629	371.5
351.856	387.5
352.083	401.5
352.311	387.5
352.538	400.5
352.765	411.5
352.992	394.5
353.22	400.5
353.447	382.5
353.674	386.5
353.901	405.5
354.128	380.5
354.355	377.5
354.583	385.5
354.81	392.5
355.037	379.5
355.264	354.5
355.491	384.5
355.718	382.5
355.945	381.5
356.172	367.5
356.399	382.5
356.626	376.5
356.853	379.5
357.08	362.5
357.307	375.5
357.534	375.5
357.761	381.5
357.988	387.5
358.215	371.5
358.441	381.5
358.668	393.5
358.895	379.5
359.122	392.5
359.349	401.5
359.576	397.5
359.802	366.5
360.029	400.5
360.256	393.5
360.483	417.5
360.709	406.5
360.936	394.5
361.163	379.5
361.39	391.5
361.616	388.5
361.843	397.5
362.07	401.5
362.296	391.5
362.523	395.5
362.749	387.5
362.976	397.5
363.203	391.5
363.429	393.5
363.656	392.5
363.882	386.5
364.109	376.5
364.335	378.5
364.562	394.5
364.788	394.5
365.015	419.5
365.241	376.5
365.468	392.5
365.694	395.5
365.92	391.5
366.147	383.5
366.373	386.5
366.599	390.5
366.826	378.5
367.052	381.5
367.278	384.5
367.505	372.5
367.731	376.5
367.957	391.5
368.184	401.5
368.41	390.5
368.636	395.5
368.862	407.5
369.089	382.5
369.315	382.5
369.541	373.5
369.767	395.5
369.993	402.5
370.219	395.5
370.445	396.5
370.672	387.5
370.898	400.5
371.124	396.5
371.35	390.5
371.576	417.5
371.802	424.5
372.028	394.5
372.254	405.5
372.48	396.5
372.706	401.5
372.932	395.5
373.158	412.5
373.384	386.5
373.61	406.5
373.835	390.5
374.061	393.5
374.287	390.5
374.513	403.5
374.739	406.5
374.965	412.5
375.191	414.5
375.416	410.5
375.642	393.5
375.868	382.5
376.094	404.5
376.319	375.5
376.545	399.5
376.771	385.5
376.997	390.5
377.222	399.5
377.448	416.5
377.674	402.5
377.899	422.5
378.125	409.5
378.35	389.5
378.576	385.5
378.802	397.5
379.027	403.5
379.253	405.5
379.478	384.5
379.704	380.5
379.929	401.5
380.155	406.5
380.38	382.5
380.606	407.5
380.831	395.5
381.057	418.5
381.282	392.5
381.507	384.5
381.733	405.5
381.958	415.5
382.184	406.5
382.409	416.5
382.634	408.5
382.86	416.5
383.085	435.5
383.31	409.5
383.535	436.5
383.761	416.5
383.986	447.5
384.211	432.5
384.436	439.5
384.662	423.5
384.887	410.5
385.112	445.5
385.337	451.5
385.562	445.5
385.787	453.5
386.013	446.5
386.238	464.5
386.463	463.5
386.688	441.5
386.913	447.5
387.138	454.5
387.363	445.5
387.588	443.5
387.813	453.5
388.038	427.5
388.263	455.5
388.488	459.5
388.713	463.5
388.938	448.5
389.163	444.5
389.387	434.5
389.612	441.5
389.837	442.5
390.062	438.5
390.287	439.5
390.512	432.5
390.736	446.5
390.961	462.5
391.186	451.5
391.411	465.5
391.636	463.5
391.86	483.5
392.085	478.5
392.31	463.5
392.534	467.5
392.759	496.5
392.984	466.5
393.208	456.5
393.433	462.5
393.658	440.5
393.882	462.5
394.107	464.5
394.331	482.5
394.556	483.5
394.78	453.5
395.005	475.5
395.229	484.5
395.454	492.5
395.678	498.5
395.903	494.5
396.127	500.5
396.352	504.5
396.576	492.5
396.801	485.5
397.025	474.5
397.249	479.5
397.474	501.5
397.698	483.5
397.922	506.5
398.147	523.5
398.371	530.5
398.595	525.5
398.82	530.5
399.044	534.5
399.268	574.5
399.492	612.5
399.717	667.5
399.941	668.5
400.165	676.5
400.389	660.5
400.613	606.5
400.837	584.5
401.062	535.5
401.286	539.5
401.51	539.5
401.734	521.5
401.958	529.5
402.182	544.5
402.406	561.5
402.63	544.5
402.854	533.5
403.078	542.5
403.302	553.5
403.526	563.5
403.75	575.5
403.974	584.5
404.198	575.5
404.422	574.5
404.645	569.5
404.869	562.5
405.093	591.5
405.317	626.5
405.541	660.5
405.765	601.5
405.988	580.5
406.212	591.5
406.436	599.5
406.66	599.5
406.883	595.5
407.107	619.5
407.331	639.5
407.555	704.5
407.778	704.5
408.002	673.5
408.226	631.5
408.449	619.5
408.673	584.5
408.896	623.5
409.12	632.5
409.344	612.5
409.567	558.5
409.791	562.5
410.014	568.5
410.238	550.5
410.461	545.5
410.685	548.5
410.908	563.5
411.132	594.5
411.355	602.5
411.578	593.5
411.802	540.5
412.025	574.5
412.249	574.5
412.472	551.5
412.695	586.5
412.919	579.5
413.142	561.5
413.365	541.5
413.589	561.5
413.812	535.5
414.035	537.5
414.258	524.5
414.482	526.5
414.705	552.5
414.928	524.5
415.151	516.5
415.374	524.5
415.597	502.5
415.821	515.5
416.044	513.5
416.267	529.5
416.49	516.5
416.713	515.5
416.936	509.5
417.159	527.5
417.382	528.5
417.605	524.5
417.828	527.5
418.051	532.5
418.274	536.5
418.497	508.5
418.72	512.5
418.943	512.5
419.166	513.5
419.389	567.5
419.611	558.5
419.834	555.5
420.057	551.5
420.28	544.5
420.503	533.5
420.726	535.5
420.948	548.5
421.171	570.5
421.394	583.5
421.617	525.5
421.839	530.5
422.062	538.5
422.285	543.5
422.507	567.5
422.73	645.5
422.953	624.5
423.175	566.5
423.398	571.5
423.621	549.5
423.843	562.5
424.066	556.5
424.288	568.5
424.511	580.5
424.733	587.5
424.956	665.5
425.178	654.5
425.401	649.5
425.623	634.5
425.846	568.5
426.068	566.5
426.291	526.5
426.513	553.5
426.735	542.5
426.958	569.5
427.18	636.5
427.402	728.5
427.625	764.5
427.847	683.5
428.069	595.5
428.292	567.5
428.514	513.5
428.736	510.5
428.958	514.5
429.181	496.5
429.403	474.5
429.625	508.5
429.847	524.5
430.069	569.5
430.292	577.5
430.514	536.5
430.736	520.5
430.958	505.5
431.18	479.5
431.402	483.5
431.624	514.5
431.846	502.5
432.068	492.5
432.29	503.5
432.512	498.5
432.734	486.5
432.956	494.5
433.178	484.5
433.4	510.5
433.622	498.5
433.844	479.5
434.066	484.5
434.287	513.5
434.509	511.5
434.731	524.5
434.953	534.5
435.175	515.5
435.397	560.5
435.618	564.5
435.84	553.5
436.062	608.5
436.284	659.5
436.505	583.5
436.727	550.5
436.949	510.5
437.17	508.5
437.392	496.5
437.614	486.5
437.835	510.5
438.057	608.5
438.278	646.5
438.5	634.5
438.721	707.5
438.943	690.5
439.165	584.5
439.386	518.5
439.608	523.5
439.829	521.5
440.05	533.5
440.272	570.5
440.493	540.5
440.715	529.5
440.936	500.5
441.158	511.5
441.379	532.5
441.6	542.5
441.822	567.5
442.043	575.5
442.264	624.5
442.486	674.5
442.707	584.5
442.928	562.5
443.149	541.5
443.371	581.5
443.592	609.5
443.813	670.5
444.034	708.5
444.255	624.5
444.476	585.5
444.698	584.5
444.919	600.5
445.14	710.5
445.361	627.5
445.582	603.5
445.803	640.5
446.024	656.5
446.245	634.5
446.466	632.5
446.687	554.5
446.908	522.5
447.129	523.5
447.35	496.5
447.571	519.5
447.792	498.5
448.013	488.5
448.234	488.5
448.455	520.5
448.675	623.5
448.896	693.5
449.117	628.5
449.338	580.5
449.559	642.5
449.779	725.5
450	598.5
450.221	511.5
450.442	506.5
450.662	490.5
450.883	487.5
451.104	491.5
451.324	474.5
451.545	456.5
451.766	469.5
451.986	463.5
452.207	451.5
452.428	443.5
452.648	441.5
452.869	426.5
453.089	456.5
453.31	459.5
453.53	455.5
453.751	441.5
453.971	439.5
454.192	478.5
454.412	451.5
454.633	446.5
454.853	432.5
455.073	444.5
455.294	455.5
455.514	501.5
455.734	499.5
455.955	458.5
456.175	434.5
456.395	436.5
456.616	427.5
456.836	447.5
457.056	444.5
457.276	429.5
457.497	419.5
457.717	430.5
457.937	433.5
458.157	439.5
458.377	456.5
458.598	463.5
458.818	490.5
459.038	531.5
459.258	546.5
459.478	514.5
459.698	528.5
459.918	498.5
460.138	522.5
460.358	548.5
460.578	547.5
460.798	532.5
461.018	518.5
461.238	545.5
461.458	523.5
461.678	527.5
461.898	525.5
462.118	532.5
462.338	530.5
462.558	542.5
462.777	578.5
462.997	599.5
463.217	584.5
463.437	634.5
463.657	604.5
463.876	582.5
464.096	590.5
464.316	578.5
464.536	584.5
464.755	599.5
464.975	568.5
465.195	567.5
465.414	599.5
465.634	540.5
465.854	505.5
466.073	507.5
466.293	478.5
466.512	463.5
466.732	465.5
466.951	465.5
467.171	471.5
467.391	460.5
467.61	460.5
467.829	466.5
468.049	469.5
468.268	448.5
468.488	465.5
468.707	471.5
468.927	465.5
469.146	453.5
469.365	468.5
469.585	473.5
469.804	468.5
470.023	475.5
470.243	499.5
470.462	477.5
470.681	494.5
470.901	489.5
471.12	494.5
471.339	476.5
471.558	492.5
471.777	465.5
471.997	464.5
472.216	477.5
472.435	484.5
472.654	464.5
472.873	477.5
473.092	466.5
473.311	475.5
473.53	472.5
473.749	472.5
473.968	495.5
474.187	548.5
474.406	572.5
474.625	526.5
474.844	461.5
475.063	471.5
475.282	479.5
475.501	455.5
475.72	483.5
475.939	486.5
476.158	479.5
476.377	460.5
476.596	503.5
476.814	510.5
477.033	515.5
477.252	504.5
477.471	504.5
477.69	518.5
477.908	534.5
478.127	537.5
478.346	522.5
478.564	558.5
478.783	525.5
479.002	552.5
479.22	555.5
479.439	565.5
479.658	581.5
479.876	568.5
480.095	577.5
480.313	591.5
480.532	601.5
480.751	608.5
480.969	570.5
481.188	591.5
481.406	616.5
481.624	574.5
481.843	557.5
482.061	563.5
482.28	556.5
482.498	529.5
482.717	540.5
482.935	549.5
483.153	534.5
483.372	538.5
483.59	553.5
483.808	531.5
484.027	547.5
484.245	549.5
484.463	548.5
484.681	555.5
484.9	564.5
485.118	562.5
485.336	553.5
485.554	577.5
485.772	576.5
485.99	599.5
486.209	570.5
486.427	566.5
486.645	572.5
486.863	569.5
487.081	571.5
487.299	586.5
487.517	580.5
487.735	567.5
487.953	587.5
488.171	574.5
488.389	603.5
488.607	568.5
488.825	596.5
489.043	570.5
489.261	574.5
489.479	576.5
489.696	594.5
489.914	590.5
490.132	592.5
490.35	607.5
490.568	605.5
490.786	605.5
491.003	600.5
491.221	612.5
491.439	622.5
491.657	609.5
491.874	609.5
492.092	666.5
492.31	654.5
492.527	618.5
492.745	641.5
492.963	657.5
493.18	659.5
493.398	679.5
493.615	650.5
493.833	637.5
494.05	650.5
494.268	642.5
494.485	667.5
494.703	704.5
494.92	682.5
495.138	666.5
495.355	672.5
495.573	681.5
495.79	660.5
496.008	680.5
496.225	677.5
496.442	674.5
496.66	672.5
496.877	684.5
497.094	682.5
497.312	698.5
497.529	688.5
497.746	710.5
497.963	746.5
498.181	732.5
498.398	759.5
498.615	814.5
498.832	835.5
499.049	845.5
499.267	878.5
499.484	926.5
499.701	975.5
499.918	1031.5
500.135	1094.5
500.352	1182.5
500.569	1232.5
500.786	1223.5
501.003	1144.5
501.22	1114.5
501.437	1046.5
501.654	990.5
501.871	929.5
502.088	904.5
502.305	894.5
502.522	824.5
502.739	790.5
502.956	779.5
503.172	740.5
503.389	754.5
503.606	741.5
503.823	726.5
504.04	709.5
504.256	695.5
504.473	697.5
504.69	734.5
504.907	707.5
505.123	689.5
505.34	687.5
505.557	651.5
505.773	657.5
505.99	635.5
506.207	639.5
506.423	617.5
506.64	635.5
506.856	613.5
507.073	615.5
507.289	602.5
507.506	601.5
507.722	612.5
507.939	587.5
508.155	612.5
508.372	592.5
508.588	588.5
508.805	583.5
509.021	568.5
509.238	600.5
509.454	577.5
509.67	586.5
509.887	566.5
510.103	574.5
510.319	572.5
510.536	604.5
510.752	862.5
510.968	738.5
511.184	570.5
511.401	570.5
511.617	544.5
511.833	555.5
512.049	566.5
512.265	552.5
512.481	552.5
512.698	548.5
512.914	555.5
513.13	568.5
513.346	567.5
513.562	576.5
513.778	528.5
513.994	573.5
514.21	568.5
514.426	563.5
514.642	583.5
514.858	579.5
515.074	605.5
515.29	664.5
515.506	856.5
515.721	733.5
515.937	616.5
516.153	576.5
516.369	584.5
516.585	591.5
516.801	611.5
517.016	594.5
517.232	637.5
517.448	656.5
517.664	612.5
517.879	623.5
518.095	642.5
518.311	656.5
518.527	611.5
518.742	627.5
518.958	606.5
519.173	589.5
519.389	578.5
519.605	578.5
519.82	567.5
