Data from 1962.PennyLincolnUp.Lamp.En5.5.200Scan.071719.P1._HRD10591_13-55-42-061.txt Node
Date: Thu Jul 18 13:55:42 EDT 2019
User: cochatt
Spectrometer: HR+D1059
Trigger mode: 1
Integration Time (sec): 1.000000E-1
Scans to average: 1
Electric dark correction enabled: true
Nonlinearity correction enabled: false
Boxcar width: 0
XAxis mode: Wavelengths
Number of Pixels in Spectrum: 2048
>>>>>Begin Spectral Data<<<<<
223.165	-8.81
223.4	-8.81
223.635	-8.81
223.869	-4.81
224.104	-21.81
224.338	-27.81
224.573	-11.81
224.808	-4.81
225.042	-17.81
225.277	-6.81
225.511	7.19
225.746	3.19
225.98	3.19
226.215	4.19
226.449	18.19
226.683	17.19
226.918	25.19
227.152	26.19
227.387	18.19
227.621	25.19
227.856	35.19
228.09	50.19
228.324	43.19
228.559	55.19
228.793	66.19
229.027	102.19
229.262	91.19
229.496	98.19
229.73	119.19
229.964	118.19
230.199	110.19
230.433	102.19
230.667	90.19
230.901	93.19
231.136	113.19
231.37	102.19
231.604	109.19
231.838	99.19
232.072	114.19
232.306	114.19
232.541	121.19
232.775	114.19
233.009	111.19
233.243	121.19
233.477	117.19
233.711	113.19
233.945	102.19
234.179	99.19
234.413	118.19
234.647	119.19
234.881	107.19
235.115	105.19
235.349	113.19
235.583	107.19
235.817	117.19
236.051	112.19
236.285	120.19
236.519	116.19
236.753	124.19
236.987	128.19
237.221	158.19
237.455	204.19
237.689	164.19
237.922	122.19
238.156	133.19
238.39	115.19
238.624	119.19
238.858	119.19
239.091	103.19
239.325	121.19
239.559	105.19
239.793	138.19
240.027	125.19
240.26	110.19
240.494	135.19
240.728	145.19
240.961	127.19
241.195	130.19
241.429	129.19
241.662	132.19
241.896	127.19
242.13	145.19
242.363	121.19
242.597	129.19
242.83	131.19
243.064	120.19
243.298	131.19
243.531	129.19
243.765	128.19
243.998	152.19
244.232	137.19
244.465	144.19
244.699	133.19
244.932	131.19
245.166	136.19
245.399	137.19
245.633	118.19
245.866	138.19
246.099	134.19
246.333	152.19
246.566	130.19
246.8	150.19
247.033	149.19
247.266	139.19
247.5	141.19
247.733	151.19
247.966	165.19
248.2	151.19
248.433	154.19
248.666	155.19
248.899	182.19
249.133	181.19
249.366	178.19
249.599	162.19
249.832	173.19
250.066	173.19
250.299	174.19
250.532	171.19
250.765	179.19
250.998	202.19
251.231	206.19
251.465	200.19
251.698	186.19
251.931	178.19
252.164	180.19
252.397	188.19
252.63	172.19
252.863	182.19
253.096	204.19
253.329	206.19
253.562	203.19
253.795	193.19
254.028	189.19
254.261	207.19
254.494	211.19
254.727	226.19
254.96	249.19
255.193	221.19
255.426	230.19
255.659	210.19
255.892	216.19
256.124	197.19
256.357	210.19
256.59	211.19
256.823	206.19
257.056	190.19
257.289	198.19
257.521	191.19
257.754	170.19
257.987	206.19
258.22	174.19
258.452	201.19
258.685	201.19
258.918	201.19
259.151	218.19
259.383	203.19
259.616	204.19
259.849	202.19
260.081	210.19
260.314	237.19
260.547	240.19
260.779	223.19
261.012	222.19
261.244	217.19
261.477	186.19
261.71	194.19
261.942	207.19
262.175	206.19
262.407	207.19
262.64	207.19
262.872	210.19
263.105	198.19
263.337	217.19
263.57	198.19
263.802	196.19
264.035	196.19
264.267	195.19
264.499	217.19
264.732	215.19
264.964	218.19
265.197	216.19
265.429	202.19
265.661	195.19
265.894	201.19
266.126	213.19
266.358	218.19
266.591	229.19
266.823	214.19
267.055	225.19
267.287	222.19
267.52	218.19
267.752	222.19
267.984	241.19
268.216	229.19
268.448	239.19
268.681	227.19
268.913	233.19
269.145	231.19
269.377	235.19
269.609	253.19
269.841	253.19
270.073	251.19
270.306	266.19
270.538	311.19
270.77	286.19
271.002	277.19
271.234	261.19
271.466	273.19
271.698	269.19
271.93	271.19
272.162	287.19
272.394	310.19
272.626	293.19
272.858	272.19
273.09	261.19
273.322	253.19
273.553	244.19
273.785	251.19
274.017	255.19
274.249	258.19
274.481	268.19
274.713	254.19
274.945	274.19
275.176	255.19
275.408	265.19
275.64	281.19
275.872	259.19
276.104	260.19
276.335	266.19
276.567	260.19
276.799	270.19
277.031	281.19
277.262	286.19
277.494	295.19
277.726	289.19
277.957	271.19
278.189	281.19
278.421	260.19
278.652	301.19
278.884	277.19
279.115	283.19
279.347	264.19
279.579	284.19
279.81	261.19
280.042	269.19
280.273	268.19
280.505	277.19
280.736	259.19
280.968	263.19
281.199	267.19
281.431	238.19
281.662	277.19
281.894	271.19
282.125	287.19
282.356	282.19
282.588	298.19
282.819	295.19
283.051	286.19
283.282	294.19
283.513	286.19
283.745	293.19
283.976	284.19
284.207	279.19
284.439	305.19
284.67	287.19
284.901	286.19
285.132	297.19
285.364	290.19
285.595	293.19
285.826	289.19
286.057	289.19
286.288	277.19
286.52	304.19
286.751	289.19
286.982	285.19
287.213	276.19
287.444	297.19
287.675	292.19
287.906	303.19
288.138	289.19
288.369	316.19
288.6	302.19
288.831	306.19
289.062	305.19
289.293	296.19
289.524	303.19
289.755	287.19
289.986	300.19
290.217	305.19
290.448	313.19
290.679	313.19
290.91	291.19
291.141	280.19
291.371	304.19
291.602	303.19
291.833	298.19
292.064	303.19
292.295	295.19
292.526	297.19
292.757	291.19
292.987	324.19
293.218	295.19
293.449	299.19
293.68	306.19
293.91	298.19
294.141	285.19
294.372	299.19
294.603	297.19
294.833	294.19
295.064	299.19
295.295	311.19
295.525	289.19
295.756	309.19
295.987	298.19
296.217	335.19
296.448	321.19
296.679	317.19
296.909	306.19
297.14	316.19
297.37	318.19
297.601	318.19
297.831	293.19
298.062	313.19
298.292	315.19
298.523	319.19
298.753	305.19
298.984	322.19
299.214	318.19
299.445	303.19
299.675	322.19
299.905	325.19
300.136	326.19
300.366	317.19
300.597	326.19
300.827	327.19
301.057	334.19
301.288	317.19
301.518	327.19
301.748	321.19
301.979	336.19
302.209	347.19
302.439	339.19
302.669	361.19
302.9	335.19
303.13	330.19
303.36	323.19
303.59	365.19
303.82	349.19
304.051	351.19
304.281	339.19
304.511	326.19
304.741	324.19
304.971	314.19
305.201	330.19
305.431	330.19
305.661	334.19
305.891	343.19
306.121	351.19
306.352	352.19
306.582	342.19
306.812	341.19
307.042	354.19
307.272	338.19
307.502	341.19
307.731	350.19
307.961	338.19
308.191	342.19
308.421	351.19
308.651	335.19
308.881	326.19
309.111	338.19
309.341	357.19
309.571	358.19
309.8	374.19
310.03	363.19
310.26	375.19
310.49	375.19
310.72	359.19
310.949	391.19
311.179	389.19
311.409	387.19
311.639	360.19
311.868	357.19
312.098	370.19
312.328	397.19
312.557	396.19
312.787	386.19
313.017	388.19
313.246	367.19
313.476	371.19
313.706	382.19
313.935	383.19
314.165	381.19
314.394	377.19
314.624	389.19
314.853	411.19
315.083	379.19
315.312	387.19
315.542	389.19
315.771	362.19
316.001	379.19
316.23	383.19
316.46	369.19
316.689	371.19
316.919	371.19
317.148	378.19
317.377	389.19
317.607	371.19
317.836	377.19
318.065	359.19
318.295	371.19
318.524	371.19
318.753	375.19
318.983	378.19
319.212	364.19
319.441	377.19
319.67	410.19
319.9	383.19
320.129	379.19
320.358	390.19
320.587	381.19
320.816	410.19
321.046	376.19
321.275	389.19
321.504	376.19
321.733	393.19
321.962	400.19
322.191	404.19
322.42	410.19
322.649	413.19
322.878	426.19
323.108	440.19
323.337	435.19
323.566	457.19
323.795	453.19
324.024	491.19
324.253	583.19
324.482	728.19
324.71	1107.19
324.939	1567.19
325.168	1382.19
325.397	763.19
325.626	559.19
325.855	489.19
326.084	478.19
326.313	486.19
326.542	464.19
326.77	487.19
326.999	560.19
327.228	718.19
327.457	1031.19
327.686	1208.19
327.914	856.19
328.143	595.19
328.372	528.19
328.6	535.19
328.829	498.19
329.058	490.19
329.287	509.19
329.515	491.19
329.744	472.19
329.972	463.19
330.201	479.19
330.43	507.19
330.658	513.19
330.887	507.19
331.115	554.19
331.344	487.19
331.572	460.19
331.801	476.19
332.03	484.19
332.258	447.19
332.486	460.19
332.715	445.19
332.943	450.19
333.172	461.19
333.4	486.19
333.629	478.19
333.857	491.19
334.085	510.19
334.314	511.19
334.542	529.19
334.771	555.19
334.999	509.19
335.227	490.19
335.455	475.19
335.684	472.19
335.912	453.19
336.14	458.19
336.369	476.19
336.597	456.19
336.825	450.19
337.053	454.19
337.281	459.19
337.51	434.19
337.738	455.19
337.966	453.19
338.194	450.19
338.422	466.19
338.65	435.19
338.878	445.19
339.106	435.19
339.334	431.19
339.562	440.19
339.79	426.19
340.018	432.19
340.246	446.19
340.474	421.19
340.702	442.19
340.93	442.19
341.158	422.19
341.386	421.19
341.614	419.19
341.842	438.19
342.07	401.19
342.298	418.19
342.526	430.19
342.754	422.19
342.981	423.19
343.209	401.19
343.437	431.19
343.665	439.19
343.893	479.19
344.12	457.19
344.348	446.19
344.576	467.19
344.804	441.19
345.031	416.19
345.259	466.19
345.487	421.19
345.714	443.19
345.942	441.19
346.17	422.19
346.397	416.19
346.625	426.19
346.853	396.19
347.08	403.19
347.308	421.19
347.535	431.19
347.763	429.19
347.99	425.19
348.218	416.19
348.445	427.19
348.673	421.19
348.9	416.19
349.128	405.19
349.355	406.19
349.583	399.19
349.81	397.19
350.037	406.19
350.265	401.19
350.492	404.19
350.72	415.19
350.947	393.19
351.174	420.19
351.402	400.19
351.629	413.19
351.856	409.19
352.083	412.19
352.311	407.19
352.538	419.19
352.765	429.19
352.992	405.19
353.22	403.19
353.447	405.19
353.674	421.19
353.901	407.19
354.128	411.19
354.355	402.19
354.583	375.19
354.81	375.19
355.037	385.19
355.264	385.19
355.491	386.19
355.718	399.19
355.945	400.19
356.172	402.19
356.399	377.19
356.626	375.19
356.853	390.19
357.08	403.19
357.307	415.19
357.534	406.19
357.761	407.19
357.988	393.19
358.215	412.19
358.441	418.19
358.668	397.19
358.895	407.19
359.122	384.19
359.349	397.19
359.576	403.19
359.802	415.19
360.029	445.19
360.256	442.19
360.483	426.19
360.709	413.19
360.936	416.19
361.163	389.19
361.39	381.19
361.616	419.19
361.843	427.19
362.07	408.19
362.296	411.19
362.523	408.19
362.749	424.19
362.976	418.19
363.203	393.19
363.429	383.19
363.656	398.19
363.882	401.19
364.109	409.19
364.335	416.19
364.562	414.19
364.788	387.19
365.015	394.19
365.241	405.19
365.468	391.19
365.694	386.19
365.92	396.19
366.147	416.19
366.373	407.19
366.599	387.19
366.826	403.19
367.052	395.19
367.278	390.19
367.505	377.19
367.731	403.19
367.957	394.19
368.184	387.19
368.41	426.19
368.636	405.19
368.862	411.19
369.089	409.19
369.315	380.19
369.541	393.19
369.767	393.19
369.993	401.19
370.219	387.19
370.445	403.19
370.672	406.19
370.898	414.19
371.124	395.19
371.35	405.19
371.576	405.19
371.802	412.19
372.028	401.19
372.254	410.19
372.48	415.19
372.706	423.19
372.932	415.19
373.158	399.19
373.384	413.19
373.61	411.19
373.835	427.19
374.061	404.19
374.287	419.19
374.513	416.19
374.739	416.19
374.965	430.19
375.191	447.19
375.416	438.19
375.642	428.19
375.868	446.19
376.094	409.19
376.319	398.19
376.545	396.19
376.771	391.19
376.997	413.19
377.222	398.19
377.448	408.19
377.674	407.19
377.899	397.19
378.125	405.19
378.35	407.19
378.576	391.19
378.802	393.19
379.027	405.19
379.253	413.19
379.478	414.19
379.704	405.19
379.929	429.19
380.155	407.19
380.38	413.19
380.606	419.19
380.831	410.19
381.057	405.19
381.282	402.19
381.507	415.19
381.733	412.19
381.958	403.19
382.184	416.19
382.409	406.19
382.634	409.19
382.86	418.19
383.085	427.19
383.31	418.19
383.535	422.19
383.761	419.19
383.986	411.19
384.211	433.19
384.436	437.19
384.662	454.19
384.887	450.19
385.112	464.19
385.337	454.19
385.562	457.19
385.787	460.19
386.013	482.19
386.238	462.19
386.463	475.19
386.688	451.19
386.913	438.19
387.138	450.19
387.363	449.19
387.588	467.19
387.813	459.19
388.038	469.19
388.263	469.19
388.488	478.19
388.713	468.19
388.938	448.19
389.163	466.19
389.387	479.19
389.612	437.19
389.837	459.19
390.062	450.19
390.287	466.19
390.512	470.19
390.736	457.19
390.961	463.19
391.186	468.19
391.411	467.19
391.636	498.19
391.86	515.19
392.085	500.19
392.31	495.19
392.534	491.19
392.759	487.19
392.984	470.19
393.208	484.19
393.433	484.19
393.658	457.19
393.882	484.19
394.107	480.19
394.331	498.19
394.556	479.19
394.78	482.19
395.005	490.19
395.229	488.19
395.454	482.19
395.678	478.19
395.903	512.19
396.127	540.19
396.352	525.19
396.576	488.19
396.801	464.19
397.025	490.19
397.249	516.19
397.474	498.19
397.698	521.19
397.922	515.19
398.147	528.19
398.371	535.19
398.595	537.19
398.82	533.19
399.044	575.19
399.268	587.19
399.492	644.19
399.717	677.19
399.941	711.19
400.165	742.19
400.389	690.19
400.613	617.19
400.837	565.19
401.062	570.19
401.286	550.19
401.51	550.19
401.734	543.19
401.958	547.19
402.182	560.19
402.406	549.19
402.63	569.19
402.854	551.19
403.078	547.19
403.302	553.19
403.526	592.19
403.75	603.19
403.974	568.19
404.198	602.19
404.422	594.19
404.645	597.19
404.869	596.19
405.093	599.19
405.317	635.19
405.541	675.19
405.765	602.19
405.988	611.19
406.212	609.19
406.436	593.19
406.66	612.19
406.883	625.19
407.107	641.19
407.331	678.19
407.555	739.19
407.778	721.19
408.002	673.19
408.226	641.19
408.449	601.19
408.673	617.19
408.896	653.19
409.12	673.19
409.344	638.19
409.567	604.19
409.791	582.19
410.014	577.19
410.238	585.19
410.461	577.19
410.685	569.19
410.908	602.19
411.132	609.19
411.355	642.19
411.578	618.19
411.802	553.19
412.025	573.19
412.249	581.19
412.472	584.19
412.695	624.19
412.919	607.19
413.142	557.19
413.365	579.19
413.589	545.19
413.812	542.19
414.035	562.19
414.258	539.19
414.482	540.19
414.705	553.19
414.928	559.19
415.151	535.19
415.374	539.19
415.597	520.19
415.821	559.19
416.044	544.19
416.267	528.19
416.49	529.19
416.713	517.19
416.936	514.19
417.159	520.19
417.382	543.19
417.605	545.19
417.828	545.19
418.051	544.19
418.274	539.19
418.497	531.19
418.72	522.19
418.943	540.19
419.166	549.19
419.389	588.19
419.611	583.19
419.834	592.19
420.057	587.19
420.28	563.19
420.503	570.19
420.726	560.19
420.948	571.19
421.171	580.19
421.394	627.19
421.617	605.19
421.839	557.19
422.062	573.19
422.285	590.19
422.507	631.19
422.73	677.19
422.953	639.19
423.175	602.19
423.398	591.19
423.621	558.19
423.843	583.19
424.066	595.19
424.288	585.19
424.511	577.19
424.733	663.19
424.956	695.19
425.178	680.19
425.401	661.19
425.623	706.19
425.846	629.19
426.068	581.19
426.291	562.19
426.513	562.19
426.735	573.19
426.958	607.19
427.18	665.19
427.402	758.19
427.625	845.19
427.847	729.19
428.069	644.19
428.292	588.19
428.514	557.19
428.736	538.19
428.958	525.19
429.181	513.19
429.403	532.19
429.625	529.19
429.847	536.19
430.069	585.19
430.292	595.19
430.514	509.19
430.736	522.19
430.958	515.19
431.18	514.19
431.402	507.19
431.624	498.19
431.846	514.19
432.068	485.19
432.29	517.19
432.512	513.19
432.734	506.19
432.956	506.19
433.178	514.19
433.4	509.19
433.622	518.19
433.844	516.19
434.066	527.19
434.287	529.19
434.509	549.19
434.731	519.19
434.953	518.19
435.175	556.19
435.397	569.19
435.618	579.19
435.84	582.19
436.062	669.19
436.284	709.19
436.505	614.19
436.727	569.19
436.949	529.19
437.17	522.19
437.392	543.19
437.614	535.19
437.835	530.19
438.057	603.19
438.278	688.19
438.5	705.19
438.721	800.19
438.943	745.19
439.165	606.19
439.386	564.19
439.608	563.19
439.829	547.19
440.05	583.19
440.272	590.19
440.493	577.19
440.715	557.19
440.936	533.19
441.158	525.19
441.379	531.19
441.6	564.19
441.822	555.19
442.043	597.19
442.264	655.19
442.486	702.19
442.707	602.19
442.928	577.19
443.149	591.19
443.371	598.19
443.592	622.19
443.813	702.19
444.034	788.19
444.255	671.19
444.476	610.19
444.698	600.19
444.919	607.19
445.14	736.19
445.361	649.19
445.582	595.19
445.803	652.19
446.024	719.19
446.245	733.19
446.466	649.19
446.687	603.19
446.908	564.19
447.129	543.19
447.35	515.19
447.571	512.19
447.792	515.19
448.013	521.19
448.234	526.19
448.455	569.19
448.675	661.19
448.896	785.19
449.117	615.19
449.338	593.19
449.559	708.19
449.779	817.19
450	643.19
450.221	521.19
450.442	498.19
450.662	505.19
450.883	494.19
451.104	523.19
451.324	514.19
451.545	492.19
451.766	485.19
451.986	478.19
452.207	466.19
452.428	460.19
452.648	473.19
452.869	458.19
453.089	470.19
453.31	491.19
453.53	469.19
453.751	465.19
453.971	461.19
454.192	468.19
454.412	465.19
454.633	465.19
454.853	460.19
455.073	470.19
455.294	487.19
455.514	530.19
455.734	511.19
455.955	447.19
456.175	439.19
456.395	450.19
456.616	445.19
456.836	444.19
457.056	442.19
457.276	473.19
457.497	468.19
457.717	459.19
457.937	447.19
458.157	452.19
458.377	443.19
458.598	480.19
458.818	515.19
459.038	559.19
459.258	604.19
459.478	545.19
459.698	540.19
459.918	506.19
460.138	526.19
460.358	558.19
460.578	544.19
460.798	560.19
461.018	546.19
461.238	527.19
461.458	551.19
461.678	547.19
461.898	566.19
462.118	564.19
462.338	538.19
462.558	559.19
462.777	576.19
462.997	619.19
463.217	626.19
463.437	653.19
463.657	609.19
463.876	585.19
464.096	604.19
464.316	602.19
464.536	617.19
464.755	565.19
464.975	569.19
465.195	609.19
465.414	611.19
465.634	544.19
465.854	524.19
466.073	525.19
466.293	509.19
466.512	501.19
466.732	480.19
466.951	515.19
467.171	478.19
467.391	470.19
467.61	488.19
467.829	515.19
468.049	515.19
468.268	471.19
468.488	481.19
468.707	461.19
468.927	481.19
469.146	467.19
469.365	481.19
469.585	470.19
469.804	482.19
470.023	490.19
470.243	507.19
470.462	491.19
470.681	481.19
470.901	494.19
471.12	504.19
471.339	494.19
471.558	486.19
471.777	512.19
471.997	482.19
472.216	504.19
472.435	501.19
472.654	496.19
472.873	501.19
473.092	494.19
473.311	481.19
473.53	455.19
473.749	479.19
473.968	522.19
474.187	596.19
474.406	610.19
474.625	535.19
474.844	497.19
475.063	489.19
475.282	483.19
475.501	481.19
475.72	506.19
475.939	490.19
476.158	513.19
476.377	513.19
476.596	503.19
476.814	529.19
477.033	499.19
477.252	520.19
477.471	509.19
477.69	537.19
477.908	529.19
478.127	534.19
478.346	545.19
478.564	542.19
478.783	562.19
479.002	576.19
479.22	576.19
479.439	580.19
479.658	608.19
479.876	562.19
480.095	583.19
480.313	617.19
480.532	605.19
480.751	611.19
480.969	628.19
481.188	627.19
481.406	651.19
481.624	593.19
481.843	582.19
482.061	579.19
482.28	575.19
482.498	575.19
482.717	551.19
482.935	575.19
483.153	577.19
483.372	577.19
483.59	568.19
483.808	566.19
484.027	552.19
484.245	557.19
484.463	581.19
484.681	568.19
484.9	573.19
485.118	566.19
485.336	570.19
485.554	611.19
485.772	577.19
485.99	568.19
486.209	601.19
486.427	565.19
486.645	597.19
486.863	585.19
487.081	589.19
487.299	598.19
487.517	601.19
487.735	615.19
487.953	600.19
488.171	602.19
488.389	586.19
488.607	587.19
488.825	587.19
489.043	597.19
489.261	614.19
489.479	617.19
489.696	625.19
489.914	625.19
490.132	622.19
490.35	626.19
490.568	622.19
490.786	624.19
491.003	642.19
491.221	642.19
491.439	669.19
491.657	655.19
491.874	651.19
492.092	657.19
492.31	668.19
492.527	664.19
492.745	670.19
492.963	664.19
493.18	688.19
493.398	663.19
493.615	680.19
493.833	689.19
494.05	692.19
494.268	706.19
494.485	665.19
494.703	712.19
494.92	713.19
495.138	702.19
495.355	689.19
495.573	683.19
495.79	699.19
496.008	733.19
496.225	682.19
496.442	714.19
496.66	707.19
496.877	715.19
497.094	714.19
497.312	733.19
497.529	743.19
497.746	740.19
497.963	757.19
498.181	789.19
498.398	782.19
498.615	824.19
498.832	870.19
499.049	885.19
499.267	885.19
499.484	966.19
499.701	986.19
499.918	1089.19
500.135	1111.19
500.352	1200.19
500.569	1247.19
500.786	1239.19
501.003	1167.19
501.22	1167.19
501.437	1101.19
501.654	1010.19
501.871	1009.19
