Data from 1962.PennyLincolnUp.Lamp.En5.5.200Scan.071719.P1._HRD10591_13-55-15-062.txt Node
Date: Thu Jul 18 13:55:15 EDT 2019
User: cochatt
Spectrometer: HR+D1059
Trigger mode: 1
Integration Time (sec): 1.000000E-1
Scans to average: 1
Electric dark correction enabled: true
Nonlinearity correction enabled: false
Boxcar width: 0
XAxis mode: Wavelengths
Number of Pixels in Spectrum: 2048
>>>>>Begin Spectral Data<<<<<
223.165	-25.38
223.4	-25.38
223.635	-25.38
223.869	-24.38
224.104	-27.38
224.338	-16.38
224.573	-14.38
224.808	-2.38
225.042	-9.38
225.277	-0.38
225.511	4.62
225.746	-2.38
225.98	10.62
226.215	11.62
226.449	24.62
226.683	15.62
226.918	22.62
227.152	32.62
227.387	39.62
227.621	39.62
227.856	47.62
228.09	45.62
228.324	57.62
228.559	59.62
228.793	53.62
229.027	94.62
229.262	106.62
229.496	96.62
229.73	95.62
229.964	127.62
230.199	97.62
230.433	101.62
230.667	123.62
230.901	95.62
231.136	108.62
231.37	108.62
231.604	99.62
231.838	108.62
232.072	106.62
232.306	114.62
232.541	102.62
232.775	102.62
233.009	101.62
233.243	112.62
233.477	105.62
233.711	106.62
233.945	106.62
234.179	116.62
234.413	113.62
234.647	93.62
234.881	108.62
235.115	112.62
235.349	121.62
235.583	106.62
235.817	114.62
236.051	106.62
236.285	104.62
236.519	116.62
236.753	116.62
236.987	139.62
237.221	149.62
237.455	185.62
237.689	165.62
237.922	129.62
238.156	134.62
238.39	121.62
238.624	132.62
238.858	123.62
239.091	118.62
239.325	132.62
239.559	130.62
239.793	122.62
240.027	132.62
240.26	132.62
240.494	131.62
240.728	134.62
240.961	138.62
241.195	134.62
241.429	136.62
241.662	138.62
241.896	135.62
242.13	133.62
242.363	128.62
242.597	118.62
242.83	133.62
243.064	141.62
243.298	152.62
243.531	132.62
243.765	139.62
243.998	126.62
244.232	125.62
244.465	127.62
244.699	134.62
244.932	121.62
245.166	136.62
245.399	145.62
245.633	140.62
245.866	138.62
246.099	138.62
246.333	141.62
246.566	146.62
246.8	146.62
247.033	147.62
247.266	139.62
247.5	175.62
247.733	155.62
247.966	159.62
248.2	163.62
248.433	155.62
248.666	153.62
248.899	164.62
249.133	167.62
249.366	174.62
249.599	163.62
249.832	178.62
250.066	185.62
250.299	164.62
250.532	175.62
250.765	189.62
250.998	188.62
251.231	187.62
251.465	187.62
251.698	197.62
251.931	172.62
252.164	174.62
252.397	186.62
252.63	175.62
252.863	191.62
253.096	199.62
253.329	181.62
253.562	212.62
253.795	195.62
254.028	185.62
254.261	196.62
254.494	195.62
254.727	216.62
254.96	230.62
255.193	235.62
255.426	222.62
255.659	195.62
255.892	217.62
256.124	207.62
256.357	213.62
256.59	208.62
256.823	201.62
257.056	199.62
257.289	198.62
257.521	219.62
257.754	195.62
257.987	188.62
258.22	189.62
258.452	188.62
258.685	200.62
258.918	188.62
259.151	189.62
259.383	201.62
259.616	206.62
259.849	199.62
260.081	200.62
260.314	232.62
260.547	226.62
260.779	233.62
261.012	202.62
261.244	192.62
261.477	225.62
261.71	200.62
261.942	216.62
262.175	224.62
262.407	211.62
262.64	198.62
262.872	199.62
263.105	189.62
263.337	196.62
263.57	218.62
263.802	214.62
264.035	220.62
264.267	221.62
264.499	196.62
264.732	213.62
264.964	213.62
265.197	221.62
265.429	227.62
265.661	200.62
265.894	203.62
266.126	202.62
266.358	210.62
266.591	203.62
266.823	206.62
267.055	215.62
267.287	231.62
267.52	220.62
267.752	211.62
267.984	227.62
268.216	215.62
268.448	218.62
268.681	229.62
268.913	228.62
269.145	245.62
269.377	273.62
269.609	265.62
269.841	220.62
270.073	237.62
270.306	266.62
270.538	275.62
270.77	270.62
271.002	280.62
271.234	266.62
271.466	268.62
271.698	269.62
271.93	294.62
272.162	299.62
272.394	281.62
272.626	273.62
272.858	273.62
273.09	262.62
273.322	272.62
273.553	256.62
273.785	248.62
274.017	254.62
274.249	236.62
274.481	259.62
274.713	265.62
274.945	269.62
275.176	247.62
275.408	259.62
275.64	272.62
275.872	273.62
276.104	258.62
276.335	247.62
276.567	255.62
276.799	267.62
277.031	297.62
277.262	289.62
277.494	304.62
277.726	277.62
277.957	271.62
278.189	266.62
278.421	263.62
278.652	269.62
278.884	266.62
279.115	274.62
279.347	270.62
279.579	267.62
279.81	259.62
280.042	267.62
280.273	263.62
280.505	265.62
280.736	283.62
280.968	277.62
281.199	272.62
281.431	272.62
281.662	275.62
281.894	261.62
282.125	281.62
282.356	293.62
282.588	303.62
282.819	293.62
283.051	284.62
283.282	288.62
283.513	272.62
283.745	283.62
283.976	271.62
284.207	270.62
284.439	285.62
284.67	280.62
284.901	281.62
285.132	282.62
285.364	279.62
285.595	281.62
285.826	293.62
286.057	297.62
286.288	271.62
286.52	272.62
286.751	281.62
286.982	294.62
287.213	284.62
287.444	296.62
287.675	297.62
287.906	296.62
288.138	285.62
288.369	307.62
288.6	312.62
288.831	315.62
289.062	303.62
289.293	298.62
289.524	291.62
289.755	294.62
289.986	295.62
290.217	304.62
290.448	287.62
290.679	305.62
290.91	291.62
291.141	290.62
291.371	291.62
291.602	276.62
291.833	295.62
292.064	285.62
292.295	301.62
292.526	298.62
292.757	292.62
292.987	294.62
293.218	288.62
293.449	300.62
293.68	306.62
293.91	295.62
294.141	305.62
294.372	303.62
294.603	298.62
294.833	288.62
295.064	285.62
295.295	285.62
295.525	283.62
295.756	308.62
295.987	311.62
296.217	306.62
296.448	338.62
296.679	310.62
296.909	313.62
297.14	287.62
297.37	309.62
297.601	315.62
297.831	299.62
298.062	294.62
298.292	319.62
298.523	318.62
298.753	315.62
298.984	302.62
299.214	304.62
299.445	292.62
299.675	322.62
299.905	313.62
300.136	336.62
300.366	323.62
300.597	311.62
300.827	312.62
301.057	322.62
301.288	346.62
301.518	305.62
301.748	329.62
301.979	313.62
302.209	329.62
302.439	334.62
302.669	341.62
302.9	347.62
303.13	334.62
303.36	345.62
303.59	347.62
303.82	332.62
304.051	367.62
304.281	337.62
304.511	339.62
304.741	333.62
304.971	329.62
305.201	346.62
305.431	345.62
305.661	343.62
305.891	326.62
306.121	331.62
306.352	332.62
306.582	335.62
306.812	335.62
307.042	340.62
307.272	334.62
307.502	328.62
307.731	327.62
307.961	331.62
308.191	342.62
308.421	323.62
308.651	347.62
308.881	351.62
309.111	338.62
309.341	340.62
309.571	331.62
309.8	349.62
310.03	357.62
310.26	363.62
310.49	357.62
310.72	374.62
310.949	375.62
311.179	363.62
311.409	375.62
311.639	364.62
311.868	377.62
312.098	372.62
312.328	371.62
312.557	379.62
312.787	401.62
313.017	380.62
313.246	379.62
313.476	353.62
313.706	391.62
313.935	376.62
314.165	371.62
314.394	373.62
314.624	394.62
314.853	374.62
315.083	389.62
315.312	377.62
315.542	378.62
315.771	359.62
316.001	368.62
316.23	361.62
316.46	379.62
316.689	369.62
316.919	346.62
317.148	375.62
317.377	398.62
317.607	376.62
317.836	373.62
318.065	373.62
318.295	384.62
318.524	368.62
318.753	368.62
318.983	380.62
319.212	386.62
319.441	401.62
319.67	395.62
319.9	374.62
320.129	395.62
320.358	395.62
320.587	382.62
320.816	361.62
321.046	381.62
321.275	393.62
321.504	371.62
321.733	396.62
321.962	397.62
322.191	388.62
322.42	394.62
322.649	395.62
322.878	408.62
323.108	409.62
323.337	452.62
323.566	449.62
323.795	442.62
324.024	492.62
324.253	563.62
324.482	733.62
324.71	1073.62
324.939	1510.62
325.168	1357.62
325.397	733.62
325.626	546.62
325.855	484.62
326.084	468.62
326.313	435.62
326.542	455.62
326.77	480.62
326.999	561.62
327.228	697.62
327.457	980.62
327.686	1215.62
327.914	836.62
328.143	596.62
328.372	535.62
328.6	492.62
328.829	499.62
329.058	495.62
329.287	500.62
329.515	472.62
329.744	459.62
329.972	443.62
330.201	464.62
330.43	507.62
330.658	526.62
330.887	525.62
331.115	513.62
331.344	466.62
331.572	483.62
331.801	472.62
332.03	459.62
332.258	458.62
332.486	451.62
332.715	459.62
332.943	451.62
333.172	453.62
333.4	447.62
333.629	500.62
333.857	487.62
334.085	486.62
334.314	500.62
334.542	484.62
334.771	521.62
334.999	495.62
335.227	500.62
335.455	462.62
335.684	471.62
335.912	456.62
336.14	461.62
336.369	469.62
336.597	456.62
336.825	462.62
337.053	446.62
337.281	449.62
337.51	447.62
337.738	464.62
337.966	444.62
338.194	439.62
338.422	433.62
338.65	426.62
338.878	455.62
339.106	416.62
339.334	426.62
339.562	398.62
339.79	423.62
340.018	444.62
340.246	425.62
340.474	432.62
340.702	427.62
340.93	437.62
341.158	406.62
341.386	399.62
341.614	410.62
341.842	413.62
342.07	427.62
342.298	437.62
342.526	443.62
342.754	432.62
342.981	427.62
343.209	421.62
343.437	417.62
343.665	444.62
343.893	463.62
344.12	483.62
344.348	465.62
344.576	441.62
344.804	449.62
345.031	439.62
345.259	427.62
345.487	451.62
345.714	423.62
345.942	407.62
346.17	418.62
346.397	405.62
346.625	401.62
346.853	419.62
347.08	392.62
347.308	391.62
347.535	407.62
347.763	408.62
347.99	424.62
348.218	449.62
348.445	423.62
348.673	418.62
348.9	390.62
349.128	429.62
349.355	396.62
349.583	380.62
349.81	408.62
350.037	394.62
350.265	425.62
350.492	409.62
350.72	414.62
350.947	401.62
351.174	400.62
351.402	416.62
351.629	409.62
351.856	422.62
352.083	415.62
352.311	406.62
352.538	415.62
352.765	413.62
352.992	417.62
353.22	399.62
353.447	411.62
353.674	399.62
353.901	422.62
354.128	393.62
354.355	385.62
354.583	395.62
354.81	403.62
355.037	405.62
355.264	392.62
355.491	405.62
355.718	383.62
355.945	398.62
356.172	407.62
356.399	395.62
356.626	390.62
356.853	380.62
357.08	386.62
357.307	403.62
357.534	378.62
357.761	395.62
357.988	401.62
358.215	401.62
358.441	393.62
358.668	389.62
358.895	407.62
359.122	391.62
359.349	401.62
359.576	401.62
359.802	412.62
360.029	408.62
360.256	441.62
360.483	423.62
360.709	413.62
360.936	408.62
361.163	400.62
361.39	418.62
361.616	415.62
361.843	407.62
362.07	403.62
362.296	410.62
362.523	409.62
362.749	409.62
362.976	396.62
363.203	408.62
363.429	401.62
363.656	407.62
363.882	390.62
364.109	402.62
364.335	389.62
364.562	405.62
364.788	388.62
365.015	400.62
365.241	392.62
365.468	390.62
365.694	396.62
365.92	380.62
366.147	394.62
366.373	391.62
366.599	411.62
366.826	382.62
367.052	371.62
367.278	401.62
367.505	397.62
367.731	396.62
367.957	391.62
368.184	392.62
368.41	399.62
368.636	407.62
368.862	417.62
369.089	411.62
369.315	412.62
369.541	376.62
369.767	389.62
369.993	390.62
370.219	379.62
370.445	401.62
370.672	391.62
370.898	387.62
371.124	405.62
371.35	390.62
371.576	401.62
371.802	401.62
372.028	394.62
372.254	403.62
372.48	395.62
372.706	431.62
372.932	434.62
373.158	388.62
373.384	414.62
373.61	383.62
373.835	382.62
374.061	398.62
374.287	412.62
374.513	415.62
374.739	424.62
374.965	429.62
375.191	428.62
375.416	427.62
375.642	418.62
375.868	412.62
376.094	429.62
376.319	422.62
376.545	402.62
376.771	413.62
376.997	386.62
377.222	411.62
377.448	403.62
377.674	390.62
377.899	393.62
378.125	394.62
378.35	401.62
378.576	402.62
378.802	380.62
379.027	399.62
379.253	410.62
379.478	379.62
379.704	412.62
379.929	397.62
380.155	427.62
380.38	385.62
380.606	405.62
380.831	394.62
381.057	413.62
381.282	409.62
381.507	403.62
381.733	419.62
381.958	412.62
382.184	424.62
382.409	415.62
382.634	409.62
382.86	409.62
383.085	426.62
383.31	441.62
383.535	419.62
383.761	454.62
383.986	420.62
384.211	431.62
384.436	439.62
384.662	444.62
384.887	459.62
385.112	438.62
385.337	440.62
385.562	458.62
385.787	426.62
386.013	471.62
386.238	459.62
386.463	477.62
386.688	468.62
386.913	474.62
387.138	451.62
387.363	465.62
387.588	441.62
387.813	459.62
388.038	458.62
388.263	457.62
388.488	463.62
388.713	453.62
388.938	466.62
389.163	466.62
389.387	442.62
389.612	456.62
389.837	456.62
390.062	461.62
390.287	478.62
390.512	444.62
390.736	443.62
390.961	443.62
391.186	453.62
391.411	434.62
391.636	478.62
391.86	492.62
392.085	496.62
392.31	475.62
392.534	480.62
392.759	499.62
392.984	485.62
393.208	471.62
393.433	459.62
393.658	471.62
393.882	483.62
394.107	463.62
394.331	475.62
394.556	457.62
394.78	456.62
395.005	484.62
395.229	478.62
395.454	466.62
395.678	477.62
395.903	482.62
396.127	503.62
396.352	505.62
396.576	469.62
396.801	478.62
397.025	491.62
397.249	484.62
397.474	513.62
397.698	500.62
397.922	521.62
398.147	511.62
398.371	528.62
398.595	520.62
398.82	532.62
399.044	527.62
399.268	573.62
399.492	615.62
399.717	660.62
399.941	717.62
400.165	683.62
400.389	665.62
400.613	611.62
400.837	582.62
401.062	586.62
401.286	539.62
401.51	544.62
401.734	542.62
401.958	545.62
402.182	537.62
402.406	548.62
402.63	574.62
402.854	535.62
403.078	563.62
403.302	549.62
403.526	579.62
403.75	565.62
403.974	579.62
404.198	564.62
404.422	578.62
404.645	569.62
404.869	580.62
405.093	602.62
405.317	628.62
405.541	651.62
405.765	603.62
405.988	587.62
406.212	598.62
406.436	609.62
406.66	619.62
406.883	605.62
407.107	654.62
407.331	667.62
407.555	744.62
407.778	728.62
408.002	677.62
408.226	635.62
408.449	623.62
408.673	612.62
408.896	655.62
409.12	671.62
409.344	633.62
409.567	620.62
409.791	587.62
410.014	570.62
410.238	557.62
410.461	559.62
410.685	578.62
410.908	565.62
411.132	593.62
411.355	620.62
411.578	614.62
411.802	581.62
412.025	573.62
412.249	585.62
412.472	582.62
412.695	600.62
412.919	614.62
413.142	544.62
413.365	523.62
413.589	559.62
413.812	529.62
414.035	540.62
414.258	533.62
414.482	527.62
414.705	558.62
414.928	551.62
415.151	539.62
415.374	537.62
415.597	541.62
415.821	533.62
416.044	521.62
416.267	525.62
416.49	533.62
416.713	513.62
416.936	526.62
417.159	528.62
417.382	519.62
417.605	521.62
417.828	550.62
418.051	568.62
418.274	534.62
418.497	533.62
418.72	532.62
418.943	553.62
419.166	552.62
419.389	575.62
419.611	569.62
419.834	571.62
420.057	584.62
420.28	549.62
420.503	535.62
420.726	547.62
420.948	537.62
421.171	607.62
421.394	610.62
421.617	556.62
421.839	544.62
422.062	555.62
422.285	540.62
422.507	579.62
422.73	663.62
422.953	649.62
423.175	606.62
423.398	565.62
423.621	586.62
423.843	596.62
424.066	597.62
424.288	591.62
424.511	607.62
424.733	640.62
424.956	713.62
425.178	635.62
425.401	660.62
425.623	703.62
425.846	590.62
426.068	563.62
426.291	554.62
426.513	559.62
426.735	553.62
426.958	604.62
427.18	662.62
427.402	759.62
427.625	825.62
427.847	706.62
428.069	626.62
428.292	573.62
428.514	539.62
428.736	546.62
428.958	514.62
429.181	530.62
429.403	508.62
429.625	513.62
429.847	545.62
430.069	617.62
430.292	590.62
430.514	513.62
430.736	520.62
430.958	496.62
431.18	515.62
431.402	518.62
431.624	496.62
431.846	524.62
432.068	487.62
432.29	478.62
432.512	521.62
432.734	514.62
432.956	490.62
433.178	507.62
433.4	537.62
433.622	539.62
433.844	492.62
434.066	521.62
434.287	498.62
434.509	520.62
434.731	515.62
434.953	557.62
435.175	551.62
435.397	573.62
435.618	581.62
435.84	578.62
436.062	654.62
436.284	723.62
436.505	608.62
436.727	561.62
436.949	533.62
437.17	517.62
437.392	526.62
437.614	526.62
437.835	534.62
438.057	613.62
438.278	694.62
438.5	691.62
438.721	758.62
438.943	723.62
439.165	604.62
439.386	568.62
439.608	559.62
439.829	551.62
440.05	570.62
440.272	591.62
440.493	585.62
440.715	552.62
440.936	532.62
441.158	529.62
441.379	532.62
441.6	559.62
441.822	556.62
442.043	572.62
442.264	674.62
442.486	669.62
442.707	608.62
442.928	583.62
443.149	579.62
443.371	598.62
443.592	632.62
443.813	697.62
444.034	755.62
444.255	636.62
444.476	593.62
444.698	615.62
444.919	623.62
445.14	733.62
445.361	641.62
445.582	604.62
445.803	649.62
446.024	687.62
446.245	710.62
446.466	654.62
446.687	575.62
446.908	541.62
447.129	535.62
447.35	512.62
447.571	515.62
447.792	517.62
448.013	494.62
448.234	509.62
448.455	561.62
448.675	641.62
448.896	755.62
449.117	634.62
449.338	586.62
449.559	680.62
449.779	795.62
450	619.62
450.221	540.62
450.442	534.62
450.662	485.62
450.883	515.62
451.104	509.62
451.324	520.62
451.545	482.62
451.766	451.62
451.986	457.62
452.207	467.62
452.428	464.62
452.648	457.62
452.869	459.62
453.089	464.62
453.31	487.62
453.53	487.62
453.751	444.62
453.971	461.62
454.192	468.62
454.412	453.62
454.633	459.62
454.853	455.62
455.073	452.62
455.294	474.62
455.514	509.62
455.734	512.62
455.955	461.62
456.175	453.62
456.395	457.62
456.616	458.62
456.836	453.62
457.056	433.62
457.276	426.62
457.497	421.62
457.717	433.62
457.937	460.62
458.157	447.62
458.377	445.62
458.598	474.62
458.818	509.62
459.038	563.62
459.258	581.62
459.478	517.62
459.698	524.62
459.918	529.62
460.138	513.62
460.358	533.62
460.578	549.62
460.798	535.62
461.018	537.62
461.238	560.62
461.458	531.62
461.678	525.62
461.898	540.62
462.118	535.62
462.338	566.62
462.558	566.62
462.777	578.62
462.997	599.62
463.217	639.62
463.437	629.62
463.657	597.62
463.876	565.62
464.096	575.62
464.316	589.62
464.536	588.62
464.755	592.62
464.975	587.62
465.195	593.62
465.414	614.62
465.634	549.62
465.854	550.62
466.073	503.62
466.293	503.62
466.512	484.62
466.732	504.62
466.951	509.62
467.171	475.62
467.391	479.62
467.61	488.62
467.829	485.62
468.049	501.62
468.268	474.62
468.488	475.62
468.707	495.62
468.927	478.62
469.146	466.62
469.365	476.62
469.585	466.62
469.804	480.62
470.023	484.62
470.243	489.62
470.462	497.62
470.681	505.62
470.901	476.62
471.12	499.62
471.339	509.62
471.558	483.62
471.777	476.62
471.997	475.62
472.216	479.62
472.435	495.62
472.654	484.62
472.873	482.62
473.092	476.62
473.311	488.62
473.53	474.62
473.749	489.62
473.968	498.62
474.187	591.62
474.406	592.62
474.625	512.62
474.844	468.62
475.063	477.62
475.282	486.62
475.501	485.62
475.72	481.62
475.939	472.62
476.158	470.62
476.377	506.62
476.596	474.62
476.814	521.62
477.033	489.62
477.252	502.62
477.471	531.62
477.69	495.62
477.908	505.62
478.127	555.62
478.346	547.62
478.564	544.62
478.783	548.62
479.002	579.62
479.22	570.62
479.439	578.62
479.658	572.62
479.876	567.62
480.095	595.62
480.313	615.62
480.532	601.62
480.751	589.62
480.969	585.62
481.188	629.62
481.406	641.62
481.624	611.62
481.843	573.62
482.061	587.62
482.28	577.62
482.498	553.62
482.717	549.62
482.935	567.62
483.153	555.62
483.372	538.62
483.59	554.62
483.808	566.62
484.027	567.62
484.245	552.62
484.463	565.62
484.681	567.62
484.9	572.62
485.118	594.62
485.336	570.62
485.554	586.62
485.772	581.62
485.99	585.62
486.209	585.62
486.427	587.62
486.645	609.62
486.863	602.62
487.081	583.62
487.299	580.62
487.517	601.62
487.735	585.62
487.953	601.62
488.171	605.62
488.389	584.62
488.607	598.62
488.825	587.62
489.043	606.62
489.261	605.62
489.479	608.62
489.696	611.62
489.914	586.62
490.132	628.62
490.35	581.62
490.568	610.62
490.786	633.62
491.003	631.62
491.221	628.62
491.439	641.62
491.657	633.62
491.874	646.62
492.092	668.62
492.31	659.62
492.527	651.62
492.745	667.62
492.963	669.62
493.18	651.62
493.398	689.62
493.615	687.62
493.833	656.62
494.05	668.62
494.268	674.62
494.485	691.62
494.703	684.62
494.92	684.62
495.138	688.62
495.355	673.62
495.573	691.62
495.79	706.62
496.008	695.62
496.225	692.62
496.442	688.62
496.66	698.62
496.877	702.62
497.094	691.62
497.312	690.62
497.529	704.62
497.746	738.62
497.963	773.62
498.181	793.62
498.398	769.62
498.615	821.62
498.832	847.62
499.049	890.62
499.267	913.62
499.484	944.62
499.701	976.62
499.918	1014.62
500.135	1125.62
500.352	1210.62
500.569	1229.62
500.786	1212.62
501.003	1190.62
501.22	1137.62
501.437	1069.62
501.654	995.62
501.871	985.62
