Data from 1962.PennyLincolnUp.Lamp.En5.5.200Scan.071719.P1._HRD10591_13-53-38-061.txt Node
Date: Thu Jul 18 13:53:38 EDT 2019
User: cochatt
Spectrometer: HR+D1059
Trigger mode: 1
Integration Time (sec): 1.000000E-1
Scans to average: 1
Electric dark correction enabled: true
Nonlinearity correction enabled: false
Boxcar width: 0
XAxis mode: Wavelengths
Number of Pixels in Spectrum: 2048
>>>>>Begin Spectral Data<<<<<
223.165	-6.69
223.4	-6.69
223.635	-6.69
223.869	-12.69
224.104	-10.69
224.338	-25.69
224.573	-22.69
224.808	-23.69
225.042	-7.69
225.277	-24.69
225.511	1.31
225.746	22.31
225.98	4.31
226.215	21.31
226.449	12.31
226.683	18.31
226.918	26.31
227.152	28.31
227.387	40.31
227.621	43.31
227.856	37.31
228.09	45.31
228.324	45.31
228.559	63.31
228.793	55.31
229.027	90.31
229.262	97.31
229.496	94.31
229.73	88.31
229.964	118.31
230.199	111.31
230.433	111.31
230.667	104.31
230.901	104.31
231.136	123.31
231.37	109.31
231.604	111.31
231.838	115.31
232.072	121.31
232.306	108.31
232.541	100.31
232.775	118.31
233.009	114.31
233.243	101.31
233.477	109.31
233.711	121.31
233.945	98.31
234.179	125.31
234.413	122.31
234.647	106.31
234.881	123.31
235.115	110.31
235.349	122.31
235.583	107.31
235.817	110.31
236.051	118.31
236.285	118.31
236.519	118.31
236.753	126.31
236.987	133.31
237.221	165.31
237.455	193.31
237.689	150.31
237.922	131.31
238.156	121.31
238.39	124.31
238.624	115.31
238.858	135.31
239.091	123.31
239.325	113.31
239.559	122.31
239.793	141.31
240.027	113.31
240.26	115.31
240.494	145.31
240.728	117.31
240.961	118.31
241.195	126.31
241.429	135.31
241.662	132.31
241.896	124.31
242.13	124.31
242.363	122.31
242.597	116.31
242.83	135.31
243.064	143.31
243.298	131.31
243.531	136.31
243.765	151.31
243.998	153.31
244.232	143.31
244.465	159.31
244.699	142.31
244.932	126.31
245.166	145.31
245.399	124.31
245.633	138.31
245.866	148.31
246.099	142.31
246.333	142.31
246.566	133.31
246.8	153.31
247.033	144.31
247.266	144.31
247.5	136.31
247.733	136.31
247.966	152.31
248.2	148.31
248.433	161.31
248.666	154.31
248.899	158.31
249.133	161.31
249.366	185.31
249.599	167.31
249.832	166.31
250.066	178.31
250.299	183.31
250.532	190.31
250.765	161.31
250.998	202.31
251.231	194.31
251.465	174.31
251.698	189.31
251.931	182.31
252.164	174.31
252.397	168.31
252.63	193.31
252.863	181.31
253.096	178.31
253.329	198.31
253.562	186.31
253.795	202.31
254.028	192.31
254.261	183.31
254.494	197.31
254.727	207.31
254.96	245.31
255.193	219.31
255.426	212.31
255.659	201.31
255.892	200.31
256.124	213.31
256.357	213.31
256.59	208.31
256.823	192.31
257.056	201.31
257.289	185.31
257.521	183.31
257.754	211.31
257.987	188.31
258.22	190.31
258.452	179.31
258.685	189.31
258.918	193.31
259.151	196.31
259.383	188.31
259.616	211.31
259.849	201.31
260.081	210.31
260.314	211.31
260.547	230.31
260.779	221.31
261.012	197.31
261.244	205.31
261.477	221.31
261.71	212.31
261.942	197.31
262.175	200.31
262.407	195.31
262.64	202.31
262.872	198.31
263.105	217.31
263.337	208.31
263.57	187.31
263.802	195.31
264.035	199.31
264.267	203.31
264.499	207.31
264.732	207.31
264.964	194.31
265.197	221.31
265.429	210.31
265.661	201.31
265.894	200.31
266.126	208.31
266.358	203.31
266.591	197.31
266.823	225.31
267.055	219.31
267.287	211.31
267.52	231.31
267.752	205.31
267.984	222.31
268.216	212.31
268.448	223.31
268.681	214.31
268.913	208.31
269.145	230.31
269.377	249.31
269.609	251.31
269.841	255.31
270.073	251.31
270.306	245.31
270.538	263.31
270.77	247.31
271.002	242.31
271.234	246.31
271.466	235.31
271.698	272.31
271.93	292.31
272.162	268.31
272.394	275.31
272.626	246.31
272.858	258.31
273.09	243.31
273.322	239.31
273.553	246.31
273.785	255.31
274.017	256.31
274.249	257.31
274.481	240.31
274.713	244.31
274.945	259.31
275.176	245.31
275.408	244.31
275.64	260.31
275.872	263.31
276.104	247.31
276.335	252.31
276.567	253.31
276.799	254.31
277.031	278.31
277.262	280.31
277.494	271.31
277.726	285.31
277.957	269.31
278.189	245.31
278.421	252.31
278.652	258.31
278.884	273.31
279.115	274.31
279.347	257.31
279.579	228.31
279.81	271.31
280.042	244.31
280.273	259.31
280.505	282.31
280.736	261.31
280.968	266.31
281.199	265.31
281.431	259.31
281.662	258.31
281.894	269.31
282.125	264.31
282.356	274.31
282.588	277.31
282.819	276.31
283.051	281.31
283.282	279.31
283.513	269.31
283.745	279.31
283.976	288.31
284.207	265.31
284.439	285.31
284.67	277.31
284.901	270.31
285.132	268.31
285.364	273.31
285.595	282.31
285.826	291.31
286.057	281.31
286.288	285.31
286.52	277.31
286.751	281.31
286.982	278.31
287.213	272.31
287.444	274.31
287.675	274.31
287.906	297.31
288.138	298.31
288.369	306.31
288.6	292.31
288.831	292.31
289.062	291.31
289.293	292.31
289.524	305.31
289.755	301.31
289.986	277.31
290.217	297.31
290.448	301.31
290.679	293.31
290.91	297.31
291.141	284.31
291.371	287.31
291.602	283.31
291.833	315.31
292.064	300.31
292.295	311.31
292.526	294.31
292.757	292.31
292.987	291.31
293.218	277.31
293.449	283.31
293.68	277.31
293.91	285.31
294.141	295.31
294.372	293.31
294.603	290.31
294.833	311.31
295.064	299.31
295.295	307.31
295.525	268.31
295.756	284.31
295.987	300.31
296.217	305.31
296.448	305.31
296.679	297.31
296.909	304.31
297.14	301.31
297.37	312.31
297.601	294.31
297.831	310.31
298.062	298.31
298.292	305.31
298.523	314.31
298.753	324.31
298.984	336.31
299.214	310.31
299.445	303.31
299.675	317.31
299.905	284.31
300.136	319.31
300.366	310.31
300.597	308.31
300.827	322.31
301.057	309.31
301.288	309.31
301.518	334.31
301.748	324.31
301.979	336.31
302.209	330.31
302.439	324.31
302.669	309.31
302.9	325.31
303.13	348.31
303.36	323.31
303.59	340.31
303.82	324.31
304.051	340.31
304.281	331.31
304.511	323.31
304.741	306.31
304.971	330.31
305.201	332.31
305.431	308.31
305.661	313.31
305.891	333.31
306.121	333.31
306.352	322.31
306.582	341.31
306.812	327.31
307.042	314.31
307.272	322.31
307.502	340.31
307.731	347.31
307.961	318.31
308.191	336.31
308.421	347.31
308.651	319.31
308.881	325.31
309.111	358.31
309.341	321.31
309.571	339.31
309.8	352.31
310.03	347.31
310.26	326.31
310.49	355.31
310.72	339.31
310.949	361.31
311.179	351.31
311.409	346.31
311.639	349.31
311.868	345.31
312.098	357.31
312.328	361.31
312.557	360.31
312.787	372.31
313.017	376.31
313.246	374.31
313.476	358.31
313.706	344.31
313.935	354.31
314.165	373.31
314.394	362.31
314.624	387.31
314.853	364.31
315.083	369.31
315.312	371.31
315.542	360.31
315.771	369.31
316.001	352.31
316.23	381.31
316.46	381.31
316.689	370.31
316.919	375.31
317.148	368.31
317.377	366.31
317.607	395.31
317.836	355.31
318.065	365.31
318.295	343.31
318.524	352.31
318.753	358.31
318.983	359.31
319.212	354.31
319.441	381.31
319.67	353.31
319.9	376.31
320.129	364.31
320.358	377.31
320.587	377.31
320.816	366.31
321.046	379.31
321.275	390.31
321.504	373.31
321.733	387.31
321.962	383.31
322.191	385.31
322.42	371.31
322.649	396.31
322.878	398.31
323.108	397.31
323.337	407.31
323.566	422.31
323.795	436.31
324.024	480.31
324.253	517.31
324.482	645.31
324.71	906.31
324.939	1308.31
325.168	1148.31
325.397	658.31
325.626	484.31
325.855	445.31
326.084	428.31
326.313	417.31
326.542	433.31
326.77	455.31
326.999	487.31
327.228	605.31
327.457	862.31
327.686	1006.31
327.914	724.31
328.143	551.31
328.372	501.31
328.6	462.31
328.829	452.31
329.058	454.31
329.287	453.31
329.515	446.31
329.744	448.31
329.972	433.31
330.201	460.31
330.43	467.31
330.658	465.31
330.887	486.31
331.115	476.31
331.344	472.31
331.572	440.31
331.801	430.31
332.03	439.31
332.258	441.31
332.486	444.31
332.715	440.31
332.943	463.31
333.172	461.31
333.4	453.31
333.629	462.31
333.857	484.31
334.085	483.31
334.314	510.31
334.542	517.31
334.771	507.31
334.999	482.31
335.227	466.31
335.455	469.31
335.684	454.31
335.912	442.31
336.14	433.31
336.369	436.31
336.597	451.31
336.825	429.31
337.053	439.31
337.281	437.31
337.51	414.31
337.738	427.31
337.966	439.31
338.194	431.31
338.422	438.31
338.65	427.31
338.878	419.31
339.106	398.31
339.334	420.31
339.562	412.31
339.79	416.31
340.018	427.31
340.246	420.31
340.474	423.31
340.702	392.31
340.93	398.31
341.158	428.31
341.386	409.31
341.614	421.31
341.842	420.31
342.07	408.31
342.298	411.31
342.526	401.31
342.754	391.31
342.981	385.31
343.209	399.31
343.437	431.31
343.665	430.31
343.893	426.31
344.12	453.31
344.348	451.31
344.576	438.31
344.804	430.31
345.031	438.31
345.259	430.31
345.487	422.31
345.714	415.31
345.942	414.31
346.17	393.31
346.397	396.31
346.625	394.31
346.853	415.31
347.08	393.31
347.308	390.31
347.535	395.31
347.763	400.31
347.99	390.31
348.218	380.31
348.445	396.31
348.673	400.31
348.9	414.31
349.128	398.31
349.355	402.31
349.583	358.31
349.81	381.31
350.037	381.31
350.265	380.31
350.492	385.31
350.72	387.31
350.947	385.31
351.174	393.31
351.402	398.31
351.629	379.31
351.856	398.31
352.083	374.31
352.311	405.31
352.538	391.31
352.765	405.31
352.992	386.31
353.22	397.31
353.447	385.31
353.674	398.31
353.901	365.31
354.128	369.31
354.355	380.31
354.583	396.31
354.81	382.31
355.037	390.31
355.264	369.31
355.491	374.31
355.718	385.31
355.945	378.31
356.172	369.31
356.399	379.31
356.626	374.31
356.853	371.31
357.08	397.31
357.307	381.31
357.534	378.31
357.761	362.31
357.988	373.31
358.215	387.31
358.441	396.31
358.668	388.31
358.895	379.31
359.122	380.31
359.349	394.31
359.576	392.31
359.802	394.31
360.029	404.31
360.256	408.31
360.483	412.31
360.709	376.31
360.936	381.31
361.163	369.31
361.39	400.31
361.616	396.31
361.843	388.31
362.07	395.31
362.296	379.31
362.523	393.31
362.749	384.31
362.976	397.31
363.203	378.31
363.429	373.31
363.656	373.31
363.882	377.31
364.109	419.31
364.335	383.31
364.562	384.31
364.788	399.31
365.015	397.31
365.241	387.31
365.468	384.31
365.694	386.31
365.92	401.31
366.147	363.31
366.373	385.31
366.599	379.31
366.826	387.31
367.052	398.31
367.278	394.31
367.505	369.31
367.731	364.31
367.957	374.31
368.184	403.31
368.41	393.31
368.636	410.31
368.862	392.31
369.089	377.31
369.315	399.31
369.541	396.31
369.767	380.31
369.993	392.31
370.219	377.31
370.445	385.31
370.672	386.31
370.898	399.31
371.124	377.31
371.35	384.31
371.576	385.31
371.802	393.31
372.028	400.31
372.254	376.31
372.48	387.31
372.706	399.31
372.932	372.31
373.158	396.31
373.384	389.31
373.61	406.31
373.835	397.31
374.061	395.31
374.287	408.31
374.513	417.31
374.739	422.31
374.965	408.31
375.191	419.31
375.416	407.31
375.642	408.31
375.868	411.31
376.094	389.31
376.319	400.31
376.545	401.31
376.771	389.31
376.997	394.31
377.222	383.31
377.448	394.31
377.674	399.31
377.899	408.31
378.125	411.31
378.35	382.31
378.576	408.31
378.802	402.31
379.027	374.31
379.253	397.31
379.478	381.31
379.704	398.31
379.929	387.31
380.155	406.31
380.38	395.31
380.606	395.31
380.831	376.31
381.057	381.31
381.282	415.31
381.507	384.31
381.733	413.31
381.958	414.31
382.184	405.31
382.409	433.31
382.634	405.31
382.86	398.31
383.085	409.31
383.31	403.31
383.535	410.31
383.761	407.31
383.986	415.31
384.211	459.31
384.436	439.31
384.662	456.31
384.887	438.31
385.112	443.31
385.337	439.31
385.562	428.31
385.787	445.31
386.013	456.31
386.238	450.31
386.463	453.31
386.688	458.31
386.913	442.31
387.138	453.31
387.363	450.31
387.588	439.31
387.813	439.31
388.038	438.31
388.263	441.31
388.488	450.31
388.713	444.31
388.938	445.31
389.163	439.31
389.387	455.31
389.612	454.31
389.837	426.31
390.062	451.31
390.287	438.31
390.512	449.31
390.736	450.31
390.961	448.31
391.186	449.31
391.411	456.31
391.636	477.31
391.86	489.31
392.085	466.31
392.31	473.31
392.534	449.31
392.759	469.31
392.984	465.31
393.208	456.31
393.433	469.31
393.658	482.31
393.882	463.31
394.107	461.31
394.331	445.31
394.556	464.31
394.78	460.31
395.005	473.31
395.229	465.31
395.454	489.31
395.678	502.31
395.903	501.31
396.127	496.31
396.352	485.31
396.576	472.31
396.801	481.31
397.025	484.31
397.249	480.31
397.474	490.31
397.698	492.31
397.922	492.31
398.147	517.31
398.371	529.31
398.595	517.31
398.82	535.31
399.044	553.31
399.268	560.31
399.492	603.31
399.717	674.31
399.941	695.31
400.165	675.31
400.389	660.31
400.613	589.31
400.837	571.31
401.062	561.31
401.286	529.31
401.51	519.31
401.734	516.31
401.958	518.31
402.182	536.31
402.406	533.31
402.63	532.31
402.854	543.31
403.078	539.31
403.302	557.31
403.526	574.31
403.75	555.31
403.974	587.31
404.198	563.31
404.422	551.31
404.645	569.31
404.869	576.31
405.093	591.31
405.317	603.31
405.541	607.31
405.765	600.31
405.988	572.31
406.212	603.31
406.436	572.31
406.66	595.31
406.883	596.31
407.107	605.31
407.331	652.31
407.555	669.31
407.778	682.31
408.002	638.31
408.226	608.31
408.449	583.31
408.673	588.31
408.896	613.31
409.12	630.31
409.344	642.31
409.567	591.31
409.791	553.31
410.014	541.31
410.238	563.31
410.461	547.31
410.685	563.31
410.908	549.31
411.132	579.31
411.355	619.31
411.578	580.31
411.802	547.31
412.025	554.31
412.249	564.31
412.472	563.31
412.695	596.31
412.919	578.31
413.142	536.31
413.365	513.31
413.589	566.31
413.812	553.31
414.035	533.31
414.258	509.31
414.482	525.31
414.705	521.31
414.928	515.31
415.151	519.31
415.374	531.31
415.597	527.31
415.821	504.31
416.044	515.31
416.267	511.31
416.49	531.31
416.713	513.31
416.936	508.31
417.159	510.31
417.382	507.31
417.605	522.31
417.828	527.31
418.051	541.31
418.274	509.31
418.497	495.31
418.72	505.31
418.943	505.31
419.166	540.31
419.389	582.31
419.611	565.31
419.834	539.31
420.057	554.31
420.28	525.31
420.503	529.31
420.726	553.31
420.948	533.31
421.171	566.31
421.394	564.31
421.617	564.31
421.839	545.31
422.062	538.31
422.285	558.31
422.507	564.31
422.73	626.31
422.953	605.31
423.175	565.31
423.398	559.31
423.621	563.31
423.843	549.31
424.066	582.31
424.288	569.31
424.511	563.31
424.733	591.31
424.956	658.31
425.178	622.31
425.401	638.31
425.623	627.31
425.846	566.31
426.068	536.31
426.291	532.31
426.513	535.31
426.735	561.31
426.958	561.31
427.18	625.31
427.402	685.31
427.625	781.31
427.847	651.31
428.069	580.31
428.292	546.31
428.514	532.31
428.736	513.31
428.958	511.31
429.181	488.31
429.403	479.31
429.625	501.31
429.847	525.31
430.069	565.31
430.292	569.31
430.514	522.31
430.736	492.31
430.958	507.31
431.18	506.31
431.402	495.31
431.624	491.31
431.846	494.31
432.068	498.31
432.29	504.31
432.512	503.31
432.734	487.31
432.956	514.31
433.178	482.31
433.4	473.31
433.622	484.31
433.844	492.31
434.066	455.31
434.287	499.31
434.509	526.31
434.731	504.31
434.953	507.31
435.175	524.31
435.397	542.31
435.618	537.31
435.84	564.31
436.062	623.31
436.284	655.31
436.505	574.31
436.727	513.31
436.949	511.31
437.17	503.31
437.392	521.31
437.614	511.31
437.835	511.31
438.057	581.31
438.278	625.31
438.5	630.31
438.721	700.31
438.943	700.31
439.165	562.31
439.386	539.31
439.608	553.31
439.829	526.31
440.05	532.31
440.272	569.31
440.493	551.31
440.715	523.31
440.936	502.31
441.158	520.31
441.379	543.31
441.6	530.31
441.822	530.31
442.043	563.31
442.264	618.31
442.486	632.31
442.707	569.31
442.928	551.31
443.149	555.31
443.371	564.31
443.592	594.31
443.813	656.31
444.034	733.31
444.255	613.31
444.476	585.31
444.698	612.31
444.919	569.31
445.14	707.31
445.361	628.31
445.582	610.31
445.803	596.31
446.024	667.31
446.245	665.31
446.466	603.31
446.687	550.31
446.908	542.31
447.129	504.31
447.35	490.31
447.571	487.31
447.792	482.31
448.013	477.31
448.234	480.31
448.455	503.31
448.675	595.31
448.896	671.31
449.117	601.31
449.338	577.31
449.559	637.31
449.779	737.31
450	600.31
450.221	501.31
450.442	486.31
450.662	473.31
450.883	477.31
451.104	489.31
451.324	484.31
451.545	455.31
451.766	457.31
451.986	442.31
452.207	433.31
452.428	455.31
452.648	427.31
452.869	430.31
453.089	458.31
453.31	471.31
453.53	445.31
453.751	443.31
453.971	432.31
454.192	466.31
454.412	451.31
454.633	435.31
454.853	416.31
455.073	438.31
455.294	462.31
455.514	487.31
455.734	480.31
455.955	444.31
456.175	442.31
456.395	430.31
456.616	413.31
456.836	429.31
457.056	444.31
457.276	430.31
457.497	441.31
457.717	433.31
457.937	440.31
458.157	446.31
458.377	424.31
458.598	467.31
458.818	479.31
459.038	533.31
459.258	536.31
459.478	516.31
459.698	485.31
459.918	478.31
460.138	507.31
460.358	539.31
460.578	550.31
460.798	531.31
461.018	534.31
461.238	528.31
461.458	527.31
461.678	517.31
461.898	535.31
462.118	520.31
462.338	551.31
462.558	540.31
462.777	566.31
462.997	599.31
463.217	633.31
463.437	613.31
463.657	581.31
463.876	570.31
464.096	564.31
464.316	605.31
464.536	573.31
464.755	591.31
464.975	558.31
465.195	567.31
465.414	578.31
465.634	536.31
465.854	523.31
466.073	489.31
466.293	487.31
466.512	452.31
466.732	459.31
466.951	481.31
467.171	480.31
467.391	480.31
467.61	469.31
467.829	454.31
468.049	459.31
468.268	470.31
468.488	454.31
468.707	465.31
468.927	473.31
469.146	456.31
469.365	443.31
469.585	453.31
469.804	455.31
470.023	492.31
470.243	478.31
470.462	486.31
470.681	476.31
470.901	494.31
471.12	470.31
471.339	469.31
471.558	479.31
471.777	476.31
471.997	481.31
472.216	481.31
472.435	497.31
472.654	474.31
472.873	477.31
473.092	459.31
473.311	458.31
473.53	474.31
473.749	475.31
473.968	509.31
474.187	561.31
474.406	563.31
474.625	499.31
474.844	466.31
475.063	464.31
475.282	459.31
475.501	470.31
475.72	488.31
475.939	482.31
476.158	485.31
476.377	469.31
476.596	481.31
476.814	503.31
477.033	501.31
477.252	500.31
477.471	502.31
477.69	501.31
477.908	515.31
478.127	519.31
478.346	510.31
478.564	545.31
478.783	539.31
479.002	537.31
479.22	546.31
479.439	573.31
479.658	557.31
479.876	581.31
480.095	586.31
480.313	588.31
480.532	601.31
480.751	604.31
480.969	605.31
481.188	599.31
481.406	612.31
481.624	590.31
481.843	570.31
482.061	547.31
482.28	526.31
482.498	541.31
482.717	524.31
482.935	553.31
483.153	564.31
483.372	537.31
483.59	535.31
483.808	538.31
484.027	521.31
484.245	550.31
484.463	539.31
484.681	557.31
484.9	526.31
485.118	572.31
485.336	575.31
485.554	570.31
485.772	563.31
485.99	575.31
486.209	558.31
486.427	559.31
486.645	574.31
486.863	566.31
487.081	591.31
487.299	573.31
487.517	554.31
487.735	578.31
487.953	577.31
488.171	567.31
488.389	563.31
488.607	574.31
488.825	570.31
489.043	566.31
489.261	572.31
489.479	558.31
489.696	577.31
489.914	579.31
490.132	573.31
490.35	575.31
490.568	589.31
490.786	591.31
491.003	624.31
491.221	598.31
491.439	604.31
491.657	605.31
491.874	615.31
492.092	633.31
492.31	617.31
492.527	630.31
492.745	637.31
492.963	635.31
493.18	655.31
493.398	664.31
493.615	653.31
493.833	654.31
494.05	639.31
494.268	642.31
494.485	637.31
494.703	603.31
494.92	637.31
495.138	645.31
495.355	643.31
495.573	669.31
495.79	659.31
496.008	670.31
496.225	653.31
496.442	660.31
496.66	686.31
496.877	655.31
497.094	679.31
497.312	674.31
497.529	702.31
497.746	726.31
497.963	705.31
498.181	731.31
498.398	773.31
498.615	786.31
498.832	806.31
499.049	809.31
499.267	847.31
499.484	929.31
499.701	970.31
499.918	1025.31
500.135	1106.31
500.352	1151.31
500.569	1211.31
500.786	1213.31
501.003	1159.31
501.22	1137.31
501.437	1037.31
501.654	975.31
501.871	927.31
