Data from 1962.PennyLincolnUp.Lamp.En5.5.200Scan.071719.P1._HRD10591_13-55-11-061.txt Node
Date: Thu Jul 18 13:55:11 EDT 2019
User: cochatt
Spectrometer: HR+D1059
Trigger mode: 1
Integration Time (sec): 1.000000E-1
Scans to average: 1
Electric dark correction enabled: true
Nonlinearity correction enabled: false
Boxcar width: 0
XAxis mode: Wavelengths
Number of Pixels in Spectrum: 2048
>>>>>Begin Spectral Data<<<<<
223.165	-22.31
223.4	-22.31
223.635	-22.31
223.869	-13.31
224.104	-7.31
224.338	-10.31
224.573	-12.31
224.808	-17.31
225.042	2.69
225.277	0.69
225.511	4.69
225.746	-2.31
225.98	2.69
226.215	19.69
226.449	9.69
226.683	14.69
226.918	8.69
227.152	21.69
227.387	38.69
227.621	30.69
227.856	37.69
228.09	37.69
228.324	37.69
228.559	59.69
228.793	59.69
229.027	92.69
229.262	113.69
229.496	91.69
229.73	123.69
229.964	120.69
230.199	101.69
230.433	102.69
230.667	96.69
230.901	99.69
231.136	103.69
231.37	103.69
231.604	100.69
231.838	114.69
232.072	98.69
232.306	89.69
232.541	101.69
232.775	106.69
233.009	106.69
233.243	95.69
233.477	113.69
233.711	115.69
233.945	130.69
234.179	130.69
234.413	108.69
234.647	115.69
234.881	118.69
235.115	102.69
235.349	116.69
235.583	118.69
235.817	119.69
236.051	109.69
236.285	124.69
236.519	119.69
236.753	124.69
236.987	128.69
237.221	144.69
237.455	176.69
237.689	150.69
237.922	135.69
238.156	122.69
238.39	126.69
238.624	113.69
238.858	114.69
239.091	116.69
239.325	124.69
239.559	110.69
239.793	115.69
240.027	135.69
240.26	141.69
240.494	135.69
240.728	141.69
240.961	136.69
241.195	128.69
241.429	126.69
241.662	132.69
241.896	131.69
242.13	121.69
242.363	126.69
242.597	128.69
242.83	129.69
243.064	128.69
243.298	128.69
243.531	125.69
243.765	139.69
243.998	135.69
244.232	121.69
244.465	136.69
244.699	124.69
244.932	134.69
245.166	134.69
245.399	154.69
245.633	135.69
245.866	144.69
246.099	138.69
246.333	133.69
246.566	149.69
246.8	141.69
247.033	152.69
247.266	152.69
247.5	156.69
247.733	156.69
247.966	161.69
248.2	153.69
248.433	154.69
248.666	161.69
248.899	152.69
249.133	164.69
249.366	192.69
249.599	174.69
249.832	168.69
250.066	167.69
250.299	157.69
250.532	166.69
250.765	176.69
250.998	177.69
251.231	179.69
251.465	187.69
251.698	188.69
251.931	174.69
252.164	175.69
252.397	169.69
252.63	174.69
252.863	182.69
253.096	202.69
253.329	193.69
253.562	193.69
253.795	206.69
254.028	186.69
254.261	201.69
254.494	189.69
254.727	211.69
254.96	230.69
255.193	232.69
255.426	205.69
255.659	214.69
255.892	203.69
256.124	194.69
256.357	210.69
256.59	207.69
256.823	207.69
257.056	190.69
257.289	189.69
257.521	190.69
257.754	191.69
257.987	189.69
258.22	197.69
258.452	191.69
258.685	197.69
258.918	192.69
259.151	179.69
259.383	197.69
259.616	211.69
259.849	205.69
260.081	202.69
260.314	222.69
260.547	231.69
260.779	224.69
261.012	231.69
261.244	206.69
261.477	225.69
261.71	204.69
261.942	206.69
262.175	212.69
262.407	209.69
262.64	207.69
262.872	201.69
263.105	200.69
263.337	202.69
263.57	188.69
263.802	206.69
264.035	204.69
264.267	193.69
264.499	215.69
264.732	202.69
264.964	199.69
265.197	213.69
265.429	231.69
265.661	204.69
265.894	229.69
266.126	210.69
266.358	212.69
266.591	216.69
266.823	225.69
267.055	202.69
267.287	213.69
267.52	211.69
267.752	228.69
267.984	229.69
268.216	221.69
268.448	212.69
268.681	222.69
268.913	238.69
269.145	252.69
269.377	270.69
269.609	233.69
269.841	234.69
270.073	245.69
270.306	260.69
270.538	279.69
270.77	285.69
271.002	279.69
271.234	268.69
271.466	271.69
271.698	280.69
271.93	281.69
272.162	269.69
272.394	274.69
272.626	285.69
272.858	278.69
273.09	261.69
273.322	258.69
273.553	241.69
273.785	252.69
274.017	276.69
274.249	262.69
274.481	261.69
274.713	256.69
274.945	260.69
275.176	266.69
275.408	267.69
275.64	248.69
275.872	257.69
276.104	256.69
276.335	248.69
276.567	243.69
276.799	260.69
277.031	278.69
277.262	286.69
277.494	272.69
277.726	276.69
277.957	279.69
278.189	279.69
278.421	266.69
278.652	265.69
278.884	272.69
279.115	246.69
279.347	260.69
279.579	276.69
279.81	263.69
280.042	263.69
280.273	268.69
280.505	247.69
280.736	266.69
280.968	242.69
281.199	263.69
281.431	262.69
281.662	280.69
281.894	269.69
282.125	266.69
282.356	287.69
282.588	287.69
282.819	297.69
283.051	274.69
283.282	284.69
283.513	284.69
283.745	276.69
283.976	285.69
284.207	269.69
284.439	284.69
284.67	290.69
284.901	287.69
285.132	276.69
285.364	295.69
285.595	265.69
285.826	284.69
286.057	264.69
286.288	287.69
286.52	296.69
286.751	283.69
286.982	273.69
287.213	281.69
287.444	275.69
287.675	282.69
287.906	300.69
288.138	313.69
288.369	316.69
288.6	304.69
288.831	305.69
289.062	303.69
289.293	310.69
289.524	287.69
289.755	289.69
289.986	307.69
290.217	313.69
290.448	283.69
290.679	311.69
290.91	292.69
291.141	276.69
291.371	290.69
291.602	311.69
291.833	294.69
292.064	301.69
292.295	292.69
292.526	295.69
292.757	289.69
292.987	284.69
293.218	307.69
293.449	309.69
293.68	287.69
293.91	286.69
294.141	289.69
294.372	288.69
294.603	292.69
294.833	289.69
295.064	298.69
295.295	298.69
295.525	312.69
295.756	306.69
295.987	311.69
296.217	338.69
296.448	327.69
296.679	310.69
296.909	298.69
297.14	302.69
297.37	308.69
297.601	321.69
297.831	320.69
298.062	325.69
298.292	314.69
298.523	351.69
298.753	324.69
298.984	310.69
299.214	320.69
299.445	331.69
299.675	308.69
299.905	318.69
300.136	308.69
300.366	316.69
300.597	304.69
300.827	323.69
301.057	327.69
301.288	321.69
301.518	321.69
301.748	346.69
301.979	344.69
302.209	344.69
302.439	352.69
302.669	339.69
302.9	326.69
303.13	342.69
303.36	325.69
303.59	347.69
303.82	334.69
304.051	335.69
304.281	353.69
304.511	349.69
304.741	345.69
304.971	347.69
305.201	321.69
305.431	336.69
305.661	344.69
305.891	336.69
306.121	329.69
306.352	326.69
306.582	326.69
306.812	305.69
307.042	317.69
307.272	352.69
307.502	330.69
307.731	348.69
307.961	334.69
308.191	339.69
308.421	330.69
308.651	340.69
308.881	338.69
309.111	363.69
309.341	334.69
309.571	353.69
309.8	348.69
310.03	351.69
310.26	357.69
310.49	355.69
310.72	363.69
310.949	376.69
311.179	373.69
311.409	368.69
311.639	376.69
311.868	364.69
312.098	365.69
312.328	360.69
312.557	375.69
312.787	378.69
313.017	382.69
313.246	365.69
313.476	373.69
313.706	357.69
313.935	369.69
314.165	390.69
314.394	374.69
314.624	374.69
314.853	367.69
315.083	357.69
315.312	384.69
315.542	380.69
315.771	376.69
316.001	359.69
316.23	372.69
316.46	358.69
316.689	374.69
316.919	368.69
317.148	398.69
317.377	370.69
317.607	384.69
317.836	346.69
318.065	366.69
318.295	380.69
318.524	370.69
318.753	377.69
318.983	393.69
319.212	369.69
319.441	375.69
319.67	375.69
319.9	367.69
320.129	374.69
320.358	380.69
320.587	370.69
320.816	406.69
321.046	395.69
321.275	377.69
321.504	359.69
321.733	403.69
321.962	388.69
322.191	388.69
322.42	414.69
322.649	415.69
322.878	413.69
323.108	417.69
323.337	426.69
323.566	423.69
323.795	466.69
324.024	476.69
324.253	561.69
324.482	718.69
324.71	1053.69
324.939	1476.69
325.168	1328.69
325.397	720.69
325.626	544.69
325.855	491.69
326.084	481.69
326.313	455.69
326.542	446.69
326.77	478.69
326.999	545.69
327.228	667.69
327.457	970.69
327.686	1178.69
327.914	826.69
328.143	607.69
328.372	538.69
328.6	498.69
328.829	483.69
329.058	470.69
329.287	493.69
329.515	493.69
329.744	482.69
329.972	473.69
330.201	468.69
330.43	501.69
330.658	508.69
330.887	487.69
331.115	505.69
331.344	481.69
331.572	460.69
331.801	440.69
332.03	457.69
332.258	465.69
332.486	450.69
332.715	430.69
332.943	457.69
333.172	472.69
333.4	460.69
333.629	489.69
333.857	492.69
334.085	484.69
334.314	523.69
334.542	514.69
334.771	522.69
334.999	499.69
335.227	487.69
335.455	485.69
335.684	466.69
335.912	475.69
336.14	462.69
336.369	472.69
336.597	444.69
336.825	458.69
337.053	441.69
337.281	463.69
337.51	442.69
337.738	433.69
337.966	436.69
338.194	447.69
338.422	413.69
338.65	431.69
338.878	426.69
339.106	427.69
339.334	456.69
339.562	445.69
339.79	424.69
340.018	416.69
340.246	412.69
340.474	418.69
340.702	431.69
340.93	437.69
341.158	438.69
341.386	439.69
341.614	433.69
341.842	423.69
342.07	410.69
342.298	422.69
342.526	435.69
342.754	432.69
342.981	405.69
343.209	410.69
343.437	427.69
343.665	421.69
343.893	446.69
344.12	463.69
344.348	462.69
344.576	452.69
344.804	452.69
345.031	435.69
345.259	442.69
345.487	424.69
345.714	423.69
345.942	417.69
346.17	394.69
346.397	417.69
346.625	425.69
346.853	419.69
347.08	417.69
347.308	419.69
347.535	399.69
347.763	400.69
347.99	405.69
348.218	418.69
348.445	422.69
348.673	403.69
348.9	396.69
349.128	398.69
349.355	404.69
349.583	389.69
349.81	401.69
350.037	398.69
350.265	394.69
350.492	393.69
350.72	394.69
350.947	407.69
351.174	408.69
351.402	387.69
351.629	412.69
351.856	408.69
352.083	421.69
352.311	420.69
352.538	404.69
352.765	424.69
352.992	403.69
353.22	400.69
353.447	408.69
353.674	408.69
353.901	401.69
354.128	403.69
354.355	409.69
354.583	390.69
354.81	397.69
355.037	364.69
355.264	379.69
355.491	366.69
355.718	384.69
355.945	398.69
356.172	409.69
356.399	386.69
356.626	393.69
356.853	393.69
357.08	393.69
357.307	382.69
357.534	384.69
357.761	391.69
357.988	380.69
358.215	385.69
358.441	389.69
358.668	401.69
358.895	389.69
359.122	392.69
359.349	406.69
359.576	409.69
359.802	409.69
360.029	419.69
360.256	425.69
360.483	429.69
360.709	399.69
360.936	407.69
361.163	393.69
361.39	407.69
361.616	428.69
361.843	394.69
362.07	402.69
362.296	413.69
362.523	387.69
362.749	397.69
362.976	393.69
363.203	411.69
363.429	406.69
363.656	422.69
363.882	406.69
364.109	402.69
364.335	397.69
364.562	389.69
364.788	406.69
365.015	378.69
365.241	383.69
365.468	412.69
365.694	390.69
365.92	391.69
366.147	381.69
366.373	398.69
366.599	420.69
366.826	398.69
367.052	384.69
367.278	384.69
367.505	382.69
367.731	393.69
367.957	394.69
368.184	401.69
368.41	378.69
368.636	387.69
368.862	442.69
369.089	402.69
369.315	401.69
369.541	385.69
369.767	390.69
369.993	413.69
370.219	403.69
370.445	423.69
370.672	421.69
370.898	407.69
371.124	377.69
371.35	394.69
371.576	407.69
371.802	412.69
372.028	389.69
372.254	396.69
372.48	389.69
372.706	421.69
372.932	404.69
373.158	393.69
373.384	412.69
373.61	398.69
373.835	413.69
374.061	426.69
374.287	410.69
374.513	406.69
374.739	427.69
374.965	439.69
375.191	441.69
375.416	430.69
375.642	410.69
375.868	416.69
376.094	408.69
376.319	416.69
376.545	410.69
376.771	419.69
376.997	416.69
377.222	410.69
377.448	389.69
377.674	404.69
377.899	389.69
378.125	398.69
378.35	398.69
378.576	385.69
378.802	390.69
379.027	370.69
379.253	403.69
379.478	407.69
379.704	392.69
379.929	389.69
380.155	390.69
380.38	395.69
380.606	408.69
380.831	394.69
381.057	412.69
381.282	418.69
381.507	392.69
381.733	422.69
381.958	392.69
382.184	418.69
382.409	410.69
382.634	430.69
382.86	414.69
383.085	408.69
383.31	412.69
383.535	403.69
383.761	425.69
383.986	440.69
384.211	413.69
384.436	436.69
384.662	444.69
384.887	471.69
385.112	445.69
385.337	467.69
385.562	446.69
385.787	462.69
386.013	477.69
386.238	457.69
386.463	460.69
386.688	442.69
386.913	452.69
387.138	452.69
387.363	457.69
387.588	442.69
387.813	457.69
388.038	433.69
388.263	444.69
388.488	462.69
388.713	450.69
388.938	448.69
389.163	450.69
389.387	470.69
389.612	449.69
389.837	458.69
390.062	465.69
390.287	430.69
390.512	447.69
390.736	463.69
390.961	463.69
391.186	458.69
391.411	460.69
391.636	479.69
391.86	492.69
392.085	478.69
392.31	470.69
392.534	486.69
392.759	478.69
392.984	479.69
393.208	464.69
393.433	486.69
393.658	468.69
393.882	467.69
394.107	446.69
394.331	473.69
394.556	481.69
394.78	457.69
395.005	470.69
395.229	470.69
395.454	478.69
395.678	464.69
395.903	482.69
396.127	497.69
396.352	502.69
396.576	470.69
396.801	463.69
397.025	476.69
397.249	476.69
397.474	492.69
397.698	505.69
397.922	495.69
398.147	500.69
398.371	538.69
398.595	531.69
398.82	545.69
399.044	558.69
399.268	602.69
399.492	656.69
399.717	668.69
399.941	691.69
400.165	679.69
400.389	667.69
400.613	629.69
400.837	578.69
401.062	587.69
401.286	565.69
401.51	540.69
401.734	542.69
401.958	534.69
402.182	533.69
402.406	540.69
402.63	542.69
402.854	550.69
403.078	529.69
403.302	582.69
403.526	562.69
403.75	600.69
403.974	566.69
404.198	592.69
404.422	599.69
404.645	570.69
404.869	600.69
405.093	627.69
405.317	640.69
405.541	638.69
405.765	627.69
405.988	575.69
406.212	570.69
406.436	621.69
406.66	632.69
406.883	592.69
407.107	636.69
407.331	677.69
407.555	739.69
407.778	733.69
408.002	673.69
408.226	642.69
408.449	628.69
408.673	596.69
408.896	627.69
409.12	668.69
409.344	633.69
409.567	599.69
409.791	586.69
410.014	585.69
410.238	579.69
410.461	569.69
410.685	552.69
410.908	565.69
411.132	604.69
411.355	625.69
411.578	605.69
411.802	552.69
412.025	569.69
412.249	575.69
412.472	578.69
412.695	597.69
412.919	592.69
413.142	573.69
413.365	534.69
413.589	552.69
413.812	519.69
414.035	520.69
414.258	540.69
414.482	535.69
414.705	557.69
414.928	545.69
415.151	521.69
415.374	532.69
415.597	548.69
415.821	535.69
416.044	517.69
416.267	509.69
416.49	518.69
416.713	528.69
416.936	534.69
417.159	520.69
417.382	526.69
417.605	544.69
417.828	561.69
418.051	542.69
418.274	531.69
418.497	533.69
418.72	552.69
418.943	537.69
419.166	552.69
419.389	591.69
419.611	558.69
419.834	572.69
420.057	557.69
420.28	558.69
420.503	538.69
420.726	549.69
420.948	551.69
421.171	574.69
421.394	607.69
421.617	576.69
421.839	556.69
422.062	546.69
422.285	564.69
422.507	638.69
422.73	662.69
422.953	650.69
423.175	580.69
423.398	562.69
423.621	560.69
423.843	604.69
424.066	571.69
424.288	563.69
424.511	593.69
424.733	637.69
424.956	680.69
425.178	674.69
425.401	657.69
425.623	685.69
425.846	585.69
426.068	575.69
426.291	554.69
426.513	525.69
426.735	574.69
426.958	613.69
427.18	655.69
427.402	756.69
427.625	822.69
427.847	698.69
428.069	617.69
428.292	547.69
428.514	548.69
428.736	512.69
428.958	530.69
429.181	514.69
429.403	510.69
429.625	521.69
429.847	565.69
430.069	599.69
430.292	565.69
430.514	530.69
430.736	512.69
430.958	490.69
431.18	499.69
431.402	504.69
431.624	492.69
431.846	489.69
432.068	520.69
432.29	493.69
432.512	531.69
432.734	495.69
432.956	512.69
433.178	507.69
433.4	504.69
433.622	497.69
433.844	509.69
434.066	476.69
434.287	494.69
434.509	510.69
434.731	522.69
434.953	545.69
435.175	556.69
435.397	552.69
435.618	562.69
435.84	588.69
436.062	634.69
436.284	706.69
436.505	604.69
436.727	556.69
436.949	528.69
437.17	529.69
437.392	521.69
437.614	519.69
437.835	536.69
438.057	596.69
438.278	689.69
438.5	681.69
438.721	759.69
438.943	725.69
439.165	588.69
439.386	543.69
439.608	544.69
439.829	542.69
440.05	554.69
440.272	627.69
440.493	549.69
440.715	539.69
440.936	532.69
441.158	542.69
441.379	551.69
441.6	564.69
441.822	569.69
442.043	583.69
442.264	661.69
442.486	698.69
442.707	599.69
442.928	574.69
443.149	575.69
443.371	591.69
443.592	622.69
443.813	706.69
444.034	774.69
444.255	650.69
444.476	599.69
444.698	591.69
444.919	608.69
445.14	734.69
445.361	649.69
445.582	599.69
445.803	606.69
446.024	697.69
446.245	692.69
446.466	613.69
446.687	568.69
446.908	560.69
447.129	551.69
447.35	503.69
447.571	496.69
447.792	488.69
448.013	490.69
448.234	509.69
448.455	553.69
448.675	631.69
448.896	755.69
449.117	634.69
449.338	602.69
449.559	656.69
449.779	775.69
450	640.69
450.221	541.69
450.442	474.69
450.662	480.69
450.883	483.69
451.104	496.69
451.324	512.69
451.545	474.69
451.766	470.69
451.986	470.69
452.207	461.69
452.428	450.69
452.648	455.69
452.869	475.69
453.089	466.69
453.31	469.69
453.53	465.69
453.751	451.69
453.971	456.69
454.192	445.69
454.412	460.69
454.633	442.69
454.853	449.69
455.073	454.69
455.294	462.69
455.514	510.69
455.734	530.69
455.955	443.69
456.175	429.69
456.395	433.69
456.616	437.69
456.836	436.69
457.056	433.69
457.276	444.69
457.497	446.69
457.717	434.69
457.937	454.69
458.157	457.69
458.377	436.69
458.598	472.69
458.818	512.69
459.038	546.69
459.258	579.69
459.478	533.69
459.698	506.69
459.918	516.69
460.138	525.69
460.358	540.69
460.578	549.69
460.798	558.69
461.018	564.69
461.238	545.69
461.458	548.69
461.678	529.69
461.898	549.69
462.118	544.69
462.338	585.69
462.558	571.69
462.777	577.69
462.997	602.69
463.217	637.69
463.437	631.69
463.657	610.69
463.876	599.69
464.096	595.69
464.316	576.69
464.536	587.69
464.755	576.69
464.975	560.69
465.195	585.69
465.414	603.69
465.634	558.69
465.854	533.69
466.073	520.69
466.293	496.69
466.512	504.69
466.732	485.69
466.951	478.69
467.171	484.69
467.391	483.69
467.61	505.69
467.829	492.69
468.049	484.69
468.268	474.69
468.488	461.69
468.707	472.69
468.927	467.69
469.146	486.69
469.365	473.69
469.585	465.69
469.804	479.69
470.023	475.69
470.243	498.69
470.462	488.69
470.681	484.69
470.901	488.69
471.12	478.69
471.339	475.69
471.558	493.69
471.777	505.69
471.997	473.69
472.216	491.69
472.435	496.69
472.654	503.69
472.873	485.69
473.092	474.69
473.311	460.69
473.53	479.69
473.749	489.69
473.968	501.69
474.187	585.69
474.406	632.69
474.625	520.69
474.844	496.69
475.063	487.69
475.282	485.69
475.501	483.69
475.72	462.69
475.939	490.69
476.158	480.69
476.377	496.69
476.596	490.69
476.814	513.69
477.033	512.69
477.252	503.69
477.471	496.69
477.69	526.69
477.908	536.69
478.127	517.69
478.346	532.69
478.564	555.69
478.783	557.69
479.002	565.69
479.22	571.69
479.439	563.69
479.658	567.69
479.876	581.69
480.095	598.69
480.313	607.69
480.532	603.69
480.751	604.69
480.969	607.69
481.188	641.69
481.406	629.69
481.624	601.69
481.843	574.69
482.061	566.69
482.28	578.69
482.498	555.69
482.717	567.69
482.935	547.69
483.153	568.69
483.372	563.69
483.59	550.69
483.808	548.69
484.027	551.69
484.245	569.69
484.463	572.69
484.681	574.69
484.9	574.69
485.118	566.69
485.336	586.69
485.554	592.69
485.772	583.69
485.99	586.69
486.209	574.69
486.427	576.69
486.645	586.69
486.863	600.69
487.081	578.69
487.299	600.69
487.517	608.69
487.735	572.69
487.953	601.69
488.171	591.69
488.389	580.69
488.607	596.69
488.825	599.69
489.043	582.69
489.261	601.69
489.479	573.69
489.696	568.69
489.914	602.69
490.132	612.69
490.35	602.69
490.568	614.69
490.786	612.69
491.003	622.69
491.221	641.69
491.439	660.69
491.657	639.69
491.874	654.69
492.092	653.69
492.31	664.69
492.527	665.69
492.745	642.69
492.963	668.69
493.18	655.69
493.398	671.69
493.615	645.69
493.833	669.69
494.05	665.69
494.268	673.69
494.485	674.69
494.703	682.69
494.92	694.69
495.138	664.69
495.355	700.69
495.573	701.69
495.79	670.69
496.008	677.69
496.225	693.69
496.442	696.69
496.66	676.69
496.877	718.69
497.094	700.69
497.312	728.69
497.529	729.69
497.746	749.69
497.963	766.69
498.181	777.69
498.398	798.69
498.615	814.69
498.832	820.69
499.049	885.69
499.267	879.69
499.484	962.69
499.701	993.69
499.918	1027.69
500.135	1093.69
500.352	1206.69
500.569	1213.69
500.786	1248.69
501.003	1188.69
501.22	1139.69
501.437	1080.69
501.654	1016.69
501.871	990.69
