Data from 1962.PennyLincolnUp.Lamp.En5.5.200Scan.071719.P1._HRD10591_13-52-43-059.txt Node
Date: Thu Jul 18 13:52:43 EDT 2019
User: cochatt
Spectrometer: HR+D1059
Trigger mode: 1
Integration Time (sec): 1.000000E-1
Scans to average: 1
Electric dark correction enabled: true
Nonlinearity correction enabled: false
Boxcar width: 0
XAxis mode: Wavelengths
Number of Pixels in Spectrum: 2048
>>>>>Begin Spectral Data<<<<<
223.165	-14.19
223.4	-14.19
223.635	-14.19
223.869	-30.19
224.104	-14.19
224.338	-22.19
224.573	-18.19
224.808	-26.19
225.042	-12.19
225.277	-8.19
225.511	17.81
225.746	11.81
225.98	7.81
226.215	6.81
226.449	10.81
226.683	34.81
226.918	21.81
227.152	33.81
227.387	16.81
227.621	30.81
227.856	39.81
228.09	27.81
228.324	53.81
228.559	49.81
228.793	61.81
229.027	65.81
229.262	88.81
229.496	102.81
229.73	98.81
229.964	107.81
230.199	109.81
230.433	82.81
230.667	100.81
230.901	118.81
231.136	96.81
231.37	106.81
231.604	104.81
231.838	104.81
232.072	109.81
232.306	101.81
232.541	105.81
232.775	113.81
233.009	112.81
233.243	98.81
233.477	111.81
233.711	112.81
233.945	107.81
234.179	114.81
234.413	102.81
234.647	100.81
234.881	116.81
235.115	114.81
235.349	108.81
235.583	115.81
235.817	116.81
236.051	114.81
236.285	100.81
236.519	106.81
236.753	118.81
236.987	112.81
237.221	135.81
237.455	151.81
237.689	140.81
237.922	128.81
238.156	114.81
238.39	119.81
238.624	116.81
238.858	117.81
239.091	115.81
239.325	102.81
239.559	107.81
239.793	127.81
240.027	113.81
240.26	133.81
240.494	134.81
240.728	110.81
240.961	129.81
241.195	123.81
241.429	105.81
241.662	121.81
241.896	130.81
242.13	128.81
242.363	129.81
242.597	128.81
242.83	127.81
243.064	128.81
243.298	126.81
243.531	129.81
243.765	132.81
243.998	123.81
244.232	124.81
244.465	131.81
244.699	116.81
244.932	125.81
245.166	130.81
245.399	136.81
245.633	145.81
245.866	146.81
246.099	132.81
246.333	142.81
246.566	133.81
246.8	134.81
247.033	149.81
247.266	130.81
247.5	148.81
247.733	143.81
247.966	172.81
248.2	147.81
248.433	148.81
248.666	145.81
248.899	167.81
249.133	150.81
249.366	168.81
249.599	166.81
249.832	152.81
250.066	151.81
250.299	152.81
250.532	155.81
250.765	177.81
250.998	177.81
251.231	161.81
251.465	167.81
251.698	173.81
251.931	172.81
252.164	157.81
252.397	171.81
252.63	152.81
252.863	170.81
253.096	169.81
253.329	177.81
253.562	188.81
253.795	180.81
254.028	179.81
254.261	189.81
254.494	196.81
254.727	184.81
254.96	197.81
255.193	222.81
255.426	193.81
255.659	200.81
255.892	202.81
256.124	202.81
256.357	194.81
256.59	192.81
256.823	192.81
257.056	176.81
257.289	190.81
257.521	184.81
257.754	161.81
257.987	193.81
258.22	189.81
258.452	182.81
258.685	187.81
258.918	199.81
259.151	177.81
259.383	185.81
259.616	184.81
259.849	195.81
260.081	188.81
260.314	188.81
260.547	198.81
260.779	200.81
261.012	178.81
261.244	196.81
261.477	192.81
261.71	197.81
261.942	182.81
262.175	199.81
262.407	197.81
262.64	187.81
262.872	185.81
263.105	203.81
263.337	191.81
263.57	192.81
263.802	194.81
264.035	182.81
264.267	198.81
264.499	206.81
264.732	201.81
264.964	201.81
265.197	200.81
265.429	188.81
265.661	197.81
265.894	193.81
266.126	195.81
266.358	193.81
266.591	184.81
266.823	199.81
267.055	208.81
267.287	198.81
267.52	190.81
267.752	214.81
267.984	199.81
268.216	206.81
268.448	221.81
268.681	216.81
268.913	212.81
269.145	233.81
269.377	210.81
269.609	232.81
269.841	228.81
270.073	221.81
270.306	248.81
270.538	234.81
270.77	246.81
271.002	229.81
271.234	243.81
271.466	236.81
271.698	262.81
271.93	256.81
272.162	266.81
272.394	254.81
272.626	239.81
272.858	234.81
273.09	225.81
273.322	226.81
273.553	233.81
273.785	207.81
274.017	208.81
274.249	234.81
274.481	223.81
274.713	243.81
274.945	245.81
275.176	229.81
275.408	233.81
275.64	228.81
275.872	231.81
276.104	217.81
276.335	244.81
276.567	250.81
276.799	207.81
277.031	249.81
277.262	252.81
277.494	250.81
277.726	235.81
277.957	249.81
278.189	258.81
278.421	248.81
278.652	234.81
278.884	251.81
279.115	239.81
279.347	252.81
279.579	265.81
279.81	230.81
280.042	243.81
280.273	258.81
280.505	252.81
280.736	241.81
280.968	251.81
281.199	246.81
281.431	260.81
281.662	260.81
281.894	248.81
282.125	261.81
282.356	249.81
282.588	268.81
282.819	274.81
283.051	268.81
283.282	258.81
283.513	263.81
283.745	265.81
283.976	272.81
284.207	270.81
284.439	281.81
284.67	268.81
284.901	260.81
285.132	271.81
285.364	260.81
285.595	259.81
285.826	274.81
286.057	259.81
286.288	272.81
286.52	263.81
286.751	263.81
286.982	292.81
287.213	266.81
287.444	270.81
287.675	269.81
287.906	286.81
288.138	286.81
288.369	262.81
288.6	280.81
288.831	297.81
289.062	271.81
289.293	260.81
289.524	280.81
289.755	270.81
289.986	276.81
290.217	282.81
290.448	291.81
290.679	288.81
290.91	275.81
291.141	289.81
291.371	274.81
291.602	276.81
291.833	273.81
292.064	281.81
292.295	283.81
292.526	262.81
292.757	297.81
292.987	285.81
293.218	272.81
293.449	274.81
293.68	292.81
293.91	261.81
294.141	272.81
294.372	278.81
294.603	288.81
294.833	280.81
295.064	279.81
295.295	276.81
295.525	289.81
295.756	291.81
295.987	285.81
296.217	308.81
296.448	304.81
296.679	299.81
296.909	293.81
297.14	281.81
297.37	304.81
297.601	291.81
297.831	290.81
298.062	276.81
298.292	288.81
298.523	300.81
298.753	299.81
298.984	281.81
299.214	290.81
299.445	272.81
299.675	282.81
299.905	308.81
300.136	295.81
300.366	296.81
300.597	288.81
300.827	313.81
301.057	304.81
301.288	310.81
301.518	337.81
301.748	321.81
301.979	331.81
302.209	309.81
302.439	310.81
302.669	315.81
302.9	316.81
303.13	315.81
303.36	310.81
303.59	316.81
303.82	308.81
304.051	324.81
304.281	320.81
304.511	316.81
304.741	309.81
304.971	315.81
305.201	320.81
305.431	308.81
305.661	297.81
305.891	290.81
306.121	322.81
306.352	315.81
306.582	320.81
306.812	315.81
307.042	321.81
307.272	299.81
307.502	304.81
307.731	306.81
307.961	321.81
308.191	328.81
308.421	308.81
308.651	321.81
308.881	309.81
309.111	309.81
309.341	324.81
309.571	310.81
309.8	317.81
310.03	314.81
310.26	331.81
310.49	322.81
310.72	324.81
310.949	338.81
311.179	337.81
311.409	334.81
311.639	322.81
311.868	322.81
312.098	321.81
312.328	334.81
312.557	346.81
312.787	344.81
313.017	349.81
313.246	353.81
313.476	355.81
313.706	337.81
313.935	343.81
314.165	351.81
314.394	336.81
314.624	334.81
314.853	360.81
315.083	341.81
315.312	346.81
315.542	355.81
315.771	348.81
316.001	321.81
316.23	360.81
316.46	326.81
316.689	327.81
316.919	341.81
317.148	334.81
317.377	349.81
317.607	334.81
317.836	334.81
318.065	352.81
318.295	353.81
318.524	351.81
318.753	334.81
318.983	353.81
319.212	326.81
319.441	333.81
319.67	320.81
319.9	346.81
320.129	342.81
320.358	347.81
320.587	338.81
320.816	360.81
321.046	345.81
321.275	350.81
321.504	360.81
321.733	351.81
321.962	370.81
322.191	348.81
322.42	359.81
322.649	361.81
322.878	375.81
323.108	374.81
323.337	371.81
323.566	371.81
323.795	406.81
324.024	412.81
324.253	456.81
324.482	584.81
324.71	748.81
324.939	1051.81
325.168	928.81
325.397	560.81
325.626	439.81
325.855	389.81
326.084	398.81
326.313	400.81
326.542	388.81
326.77	412.81
326.999	418.81
327.228	524.81
327.457	717.81
327.686	817.81
327.914	590.81
328.143	467.81
328.372	423.81
328.6	406.81
328.829	408.81
329.058	408.81
329.287	410.81
329.515	414.81
329.744	378.81
329.972	394.81
330.201	405.81
330.43	437.81
330.658	436.81
330.887	429.81
331.115	420.81
331.344	406.81
331.572	389.81
331.801	404.81
332.03	408.81
332.258	398.81
332.486	405.81
332.715	392.81
332.943	420.81
333.172	425.81
333.4	428.81
333.629	436.81
333.857	433.81
334.085	440.81
334.314	448.81
334.542	452.81
334.771	451.81
334.999	421.81
335.227	428.81
335.455	407.81
335.684	439.81
335.912	418.81
336.14	418.81
336.369	389.81
336.597	416.81
336.825	426.81
337.053	417.81
337.281	396.81
337.51	411.81
337.738	418.81
337.966	403.81
338.194	412.81
338.422	416.81
338.65	411.81
338.878	374.81
339.106	400.81
339.334	396.81
339.562	378.81
339.79	398.81
340.018	396.81
340.246	397.81
340.474	390.81
340.702	415.81
340.93	392.81
341.158	381.81
341.386	386.81
341.614	376.81
341.842	392.81
342.07	378.81
342.298	380.81
342.526	374.81
342.754	390.81
342.981	380.81
343.209	372.81
343.437	396.81
343.665	386.81
343.893	434.81
344.12	425.81
344.348	417.81
344.576	416.81
344.804	411.81
345.031	396.81
345.259	412.81
345.487	397.81
345.714	388.81
345.942	384.81
346.17	358.81
346.397	360.81
346.625	366.81
346.853	384.81
347.08	374.81
347.308	372.81
347.535	405.81
347.763	379.81
347.99	398.81
348.218	380.81
348.445	382.81
348.673	371.81
348.9	370.81
349.128	379.81
349.355	359.81
349.583	360.81
349.81	373.81
350.037	380.81
350.265	384.81
350.492	368.81
350.72	376.81
350.947	371.81
351.174	370.81
351.402	374.81
351.629	372.81
351.856	373.81
352.083	381.81
352.311	375.81
352.538	380.81
352.765	366.81
352.992	372.81
353.22	351.81
353.447	364.81
353.674	365.81
353.901	383.81
354.128	365.81
354.355	360.81
354.583	356.81
354.81	369.81
355.037	354.81
355.264	378.81
355.491	354.81
355.718	349.81
355.945	367.81
356.172	342.81
356.399	368.81
356.626	370.81
356.853	368.81
357.08	360.81
357.307	386.81
357.534	357.81
357.761	370.81
357.988	376.81
358.215	359.81
358.441	372.81
358.668	381.81
358.895	365.81
359.122	355.81
359.349	346.81
359.576	372.81
359.802	365.81
360.029	397.81
360.256	392.81
360.483	360.81
360.709	369.81
360.936	377.81
361.163	364.81
361.39	338.81
361.616	361.81
361.843	365.81
362.07	365.81
362.296	371.81
362.523	359.81
362.749	389.81
362.976	382.81
363.203	364.81
363.429	366.81
363.656	364.81
363.882	368.81
364.109	356.81
364.335	394.81
364.562	364.81
364.788	368.81
365.015	352.81
365.241	366.81
365.468	359.81
365.694	366.81
365.92	356.81
366.147	370.81
366.373	366.81
366.599	376.81
366.826	374.81
367.052	357.81
367.278	382.81
367.505	356.81
367.731	347.81
367.957	364.81
368.184	375.81
368.41	382.81
368.636	375.81
368.862	353.81
369.089	362.81
369.315	373.81
369.541	372.81
369.767	383.81
369.993	371.81
370.219	357.81
370.445	360.81
370.672	366.81
370.898	382.81
371.124	370.81
371.35	374.81
371.576	379.81
371.802	386.81
372.028	373.81
372.254	384.81
372.48	377.81
372.706	394.81
372.932	396.81
373.158	386.81
373.384	386.81
373.61	401.81
373.835	387.81
374.061	390.81
374.287	374.81
374.513	374.81
374.739	391.81
374.965	394.81
375.191	384.81
375.416	396.81
375.642	412.81
375.868	398.81
376.094	372.81
376.319	388.81
376.545	377.81
376.771	379.81
376.997	382.81
377.222	375.81
377.448	377.81
377.674	368.81
377.899	364.81
378.125	374.81
378.35	370.81
378.576	364.81
378.802	386.81
379.027	389.81
379.253	380.81
379.478	364.81
379.704	370.81
379.929	368.81
380.155	346.81
380.38	389.81
380.606	379.81
380.831	377.81
381.057	361.81
381.282	392.81
381.507	380.81
381.733	405.81
381.958	377.81
382.184	386.81
382.409	393.81
382.634	391.81
382.86	397.81
383.085	392.81
383.31	413.81
383.535	396.81
383.761	402.81
383.986	420.81
384.211	430.81
384.436	419.81
384.662	406.81
384.887	442.81
385.112	424.81
385.337	435.81
385.562	423.81
385.787	424.81
386.013	435.81
386.238	443.81
386.463	449.81
386.688	433.81
386.913	443.81
387.138	440.81
387.363	445.81
387.588	443.81
387.813	434.81
388.038	457.81
388.263	420.81
388.488	429.81
388.713	421.81
388.938	438.81
389.163	418.81
389.387	422.81
389.612	430.81
389.837	427.81
390.062	415.81
390.287	427.81
390.512	412.81
390.736	429.81
390.961	438.81
391.186	440.81
391.411	442.81
391.636	435.81
391.86	446.81
392.085	456.81
392.31	458.81
392.534	456.81
392.759	463.81
392.984	452.81
393.208	466.81
393.433	453.81
393.658	440.81
393.882	448.81
394.107	422.81
394.331	441.81
394.556	434.81
394.78	445.81
395.005	453.81
395.229	435.81
395.454	448.81
395.678	463.81
395.903	461.81
396.127	470.81
396.352	460.81
396.576	454.81
396.801	470.81
397.025	468.81
397.249	468.81
397.474	484.81
397.698	473.81
397.922	485.81
398.147	480.81
398.371	492.81
398.595	514.81
398.82	491.81
399.044	518.81
399.268	534.81
399.492	607.81
399.717	652.81
399.941	653.81
400.165	627.81
400.389	623.81
400.613	562.81
400.837	537.81
401.062	530.81
401.286	507.81
401.51	502.81
401.734	516.81
401.958	481.81
402.182	514.81
402.406	517.81
402.63	520.81
402.854	512.81
403.078	530.81
403.302	510.81
403.526	531.81
403.75	517.81
403.974	521.81
404.198	537.81
404.422	530.81
404.645	547.81
404.869	560.81
405.093	558.81
405.317	569.81
405.541	585.81
405.765	540.81
405.988	555.81
406.212	564.81
406.436	565.81
406.66	568.81
406.883	569.81
407.107	573.81
407.331	603.81
407.555	638.81
407.778	652.81
408.002	616.81
408.226	589.81
408.449	550.81
408.673	564.81
408.896	572.81
409.12	587.81
409.344	572.81
409.567	550.81
409.791	540.81
410.014	511.81
410.238	528.81
410.461	502.81
410.685	529.81
410.908	524.81
411.132	548.81
411.355	564.81
411.578	557.81
411.802	522.81
412.025	517.81
412.249	543.81
412.472	539.81
412.695	558.81
412.919	545.81
413.142	506.81
413.365	520.81
413.589	525.81
413.812	532.81
414.035	496.81
414.258	505.81
414.482	501.81
414.705	499.81
414.928	491.81
415.151	491.81
415.374	513.81
415.597	494.81
415.821	488.81
416.044	471.81
416.267	469.81
416.49	496.81
416.713	477.81
416.936	485.81
417.159	506.81
417.382	479.81
417.605	490.81
417.828	480.81
418.051	501.81
418.274	500.81
418.497	507.81
418.72	500.81
418.943	489.81
419.166	512.81
419.389	544.81
419.611	545.81
419.834	521.81
420.057	527.81
420.28	508.81
420.503	503.81
420.726	503.81
420.948	497.81
421.171	503.81
421.394	526.81
421.617	506.81
421.839	501.81
422.062	500.81
422.285	496.81
422.507	541.81
422.73	573.81
422.953	564.81
423.175	516.81
423.398	516.81
423.621	529.81
423.843	548.81
424.066	530.81
424.288	510.81
424.511	533.81
424.733	556.81
424.956	585.81
425.178	574.81
425.401	549.81
425.623	604.81
425.846	528.81
426.068	518.81
426.291	512.81
426.513	521.81
426.735	524.81
426.958	518.81
427.18	578.81
427.402	654.81
427.625	721.81
427.847	604.81
428.069	544.81
428.292	528.81
428.514	486.81
428.736	478.81
428.958	480.81
429.181	496.81
429.403	470.81
429.625	458.81
429.847	501.81
430.069	510.81
430.292	536.81
430.514	481.81
430.736	474.81
430.958	461.81
431.18	487.81
431.402	459.81
431.624	453.81
431.846	451.81
432.068	453.81
432.29	488.81
432.512	461.81
432.734	468.81
432.956	477.81
433.178	484.81
433.4	469.81
433.622	466.81
433.844	456.81
434.066	477.81
434.287	478.81
434.509	460.81
434.731	495.81
434.953	498.81
435.175	517.81
435.397	519.81
435.618	514.81
435.84	531.81
436.062	572.81
436.284	616.81
436.505	551.81
436.727	496.81
436.949	494.81
437.17	490.81
437.392	480.81
437.614	478.81
437.835	496.81
438.057	551.81
438.278	594.81
438.5	580.81
438.721	626.81
438.943	606.81
439.165	540.81
439.386	492.81
439.608	486.81
439.829	496.81
440.05	504.81
440.272	508.81
440.493	502.81
440.715	483.81
440.936	490.81
441.158	504.81
441.379	460.81
441.6	501.81
441.822	489.81
442.043	518.81
442.264	581.81
442.486	615.81
442.707	534.81
442.928	513.81
443.149	521.81
443.371	531.81
443.592	552.81
443.813	604.81
444.034	660.81
444.255	581.81
444.476	536.81
444.698	518.81
444.919	551.81
445.14	643.81
445.361	576.81
445.582	546.81
445.803	552.81
446.024	596.81
446.245	596.81
446.466	552.81
446.687	494.81
446.908	490.81
447.129	465.81
447.35	441.81
447.571	456.81
447.792	481.81
448.013	472.81
448.234	459.81
448.455	484.81
448.675	548.81
448.896	607.81
449.117	549.81
449.338	504.81
449.559	589.81
449.779	648.81
450	537.81
450.221	466.81
450.442	447.81
450.662	462.81
450.883	446.81
451.104	448.81
451.324	436.81
451.545	439.81
451.766	434.81
451.986	413.81
452.207	417.81
452.428	416.81
452.648	399.81
452.869	427.81
453.089	408.81
453.31	426.81
453.53	429.81
453.751	424.81
453.971	422.81
454.192	427.81
454.412	430.81
454.633	423.81
454.853	420.81
455.073	419.81
455.294	434.81
455.514	461.81
455.734	474.81
455.955	396.81
456.175	401.81
456.395	409.81
456.616	398.81
456.836	404.81
457.056	392.81
457.276	417.81
457.497	422.81
457.717	410.81
457.937	423.81
458.157	430.81
458.377	427.81
458.598	436.81
458.818	457.81
459.038	481.81
459.258	520.81
459.478	486.81
459.698	482.81
459.918	486.81
460.138	476.81
460.358	486.81
460.578	481.81
460.798	499.81
461.018	503.81
461.238	508.81
461.458	481.81
461.678	516.81
461.898	495.81
462.118	501.81
462.338	552.81
462.558	536.81
462.777	532.81
462.997	568.81
463.217	598.81
463.437	599.81
463.657	550.81
463.876	550.81
464.096	565.81
464.316	538.81
464.536	526.81
464.755	549.81
464.975	533.81
465.195	510.81
465.414	517.81
465.634	524.81
465.854	490.81
466.073	458.81
466.293	462.81
466.512	461.81
466.732	457.81
466.951	450.81
467.171	453.81
467.391	442.81
467.61	452.81
467.829	439.81
468.049	454.81
468.268	444.81
468.488	436.81
468.707	435.81
468.927	450.81
469.146	443.81
469.365	440.81
469.585	436.81
469.804	451.81
470.023	480.81
470.243	454.81
470.462	458.81
470.681	455.81
470.901	453.81
471.12	459.81
471.339	452.81
471.558	442.81
471.777	444.81
471.997	445.81
472.216	435.81
472.435	475.81
472.654	435.81
472.873	436.81
473.092	455.81
473.311	424.81
473.53	452.81
473.749	460.81
473.968	480.81
474.187	490.81
474.406	520.81
474.625	469.81
474.844	435.81
475.063	443.81
475.282	456.81
475.501	435.81
475.72	469.81
475.939	457.81
476.158	461.81
476.377	476.81
476.596	476.81
476.814	480.81
477.033	478.81
477.252	490.81
477.471	488.81
477.69	471.81
477.908	494.81
478.127	491.81
478.346	504.81
478.564	498.81
478.783	530.81
479.002	525.81
479.22	512.81
479.439	540.81
479.658	545.81
479.876	552.81
480.095	526.81
480.313	566.81
480.532	548.81
480.751	591.81
480.969	568.81
481.188	583.81
481.406	548.81
481.624	539.81
481.843	533.81
482.061	514.81
482.28	508.81
482.498	533.81
482.717	521.81
482.935	520.81
483.153	500.81
483.372	519.81
483.59	508.81
483.808	508.81
484.027	513.81
484.245	561.81
484.463	547.81
484.681	518.81
484.9	539.81
485.118	526.81
485.336	565.81
485.554	549.81
485.772	558.81
485.99	548.81
486.209	554.81
486.427	579.81
486.645	562.81
486.863	566.81
487.081	549.81
487.299	578.81
487.517	564.81
487.735	576.81
487.953	584.81
488.171	559.81
488.389	568.81
488.607	556.81
488.825	569.81
489.043	542.81
489.261	575.81
489.479	577.81
489.696	553.81
489.914	544.81
490.132	554.81
490.35	554.81
490.568	566.81
490.786	582.81
491.003	564.81
491.221	556.81
491.439	571.81
491.657	572.81
491.874	608.81
492.092	599.81
492.31	583.81
492.527	580.81
492.745	587.81
492.963	583.81
493.18	580.81
493.398	608.81
493.615	605.81
493.833	580.81
494.05	603.81
494.268	605.81
494.485	596.81
494.703	601.81
494.92	615.81
495.138	608.81
495.355	627.81
495.573	610.81
495.79	605.81
496.008	630.81
496.225	647.81
496.442	636.81
496.66	618.81
496.877	652.81
497.094	640.81
497.312	650.81
497.529	669.81
497.746	676.81
497.963	675.81
498.181	709.81
498.398	718.81
498.615	761.81
498.832	794.81
499.049	792.81
499.267	837.81
499.484	880.81
499.701	920.81
499.918	1028.81
500.135	1058.81
500.352	1111.81
500.569	1188.81
500.786	1152.81
501.003	1142.81
501.22	1069.81
501.437	1000.81
501.654	914.81
501.871	882.81
