Data from 1962.PennyLincolnUp.Lamp.En5.5.200Scan.071719.P1._HRD10591_13-55-46-061.txt Node
Date: Thu Jul 18 13:55:46 EDT 2019
User: cochatt
Spectrometer: HR+D1059
Trigger mode: 1
Integration Time (sec): 1.000000E-1
Scans to average: 1
Electric dark correction enabled: true
Nonlinearity correction enabled: false
Boxcar width: 0
XAxis mode: Wavelengths
Number of Pixels in Spectrum: 2048
>>>>>Begin Spectral Data<<<<<
223.165	-14.81
223.4	-14.81
223.635	-14.81
223.869	-18.81
224.104	-29.81
224.338	-19.81
224.573	-14.81
224.808	-8.81
225.042	-5.81
225.277	6.19
225.511	-5.81
225.746	-1.81
225.98	10.19
226.215	5.19
226.449	14.19
226.683	30.19
226.918	27.19
227.152	27.19
227.387	32.19
227.621	37.19
227.856	37.19
228.09	53.19
228.324	44.19
228.559	59.19
228.793	72.19
229.027	78.19
229.262	88.19
229.496	98.19
229.73	124.19
229.964	131.19
230.199	122.19
230.433	110.19
230.667	94.19
230.901	100.19
231.136	102.19
231.37	103.19
231.604	112.19
231.838	124.19
232.072	97.19
232.306	90.19
232.541	104.19
232.775	116.19
233.009	122.19
233.243	129.19
233.477	109.19
233.711	101.19
233.945	106.19
234.179	127.19
234.413	121.19
234.647	113.19
234.881	98.19
235.115	119.19
235.349	116.19
235.583	115.19
235.817	97.19
236.051	128.19
236.285	124.19
236.519	122.19
236.753	131.19
236.987	119.19
237.221	142.19
237.455	186.19
237.689	169.19
237.922	130.19
238.156	128.19
238.39	107.19
238.624	132.19
238.858	120.19
239.091	109.19
239.325	128.19
239.559	128.19
239.793	120.19
240.027	127.19
240.26	141.19
240.494	135.19
240.728	134.19
240.961	134.19
241.195	133.19
241.429	137.19
241.662	134.19
241.896	142.19
242.13	132.19
242.363	124.19
242.597	128.19
242.83	127.19
243.064	127.19
243.298	133.19
243.531	133.19
243.765	136.19
243.998	115.19
244.232	128.19
244.465	150.19
244.699	132.19
244.932	134.19
245.166	136.19
245.399	138.19
245.633	145.19
245.866	130.19
246.099	146.19
246.333	151.19
246.566	150.19
246.8	141.19
247.033	145.19
247.266	156.19
247.5	140.19
247.733	171.19
247.966	155.19
248.2	160.19
248.433	166.19
248.666	162.19
248.899	161.19
249.133	180.19
249.366	183.19
249.599	201.19
249.832	181.19
250.066	178.19
250.299	167.19
250.532	185.19
250.765	178.19
250.998	191.19
251.231	209.19
251.465	201.19
251.698	188.19
251.931	194.19
252.164	188.19
252.397	199.19
252.63	189.19
252.863	178.19
253.096	196.19
253.329	206.19
253.562	194.19
253.795	182.19
254.028	190.19
254.261	189.19
254.494	196.19
254.727	228.19
254.96	244.19
255.193	224.19
255.426	215.19
255.659	228.19
255.892	222.19
256.124	204.19
256.357	221.19
256.59	221.19
256.823	191.19
257.056	220.19
257.289	199.19
257.521	190.19
257.754	179.19
257.987	210.19
258.22	186.19
258.452	197.19
258.685	217.19
258.918	219.19
259.151	191.19
259.383	210.19
259.616	208.19
259.849	215.19
260.081	225.19
260.314	233.19
260.547	245.19
260.779	219.19
261.012	222.19
261.244	223.19
261.477	218.19
261.71	218.19
261.942	217.19
262.175	206.19
262.407	214.19
262.64	200.19
262.872	209.19
263.105	205.19
263.337	216.19
263.57	214.19
263.802	197.19
264.035	213.19
264.267	208.19
264.499	209.19
264.732	210.19
264.964	202.19
265.197	218.19
265.429	200.19
265.661	207.19
265.894	220.19
266.126	216.19
266.358	221.19
266.591	233.19
266.823	221.19
267.055	216.19
267.287	227.19
267.52	222.19
267.752	234.19
267.984	238.19
268.216	218.19
268.448	220.19
268.681	253.19
268.913	228.19
269.145	249.19
269.377	266.19
269.609	260.19
269.841	247.19
270.073	249.19
270.306	260.19
270.538	282.19
270.77	286.19
271.002	282.19
271.234	289.19
271.466	287.19
271.698	286.19
271.93	293.19
272.162	277.19
272.394	294.19
272.626	278.19
272.858	289.19
273.09	264.19
273.322	266.19
273.553	251.19
273.785	252.19
274.017	265.19
274.249	269.19
274.481	256.19
274.713	248.19
274.945	256.19
275.176	267.19
275.408	259.19
275.64	264.19
275.872	248.19
276.104	257.19
276.335	251.19
276.567	271.19
276.799	265.19
277.031	299.19
277.262	308.19
277.494	299.19
277.726	290.19
277.957	276.19
278.189	280.19
278.421	262.19
278.652	294.19
278.884	264.19
279.115	263.19
279.347	276.19
279.579	280.19
279.81	265.19
280.042	280.19
280.273	255.19
280.505	271.19
280.736	279.19
280.968	284.19
281.199	274.19
281.431	269.19
281.662	280.19
281.894	277.19
282.125	288.19
282.356	272.19
282.588	283.19
282.819	285.19
283.051	287.19
283.282	267.19
283.513	265.19
283.745	280.19
283.976	296.19
284.207	281.19
284.439	296.19
284.67	280.19
284.901	283.19
285.132	286.19
285.364	290.19
285.595	275.19
285.826	281.19
286.057	293.19
286.288	290.19
286.52	282.19
286.751	288.19
286.982	297.19
287.213	304.19
287.444	299.19
287.675	283.19
287.906	308.19
288.138	319.19
288.369	307.19
288.6	317.19
288.831	300.19
289.062	317.19
289.293	288.19
289.524	309.19
289.755	289.19
289.986	314.19
290.217	293.19
290.448	304.19
290.679	308.19
290.91	283.19
291.141	280.19
291.371	318.19
291.602	308.19
291.833	285.19
292.064	312.19
292.295	297.19
292.526	291.19
292.757	298.19
292.987	297.19
293.218	304.19
293.449	290.19
293.68	309.19
293.91	289.19
294.141	300.19
294.372	312.19
294.603	304.19
294.833	324.19
295.064	310.19
295.295	299.19
295.525	302.19
295.756	311.19
295.987	312.19
296.217	327.19
296.448	307.19
296.679	308.19
296.909	316.19
297.14	322.19
297.37	323.19
297.601	325.19
297.831	331.19
298.062	320.19
298.292	305.19
298.523	320.19
298.753	325.19
298.984	318.19
299.214	325.19
299.445	317.19
299.675	318.19
299.905	331.19
300.136	317.19
300.366	340.19
300.597	317.19
300.827	333.19
301.057	331.19
301.288	334.19
301.518	339.19
301.748	340.19
301.979	339.19
302.209	342.19
302.439	352.19
302.669	344.19
302.9	328.19
303.13	337.19
303.36	340.19
303.59	340.19
303.82	358.19
304.051	339.19
304.281	342.19
304.511	333.19
304.741	336.19
304.971	340.19
305.201	347.19
305.431	327.19
305.661	333.19
305.891	339.19
306.121	333.19
306.352	338.19
306.582	328.19
306.812	339.19
307.042	347.19
307.272	342.19
307.502	346.19
307.731	334.19
307.961	348.19
308.191	314.19
308.421	327.19
308.651	341.19
308.881	344.19
309.111	361.19
309.341	338.19
309.571	354.19
309.8	361.19
310.03	385.19
310.26	366.19
310.49	368.19
310.72	373.19
310.949	372.19
311.179	381.19
311.409	368.19
311.639	390.19
311.868	375.19
312.098	381.19
312.328	361.19
312.557	394.19
312.787	384.19
313.017	383.19
313.246	402.19
313.476	365.19
313.706	361.19
313.935	378.19
314.165	376.19
314.394	379.19
314.624	392.19
314.853	385.19
315.083	384.19
315.312	392.19
315.542	386.19
315.771	372.19
316.001	377.19
316.23	372.19
316.46	387.19
316.689	372.19
316.919	387.19
317.148	381.19
317.377	383.19
317.607	375.19
317.836	396.19
318.065	375.19
318.295	379.19
318.524	373.19
318.753	364.19
318.983	376.19
319.212	379.19
319.441	387.19
319.67	391.19
319.9	389.19
320.129	381.19
320.358	385.19
320.587	399.19
320.816	376.19
321.046	393.19
321.275	394.19
321.504	408.19
321.733	399.19
321.962	397.19
322.191	400.19
322.42	424.19
322.649	433.19
322.878	422.19
323.108	437.19
323.337	432.19
323.566	457.19
323.795	432.19
324.024	501.19
324.253	582.19
324.482	749.19
324.71	1090.19
324.939	1612.19
325.168	1398.19
325.397	778.19
325.626	555.19
325.855	511.19
326.084	468.19
326.313	457.19
326.542	472.19
326.77	487.19
326.999	556.19
327.228	732.19
327.457	1019.19
327.686	1217.19
327.914	851.19
328.143	611.19
328.372	531.19
328.6	508.19
328.829	525.19
329.058	506.19
329.287	509.19
329.515	494.19
329.744	498.19
329.972	491.19
330.201	491.19
330.43	508.19
330.658	509.19
330.887	554.19
331.115	544.19
331.344	480.19
331.572	474.19
331.801	475.19
332.03	452.19
332.258	490.19
332.486	492.19
332.715	448.19
332.943	457.19
333.172	461.19
333.4	481.19
333.629	481.19
333.857	518.19
334.085	486.19
334.314	510.19
334.542	510.19
334.771	532.19
334.999	513.19
335.227	491.19
335.455	486.19
335.684	451.19
335.912	472.19
336.14	468.19
336.369	468.19
336.597	457.19
336.825	458.19
337.053	450.19
337.281	441.19
337.51	421.19
337.738	450.19
337.966	424.19
338.194	444.19
338.422	449.19
338.65	459.19
338.878	465.19
339.106	470.19
339.334	429.19
339.562	421.19
339.79	407.19
340.018	432.19
340.246	430.19
340.474	425.19
340.702	413.19
340.93	429.19
341.158	425.19
341.386	436.19
341.614	436.19
341.842	418.19
342.07	418.19
342.298	398.19
342.526	416.19
342.754	427.19
342.981	418.19
343.209	412.19
343.437	446.19
343.665	456.19
343.893	460.19
344.12	468.19
344.348	484.19
344.576	445.19
344.804	457.19
345.031	445.19
345.259	464.19
345.487	434.19
345.714	442.19
345.942	407.19
346.17	414.19
346.397	412.19
346.625	430.19
346.853	431.19
347.08	416.19
347.308	410.19
347.535	395.19
347.763	425.19
347.99	415.19
348.218	413.19
348.445	422.19
348.673	434.19
348.9	408.19
349.128	418.19
349.355	424.19
349.583	401.19
349.81	405.19
350.037	395.19
350.265	402.19
350.492	394.19
350.72	393.19
350.947	406.19
351.174	418.19
351.402	415.19
351.629	416.19
351.856	399.19
352.083	443.19
352.311	414.19
352.538	429.19
352.765	416.19
352.992	406.19
353.22	397.19
353.447	392.19
353.674	397.19
353.901	403.19
354.128	397.19
354.355	411.19
354.583	396.19
354.81	394.19
355.037	408.19
355.264	388.19
355.491	373.19
355.718	396.19
355.945	385.19
356.172	388.19
356.399	394.19
356.626	406.19
356.853	394.19
357.08	408.19
357.307	399.19
357.534	401.19
357.761	399.19
357.988	372.19
358.215	371.19
358.441	403.19
358.668	405.19
358.895	393.19
359.122	390.19
359.349	412.19
359.576	421.19
359.802	425.19
360.029	436.19
360.256	436.19
360.483	398.19
360.709	402.19
360.936	404.19
361.163	426.19
361.39	441.19
361.616	418.19
361.843	423.19
362.07	397.19
362.296	411.19
362.523	402.19
362.749	408.19
362.976	425.19
363.203	391.19
363.429	392.19
363.656	396.19
363.882	416.19
364.109	417.19
364.335	374.19
364.562	401.19
364.788	401.19
365.015	409.19
365.241	397.19
365.468	404.19
365.694	398.19
365.92	408.19
366.147	405.19
366.373	422.19
366.599	392.19
366.826	385.19
367.052	408.19
367.278	402.19
367.505	397.19
367.731	390.19
367.957	389.19
368.184	428.19
368.41	402.19
368.636	408.19
368.862	420.19
369.089	392.19
369.315	397.19
369.541	392.19
369.767	417.19
369.993	384.19
370.219	398.19
370.445	405.19
370.672	403.19
370.898	407.19
371.124	394.19
371.35	416.19
371.576	389.19
371.802	406.19
372.028	390.19
372.254	399.19
372.48	406.19
372.706	424.19
372.932	408.19
373.158	424.19
373.384	414.19
373.61	405.19
373.835	409.19
374.061	402.19
374.287	402.19
374.513	416.19
374.739	418.19
374.965	433.19
375.191	427.19
375.416	438.19
375.642	421.19
375.868	424.19
376.094	403.19
376.319	409.19
376.545	411.19
376.771	396.19
376.997	412.19
377.222	416.19
377.448	417.19
377.674	386.19
377.899	412.19
378.125	405.19
378.35	398.19
378.576	403.19
378.802	404.19
379.027	410.19
379.253	403.19
379.478	424.19
379.704	401.19
379.929	410.19
380.155	404.19
380.38	412.19
380.606	398.19
380.831	401.19
381.057	396.19
381.282	415.19
381.507	420.19
381.733	407.19
381.958	426.19
382.184	427.19
382.409	435.19
382.634	422.19
382.86	406.19
383.085	439.19
383.31	436.19
383.535	424.19
383.761	426.19
383.986	442.19
384.211	448.19
384.436	461.19
384.662	443.19
384.887	459.19
385.112	481.19
385.337	440.19
385.562	468.19
385.787	448.19
386.013	459.19
386.238	458.19
386.463	454.19
386.688	474.19
386.913	462.19
387.138	458.19
387.363	460.19
387.588	478.19
387.813	454.19
388.038	433.19
388.263	456.19
388.488	458.19
388.713	451.19
388.938	459.19
389.163	458.19
389.387	456.19
389.612	434.19
389.837	455.19
390.062	462.19
390.287	455.19
390.512	459.19
390.736	435.19
390.961	481.19
391.186	462.19
391.411	481.19
391.636	500.19
391.86	495.19
392.085	502.19
392.31	493.19
392.534	499.19
392.759	492.19
392.984	462.19
393.208	485.19
393.433	498.19
393.658	483.19
393.882	470.19
394.107	501.19
394.331	484.19
394.556	509.19
394.78	484.19
395.005	472.19
395.229	471.19
395.454	484.19
395.678	497.19
395.903	506.19
396.127	508.19
396.352	501.19
396.576	474.19
396.801	496.19
397.025	484.19
397.249	475.19
397.474	504.19
397.698	514.19
397.922	493.19
398.147	507.19
398.371	529.19
398.595	517.19
398.82	510.19
399.044	560.19
399.268	605.19
399.492	638.19
399.717	670.19
399.941	695.19
400.165	693.19
400.389	689.19
400.613	612.19
400.837	587.19
401.062	564.19
401.286	556.19
401.51	570.19
401.734	541.19
401.958	544.19
402.182	550.19
402.406	552.19
402.63	553.19
402.854	557.19
403.078	556.19
403.302	565.19
403.526	572.19
403.75	568.19
403.974	590.19
404.198	584.19
404.422	564.19
404.645	568.19
404.869	583.19
405.093	606.19
405.317	630.19
405.541	666.19
405.765	614.19
405.988	606.19
406.212	590.19
406.436	583.19
406.66	641.19
406.883	616.19
407.107	662.19
407.331	669.19
407.555	723.19
407.778	722.19
408.002	662.19
408.226	624.19
408.449	635.19
408.673	635.19
408.896	647.19
409.12	666.19
409.344	638.19
409.567	633.19
409.791	599.19
410.014	605.19
410.238	597.19
410.461	591.19
410.685	599.19
410.908	571.19
411.132	627.19
411.355	649.19
411.578	598.19
411.802	560.19
412.025	543.19
412.249	581.19
412.472	594.19
412.695	624.19
412.919	608.19
413.142	554.19
413.365	557.19
413.589	543.19
413.812	536.19
414.035	546.19
414.258	556.19
414.482	553.19
414.705	541.19
414.928	529.19
415.151	531.19
415.374	503.19
415.597	528.19
415.821	516.19
416.044	532.19
416.267	554.19
416.49	529.19
416.713	525.19
416.936	529.19
417.159	519.19
417.382	537.19
417.605	549.19
417.828	542.19
418.051	545.19
418.274	570.19
418.497	547.19
418.72	514.19
418.943	542.19
419.166	545.19
419.389	608.19
419.611	579.19
419.834	573.19
420.057	582.19
420.28	568.19
420.503	580.19
420.726	562.19
420.948	554.19
421.171	574.19
421.394	614.19
421.617	564.19
421.839	568.19
422.062	534.19
422.285	570.19
422.507	603.19
422.73	650.19
422.953	652.19
423.175	578.19
423.398	572.19
423.621	566.19
423.843	589.19
424.066	587.19
424.288	588.19
424.511	609.19
424.733	659.19
424.956	699.19
425.178	681.19
425.401	673.19
425.623	672.19
425.846	581.19
426.068	547.19
426.291	576.19
426.513	569.19
426.735	582.19
426.958	583.19
427.18	643.19
427.402	759.19
427.625	852.19
427.847	719.19
428.069	645.19
428.292	592.19
428.514	536.19
428.736	547.19
428.958	527.19
429.181	533.19
429.403	526.19
429.625	546.19
429.847	552.19
430.069	592.19
430.292	586.19
430.514	544.19
430.736	527.19
430.958	545.19
431.18	511.19
431.402	527.19
431.624	500.19
431.846	522.19
432.068	507.19
432.29	527.19
432.512	506.19
432.734	500.19
432.956	508.19
433.178	525.19
433.4	516.19
433.622	508.19
433.844	522.19
434.066	500.19
434.287	520.19
434.509	517.19
434.731	516.19
434.953	541.19
435.175	560.19
435.397	568.19
435.618	570.19
435.84	591.19
436.062	670.19
436.284	714.19
436.505	621.19
436.727	557.19
436.949	538.19
437.17	532.19
437.392	533.19
437.614	523.19
437.835	556.19
438.057	599.19
438.278	673.19
438.5	700.19
438.721	755.19
438.943	742.19
439.165	605.19
439.386	570.19
439.608	552.19
439.829	572.19
440.05	576.19
440.272	613.19
440.493	587.19
440.715	572.19
440.936	521.19
441.158	537.19
441.379	538.19
441.6	558.19
441.822	572.19
442.043	603.19
442.264	667.19
442.486	709.19
442.707	591.19
442.928	572.19
443.149	597.19
443.371	594.19
443.592	615.19
443.813	699.19
444.034	769.19
444.255	647.19
444.476	608.19
444.698	604.19
444.919	600.19
445.14	724.19
445.361	667.19
445.582	597.19
445.803	653.19
446.024	713.19
446.245	714.19
446.466	666.19
446.687	599.19
446.908	539.19
447.129	517.19
447.35	524.19
447.571	530.19
447.792	498.19
448.013	510.19
448.234	535.19
448.455	547.19
448.675	662.19
448.896	745.19
449.117	627.19
449.338	593.19
449.559	689.19
449.779	780.19
450	640.19
450.221	527.19
450.442	512.19
450.662	474.19
450.883	482.19
451.104	520.19
451.324	512.19
451.545	515.19
451.766	445.19
451.986	481.19
452.207	472.19
452.428	472.19
452.648	475.19
452.869	445.19
453.089	465.19
453.31	474.19
453.53	467.19
453.751	471.19
453.971	447.19
454.192	455.19
454.412	464.19
454.633	445.19
454.853	459.19
455.073	465.19
455.294	480.19
455.514	534.19
455.734	525.19
455.955	471.19
456.175	428.19
456.395	424.19
456.616	450.19
456.836	478.19
457.056	446.19
457.276	444.19
457.497	449.19
457.717	434.19
457.937	447.19
458.157	466.19
458.377	450.19
458.598	476.19
458.818	494.19
459.038	563.19
459.258	586.19
459.478	530.19
459.698	526.19
459.918	519.19
460.138	540.19
460.358	536.19
460.578	545.19
460.798	550.19
461.018	549.19
461.238	545.19
461.458	530.19
461.678	518.19
461.898	552.19
462.118	533.19
462.338	577.19
462.558	594.19
462.777	606.19
462.997	613.19
463.217	619.19
463.437	648.19
463.657	633.19
463.876	589.19
464.096	566.19
464.316	564.19
464.536	609.19
464.755	603.19
464.975	585.19
465.195	580.19
465.414	601.19
465.634	564.19
465.854	530.19
466.073	534.19
466.293	493.19
466.512	463.19
466.732	491.19
466.951	497.19
467.171	484.19
467.391	491.19
467.61	501.19
467.829	501.19
468.049	480.19
468.268	478.19
468.488	470.19
468.707	464.19
468.927	466.19
469.146	501.19
469.365	470.19
469.585	451.19
469.804	506.19
470.023	491.19
470.243	489.19
470.462	515.19
470.681	516.19
470.901	490.19
471.12	505.19
471.339	451.19
471.558	498.19
471.777	502.19
471.997	481.19
472.216	487.19
472.435	500.19
472.654	477.19
472.873	468.19
473.092	474.19
473.311	475.19
473.53	472.19
473.749	502.19
473.968	541.19
474.187	592.19
474.406	613.19
474.625	500.19
474.844	484.19
475.063	485.19
475.282	507.19
475.501	490.19
475.72	498.19
475.939	481.19
476.158	486.19
476.377	482.19
476.596	490.19
476.814	500.19
477.033	530.19
477.252	510.19
477.471	524.19
477.69	512.19
477.908	514.19
478.127	535.19
478.346	523.19
478.564	554.19
478.783	562.19
479.002	567.19
479.22	571.19
479.439	570.19
479.658	574.19
479.876	591.19
480.095	586.19
480.313	629.19
480.532	616.19
480.751	606.19
480.969	612.19
481.188	642.19
481.406	629.19
481.624	602.19
481.843	590.19
482.061	568.19
482.28	588.19
482.498	564.19
482.717	565.19
482.935	555.19
483.153	565.19
483.372	566.19
483.59	578.19
483.808	565.19
484.027	580.19
484.245	550.19
484.463	551.19
484.681	600.19
484.9	587.19
485.118	573.19
485.336	565.19
485.554	602.19
485.772	589.19
485.99	590.19
486.209	576.19
486.427	586.19
486.645	585.19
486.863	614.19
487.081	613.19
487.299	593.19
487.517	606.19
487.735	605.19
487.953	611.19
488.171	593.19
488.389	589.19
488.607	587.19
488.825	598.19
489.043	563.19
489.261	597.19
489.479	601.19
489.696	605.19
489.914	630.19
490.132	600.19
490.35	632.19
490.568	621.19
490.786	631.19
491.003	627.19
491.221	659.19
491.439	638.19
491.657	660.19
491.874	662.19
492.092	665.19
492.31	663.19
492.527	669.19
492.745	686.19
492.963	669.19
493.18	658.19
493.398	667.19
493.615	676.19
493.833	680.19
494.05	688.19
494.268	692.19
494.485	692.19
494.703	661.19
494.92	681.19
495.138	681.19
495.355	673.19
495.573	701.19
495.79	696.19
496.008	724.19
496.225	672.19
496.442	678.19
496.66	700.19
496.877	701.19
497.094	714.19
497.312	714.19
497.529	718.19
497.746	757.19
497.963	778.19
498.181	787.19
498.398	791.19
498.615	836.19
498.832	865.19
499.049	846.19
499.267	896.19
499.484	955.19
499.701	996.19
499.918	1060.19
500.135	1127.19
500.352	1194.19
500.569	1263.19
500.786	1231.19
501.003	1197.19
501.22	1138.19
501.437	1085.19
501.654	1048.19
501.871	990.19
