Data from 1962.PennyLincolnUp.Lamp.En5.5.200Scan.071719.P1._HRD10591_13-53-25-060.txt Node
Date: Thu Jul 18 13:53:25 EDT 2019
User: cochatt
Spectrometer: HR+D1059
Trigger mode: 1
Integration Time (sec): 1.000000E-1
Scans to average: 1
Electric dark correction enabled: true
Nonlinearity correction enabled: false
Boxcar width: 0
XAxis mode: Wavelengths
Number of Pixels in Spectrum: 2048
>>>>>Begin Spectral Data<<<<<
223.165	-15.25
223.4	-15.25
223.635	-15.25
223.869	-15.25
224.104	-16.25
224.338	-12.25
224.573	-12.25
224.808	-10.25
225.042	-17.25
225.277	-14.25
225.511	0.75
225.746	17.75
225.98	4.75
226.215	11.75
226.449	23.75
226.683	13.75
226.918	13.75
227.152	26.75
227.387	13.75
227.621	36.75
227.856	51.75
228.09	38.75
228.324	42.75
228.559	57.75
228.793	59.75
229.027	89.75
229.262	88.75
229.496	92.75
229.73	108.75
229.964	115.75
230.199	105.75
230.433	97.75
230.667	108.75
230.901	99.75
231.136	103.75
231.37	103.75
231.604	104.75
231.838	119.75
232.072	101.75
232.306	98.75
232.541	116.75
232.775	120.75
233.009	93.75
233.243	117.75
233.477	105.75
233.711	121.75
233.945	111.75
234.179	103.75
234.413	121.75
234.647	113.75
234.881	91.75
235.115	102.75
235.349	113.75
235.583	106.75
235.817	113.75
236.051	118.75
236.285	108.75
236.519	120.75
236.753	105.75
236.987	113.75
237.221	139.75
237.455	162.75
237.689	142.75
237.922	133.75
238.156	133.75
238.39	124.75
238.624	117.75
238.858	113.75
239.091	97.75
239.325	124.75
239.559	123.75
239.793	116.75
240.027	132.75
240.26	125.75
240.494	132.75
240.728	132.75
240.961	117.75
241.195	132.75
241.429	131.75
241.662	126.75
241.896	116.75
242.13	126.75
242.363	116.75
242.597	132.75
242.83	123.75
243.064	127.75
243.298	137.75
243.531	117.75
243.765	132.75
243.998	137.75
244.232	128.75
244.465	149.75
244.699	138.75
244.932	137.75
245.166	150.75
245.399	143.75
245.633	132.75
245.866	135.75
246.099	125.75
246.333	135.75
246.566	134.75
246.8	132.75
247.033	144.75
247.266	135.75
247.5	148.75
247.733	158.75
247.966	164.75
248.2	155.75
248.433	151.75
248.666	148.75
248.899	176.75
249.133	163.75
249.366	171.75
249.599	171.75
249.832	159.75
250.066	155.75
250.299	164.75
250.532	156.75
250.765	171.75
250.998	171.75
251.231	183.75
251.465	163.75
251.698	183.75
251.931	179.75
252.164	182.75
252.397	168.75
252.63	186.75
252.863	195.75
253.096	198.75
253.329	198.75
253.562	187.75
253.795	182.75
254.028	192.75
254.261	204.75
254.494	202.75
254.727	200.75
254.96	218.75
255.193	223.75
255.426	212.75
255.659	189.75
255.892	206.75
256.124	184.75
256.357	192.75
256.59	204.75
256.823	201.75
257.056	190.75
257.289	194.75
257.521	199.75
257.754	192.75
257.987	193.75
258.22	191.75
258.452	184.75
258.685	197.75
258.918	181.75
259.151	171.75
259.383	185.75
259.616	197.75
259.849	208.75
260.081	211.75
260.314	209.75
260.547	208.75
260.779	199.75
261.012	201.75
261.244	215.75
261.477	205.75
261.71	177.75
261.942	191.75
262.175	199.75
262.407	190.75
262.64	189.75
262.872	181.75
263.105	196.75
263.337	197.75
263.57	185.75
263.802	217.75
264.035	202.75
264.267	197.75
264.499	187.75
264.732	199.75
264.964	180.75
265.197	204.75
265.429	202.75
265.661	198.75
265.894	209.75
266.126	211.75
266.358	233.75
266.591	202.75
266.823	215.75
267.055	194.75
267.287	203.75
267.52	210.75
267.752	214.75
267.984	209.75
268.216	216.75
268.448	213.75
268.681	225.75
268.913	210.75
269.145	226.75
269.377	235.75
269.609	229.75
269.841	232.75
270.073	249.75
270.306	257.75
270.538	261.75
270.77	269.75
271.002	259.75
271.234	265.75
271.466	256.75
271.698	256.75
271.93	256.75
272.162	280.75
272.394	260.75
272.626	256.75
272.858	247.75
273.09	241.75
273.322	246.75
273.553	229.75
273.785	244.75
274.017	229.75
274.249	257.75
274.481	257.75
274.713	254.75
274.945	244.75
275.176	232.75
275.408	251.75
275.64	239.75
275.872	240.75
276.104	254.75
276.335	249.75
276.567	247.75
276.799	260.75
277.031	263.75
277.262	281.75
277.494	275.75
277.726	255.75
277.957	271.75
278.189	259.75
278.421	272.75
278.652	255.75
278.884	249.75
279.115	245.75
279.347	250.75
279.579	258.75
279.81	247.75
280.042	260.75
280.273	239.75
280.505	276.75
280.736	241.75
280.968	256.75
281.199	269.75
281.431	283.75
281.662	255.75
281.894	263.75
282.125	264.75
282.356	275.75
282.588	282.75
282.819	286.75
283.051	258.75
283.282	279.75
283.513	273.75
283.745	263.75
283.976	277.75
284.207	294.75
284.439	271.75
284.67	273.75
284.901	261.75
285.132	269.75
285.364	267.75
285.595	270.75
285.826	285.75
286.057	288.75
286.288	268.75
286.52	259.75
286.751	270.75
286.982	279.75
287.213	273.75
287.444	284.75
287.675	287.75
287.906	289.75
288.138	287.75
288.369	291.75
288.6	283.75
288.831	293.75
289.062	283.75
289.293	300.75
289.524	285.75
289.755	275.75
289.986	294.75
290.217	268.75
290.448	278.75
290.679	310.75
290.91	297.75
291.141	280.75
291.371	297.75
291.602	282.75
291.833	292.75
292.064	275.75
292.295	263.75
292.526	281.75
292.757	290.75
292.987	292.75
293.218	264.75
293.449	278.75
293.68	279.75
293.91	278.75
294.141	277.75
294.372	288.75
294.603	283.75
294.833	311.75
295.064	277.75
295.295	310.75
295.525	287.75
295.756	292.75
295.987	298.75
296.217	293.75
296.448	307.75
296.679	283.75
296.909	289.75
297.14	301.75
297.37	292.75
297.601	305.75
297.831	293.75
298.062	297.75
298.292	311.75
298.523	307.75
298.753	303.75
298.984	285.75
299.214	306.75
299.445	301.75
299.675	310.75
299.905	288.75
300.136	301.75
300.366	307.75
300.597	321.75
300.827	308.75
301.057	306.75
301.288	308.75
301.518	309.75
301.748	293.75
301.979	311.75
302.209	305.75
302.439	320.75
302.669	313.75
302.9	312.75
303.13	318.75
303.36	333.75
303.59	327.75
303.82	320.75
304.051	335.75
304.281	307.75
304.511	327.75
304.741	328.75
304.971	330.75
305.201	331.75
305.431	331.75
305.661	332.75
305.891	331.75
306.121	323.75
306.352	333.75
306.582	324.75
306.812	339.75
307.042	327.75
307.272	325.75
307.502	333.75
307.731	322.75
307.961	333.75
308.191	317.75
308.421	321.75
308.651	313.75
308.881	328.75
309.111	322.75
309.341	328.75
309.571	320.75
309.8	336.75
310.03	326.75
310.26	332.75
310.49	347.75
310.72	349.75
310.949	345.75
311.179	361.75
311.409	347.75
311.639	360.75
311.868	357.75
312.098	338.75
312.328	367.75
312.557	349.75
312.787	358.75
313.017	343.75
313.246	353.75
313.476	341.75
313.706	364.75
313.935	357.75
314.165	382.75
314.394	369.75
314.624	371.75
314.853	377.75
315.083	351.75
315.312	358.75
315.542	337.75
315.771	365.75
316.001	360.75
316.23	361.75
316.46	357.75
316.689	348.75
316.919	349.75
317.148	385.75
317.377	368.75
317.607	373.75
317.836	361.75
318.065	349.75
318.295	362.75
318.524	340.75
318.753	369.75
318.983	379.75
319.212	352.75
319.441	347.75
319.67	357.75
319.9	348.75
320.129	336.75
320.358	347.75
320.587	357.75
320.816	373.75
321.046	373.75
321.275	401.75
321.504	362.75
321.733	367.75
321.962	373.75
322.191	368.75
322.42	367.75
322.649	385.75
322.878	405.75
323.108	373.75
323.337	386.75
323.566	423.75
323.795	424.75
324.024	480.75
324.253	475.75
324.482	615.75
324.71	899.75
324.939	1199.75
325.168	1085.75
325.397	620.75
325.626	510.75
325.855	439.75
326.084	424.75
326.313	445.75
326.542	429.75
326.77	440.75
326.999	479.75
327.228	592.75
327.457	808.75
327.686	956.75
327.914	666.75
328.143	505.75
328.372	475.75
328.6	469.75
328.829	440.75
329.058	456.75
329.287	428.75
329.515	431.75
329.744	437.75
329.972	423.75
330.201	438.75
330.43	461.75
330.658	446.75
330.887	465.75
331.115	456.75
331.344	440.75
331.572	437.75
331.801	436.75
332.03	440.75
332.258	444.75
332.486	452.75
332.715	424.75
332.943	443.75
333.172	458.75
333.4	446.75
333.629	446.75
333.857	479.75
334.085	457.75
334.314	474.75
334.542	492.75
334.771	497.75
334.999	473.75
335.227	458.75
335.455	470.75
335.684	444.75
335.912	447.75
336.14	424.75
336.369	440.75
336.597	433.75
336.825	438.75
337.053	423.75
337.281	445.75
337.51	426.75
337.738	422.75
337.966	429.75
338.194	426.75
338.422	425.75
338.65	422.75
338.878	440.75
339.106	403.75
339.334	404.75
339.562	408.75
339.79	416.75
340.018	423.75
340.246	406.75
340.474	404.75
340.702	404.75
340.93	400.75
341.158	393.75
341.386	403.75
341.614	395.75
341.842	413.75
342.07	413.75
342.298	412.75
342.526	392.75
342.754	397.75
342.981	402.75
343.209	409.75
343.437	419.75
343.665	423.75
343.893	428.75
344.12	440.75
344.348	444.75
344.576	434.75
344.804	414.75
345.031	429.75
345.259	407.75
345.487	392.75
345.714	397.75
345.942	386.75
346.17	390.75
346.397	394.75
346.625	400.75
346.853	373.75
347.08	391.75
347.308	409.75
347.535	402.75
347.763	401.75
347.99	385.75
348.218	403.75
348.445	397.75
348.673	409.75
348.9	393.75
349.128	359.75
349.355	371.75
349.583	375.75
349.81	391.75
350.037	377.75
350.265	400.75
350.492	396.75
350.72	399.75
350.947	373.75
351.174	387.75
351.402	387.75
351.629	380.75
351.856	381.75
352.083	399.75
352.311	394.75
352.538	375.75
352.765	372.75
352.992	374.75
353.22	376.75
353.447	388.75
353.674	377.75
353.901	391.75
354.128	395.75
354.355	353.75
354.583	383.75
354.81	385.75
355.037	379.75
355.264	361.75
355.491	393.75
355.718	373.75
355.945	363.75
356.172	362.75
356.399	369.75
356.626	369.75
356.853	363.75
357.08	381.75
357.307	356.75
357.534	383.75
357.761	385.75
357.988	370.75
358.215	388.75
358.441	390.75
358.668	381.75
358.895	385.75
359.122	343.75
359.349	374.75
359.576	396.75
359.802	381.75
360.029	381.75
360.256	397.75
360.483	400.75
360.709	375.75
360.936	377.75
361.163	373.75
361.39	390.75
361.616	391.75
361.843	372.75
362.07	368.75
362.296	395.75
362.523	369.75
362.749	373.75
362.976	392.75
363.203	395.75
363.429	385.75
363.656	387.75
363.882	385.75
364.109	381.75
364.335	376.75
364.562	368.75
364.788	383.75
365.015	359.75
365.241	367.75
365.468	377.75
365.694	374.75
365.92	385.75
366.147	372.75
366.373	377.75
366.599	380.75
366.826	373.75
367.052	368.75
367.278	360.75
367.505	377.75
367.731	381.75
367.957	381.75
368.184	383.75
368.41	377.75
368.636	381.75
368.862	375.75
369.089	384.75
369.315	386.75
369.541	361.75
369.767	383.75
369.993	372.75
370.219	376.75
370.445	399.75
370.672	376.75
370.898	369.75
371.124	400.75
371.35	377.75
371.576	368.75
371.802	394.75
372.028	377.75
372.254	399.75
372.48	407.75
372.706	384.75
372.932	414.75
373.158	394.75
373.384	436.75
373.61	385.75
373.835	403.75
374.061	403.75
374.287	411.75
374.513	408.75
374.739	420.75
374.965	398.75
375.191	394.75
375.416	410.75
375.642	390.75
375.868	390.75
376.094	394.75
376.319	385.75
376.545	403.75
376.771	385.75
376.997	388.75
377.222	385.75
377.448	391.75
377.674	375.75
377.899	397.75
378.125	377.75
378.35	376.75
378.576	381.75
378.802	380.75
379.027	385.75
379.253	400.75
379.478	380.75
379.704	377.75
379.929	399.75
380.155	375.75
380.38	388.75
380.606	397.75
380.831	389.75
381.057	396.75
381.282	379.75
381.507	374.75
381.733	392.75
381.958	373.75
382.184	372.75
382.409	400.75
382.634	403.75
382.86	400.75
383.085	411.75
383.31	416.75
383.535	419.75
383.761	410.75
383.986	421.75
384.211	403.75
384.436	422.75
384.662	428.75
384.887	439.75
385.112	447.75
385.337	439.75
385.562	436.75
385.787	459.75
386.013	447.75
386.238	434.75
386.463	453.75
386.688	449.75
386.913	421.75
387.138	443.75
387.363	465.75
387.588	451.75
387.813	443.75
388.038	438.75
388.263	458.75
388.488	452.75
388.713	433.75
388.938	444.75
389.163	454.75
389.387	457.75
389.612	421.75
389.837	434.75
390.062	459.75
390.287	449.75
390.512	448.75
390.736	433.75
390.961	450.75
391.186	452.75
391.411	454.75
391.636	468.75
391.86	469.75
392.085	467.75
392.31	470.75
392.534	465.75
392.759	436.75
392.984	465.75
393.208	486.75
393.433	460.75
393.658	460.75
393.882	456.75
394.107	449.75
394.331	451.75
394.556	448.75
394.78	460.75
395.005	473.75
395.229	442.75
395.454	488.75
395.678	487.75
395.903	487.75
396.127	478.75
396.352	502.75
396.576	469.75
396.801	470.75
397.025	474.75
397.249	476.75
397.474	464.75
397.698	501.75
397.922	481.75
398.147	501.75
398.371	491.75
398.595	507.75
398.82	517.75
399.044	525.75
399.268	578.75
399.492	593.75
399.717	668.75
399.941	678.75
400.165	658.75
400.389	646.75
400.613	593.75
400.837	565.75
401.062	537.75
401.286	562.75
401.51	524.75
401.734	515.75
401.958	559.75
402.182	523.75
402.406	543.75
402.63	535.75
402.854	530.75
403.078	536.75
403.302	553.75
403.526	564.75
403.75	554.75
403.974	561.75
404.198	571.75
404.422	568.75
404.645	586.75
404.869	552.75
405.093	572.75
405.317	613.75
405.541	632.75
405.765	588.75
405.988	569.75
406.212	569.75
406.436	580.75
406.66	595.75
406.883	569.75
407.107	631.75
407.331	674.75
407.555	692.75
407.778	677.75
408.002	634.75
408.226	617.75
408.449	608.75
408.673	589.75
408.896	587.75
409.12	640.75
409.344	612.75
409.567	568.75
409.791	539.75
410.014	552.75
410.238	537.75
410.461	564.75
410.685	547.75
410.908	575.75
411.132	573.75
411.355	610.75
411.578	572.75
411.802	563.75
412.025	544.75
412.249	548.75
412.472	569.75
412.695	570.75
412.919	547.75
413.142	537.75
413.365	531.75
413.589	522.75
413.812	518.75
414.035	506.75
414.258	524.75
414.482	535.75
414.705	525.75
414.928	507.75
415.151	502.75
415.374	499.75
415.597	504.75
415.821	520.75
416.044	511.75
416.267	502.75
416.49	505.75
416.713	491.75
416.936	503.75
417.159	485.75
417.382	500.75
417.605	492.75
417.828	513.75
418.051	536.75
418.274	511.75
418.497	517.75
418.72	506.75
418.943	525.75
419.166	547.75
419.389	546.75
419.611	554.75
419.834	549.75
420.057	555.75
420.28	508.75
420.503	524.75
420.726	531.75
420.948	551.75
421.171	540.75
421.394	566.75
421.617	545.75
421.839	514.75
422.062	551.75
422.285	529.75
422.507	552.75
422.73	615.75
422.953	602.75
423.175	554.75
423.398	553.75
423.621	531.75
423.843	559.75
424.066	574.75
424.288	553.75
424.511	566.75
424.733	603.75
424.956	634.75
425.178	593.75
425.401	609.75
425.623	620.75
425.846	556.75
426.068	529.75
426.291	523.75
426.513	529.75
426.735	557.75
426.958	561.75
427.18	604.75
427.402	687.75
427.625	729.75
427.847	639.75
428.069	570.75
428.292	557.75
428.514	518.75
428.736	511.75
428.958	509.75
429.181	515.75
429.403	503.75
429.625	495.75
429.847	508.75
430.069	528.75
430.292	559.75
430.514	497.75
430.736	483.75
430.958	490.75
431.18	492.75
431.402	483.75
431.624	483.75
431.846	486.75
432.068	484.75
432.29	503.75
432.512	488.75
432.734	495.75
432.956	480.75
433.178	476.75
433.4	514.75
433.622	477.75
433.844	494.75
434.066	483.75
434.287	482.75
434.509	497.75
434.731	501.75
434.953	525.75
435.175	511.75
435.397	519.75
435.618	529.75
435.84	572.75
436.062	626.75
436.284	652.75
436.505	531.75
436.727	546.75
436.949	513.75
437.17	515.75
437.392	490.75
437.614	497.75
437.835	521.75
438.057	545.75
438.278	611.75
438.5	625.75
438.721	691.75
438.943	671.75
439.165	544.75
439.386	487.75
439.608	525.75
439.829	502.75
440.05	504.75
440.272	557.75
440.493	541.75
440.715	507.75
440.936	503.75
441.158	490.75
441.379	503.75
441.6	521.75
441.822	523.75
442.043	567.75
442.264	595.75
442.486	616.75
442.707	569.75
442.928	564.75
443.149	552.75
443.371	561.75
443.592	594.75
443.813	650.75
444.034	693.75
444.255	601.75
444.476	559.75
444.698	566.75
444.919	595.75
445.14	651.75
445.361	599.75
445.582	569.75
445.803	571.75
446.024	661.75
446.245	644.75
446.466	616.75
446.687	542.75
446.908	516.75
447.129	518.75
447.35	498.75
447.571	465.75
447.792	470.75
448.013	485.75
448.234	476.75
448.455	531.75
448.675	578.75
448.896	674.75
449.117	577.75
449.338	573.75
449.559	626.75
449.779	697.75
450	585.75
450.221	495.75
450.442	476.75
450.662	451.75
450.883	469.75
451.104	441.75
451.324	445.75
451.545	465.75
451.766	470.75
451.986	438.75
452.207	427.75
452.428	441.75
452.648	435.75
452.869	431.75
453.089	450.75
453.31	443.75
453.53	424.75
453.751	436.75
453.971	437.75
454.192	449.75
454.412	428.75
454.633	427.75
454.853	445.75
455.073	426.75
455.294	444.75
455.514	477.75
455.734	478.75
455.955	436.75
456.175	425.75
456.395	425.75
456.616	407.75
456.836	441.75
457.056	418.75
457.276	421.75
457.497	428.75
457.717	435.75
457.937	433.75
458.157	422.75
458.377	434.75
458.598	451.75
458.818	459.75
459.038	485.75
459.258	534.75
459.478	488.75
459.698	491.75
459.918	478.75
460.138	506.75
460.358	509.75
460.578	519.75
460.798	524.75
461.018	519.75
461.238	537.75
461.458	520.75
461.678	520.75
461.898	492.75
462.118	515.75
462.338	547.75
462.558	573.75
462.777	543.75
462.997	604.75
463.217	609.75
463.437	601.75
463.657	581.75
463.876	569.75
464.096	567.75
464.316	571.75
464.536	556.75
464.755	568.75
464.975	537.75
465.195	555.75
465.414	587.75
465.634	544.75
465.854	492.75
466.073	484.75
466.293	498.75
466.512	473.75
466.732	480.75
466.951	476.75
467.171	458.75
467.391	453.75
467.61	467.75
467.829	468.75
468.049	472.75
468.268	457.75
468.488	450.75
468.707	451.75
468.927	464.75
469.146	447.75
469.365	443.75
469.585	456.75
469.804	475.75
470.023	446.75
470.243	472.75
470.462	462.75
470.681	497.75
470.901	473.75
471.12	481.75
471.339	470.75
471.558	465.75
471.777	462.75
471.997	452.75
472.216	448.75
472.435	476.75
472.654	459.75
472.873	441.75
473.092	459.75
473.311	436.75
473.53	448.75
473.749	466.75
473.968	481.75
474.187	526.75
474.406	557.75
474.625	499.75
474.844	457.75
475.063	460.75
475.282	458.75
475.501	456.75
475.72	477.75
475.939	475.75
476.158	463.75
476.377	477.75
476.596	490.75
476.814	487.75
477.033	476.75
477.252	483.75
477.471	479.75
477.69	495.75
477.908	501.75
478.127	489.75
478.346	521.75
478.564	508.75
478.783	522.75
479.002	533.75
479.22	528.75
479.439	562.75
479.658	570.75
479.876	575.75
480.095	566.75
480.313	585.75
480.532	585.75
480.751	588.75
480.969	582.75
481.188	601.75
481.406	608.75
481.624	564.75
481.843	574.75
482.061	550.75
482.28	547.75
482.498	527.75
482.717	513.75
482.935	526.75
483.153	537.75
483.372	541.75
483.59	554.75
483.808	547.75
484.027	538.75
484.245	537.75
484.463	542.75
484.681	549.75
484.9	556.75
485.118	551.75
485.336	549.75
485.554	550.75
485.772	571.75
485.99	551.75
486.209	556.75
486.427	538.75
486.645	549.75
486.863	565.75
487.081	564.75
487.299	577.75
487.517	557.75
487.735	584.75
487.953	585.75
488.171	590.75
488.389	549.75
488.607	568.75
488.825	562.75
489.043	543.75
489.261	575.75
489.479	594.75
489.696	585.75
489.914	590.75
490.132	604.75
490.35	582.75
490.568	594.75
490.786	597.75
491.003	579.75
491.221	613.75
491.439	583.75
491.657	598.75
491.874	609.75
492.092	609.75
492.31	588.75
492.527	618.75
492.745	625.75
492.963	631.75
493.18	639.75
493.398	623.75
493.615	620.75
493.833	618.75
494.05	634.75
494.268	634.75
494.485	637.75
494.703	640.75
494.92	639.75
495.138	613.75
495.355	636.75
495.573	647.75
495.79	640.75
496.008	663.75
496.225	628.75
496.442	640.75
496.66	653.75
496.877	653.75
497.094	669.75
497.312	685.75
497.529	662.75
497.746	697.75
497.963	701.75
498.181	755.75
498.398	766.75
498.615	768.75
498.832	808.75
499.049	808.75
499.267	853.75
499.484	900.75
499.701	955.75
499.918	1014.75
500.135	1052.75
500.352	1164.75
500.569	1208.75
500.786	1193.75
501.003	1153.75
501.22	1096.75
501.437	1041.75
501.654	977.75
501.871	929.75
