Data from 1963.PennyLincolnUp.Lamp.En5.5.200Scan.071719.P1._HRD10591_14-00-16-063.txt Node
Date: Thu Jul 18 14:00:16 EDT 2019
User: cochatt
Spectrometer: HR+D1059
Trigger mode: 1
Integration Time (sec): 1.000000E-1
Scans to average: 1
Electric dark correction enabled: true
Nonlinearity correction enabled: false
Boxcar width: 0
XAxis mode: Wavelengths
Number of Pixels in Spectrum: 2048
>>>>>Begin Spectral Data<<<<<
223.165	-2.31
223.4	-2.31
223.635	-2.31
223.869	-2.31
224.104	-18.31
224.338	-14.31
224.573	-19.31
224.808	-4.31
225.042	-11.31
225.277	-15.31
225.511	-19.31
225.746	7.69
225.98	2.69
226.215	16.69
226.449	1.69
226.683	9.69
226.918	33.69
227.152	34.69
227.387	29.69
227.621	45.69
227.856	44.69
228.09	38.69
228.324	43.69
228.559	64.69
228.793	60.69
229.027	93.69
229.262	117.69
229.496	117.69
229.73	124.69
229.964	149.69
230.199	114.69
230.433	116.69
230.667	125.69
230.901	124.69
231.136	106.69
231.37	111.69
231.604	108.69
231.838	111.69
232.072	98.69
232.306	124.69
232.541	105.69
232.775	115.69
233.009	127.69
233.243	124.69
233.477	131.69
233.711	136.69
233.945	129.69
234.179	120.69
234.413	134.69
234.647	132.69
234.881	141.69
235.115	124.69
235.349	134.69
235.583	133.69
235.817	114.69
236.051	131.69
236.285	140.69
236.519	124.69
236.753	135.69
236.987	159.69
237.221	154.69
237.455	199.69
237.689	188.69
237.922	142.69
238.156	136.69
238.39	135.69
238.624	122.69
238.858	122.69
239.091	126.69
239.325	141.69
239.559	144.69
239.793	138.69
240.027	141.69
240.26	142.69
240.494	154.69
240.728	160.69
240.961	168.69
241.195	145.69
241.429	150.69
241.662	153.69
241.896	151.69
242.13	151.69
242.363	155.69
242.597	151.69
242.83	157.69
243.064	139.69
243.298	152.69
243.531	147.69
243.765	147.69
243.998	176.69
244.232	156.69
244.465	166.69
244.699	149.69
244.932	178.69
245.166	159.69
245.399	164.69
245.633	161.69
245.866	152.69
246.099	163.69
246.333	174.69
246.566	159.69
246.8	170.69
247.033	168.69
247.266	163.69
247.5	167.69
247.733	183.69
247.966	196.69
248.2	195.69
248.433	179.69
248.666	182.69
248.899	197.69
249.133	210.69
249.366	216.69
249.599	214.69
249.832	197.69
250.066	197.69
250.299	200.69
250.532	211.69
250.765	217.69
250.998	226.69
251.231	251.69
251.465	237.69
251.698	224.69
251.931	221.69
252.164	202.69
252.397	223.69
252.63	218.69
252.863	206.69
253.096	226.69
253.329	244.69
253.562	232.69
253.795	233.69
254.028	231.69
254.261	236.69
254.494	251.69
254.727	255.69
254.96	290.69
255.193	280.69
255.426	257.69
255.659	238.69
255.892	259.69
256.124	275.69
256.357	236.69
256.59	237.69
256.823	228.69
257.056	256.69
257.289	220.69
257.521	229.69
257.754	239.69
257.987	236.69
258.22	215.69
258.452	222.69
258.685	221.69
258.918	239.69
259.151	237.69
259.383	218.69
259.616	235.69
259.849	241.69
260.081	262.69
260.314	279.69
260.547	279.69
260.779	268.69
261.012	279.69
261.244	236.69
261.477	255.69
261.71	263.69
261.942	260.69
262.175	247.69
262.407	251.69
262.64	234.69
262.872	227.69
263.105	232.69
263.337	248.69
263.57	257.69
263.802	242.69
264.035	227.69
264.267	253.69
264.499	236.69
264.732	222.69
264.964	254.69
265.197	256.69
265.429	264.69
265.661	264.69
265.894	247.69
266.126	243.69
266.358	250.69
266.591	242.69
266.823	246.69
267.055	261.69
267.287	263.69
267.52	269.69
267.752	260.69
267.984	245.69
268.216	272.69
268.448	276.69
268.681	252.69
268.913	283.69
269.145	293.69
269.377	317.69
269.609	290.69
269.841	297.69
270.073	298.69
270.306	319.69
270.538	350.69
270.77	344.69
271.002	334.69
271.234	308.69
271.466	311.69
271.698	323.69
271.93	318.69
272.162	337.69
272.394	341.69
272.626	333.69
272.858	317.69
273.09	297.69
273.322	321.69
273.553	315.69
273.785	304.69
274.017	321.69
274.249	310.69
274.481	307.69
274.713	298.69
274.945	319.69
275.176	320.69
275.408	293.69
275.64	304.69
275.872	309.69
276.104	292.69
276.335	308.69
276.567	324.69
276.799	305.69
277.031	351.69
277.262	369.69
277.494	369.69
277.726	355.69
277.957	339.69
278.189	338.69
278.421	331.69
278.652	336.69
278.884	315.69
279.115	305.69
279.347	321.69
279.579	339.69
279.81	309.69
280.042	325.69
280.273	316.69
280.505	332.69
280.736	296.69
280.968	329.69
281.199	321.69
281.431	331.69
281.662	318.69
281.894	331.69
282.125	324.69
282.356	340.69
282.588	321.69
282.819	344.69
283.051	328.69
283.282	342.69
283.513	344.69
283.745	340.69
283.976	363.69
284.207	345.69
284.439	352.69
284.67	344.69
284.901	341.69
285.132	344.69
285.364	338.69
285.595	347.69
285.826	346.69
286.057	332.69
286.288	338.69
286.52	347.69
286.751	352.69
286.982	328.69
287.213	338.69
287.444	350.69
287.675	365.69
287.906	357.69
288.138	370.69
288.369	361.69
288.6	362.69
288.831	374.69
289.062	369.69
289.293	360.69
289.524	362.69
289.755	347.69
289.986	344.69
290.217	361.69
290.448	346.69
290.679	363.69
290.91	371.69
291.141	375.69
291.371	368.69
291.602	373.69
291.833	355.69
292.064	351.69
292.295	364.69
292.526	367.69
292.757	365.69
292.987	359.69
293.218	360.69
293.449	356.69
293.68	346.69
293.91	367.69
294.141	357.69
294.372	359.69
294.603	377.69
294.833	402.69
295.064	381.69
295.295	374.69
295.525	370.69
295.756	363.69
295.987	369.69
296.217	403.69
296.448	416.69
296.679	377.69
296.909	368.69
297.14	372.69
297.37	396.69
297.601	396.69
297.831	391.69
298.062	391.69
298.292	389.69
298.523	364.69
298.753	401.69
298.984	393.69
299.214	391.69
299.445	402.69
299.675	398.69
299.905	380.69
300.136	385.69
300.366	403.69
300.597	376.69
300.827	394.69
301.057	400.69
301.288	414.69
301.518	417.69
301.748	423.69
301.979	427.69
302.209	425.69
302.439	417.69
302.669	408.69
302.9	417.69
303.13	407.69
303.36	385.69
303.59	394.69
303.82	423.69
304.051	441.69
304.281	426.69
304.511	387.69
304.741	412.69
304.971	411.69
305.201	405.69
305.431	410.69
305.661	425.69
305.891	399.69
306.121	421.69
306.352	423.69
306.582	415.69
306.812	427.69
307.042	415.69
307.272	418.69
307.502	423.69
307.731	412.69
307.961	422.69
308.191	413.69
308.421	410.69
308.651	436.69
308.881	409.69
309.111	420.69
309.341	424.69
309.571	419.69
309.8	419.69
310.03	435.69
310.26	433.69
310.49	447.69
310.72	443.69
310.949	464.69
311.179	472.69
311.409	469.69
311.639	446.69
311.868	459.69
312.098	449.69
312.328	462.69
312.557	460.69
312.787	467.69
313.017	469.69
313.246	464.69
313.476	464.69
313.706	456.69
313.935	450.69
314.165	467.69
314.394	458.69
314.624	468.69
314.853	469.69
315.083	470.69
315.312	467.69
315.542	447.69
315.771	461.69
316.001	451.69
316.23	481.69
316.46	448.69
316.689	474.69
316.919	474.69
317.148	459.69
317.377	473.69
317.607	463.69
317.836	480.69
318.065	466.69
318.295	454.69
318.524	469.69
318.753	443.69
318.983	457.69
319.212	453.69
319.441	472.69
319.67	480.69
319.9	471.69
320.129	475.69
320.358	478.69
320.587	490.69
320.816	469.69
321.046	471.69
321.275	474.69
321.504	452.69
321.733	475.69
321.962	481.69
322.191	488.69
322.42	495.69
322.649	506.69
322.878	511.69
323.108	511.69
323.337	537.69
323.566	538.69
323.795	536.69
324.024	564.69
324.253	662.69
324.482	880.69
324.71	1255.69
324.939	1760.69
325.168	1557.69
325.397	872.69
325.626	651.69
325.855	585.69
326.084	563.69
326.313	556.69
326.542	541.69
326.77	612.69
326.999	663.69
327.228	815.69
327.457	1151.69
327.686	1411.69
327.914	995.69
328.143	700.69
328.372	646.69
328.6	597.69
328.829	595.69
329.058	599.69
329.287	621.69
329.515	564.69
329.744	569.69
329.972	582.69
330.201	566.69
330.43	632.69
330.658	648.69
330.887	675.69
331.115	641.69
331.344	608.69
331.572	561.69
331.801	572.69
332.03	597.69
332.258	587.69
332.486	589.69
332.715	592.69
332.943	579.69
333.172	594.69
333.4	615.69
333.629	641.69
333.857	634.69
334.085	663.69
334.314	675.69
334.542	684.69
334.771	703.69
334.999	627.69
335.227	607.69
335.455	623.69
335.684	595.69
335.912	614.69
336.14	592.69
336.369	572.69
336.597	574.69
336.825	569.69
337.053	567.69
337.281	565.69
337.51	581.69
337.738	544.69
337.966	537.69
338.194	564.69
338.422	541.69
338.65	556.69
338.878	548.69
339.106	540.69
339.334	546.69
339.562	551.69
339.79	535.69
340.018	529.69
340.246	531.69
340.474	547.69
340.702	517.69
340.93	548.69
341.158	547.69
341.386	524.69
341.614	533.69
341.842	546.69
342.07	547.69
342.298	537.69
342.526	531.69
342.754	540.69
342.981	533.69
343.209	522.69
343.437	526.69
343.665	572.69
343.893	580.69
344.12	608.69
344.348	572.69
344.576	576.69
344.804	568.69
345.031	556.69
345.259	551.69
345.487	548.69
345.714	535.69
345.942	506.69
346.17	532.69
346.397	505.69
346.625	507.69
346.853	503.69
347.08	516.69
347.308	511.69
347.535	522.69
347.763	513.69
347.99	510.69
348.218	515.69
348.445	504.69
348.673	522.69
348.9	499.69
349.128	520.69
349.355	500.69
349.583	487.69
349.81	510.69
350.037	495.69
350.265	489.69
350.492	495.69
350.72	492.69
350.947	502.69
351.174	522.69
351.402	525.69
351.629	509.69
351.856	495.69
352.083	497.69
352.311	519.69
352.538	512.69
352.765	538.69
352.992	520.69
353.22	520.69
353.447	490.69
353.674	491.69
353.901	517.69
354.128	503.69
354.355	488.69
354.583	484.69
354.81	481.69
355.037	484.69
355.264	479.69
355.491	502.69
355.718	495.69
355.945	463.69
356.172	511.69
356.399	474.69
356.626	497.69
356.853	502.69
357.08	496.69
357.307	500.69
357.534	484.69
357.761	491.69
357.988	503.69
358.215	517.69
358.441	495.69
358.668	515.69
358.895	487.69
359.122	492.69
359.349	509.69
359.576	501.69
359.802	531.69
360.029	521.69
360.256	523.69
360.483	521.69
360.709	501.69
360.936	508.69
361.163	504.69
361.39	508.69
361.616	517.69
361.843	531.69
362.07	536.69
362.296	523.69
362.523	507.69
362.749	497.69
362.976	497.69
363.203	517.69
363.429	499.69
363.656	507.69
363.882	496.69
364.109	513.69
364.335	505.69
364.562	497.69
364.788	500.69
365.015	485.69
365.241	500.69
365.468	512.69
365.694	505.69
365.92	521.69
366.147	491.69
366.373	510.69
366.599	499.69
366.826	497.69
367.052	511.69
367.278	492.69
367.505	474.69
367.731	501.69
367.957	511.69
368.184	513.69
368.41	513.69
368.636	486.69
368.862	518.69
369.089	521.69
369.315	521.69
369.541	513.69
369.767	512.69
369.993	524.69
370.219	504.69
370.445	525.69
370.672	522.69
370.898	511.69
371.124	522.69
371.35	519.69
371.576	532.69
371.802	519.69
372.028	519.69
372.254	543.69
372.48	535.69
372.706	549.69
372.932	535.69
373.158	517.69
373.384	531.69
373.61	548.69
373.835	533.69
374.061	531.69
374.287	523.69
374.513	522.69
374.739	530.69
374.965	551.69
375.191	572.69
375.416	553.69
375.642	533.69
375.868	536.69
376.094	536.69
376.319	534.69
376.545	525.69
376.771	527.69
376.997	499.69
377.222	509.69
377.448	514.69
377.674	523.69
377.899	476.69
378.125	509.69
378.35	499.69
378.576	497.69
378.802	501.69
379.027	525.69
379.253	505.69
379.478	519.69
379.704	526.69
379.929	535.69
380.155	499.69
380.38	513.69
380.606	507.69
380.831	489.69
381.057	537.69
381.282	542.69
381.507	515.69
381.733	534.69
381.958	529.69
382.184	511.69
382.409	532.69
382.634	551.69
382.86	531.69
383.085	535.69
383.31	526.69
383.535	548.69
383.761	559.69
383.986	572.69
384.211	566.69
384.436	600.69
384.662	581.69
384.887	572.69
385.112	575.69
385.337	598.69
385.562	620.69
385.787	613.69
386.013	599.69
386.238	595.69
386.463	602.69
386.688	577.69
386.913	585.69
387.138	571.69
387.363	595.69
387.588	571.69
387.813	587.69
388.038	600.69
388.263	589.69
388.488	623.69
388.713	617.69
388.938	599.69
389.163	592.69
389.387	602.69
389.612	579.69
389.837	601.69
390.062	588.69
390.287	553.69
390.512	579.69
390.736	625.69
390.961	627.69
391.186	615.69
391.411	617.69
391.636	629.69
391.86	630.69
392.085	627.69
392.31	641.69
392.534	651.69
392.759	632.69
392.984	604.69
393.208	625.69
393.433	619.69
393.658	643.69
393.882	627.69
394.107	604.69
394.331	597.69
394.556	635.69
394.78	616.69
395.005	648.69
395.229	616.69
395.454	641.69
395.678	642.69
395.903	667.69
396.127	659.69
396.352	640.69
396.576	659.69
396.801	632.69
397.025	661.69
397.249	649.69
397.474	668.69
397.698	642.69
397.922	678.69
398.147	673.69
398.371	716.69
398.595	697.69
398.82	687.69
399.044	723.69
399.268	805.69
399.492	902.69
399.717	938.69
399.941	956.69
400.165	932.69
400.389	887.69
400.613	796.69
400.837	750.69
401.062	742.69
401.286	725.69
401.51	727.69
401.734	681.69
401.958	716.69
402.182	744.69
402.406	732.69
402.63	757.69
402.854	775.69
403.078	771.69
403.302	773.69
403.526	775.69
403.75	787.69
403.974	785.69
404.198	777.69
404.422	803.69
404.645	799.69
404.869	800.69
405.093	805.69
405.317	839.69
405.541	887.69
405.765	803.69
405.988	799.69
406.212	823.69
406.436	819.69
406.66	833.69
406.883	795.69
407.107	859.69
407.331	931.69
407.555	964.69
407.778	991.69
408.002	905.69
408.226	849.69
408.449	820.69
408.673	803.69
408.896	841.69
409.12	856.69
409.344	822.69
409.567	796.69
409.791	766.69
410.014	755.69
410.238	724.69
410.461	743.69
410.685	721.69
410.908	761.69
411.132	784.69
411.355	819.69
411.578	770.69
411.802	747.69
412.025	753.69
412.249	757.69
412.472	797.69
412.695	800.69
412.919	786.69
413.142	755.69
413.365	723.69
413.589	698.69
413.812	721.69
414.035	727.69
414.258	697.69
414.482	702.69
414.705	712.69
414.928	718.69
415.151	705.69
415.374	724.69
415.597	700.69
415.821	699.69
416.044	704.69
416.267	699.69
416.49	702.69
416.713	676.69
416.936	698.69
417.159	703.69
417.382	697.69
417.605	708.69
417.828	705.69
418.051	732.69
418.274	741.69
418.497	723.69
418.72	733.69
418.943	698.69
419.166	732.69
419.389	805.69
419.611	783.69
419.834	761.69
420.057	738.69
420.28	751.69
420.503	746.69
420.726	727.69
420.948	725.69
421.171	772.69
421.394	807.69
421.617	736.69
421.839	728.69
422.062	735.69
422.285	737.69
422.507	815.69
422.73	844.69
422.953	858.69
423.175	771.69
423.398	736.69
423.621	777.69
423.843	787.69
424.066	776.69
424.288	791.69
424.511	817.69
424.733	827.69
424.956	865.69
425.178	874.69
425.401	846.69
425.623	891.69
425.846	770.69
426.068	729.69
426.291	732.69
426.513	711.69
426.735	745.69
426.958	761.69
427.18	839.69
427.402	935.69
427.625	1014.69
427.847	900.69
428.069	813.69
428.292	749.69
428.514	699.69
428.736	703.69
428.958	707.69
429.181	667.69
429.403	675.69
429.625	666.69
429.847	690.69
430.069	741.69
430.292	740.69
430.514	691.69
430.736	680.69
430.958	668.69
431.18	640.69
431.402	667.69
431.624	674.69
431.846	649.69
432.068	634.69
432.29	673.69
432.512	666.69
432.734	663.69
432.956	659.69
433.178	666.69
433.4	668.69
433.622	654.69
433.844	641.69
434.066	669.69
434.287	662.69
434.509	679.69
434.731	687.69
434.953	700.69
435.175	729.69
435.397	740.69
435.618	732.69
435.84	736.69
436.062	818.69
436.284	889.69
436.505	763.69
436.727	707.69
436.949	690.69
437.17	669.69
437.392	683.69
437.614	673.69
437.835	717.69
438.057	781.69
438.278	844.69
438.5	860.69
438.721	920.69
438.943	918.69
439.165	762.69
439.386	699.69
439.608	720.69
439.829	689.69
440.05	720.69
440.272	751.69
440.493	714.69
440.715	704.69
440.936	664.69
441.158	704.69
441.379	701.69
441.6	744.69
441.822	762.69
442.043	775.69
442.264	850.69
442.486	854.69
442.707	772.69
442.928	744.69
443.149	758.69
443.371	783.69
443.592	789.69
443.813	882.69
444.034	948.69
444.255	819.69
444.476	809.69
444.698	825.69
444.919	823.69
445.14	901.69
445.361	868.69
445.582	776.69
445.803	815.69
446.024	905.69
446.245	909.69
446.466	835.69
446.687	767.69
446.908	702.69
447.129	665.69
447.35	684.69
447.571	656.69
447.792	631.69
448.013	667.69
448.234	670.69
448.455	716.69
448.675	800.69
448.896	878.69
449.117	801.69
449.338	753.69
449.559	833.69
449.779	923.69
450	766.69
450.221	669.69
450.442	659.69
450.662	634.69
450.883	653.69
451.104	646.69
451.324	645.69
451.545	594.69
451.766	603.69
451.986	605.69
452.207	596.69
452.428	597.69
452.648	618.69
452.869	612.69
453.089	599.69
453.31	620.69
453.53	600.69
453.751	593.69
453.971	582.69
454.192	613.69
454.412	612.69
454.633	590.69
454.853	577.69
455.073	582.69
455.294	580.69
455.514	628.69
455.734	650.69
455.955	565.69
456.175	596.69
456.395	564.69
456.616	570.69
456.836	561.69
457.056	557.69
457.276	544.69
457.497	595.69
457.717	577.69
457.937	604.69
458.157	587.69
458.377	571.69
458.598	616.69
458.818	672.69
459.038	724.69
459.258	744.69
459.478	700.69
459.698	689.69
459.918	681.69
460.138	682.69
460.358	703.69
460.578	719.69
460.798	733.69
461.018	728.69
461.238	742.69
461.458	713.69
461.678	723.69
461.898	733.69
462.118	739.69
462.338	761.69
462.558	763.69
462.777	758.69
462.997	833.69
463.217	889.69
463.437	877.69
463.657	824.69
463.876	799.69
464.096	809.69
464.316	821.69
464.536	809.69
464.755	791.69
464.975	766.69
465.195	803.69
465.414	808.69
465.634	733.69
465.854	692.69
466.073	688.69
466.293	654.69
466.512	623.69
466.732	643.69
466.951	660.69
467.171	629.69
467.391	648.69
467.61	641.69
467.829	653.69
468.049	642.69
468.268	614.69
468.488	605.69
468.707	606.69
468.927	627.69
469.146	620.69
469.365	605.69
469.585	634.69
469.804	643.69
470.023	637.69
470.243	630.69
470.462	652.69
470.681	651.69
470.901	657.69
471.12	658.69
471.339	671.69
471.558	649.69
471.777	637.69
471.997	632.69
472.216	633.69
472.435	644.69
472.654	644.69
472.873	622.69
473.092	617.69
473.311	619.69
473.53	606.69
473.749	633.69
473.968	643.69
474.187	719.69
474.406	761.69
474.625	650.69
474.844	628.69
475.063	627.69
475.282	611.69
475.501	619.69
475.72	612.69
475.939	629.69
476.158	641.69
476.377	661.69
476.596	654.69
476.814	635.69
477.033	676.69
477.252	684.69
477.471	674.69
477.69	679.69
477.908	683.69
478.127	710.69
478.346	704.69
478.564	707.69
478.783	730.69
479.002	741.69
479.22	744.69
479.439	731.69
479.658	760.69
479.876	779.69
480.095	751.69
480.313	838.69
480.532	823.69
480.751	839.69
480.969	806.69
481.188	807.69
481.406	851.69
481.624	808.69
481.843	761.69
482.061	755.69
482.28	728.69
482.498	738.69
482.717	722.69
482.935	716.69
483.153	707.69
483.372	724.69
483.59	740.69
483.808	728.69
484.027	744.69
484.245	730.69
484.463	735.69
484.681	743.69
484.9	735.69
485.118	759.69
485.336	756.69
485.554	743.69
485.772	751.69
485.99	758.69
486.209	744.69
486.427	779.69
486.645	760.69
486.863	787.69
487.081	759.69
487.299	773.69
487.517	792.69
487.735	781.69
487.953	763.69
488.171	789.69
488.389	784.69
488.607	786.69
488.825	779.69
489.043	779.69
489.261	782.69
489.479	775.69
489.696	797.69
489.914	800.69
490.132	820.69
490.35	823.69
490.568	799.69
490.786	809.69
491.003	811.69
491.221	860.69
491.439	849.69
491.657	880.69
491.874	845.69
492.092	854.69
492.31	858.69
492.527	879.69
492.745	880.69
492.963	891.69
493.18	910.69
493.398	874.69
493.615	912.69
493.833	889.69
494.05	872.69
494.268	903.69
494.485	899.69
494.703	917.69
494.92	915.69
495.138	908.69
495.355	915.69
495.573	899.69
495.79	896.69
496.008	919.69
496.225	910.69
496.442	915.69
496.66	932.69
496.877	923.69
497.094	919.69
497.312	971.69
497.529	950.69
497.746	971.69
497.963	963.69
498.181	1050.69
498.398	1062.69
498.615	1120.69
498.832	1141.69
499.049	1211.69
499.267	1235.69
499.484	1345.69
499.701	1421.69
499.918	1503.69
500.135	1640.69
500.352	1798.69
500.569	1819.69
500.786	1855.69
501.003	1744.69
501.22	1670.69
501.437	1504.69
501.654	1452.69
