Data from 1963.PennyLincolnUp.Lamp.En5.5.200Scan.071719.P1._HRD10591_13-59-45-064.txt Node
Date: Thu Jul 18 13:59:45 EDT 2019
User: cochatt
Spectrometer: HR+D1059
Trigger mode: 1
Integration Time (sec): 1.000000E-1
Scans to average: 1
Electric dark correction enabled: true
Nonlinearity correction enabled: false
Boxcar width: 0
XAxis mode: Wavelengths
Number of Pixels in Spectrum: 2048
>>>>>Begin Spectral Data<<<<<
223.165	-19.62
223.4	-19.62
223.635	-19.62
223.869	-31.62
224.104	-25.62
224.338	-6.62
224.573	-10.62
224.808	-23.62
225.042	-18.62
225.277	-6.62
225.511	-3.62
225.746	11.38
225.98	16.38
226.215	15.38
226.449	17.38
226.683	28.38
226.918	21.38
227.152	36.38
227.387	42.38
227.621	42.38
227.856	29.38
228.09	34.38
228.324	60.38
228.559	54.38
228.793	67.38
229.027	91.38
229.262	103.38
229.496	107.38
229.73	125.38
229.964	141.38
230.199	103.38
230.433	114.38
230.667	121.38
230.901	112.38
231.136	127.38
231.37	111.38
231.604	105.38
231.838	109.38
232.072	107.38
232.306	124.38
232.541	125.38
232.775	113.38
233.009	96.38
233.243	114.38
233.477	133.38
233.711	119.38
233.945	119.38
234.179	119.38
234.413	135.38
234.647	129.38
234.881	104.38
235.115	112.38
235.349	130.38
235.583	119.38
235.817	122.38
236.051	116.38
236.285	137.38
236.519	145.38
236.753	136.38
236.987	139.38
237.221	165.38
237.455	202.38
237.689	175.38
237.922	146.38
238.156	125.38
238.39	129.38
238.624	130.38
238.858	135.38
239.091	138.38
239.325	126.38
239.559	124.38
239.793	142.38
240.027	141.38
240.26	152.38
240.494	172.38
240.728	153.38
240.961	142.38
241.195	149.38
241.429	127.38
241.662	154.38
241.896	154.38
242.13	145.38
242.363	135.38
242.597	157.38
242.83	131.38
243.064	158.38
243.298	156.38
243.531	142.38
243.765	141.38
243.998	145.38
244.232	145.38
244.465	151.38
244.699	154.38
244.932	144.38
245.166	153.38
245.399	154.38
245.633	157.38
245.866	181.38
246.099	163.38
246.333	161.38
246.566	139.38
246.8	161.38
247.033	181.38
247.266	160.38
247.5	181.38
247.733	185.38
247.966	181.38
248.2	190.38
248.433	191.38
248.666	208.38
248.899	191.38
249.133	199.38
249.366	222.38
249.599	214.38
249.832	183.38
250.066	209.38
250.299	173.38
250.532	201.38
250.765	216.38
250.998	214.38
251.231	223.38
251.465	231.38
251.698	203.38
251.931	205.38
252.164	207.38
252.397	190.38
252.63	222.38
252.863	217.38
253.096	222.38
253.329	246.38
253.562	239.38
253.795	246.38
254.028	229.38
254.261	203.38
254.494	219.38
254.727	251.38
254.96	275.38
255.193	291.38
255.426	256.38
255.659	234.38
255.892	249.38
256.124	239.38
256.357	262.38
256.59	245.38
256.823	231.38
257.056	219.38
257.289	243.38
257.521	224.38
257.754	234.38
257.987	219.38
258.22	223.38
258.452	214.38
258.685	242.38
258.918	226.38
259.151	221.38
259.383	231.38
259.616	228.38
259.849	249.38
260.081	255.38
260.314	259.38
260.547	267.38
260.779	266.38
261.012	238.38
261.244	257.38
261.477	248.38
261.71	235.38
261.942	213.38
262.175	237.38
262.407	264.38
262.64	241.38
262.872	218.38
263.105	239.38
263.337	238.38
263.57	247.38
263.802	226.38
264.035	245.38
264.267	255.38
264.499	253.38
264.732	242.38
264.964	257.38
265.197	232.38
265.429	239.38
265.661	241.38
265.894	252.38
266.126	262.38
266.358	256.38
266.591	249.38
266.823	253.38
267.055	271.38
267.287	265.38
267.52	249.38
267.752	245.38
267.984	246.38
268.216	259.38
268.448	286.38
268.681	259.38
268.913	269.38
269.145	255.38
269.377	297.38
269.609	302.38
269.841	287.38
270.073	298.38
270.306	309.38
270.538	331.38
270.77	311.38
271.002	333.38
271.234	315.38
271.466	315.38
271.698	311.38
271.93	330.38
272.162	304.38
272.394	331.38
272.626	315.38
272.858	315.38
273.09	286.38
273.322	301.38
273.553	285.38
273.785	305.38
274.017	284.38
274.249	286.38
274.481	290.38
274.713	302.38
274.945	290.38
275.176	314.38
275.408	298.38
275.64	287.38
275.872	301.38
276.104	292.38
276.335	288.38
276.567	310.38
276.799	309.38
277.031	340.38
277.262	334.38
277.494	354.38
277.726	327.38
277.957	310.38
278.189	297.38
278.421	317.38
278.652	319.38
278.884	313.38
279.115	326.38
279.347	328.38
279.579	296.38
279.81	300.38
280.042	303.38
280.273	302.38
280.505	312.38
280.736	313.38
280.968	319.38
281.199	322.38
281.431	321.38
281.662	333.38
281.894	315.38
282.125	316.38
282.356	311.38
282.588	345.38
282.819	350.38
283.051	350.38
283.282	325.38
283.513	333.38
283.745	309.38
283.976	337.38
284.207	335.38
284.439	327.38
284.67	328.38
284.901	315.38
285.132	329.38
285.364	341.38
285.595	353.38
285.826	345.38
286.057	342.38
286.288	332.38
286.52	329.38
286.751	355.38
286.982	333.38
287.213	335.38
287.444	355.38
287.675	340.38
287.906	361.38
288.138	358.38
288.369	349.38
288.6	346.38
288.831	359.38
289.062	361.38
289.293	340.38
289.524	342.38
289.755	365.38
289.986	349.38
290.217	357.38
290.448	346.38
290.679	369.38
290.91	390.38
291.141	354.38
291.371	349.38
291.602	363.38
291.833	351.38
292.064	343.38
292.295	359.38
292.526	367.38
292.757	365.38
292.987	336.38
293.218	360.38
293.449	355.38
293.68	366.38
293.91	358.38
294.141	345.38
294.372	363.38
294.603	355.38
294.833	368.38
295.064	368.38
295.295	359.38
295.525	362.38
295.756	351.38
295.987	384.38
296.217	389.38
296.448	393.38
296.679	376.38
296.909	366.38
297.14	378.38
297.37	379.38
297.601	380.38
297.831	372.38
298.062	374.38
298.292	399.38
298.523	387.38
298.753	371.38
298.984	378.38
299.214	388.38
299.445	392.38
299.675	385.38
299.905	394.38
300.136	398.38
300.366	395.38
300.597	399.38
300.827	393.38
301.057	408.38
301.288	409.38
301.518	401.38
301.748	424.38
301.979	391.38
302.209	414.38
302.439	410.38
302.669	406.38
302.9	401.38
303.13	408.38
303.36	420.38
303.59	402.38
303.82	423.38
304.051	433.38
304.281	424.38
304.511	392.38
304.741	390.38
304.971	396.38
305.201	406.38
305.431	403.38
305.661	429.38
305.891	417.38
306.121	389.38
306.352	415.38
306.582	420.38
306.812	409.38
307.042	411.38
307.272	390.38
307.502	409.38
307.731	433.38
307.961	402.38
308.191	405.38
308.421	423.38
308.651	415.38
308.881	394.38
309.111	404.38
309.341	413.38
309.571	420.38
309.8	421.38
310.03	434.38
310.26	451.38
310.49	435.38
310.72	426.38
310.949	442.38
311.179	433.38
311.409	428.38
311.639	462.38
311.868	432.38
312.098	432.38
312.328	441.38
312.557	470.38
312.787	470.38
313.017	456.38
313.246	458.38
313.476	442.38
313.706	427.38
313.935	445.38
314.165	467.38
314.394	465.38
314.624	460.38
314.853	459.38
315.083	435.38
315.312	454.38
315.542	465.38
315.771	475.38
316.001	449.38
316.23	438.38
316.46	450.38
316.689	429.38
316.919	455.38
317.148	447.38
317.377	452.38
317.607	472.38
317.836	465.38
318.065	455.38
318.295	470.38
318.524	461.38
318.753	450.38
318.983	462.38
319.212	446.38
319.441	454.38
319.67	466.38
319.9	463.38
320.129	439.38
320.358	459.38
320.587	447.38
320.816	452.38
321.046	482.38
321.275	464.38
321.504	463.38
321.733	458.38
321.962	449.38
322.191	470.38
322.42	481.38
322.649	486.38
322.878	493.38
323.108	483.38
323.337	513.38
323.566	525.38
323.795	541.38
324.024	545.38
324.253	657.38
324.482	834.38
324.71	1185.38
324.939	1732.38
325.168	1508.38
325.397	825.38
325.626	627.38
325.855	551.38
326.084	548.38
326.313	534.38
326.542	544.38
326.77	585.38
326.999	621.38
327.228	774.38
327.457	1120.38
327.686	1368.38
327.914	929.38
328.143	671.38
328.372	610.38
328.6	605.38
328.829	578.38
329.058	593.38
329.287	597.38
329.515	574.38
329.744	536.38
329.972	546.38
330.201	563.38
330.43	591.38
330.658	626.38
330.887	631.38
331.115	611.38
331.344	577.38
331.572	558.38
331.801	561.38
332.03	571.38
332.258	554.38
332.486	547.38
332.715	573.38
332.943	585.38
333.172	614.38
333.4	606.38
333.629	612.38
333.857	635.38
334.085	612.38
334.314	637.38
334.542	686.38
334.771	680.38
334.999	621.38
335.227	600.38
335.455	610.38
335.684	586.38
335.912	586.38
336.14	547.38
336.369	542.38
336.597	561.38
336.825	561.38
337.053	554.38
337.281	555.38
337.51	552.38
337.738	543.38
337.966	543.38
338.194	522.38
338.422	545.38
338.65	543.38
338.878	518.38
339.106	532.38
339.334	555.38
339.562	547.38
339.79	538.38
340.018	521.38
340.246	516.38
340.474	523.38
340.702	510.38
340.93	526.38
341.158	521.38
341.386	525.38
341.614	516.38
341.842	507.38
342.07	529.38
342.298	514.38
342.526	537.38
342.754	519.38
342.981	523.38
343.209	528.38
343.437	544.38
343.665	564.38
343.893	577.38
344.12	585.38
344.348	575.38
344.576	564.38
344.804	561.38
345.031	557.38
345.259	530.38
345.487	527.38
345.714	494.38
345.942	520.38
346.17	532.38
346.397	508.38
346.625	507.38
346.853	507.38
347.08	484.38
347.308	486.38
347.535	493.38
347.763	487.38
347.99	510.38
348.218	509.38
348.445	521.38
348.673	509.38
348.9	520.38
349.128	485.38
349.355	491.38
349.583	490.38
349.81	485.38
350.037	475.38
350.265	484.38
350.492	486.38
350.72	493.38
350.947	490.38
351.174	495.38
351.402	513.38
351.629	517.38
351.856	514.38
352.083	498.38
352.311	501.38
352.538	493.38
352.765	494.38
352.992	496.38
353.22	500.38
353.447	495.38
353.674	494.38
353.901	507.38
354.128	488.38
354.355	459.38
354.583	492.38
354.81	484.38
355.037	493.38
355.264	484.38
355.491	479.38
355.718	475.38
355.945	482.38
356.172	455.38
356.399	464.38
356.626	476.38
356.853	469.38
357.08	480.38
357.307	499.38
357.534	473.38
357.761	472.38
357.988	462.38
358.215	474.38
358.441	465.38
358.668	486.38
358.895	480.38
359.122	489.38
359.349	507.38
359.576	499.38
359.802	510.38
360.029	541.38
360.256	554.38
360.483	527.38
360.709	500.38
360.936	509.38
361.163	487.38
361.39	497.38
361.616	499.38
361.843	487.38
362.07	495.38
362.296	508.38
362.523	488.38
362.749	466.38
362.976	497.38
363.203	493.38
363.429	472.38
363.656	486.38
363.882	471.38
364.109	500.38
364.335	490.38
364.562	488.38
364.788	503.38
365.015	464.38
365.241	474.38
365.468	475.38
365.694	495.38
365.92	485.38
366.147	470.38
366.373	482.38
366.599	500.38
366.826	487.38
367.052	476.38
367.278	479.38
367.505	494.38
367.731	501.38
367.957	481.38
368.184	482.38
368.41	486.38
368.636	495.38
368.862	500.38
369.089	495.38
369.315	487.38
369.541	499.38
369.767	497.38
369.993	508.38
370.219	505.38
370.445	498.38
370.672	501.38
370.898	489.38
371.124	501.38
371.35	507.38
371.576	505.38
371.802	521.38
372.028	515.38
372.254	521.38
372.48	517.38
372.706	524.38
372.932	531.38
373.158	528.38
373.384	534.38
373.61	514.38
373.835	507.38
374.061	505.38
374.287	525.38
374.513	532.38
374.739	527.38
374.965	533.38
375.191	560.38
375.416	549.38
375.642	523.38
375.868	522.38
376.094	534.38
376.319	519.38
376.545	514.38
376.771	512.38
376.997	499.38
377.222	508.38
377.448	495.38
377.674	520.38
377.899	494.38
378.125	505.38
378.35	509.38
378.576	519.38
378.802	498.38
379.027	495.38
379.253	495.38
379.478	463.38
379.704	515.38
379.929	513.38
380.155	517.38
380.38	514.38
380.606	523.38
380.831	504.38
381.057	501.38
381.282	509.38
381.507	499.38
381.733	490.38
381.958	505.38
382.184	529.38
382.409	536.38
382.634	541.38
382.86	521.38
383.085	530.38
383.31	541.38
383.535	549.38
383.761	574.38
383.986	562.38
384.211	557.38
384.436	562.38
384.662	574.38
384.887	565.38
385.112	552.38
385.337	577.38
385.562	588.38
385.787	597.38
386.013	587.38
386.238	612.38
386.463	576.38
386.688	589.38
386.913	599.38
387.138	582.38
387.363	581.38
387.588	610.38
387.813	594.38
388.038	575.38
388.263	589.38
388.488	605.38
388.713	584.38
388.938	596.38
389.163	597.38
389.387	586.38
389.612	578.38
389.837	578.38
390.062	558.38
390.287	578.38
390.512	591.38
390.736	565.38
390.961	598.38
391.186	609.38
391.411	614.38
391.636	616.38
391.86	634.38
392.085	624.38
392.31	631.38
392.534	633.38
392.759	629.38
392.984	608.38
393.208	597.38
393.433	603.38
393.658	600.38
393.882	599.38
394.107	602.38
394.331	621.38
394.556	621.38
394.78	587.38
395.005	599.38
395.229	614.38
395.454	614.38
395.678	642.38
395.903	637.38
396.127	640.38
396.352	649.38
396.576	602.38
396.801	615.38
397.025	610.38
397.249	621.38
397.474	647.38
397.698	642.38
397.922	667.38
398.147	666.38
398.371	679.38
398.595	695.38
398.82	711.38
399.044	735.38
399.268	757.38
399.492	846.38
399.717	917.38
399.941	955.38
400.165	923.38
400.389	891.38
400.613	820.38
400.837	730.38
401.062	722.38
401.286	707.38
401.51	715.38
401.734	719.38
401.958	695.38
402.182	701.38
402.406	739.38
402.63	746.38
402.854	720.38
403.078	749.38
403.302	743.38
403.526	743.38
403.75	772.38
403.974	762.38
404.198	781.38
404.422	772.38
404.645	754.38
404.869	775.38
405.093	781.38
405.317	843.38
405.541	851.38
405.765	815.38
405.988	776.38
406.212	773.38
406.436	786.38
406.66	785.38
406.883	814.38
407.107	842.38
407.331	881.38
407.555	973.38
407.778	948.38
408.002	872.38
408.226	837.38
408.449	814.38
408.673	821.38
408.896	794.38
409.12	830.38
409.344	819.38
409.567	775.38
409.791	771.38
410.014	737.38
410.238	742.38
410.461	735.38
410.685	746.38
410.908	760.38
411.132	790.38
411.355	784.38
411.578	765.38
411.802	732.38
412.025	721.38
412.249	724.38
412.472	757.38
412.695	786.38
412.919	773.38
413.142	739.38
413.365	721.38
413.589	714.38
413.812	698.38
414.035	711.38
414.258	702.38
414.482	701.38
414.705	692.38
414.928	700.38
415.151	704.38
415.374	687.38
415.597	706.38
415.821	707.38
416.044	693.38
416.267	695.38
416.49	705.38
416.713	681.38
416.936	681.38
417.159	679.38
417.382	694.38
417.605	711.38
417.828	701.38
418.051	706.38
418.274	719.38
418.497	684.38
418.72	722.38
418.943	701.38
419.166	745.38
419.389	762.38
419.611	750.38
419.834	747.38
420.057	753.38
420.28	727.38
420.503	726.38
420.726	711.38
420.948	722.38
421.171	736.38
421.394	739.38
421.617	691.38
421.839	698.38
422.062	698.38
422.285	716.38
422.507	751.38
422.73	827.38
422.953	809.38
423.175	773.38
423.398	747.38
423.621	765.38
423.843	756.38
424.066	769.38
424.288	763.38
424.511	790.38
424.733	823.38
424.956	877.38
425.178	818.38
425.401	844.38
425.623	868.38
425.846	751.38
426.068	752.38
426.291	724.38
426.513	711.38
426.735	719.38
426.958	743.38
427.18	798.38
427.402	901.38
427.625	998.38
427.847	869.38
428.069	759.38
428.292	754.38
428.514	679.38
428.736	681.38
428.958	664.38
429.181	665.38
429.403	651.38
429.625	645.38
429.847	690.38
430.069	727.38
430.292	746.38
430.514	691.38
430.736	669.38
430.958	648.38
431.18	624.38
431.402	659.38
431.624	638.38
431.846	634.38
432.068	653.38
432.29	647.38
432.512	637.38
432.734	657.38
432.956	643.38
433.178	669.38
433.4	647.38
433.622	629.38
433.844	665.38
434.066	670.38
434.287	666.38
434.509	654.38
434.731	669.38
434.953	695.38
435.175	697.38
435.397	760.38
435.618	726.38
435.84	746.38
436.062	791.38
436.284	839.38
436.505	756.38
436.727	719.38
436.949	685.38
437.17	660.38
437.392	674.38
437.614	689.38
437.835	679.38
438.057	744.38
438.278	805.38
438.5	836.38
438.721	891.38
438.943	883.38
439.165	743.38
439.386	712.38
439.608	707.38
439.829	677.38
440.05	699.38
440.272	749.38
440.493	728.38
440.715	689.38
440.936	665.38
441.158	675.38
441.379	678.38
441.6	719.38
441.822	748.38
442.043	761.38
442.264	805.38
442.486	837.38
442.707	778.38
442.928	751.38
443.149	750.38
443.371	766.38
443.592	785.38
443.813	873.38
444.034	936.38
444.255	810.38
444.476	763.38
444.698	777.38
444.919	813.38
445.14	887.38
445.361	838.38
445.582	779.38
445.803	797.38
446.024	864.38
446.245	866.38
446.466	818.38
446.687	737.38
446.908	708.38
447.129	667.38
447.35	655.38
447.571	659.38
447.792	610.38
448.013	665.38
448.234	654.38
448.455	705.38
448.675	773.38
448.896	847.38
449.117	762.38
449.338	725.38
449.559	836.38
449.779	910.38
450	751.38
450.221	674.38
450.442	630.38
450.662	623.38
450.883	635.38
451.104	648.38
451.324	616.38
451.545	600.38
451.766	590.38
451.986	575.38
452.207	590.38
452.428	577.38
452.648	579.38
452.869	584.38
453.089	577.38
453.31	592.38
453.53	590.38
453.751	597.38
453.971	605.38
454.192	584.38
454.412	578.38
454.633	591.38
454.853	567.38
455.073	579.38
455.294	596.38
455.514	611.38
455.734	643.38
455.955	578.38
456.175	554.38
456.395	568.38
456.616	538.38
456.836	559.38
457.056	543.38
457.276	561.38
457.497	555.38
457.717	541.38
457.937	565.38
458.157	605.38
458.377	604.38
458.598	621.38
458.818	639.38
459.038	715.38
459.258	727.38
459.478	687.38
459.698	673.38
459.918	661.38
460.138	647.38
460.358	703.38
460.578	686.38
460.798	717.38
461.018	734.38
461.238	701.38
461.458	712.38
461.678	715.38
461.898	715.38
462.118	690.38
462.338	744.38
462.558	765.38
462.777	782.38
462.997	826.38
463.217	858.38
463.437	858.38
463.657	810.38
463.876	807.38
464.096	785.38
464.316	788.38
464.536	783.38
464.755	772.38
464.975	761.38
465.195	735.38
465.414	785.38
465.634	698.38
465.854	693.38
466.073	667.38
466.293	643.38
466.512	629.38
466.732	615.38
466.951	634.38
467.171	613.38
467.391	625.38
467.61	614.38
467.829	609.38
468.049	624.38
468.268	620.38
468.488	633.38
468.707	599.38
468.927	592.38
469.146	615.38
469.365	606.38
469.585	595.38
469.804	616.38
470.023	646.38
470.243	615.38
470.462	629.38
470.681	660.38
470.901	673.38
471.12	631.38
471.339	639.38
471.558	623.38
471.777	635.38
471.997	617.38
472.216	615.38
472.435	640.38
472.654	631.38
472.873	608.38
473.092	623.38
473.311	598.38
473.53	606.38
473.749	611.38
473.968	628.38
474.187	721.38
474.406	730.38
474.625	643.38
474.844	608.38
475.063	625.38
475.282	605.38
475.501	610.38
475.72	624.38
475.939	629.38
476.158	636.38
476.377	613.38
476.596	603.38
476.814	637.38
477.033	659.38
477.252	643.38
477.471	673.38
477.69	676.38
477.908	699.38
478.127	682.38
478.346	717.38
478.564	726.38
478.783	711.38
479.002	743.38
479.22	746.38
479.439	762.38
479.658	735.38
479.876	759.38
480.095	756.38
480.313	800.38
480.532	789.38
480.751	804.38
480.969	783.38
481.188	819.38
481.406	843.38
481.624	770.38
481.843	744.38
482.061	755.38
482.28	741.38
482.498	699.38
482.717	729.38
482.935	724.38
483.153	730.38
483.372	688.38
483.59	710.38
483.808	710.38
484.027	723.38
484.245	739.38
484.463	715.38
484.681	736.38
484.9	721.38
485.118	733.38
485.336	704.38
485.554	733.38
485.772	723.38
485.99	709.38
486.209	769.38
486.427	765.38
486.645	767.38
486.863	754.38
487.081	779.38
487.299	778.38
487.517	770.38
487.735	723.38
487.953	773.38
488.171	783.38
488.389	769.38
488.607	751.38
488.825	756.38
489.043	749.38
489.261	789.38
489.479	785.38
489.696	799.38
489.914	791.38
490.132	774.38
490.35	808.38
490.568	803.38
490.786	808.38
491.003	802.38
491.221	805.38
491.439	821.38
491.657	822.38
491.874	854.38
492.092	824.38
492.31	840.38
492.527	864.38
492.745	842.38
492.963	890.38
493.18	880.38
493.398	867.38
493.615	889.38
493.833	895.38
494.05	901.38
494.268	879.38
494.485	889.38
494.703	900.38
494.92	864.38
495.138	873.38
495.355	871.38
495.573	897.38
495.79	899.38
496.008	911.38
496.225	892.38
496.442	902.38
496.66	920.38
496.877	864.38
497.094	937.38
497.312	925.38
497.529	899.38
497.746	957.38
497.963	968.38
498.181	1032.38
498.398	1025.38
498.615	1077.38
498.832	1104.38
499.049	1163.38
499.267	1229.38
499.484	1304.38
499.701	1355.38
499.918	1457.38
500.135	1598.38
500.352	1773.38
500.569	1805.38
500.786	1811.38
501.003	1749.38
501.22	1645.38
501.437	1498.38
501.654	1391.38
