Data from 1963.PennyLincolnUp.Lamp.En5.5.200Scan.071719.P1._HRD10591_13-58-32-062.txt Node
Date: Thu Jul 18 13:58:32 EDT 2019
User: cochatt
Spectrometer: HR+D1059
Trigger mode: 1
Integration Time (sec): 1.000000E-1
Scans to average: 1
Electric dark correction enabled: true
Nonlinearity correction enabled: false
Boxcar width: 0
XAxis mode: Wavelengths
Number of Pixels in Spectrum: 2048
>>>>>Begin Spectral Data<<<<<
223.165	-7.06
223.4	-7.06
223.635	-7.06
223.869	-5.06
224.104	-29.06
224.338	-13.06
224.573	-27.06
224.808	-12.06
225.042	-8.06
225.277	2.94
225.511	1.94
225.746	0.94
225.98	9.94
226.215	14.94
226.449	10.94
226.683	10.94
226.918	22.94
227.152	25.94
227.387	28.94
227.621	34.94
227.856	42.94
228.09	43.94
228.324	47.94
228.559	51.94
228.793	84.94
229.027	92.94
229.262	94.94
229.496	107.94
229.73	125.94
229.964	149.94
230.199	134.94
230.433	117.94
230.667	109.94
230.901	126.94
231.136	117.94
231.37	126.94
231.604	112.94
231.838	122.94
232.072	108.94
232.306	119.94
232.541	126.94
232.775	123.94
233.009	98.94
233.243	122.94
233.477	125.94
233.711	125.94
233.945	124.94
234.179	117.94
234.413	131.94
234.647	135.94
234.881	122.94
235.115	130.94
235.349	130.94
235.583	117.94
235.817	120.94
236.051	121.94
236.285	122.94
236.519	119.94
236.753	143.94
236.987	148.94
237.221	164.94
237.455	199.94
237.689	169.94
237.922	139.94
238.156	144.94
238.39	127.94
238.624	142.94
238.858	127.94
239.091	141.94
239.325	132.94
239.559	159.94
239.793	139.94
240.027	137.94
240.26	146.94
240.494	147.94
240.728	153.94
240.961	140.94
241.195	153.94
241.429	170.94
241.662	132.94
241.896	155.94
242.13	150.94
242.363	154.94
242.597	165.94
242.83	152.94
243.064	161.94
243.298	165.94
243.531	158.94
243.765	149.94
243.998	142.94
244.232	153.94
244.465	160.94
244.699	158.94
244.932	161.94
245.166	158.94
245.399	163.94
245.633	166.94
245.866	166.94
246.099	173.94
246.333	169.94
246.566	169.94
246.8	174.94
247.033	173.94
247.266	178.94
247.5	175.94
247.733	175.94
247.966	165.94
248.2	179.94
248.433	182.94
248.666	186.94
248.899	203.94
249.133	184.94
249.366	226.94
249.599	197.94
249.832	191.94
250.066	196.94
250.299	203.94
250.532	198.94
250.765	216.94
250.998	230.94
251.231	222.94
251.465	241.94
251.698	218.94
251.931	211.94
252.164	190.94
252.397	206.94
252.63	227.94
252.863	237.94
253.096	219.94
253.329	245.94
253.562	236.94
253.795	238.94
254.028	232.94
254.261	244.94
254.494	229.94
254.727	248.94
254.96	279.94
255.193	265.94
255.426	256.94
255.659	244.94
255.892	220.94
256.124	245.94
256.357	261.94
256.59	249.94
256.823	213.94
257.056	223.94
257.289	231.94
257.521	213.94
257.754	229.94
257.987	254.94
258.22	236.94
258.452	217.94
258.685	222.94
258.918	235.94
259.151	238.94
259.383	239.94
259.616	238.94
259.849	259.94
260.081	253.94
260.314	258.94
260.547	269.94
260.779	261.94
261.012	255.94
261.244	250.94
261.477	230.94
261.71	241.94
261.942	249.94
262.175	247.94
262.407	252.94
262.64	243.94
262.872	249.94
263.105	232.94
263.337	236.94
263.57	230.94
263.802	242.94
264.035	229.94
264.267	232.94
264.499	250.94
264.732	249.94
264.964	237.94
265.197	254.94
265.429	259.94
265.661	248.94
265.894	237.94
266.126	261.94
266.358	233.94
266.591	246.94
266.823	247.94
267.055	266.94
267.287	245.94
267.52	272.94
267.752	261.94
267.984	241.94
268.216	251.94
268.448	276.94
268.681	281.94
268.913	285.94
269.145	287.94
269.377	316.94
269.609	298.94
269.841	307.94
270.073	280.94
270.306	305.94
270.538	330.94
270.77	316.94
271.002	331.94
271.234	300.94
271.466	319.94
271.698	323.94
271.93	311.94
272.162	335.94
272.394	327.94
272.626	318.94
272.858	325.94
273.09	294.94
273.322	313.94
273.553	315.94
273.785	313.94
274.017	305.94
274.249	293.94
274.481	295.94
274.713	292.94
274.945	300.94
275.176	297.94
275.408	295.94
275.64	312.94
275.872	318.94
276.104	300.94
276.335	317.94
276.567	303.94
276.799	324.94
277.031	322.94
277.262	343.94
277.494	361.94
277.726	328.94
277.957	321.94
278.189	314.94
278.421	310.94
278.652	321.94
278.884	315.94
279.115	303.94
279.347	305.94
279.579	310.94
279.81	309.94
280.042	320.94
280.273	311.94
280.505	319.94
280.736	326.94
280.968	313.94
281.199	294.94
281.431	328.94
281.662	311.94
281.894	321.94
282.125	337.94
282.356	351.94
282.588	354.94
282.819	347.94
283.051	346.94
283.282	325.94
283.513	322.94
283.745	311.94
283.976	341.94
284.207	329.94
284.439	342.94
284.67	329.94
284.901	343.94
285.132	345.94
285.364	353.94
285.595	339.94
285.826	345.94
286.057	346.94
286.288	332.94
286.52	345.94
286.751	329.94
286.982	342.94
287.213	339.94
287.444	360.94
287.675	364.94
287.906	340.94
288.138	361.94
288.369	363.94
288.6	361.94
288.831	370.94
289.062	353.94
289.293	359.94
289.524	349.94
289.755	374.94
289.986	336.94
290.217	357.94
290.448	338.94
290.679	345.94
290.91	361.94
291.141	332.94
291.371	347.94
291.602	361.94
291.833	340.94
292.064	337.94
292.295	344.94
292.526	357.94
292.757	361.94
292.987	341.94
293.218	346.94
293.449	380.94
293.68	369.94
293.91	345.94
294.141	369.94
294.372	375.94
294.603	369.94
294.833	370.94
295.064	360.94
295.295	351.94
295.525	367.94
295.756	385.94
295.987	383.94
296.217	381.94
296.448	373.94
296.679	371.94
296.909	367.94
297.14	371.94
297.37	364.94
297.601	373.94
297.831	386.94
298.062	375.94
298.292	385.94
298.523	371.94
298.753	362.94
298.984	395.94
299.214	388.94
299.445	382.94
299.675	371.94
299.905	388.94
300.136	396.94
300.366	387.94
300.597	402.94
300.827	414.94
301.057	426.94
301.288	394.94
301.518	385.94
301.748	389.94
301.979	407.94
302.209	415.94
302.439	415.94
302.669	421.94
302.9	421.94
303.13	399.94
303.36	427.94
303.59	411.94
303.82	420.94
304.051	409.94
304.281	433.94
304.511	422.94
304.741	396.94
304.971	417.94
305.201	405.94
305.431	412.94
305.661	405.94
305.891	397.94
306.121	430.94
306.352	407.94
306.582	412.94
306.812	413.94
307.042	405.94
307.272	409.94
307.502	414.94
307.731	407.94
307.961	401.94
308.191	421.94
308.421	396.94
308.651	426.94
308.881	410.94
309.111	419.94
309.341	412.94
309.571	417.94
309.8	434.94
310.03	455.94
310.26	436.94
310.49	431.94
310.72	425.94
310.949	450.94
311.179	461.94
311.409	448.94
311.639	429.94
311.868	443.94
312.098	459.94
312.328	457.94
312.557	439.94
312.787	456.94
313.017	456.94
313.246	462.94
313.476	431.94
313.706	444.94
313.935	473.94
314.165	461.94
314.394	461.94
314.624	478.94
314.853	445.94
315.083	468.94
315.312	449.94
315.542	449.94
315.771	475.94
316.001	438.94
316.23	461.94
316.46	459.94
316.689	442.94
316.919	462.94
317.148	470.94
317.377	468.94
317.607	463.94
317.836	459.94
318.065	460.94
318.295	463.94
318.524	450.94
318.753	450.94
318.983	474.94
319.212	436.94
319.441	453.94
319.67	469.94
319.9	455.94
320.129	443.94
320.358	447.94
320.587	450.94
320.816	451.94
321.046	462.94
321.275	460.94
321.504	463.94
321.733	467.94
321.962	477.94
322.191	463.94
322.42	479.94
322.649	482.94
322.878	513.94
323.108	482.94
323.337	501.94
323.566	523.94
323.795	553.94
324.024	568.94
324.253	609.94
324.482	769.94
324.71	1121.94
324.939	1631.94
325.168	1413.94
325.397	798.94
325.626	611.94
325.855	552.94
326.084	545.94
326.313	540.94
326.542	541.94
326.77	580.94
326.999	620.94
327.228	778.94
327.457	1053.94
327.686	1283.94
327.914	883.94
328.143	673.94
328.372	614.94
328.6	585.94
328.829	579.94
329.058	564.94
329.287	577.94
329.515	580.94
329.744	531.94
329.972	551.94
330.201	574.94
330.43	592.94
330.658	614.94
330.887	627.94
331.115	607.94
331.344	573.94
331.572	533.94
331.801	575.94
332.03	548.94
332.258	551.94
332.486	578.94
332.715	552.94
332.943	559.94
333.172	608.94
333.4	603.94
333.629	632.94
333.857	639.94
334.085	627.94
334.314	641.94
334.542	661.94
334.771	658.94
334.999	649.94
335.227	602.94
335.455	565.94
335.684	594.94
335.912	584.94
336.14	588.94
336.369	571.94
336.597	557.94
336.825	563.94
337.053	579.94
337.281	539.94
337.51	555.94
337.738	559.94
337.966	546.94
338.194	543.94
338.422	547.94
338.65	545.94
338.878	535.94
339.106	546.94
339.334	550.94
339.562	541.94
339.79	525.94
340.018	536.94
340.246	523.94
340.474	555.94
340.702	530.94
340.93	505.94
341.158	527.94
341.386	493.94
341.614	511.94
341.842	516.94
342.07	510.94
342.298	532.94
342.526	516.94
342.754	490.94
342.981	518.94
343.209	514.94
343.437	530.94
343.665	535.94
343.893	578.94
344.12	571.94
344.348	589.94
344.576	564.94
344.804	548.94
345.031	541.94
345.259	545.94
345.487	510.94
345.714	499.94
345.942	510.94
346.17	517.94
346.397	520.94
346.625	517.94
346.853	510.94
347.08	491.94
347.308	498.94
347.535	518.94
347.763	491.94
347.99	500.94
348.218	511.94
348.445	494.94
348.673	519.94
348.9	507.94
349.128	493.94
349.355	475.94
349.583	470.94
349.81	481.94
350.037	489.94
350.265	521.94
350.492	477.94
350.72	494.94
350.947	487.94
351.174	487.94
351.402	501.94
351.629	507.94
351.856	505.94
352.083	511.94
352.311	497.94
352.538	505.94
352.765	500.94
352.992	494.94
353.22	490.94
353.447	491.94
353.674	485.94
353.901	469.94
354.128	481.94
354.355	476.94
354.583	482.94
354.81	487.94
355.037	474.94
355.264	484.94
355.491	485.94
355.718	470.94
355.945	486.94
356.172	505.94
356.399	464.94
356.626	485.94
356.853	492.94
357.08	487.94
357.307	494.94
357.534	484.94
357.761	488.94
357.988	485.94
358.215	453.94
358.441	482.94
358.668	457.94
358.895	504.94
359.122	486.94
359.349	488.94
359.576	481.94
359.802	500.94
360.029	520.94
360.256	528.94
360.483	537.94
360.709	505.94
360.936	502.94
361.163	507.94
361.39	500.94
361.616	517.94
361.843	502.94
362.07	491.94
362.296	503.94
362.523	498.94
362.749	500.94
362.976	495.94
363.203	478.94
363.429	487.94
363.656	499.94
363.882	501.94
364.109	490.94
364.335	487.94
364.562	487.94
364.788	463.94
365.015	481.94
365.241	489.94
365.468	497.94
365.694	486.94
365.92	501.94
366.147	501.94
366.373	482.94
366.599	469.94
366.826	486.94
367.052	492.94
367.278	488.94
367.505	514.94
367.731	499.94
367.957	502.94
368.184	492.94
368.41	515.94
368.636	500.94
368.862	515.94
369.089	515.94
369.315	499.94
369.541	489.94
369.767	514.94
369.993	471.94
370.219	518.94
370.445	512.94
370.672	513.94
370.898	520.94
371.124	493.94
371.35	519.94
371.576	507.94
371.802	509.94
372.028	517.94
372.254	499.94
372.48	523.94
372.706	539.94
372.932	535.94
373.158	505.94
373.384	519.94
373.61	513.94
373.835	512.94
374.061	518.94
374.287	521.94
374.513	515.94
374.739	525.94
374.965	569.94
375.191	550.94
375.416	532.94
375.642	537.94
375.868	525.94
376.094	533.94
376.319	519.94
376.545	517.94
376.771	531.94
376.997	509.94
377.222	491.94
377.448	509.94
377.674	513.94
377.899	526.94
378.125	490.94
378.35	498.94
378.576	519.94
378.802	522.94
379.027	523.94
379.253	504.94
379.478	506.94
379.704	517.94
379.929	506.94
380.155	493.94
380.38	511.94
380.606	497.94
380.831	527.94
381.057	513.94
381.282	509.94
381.507	531.94
381.733	537.94
381.958	524.94
382.184	555.94
382.409	542.94
382.634	528.94
382.86	537.94
383.085	523.94
383.31	526.94
383.535	545.94
383.761	578.94
383.986	557.94
384.211	554.94
384.436	573.94
384.662	584.94
384.887	579.94
385.112	574.94
385.337	589.94
385.562	588.94
385.787	578.94
386.013	590.94
386.238	588.94
386.463	607.94
386.688	626.94
386.913	567.94
387.138	597.94
387.363	566.94
387.588	598.94
387.813	606.94
388.038	602.94
388.263	603.94
388.488	596.94
388.713	594.94
388.938	574.94
389.163	588.94
389.387	574.94
389.612	581.94
389.837	599.94
390.062	602.94
390.287	596.94
390.512	581.94
390.736	598.94
390.961	611.94
391.186	590.94
391.411	599.94
391.636	625.94
391.86	645.94
392.085	648.94
392.31	615.94
392.534	645.94
392.759	628.94
392.984	628.94
393.208	622.94
393.433	609.94
393.658	615.94
393.882	599.94
394.107	606.94
394.331	620.94
394.556	621.94
394.78	591.94
395.005	603.94
395.229	604.94
395.454	618.94
395.678	640.94
395.903	650.94
396.127	666.94
396.352	652.94
396.576	647.94
396.801	619.94
397.025	630.94
397.249	645.94
397.474	669.94
397.698	646.94
397.922	661.94
398.147	668.94
398.371	662.94
398.595	688.94
398.82	703.94
399.044	725.94
399.268	765.94
399.492	851.94
399.717	945.94
399.941	978.94
400.165	936.94
400.389	865.94
400.613	773.94
400.837	754.94
401.062	714.94
401.286	737.94
401.51	693.94
401.734	728.94
401.958	726.94
402.182	697.94
402.406	734.94
402.63	770.94
402.854	738.94
403.078	714.94
403.302	762.94
403.526	763.94
403.75	794.94
403.974	774.94
404.198	776.94
404.422	767.94
404.645	810.94
404.869	761.94
405.093	797.94
405.317	791.94
405.541	839.94
405.765	807.94
405.988	756.94
406.212	784.94
406.436	790.94
406.66	798.94
406.883	787.94
407.107	832.94
407.331	884.94
407.555	942.94
407.778	942.94
408.002	905.94
408.226	842.94
408.449	833.94
408.673	801.94
408.896	846.94
409.12	845.94
409.344	802.94
409.567	771.94
409.791	790.94
410.014	761.94
410.238	781.94
410.461	759.94
410.685	753.94
410.908	748.94
411.132	775.94
411.355	782.94
411.578	777.94
411.802	749.94
412.025	733.94
412.249	738.94
412.472	747.94
412.695	781.94
412.919	773.94
413.142	739.94
413.365	717.94
413.589	679.94
413.812	713.94
414.035	702.94
414.258	689.94
414.482	700.94
414.705	715.94
414.928	719.94
415.151	709.94
415.374	690.94
415.597	708.94
415.821	667.94
416.044	671.94
416.267	698.94
416.49	702.94
416.713	695.94
416.936	701.94
417.159	695.94
417.382	689.94
417.605	698.94
417.828	704.94
418.051	738.94
418.274	721.94
418.497	698.94
418.72	714.94
418.943	725.94
419.166	726.94
419.389	782.94
419.611	759.94
419.834	739.94
420.057	723.94
420.28	733.94
420.503	734.94
420.726	746.94
420.948	727.94
421.171	737.94
421.394	772.94
421.617	723.94
421.839	707.94
422.062	721.94
422.285	711.94
422.507	793.94
422.73	845.94
422.953	806.94
423.175	757.94
423.398	742.94
423.621	741.94
423.843	756.94
424.066	748.94
424.288	766.94
424.511	749.94
424.733	771.94
424.956	851.94
425.178	847.94
425.401	835.94
425.623	839.94
425.846	759.94
426.068	719.94
426.291	719.94
426.513	700.94
426.735	709.94
426.958	750.94
427.18	808.94
427.402	910.94
427.625	1017.94
427.847	870.94
428.069	779.94
428.292	727.94
428.514	693.94
428.736	667.94
428.958	676.94
429.181	657.94
429.403	654.94
429.625	675.94
429.847	707.94
430.069	748.94
430.292	733.94
430.514	665.94
430.736	664.94
430.958	636.94
431.18	623.94
431.402	633.94
431.624	610.94
431.846	659.94
432.068	634.94
432.29	659.94
432.512	633.94
432.734	673.94
432.956	645.94
433.178	685.94
433.4	663.94
433.622	652.94
433.844	650.94
434.066	647.94
434.287	651.94
434.509	694.94
434.731	679.94
434.953	700.94
435.175	734.94
435.397	746.94
435.618	728.94
435.84	730.94
436.062	779.94
436.284	841.94
436.505	745.94
436.727	664.94
436.949	665.94
437.17	672.94
437.392	661.94
437.614	676.94
437.835	694.94
438.057	726.94
438.278	807.94
438.5	812.94
438.721	876.94
438.943	824.94
439.165	727.94
439.386	699.94
439.608	678.94
439.829	681.94
440.05	689.94
440.272	718.94
440.493	699.94
440.715	683.94
440.936	703.94
441.158	684.94
441.379	681.94
441.6	702.94
441.822	741.94
442.043	749.94
442.264	831.94
442.486	841.94
442.707	765.94
442.928	757.94
443.149	737.94
443.371	749.94
443.592	804.94
443.813	889.94
444.034	934.94
444.255	803.94
444.476	774.94
444.698	789.94
444.919	825.94
445.14	914.94
445.361	831.94
445.582	786.94
445.803	795.94
446.024	875.94
446.245	859.94
446.466	799.94
446.687	715.94
446.908	703.94
447.129	651.94
447.35	663.94
447.571	641.94
447.792	614.94
448.013	631.94
448.234	659.94
448.455	696.94
448.675	770.94
448.896	849.94
449.117	743.94
449.338	725.94
449.559	809.94
449.779	886.94
450	767.94
450.221	659.94
450.442	632.94
450.662	627.94
450.883	645.94
451.104	621.94
451.324	618.94
451.545	620.94
451.766	588.94
451.986	592.94
452.207	594.94
452.428	602.94
452.648	583.94
452.869	558.94
453.089	579.94
453.31	594.94
453.53	598.94
453.751	587.94
453.971	576.94
454.192	616.94
454.412	597.94
454.633	597.94
454.853	572.94
455.073	584.94
455.294	558.94
455.514	638.94
455.734	623.94
455.955	593.94
456.175	565.94
456.395	545.94
456.616	547.94
456.836	554.94
457.056	558.94
457.276	545.94
457.497	575.94
457.717	549.94
457.937	557.94
458.157	554.94
458.377	568.94
458.598	607.94
458.818	634.94
459.038	707.94
459.258	726.94
459.478	684.94
459.698	660.94
459.918	654.94
460.138	683.94
460.358	683.94
460.578	703.94
460.798	715.94
461.018	709.94
461.238	711.94
461.458	695.94
461.678	679.94
461.898	720.94
462.118	699.94
462.338	775.94
462.558	783.94
462.777	797.94
462.997	819.94
463.217	854.94
463.437	893.94
463.657	788.94
463.876	773.94
464.096	797.94
464.316	799.94
464.536	801.94
464.755	791.94
464.975	742.94
465.195	775.94
465.414	787.94
465.634	719.94
465.854	693.94
466.073	662.94
466.293	633.94
466.512	630.94
466.732	617.94
466.951	637.94
467.171	651.94
467.391	633.94
467.61	642.94
467.829	638.94
468.049	614.94
468.268	605.94
468.488	611.94
468.707	573.94
468.927	614.94
469.146	612.94
469.365	599.94
469.585	609.94
469.804	622.94
470.023	632.94
470.243	666.94
470.462	643.94
470.681	636.94
470.901	659.94
471.12	641.94
471.339	628.94
471.558	637.94
471.777	612.94
471.997	607.94
472.216	613.94
472.435	648.94
472.654	637.94
472.873	606.94
473.092	597.94
473.311	606.94
473.53	597.94
473.749	610.94
473.968	637.94
474.187	691.94
474.406	733.94
474.625	641.94
474.844	622.94
475.063	616.94
475.282	614.94
475.501	612.94
475.72	621.94
475.939	625.94
476.158	635.94
476.377	627.94
476.596	612.94
476.814	638.94
477.033	633.94
477.252	660.94
477.471	673.94
477.69	662.94
477.908	705.94
478.127	705.94
478.346	690.94
478.564	723.94
478.783	735.94
479.002	738.94
479.22	740.94
479.439	730.94
479.658	755.94
479.876	778.94
480.095	771.94
480.313	794.94
480.532	793.94
480.751	804.94
480.969	789.94
481.188	814.94
481.406	819.94
481.624	769.94
481.843	717.94
482.061	754.94
482.28	730.94
482.498	715.94
482.717	730.94
482.935	707.94
483.153	697.94
483.372	706.94
483.59	714.94
483.808	710.94
484.027	704.94
484.245	686.94
484.463	707.94
484.681	759.94
484.9	737.94
485.118	741.94
485.336	731.94
485.554	726.94
485.772	765.94
485.99	748.94
486.209	743.94
486.427	774.94
486.645	761.94
486.863	775.94
487.081	774.94
487.299	754.94
487.517	746.94
487.735	769.94
487.953	756.94
488.171	761.94
488.389	735.94
488.607	746.94
488.825	737.94
489.043	747.94
489.261	764.94
489.479	777.94
489.696	748.94
489.914	775.94
490.132	782.94
490.35	775.94
490.568	790.94
490.786	801.94
491.003	796.94
491.221	795.94
491.439	822.94
491.657	804.94
491.874	818.94
492.092	830.94
492.31	826.94
492.527	858.94
492.745	844.94
492.963	863.94
493.18	849.94
493.398	863.94
493.615	889.94
493.833	872.94
494.05	888.94
494.268	877.94
494.485	870.94
494.703	872.94
494.92	867.94
495.138	897.94
495.355	869.94
495.573	912.94
495.79	878.94
496.008	877.94
496.225	873.94
496.442	894.94
496.66	909.94
496.877	910.94
497.094	921.94
497.312	942.94
497.529	923.94
497.746	935.94
497.963	982.94
498.181	986.94
498.398	998.94
498.615	1086.94
498.832	1118.94
499.049	1158.94
499.267	1190.94
499.484	1303.94
499.701	1409.94
499.918	1493.94
500.135	1675.94
500.352	1768.94
500.569	1785.94
500.786	1783.94
501.003	1701.94
501.22	1596.94
501.437	1500.94
501.654	1415.94
501.871	1322.94
