Data from 1963.PennyLincolnUp.Lamp.En5.5.200Scan.071719.P1._HRD10591_13-58-34-064.txt Node
Date: Thu Jul 18 13:58:34 EDT 2019
User: cochatt
Spectrometer: HR+D1059
Trigger mode: 1
Integration Time (sec): 1.000000E-1
Scans to average: 1
Electric dark correction enabled: true
Nonlinearity correction enabled: false
Boxcar width: 0
XAxis mode: Wavelengths
Number of Pixels in Spectrum: 2048
>>>>>Begin Spectral Data<<<<<
223.165	-23.31
223.4	-23.31
223.635	-23.31
223.869	-25.31
224.104	-14.31
224.338	-11.31
224.573	-11.31
224.808	-23.31
225.042	-12.31
225.277	2.69
225.511	6.69
225.746	-0.31
225.98	4.69
226.215	9.69
226.449	21.69
226.683	15.69
226.918	20.69
227.152	39.69
227.387	31.69
227.621	33.69
227.856	40.69
228.09	39.69
228.324	59.69
228.559	59.69
228.793	56.69
229.027	95.69
229.262	105.69
229.496	103.69
229.73	111.69
229.964	146.69
230.199	117.69
230.433	123.69
230.667	130.69
230.901	128.69
231.136	123.69
231.37	113.69
231.604	102.69
231.838	119.69
232.072	105.69
232.306	118.69
232.541	120.69
232.775	118.69
233.009	131.69
233.243	114.69
233.477	124.69
233.711	124.69
233.945	108.69
234.179	121.69
234.413	121.69
234.647	118.69
234.881	126.69
235.115	125.69
235.349	133.69
235.583	124.69
235.817	117.69
236.051	125.69
236.285	130.69
236.519	111.69
236.753	124.69
236.987	131.69
237.221	160.69
237.455	205.69
237.689	175.69
237.922	133.69
238.156	146.69
238.39	120.69
238.624	131.69
238.858	127.69
239.091	120.69
239.325	143.69
239.559	129.69
239.793	139.69
240.027	141.69
240.26	147.69
240.494	153.69
240.728	147.69
240.961	151.69
241.195	155.69
241.429	149.69
241.662	162.69
241.896	152.69
242.13	148.69
242.363	140.69
242.597	156.69
242.83	156.69
243.064	161.69
243.298	157.69
243.531	161.69
243.765	149.69
243.998	151.69
244.232	137.69
244.465	148.69
244.699	158.69
244.932	164.69
245.166	159.69
245.399	162.69
245.633	159.69
245.866	171.69
246.099	153.69
246.333	175.69
246.566	170.69
246.8	188.69
247.033	159.69
247.266	175.69
247.5	191.69
247.733	188.69
247.966	177.69
248.2	186.69
248.433	189.69
248.666	182.69
248.899	179.69
249.133	201.69
249.366	208.69
249.599	205.69
249.832	198.69
250.066	192.69
250.299	188.69
250.532	211.69
250.765	208.69
250.998	225.69
251.231	231.69
251.465	220.69
251.698	210.69
251.931	197.69
252.164	217.69
252.397	213.69
252.63	212.69
252.863	208.69
253.096	216.69
253.329	220.69
253.562	216.69
253.795	236.69
254.028	215.69
254.261	240.69
254.494	228.69
254.727	257.69
254.96	262.69
255.193	265.69
255.426	226.69
255.659	225.69
255.892	248.69
256.124	225.69
256.357	234.69
256.59	223.69
256.823	226.69
257.056	249.69
257.289	223.69
257.521	244.69
257.754	221.69
257.987	232.69
258.22	224.69
258.452	220.69
258.685	214.69
258.918	233.69
259.151	226.69
259.383	232.69
259.616	224.69
259.849	240.69
260.081	264.69
260.314	243.69
260.547	263.69
260.779	255.69
261.012	235.69
261.244	245.69
261.477	244.69
261.71	239.69
261.942	243.69
262.175	242.69
262.407	250.69
262.64	240.69
262.872	241.69
263.105	252.69
263.337	237.69
263.57	232.69
263.802	236.69
264.035	228.69
264.267	250.69
264.499	241.69
264.732	243.69
264.964	245.69
265.197	239.69
265.429	235.69
265.661	250.69
265.894	236.69
266.126	227.69
266.358	259.69
266.591	243.69
266.823	249.69
267.055	252.69
267.287	244.69
267.52	262.69
267.752	268.69
267.984	264.69
268.216	256.69
268.448	264.69
268.681	256.69
268.913	272.69
269.145	275.69
269.377	319.69
269.609	303.69
269.841	292.69
270.073	284.69
270.306	299.69
270.538	315.69
270.77	327.69
271.002	328.69
271.234	310.69
271.466	320.69
271.698	325.69
271.93	340.69
272.162	322.69
272.394	330.69
272.626	316.69
272.858	304.69
273.09	302.69
273.322	296.69
273.553	308.69
273.785	297.69
274.017	307.69
274.249	321.69
274.481	275.69
274.713	318.69
274.945	320.69
275.176	318.69
275.408	289.69
275.64	288.69
275.872	303.69
276.104	303.69
276.335	305.69
276.567	292.69
276.799	319.69
277.031	338.69
277.262	347.69
277.494	331.69
277.726	334.69
277.957	311.69
278.189	315.69
278.421	320.69
278.652	321.69
278.884	307.69
279.115	315.69
279.347	304.69
279.579	299.69
279.81	329.69
280.042	287.69
280.273	323.69
280.505	332.69
280.736	329.69
280.968	314.69
281.199	313.69
281.431	319.69
281.662	318.69
281.894	319.69
282.125	330.69
282.356	324.69
282.588	323.69
282.819	351.69
283.051	329.69
283.282	336.69
283.513	334.69
283.745	311.69
283.976	341.69
284.207	351.69
284.439	342.69
284.67	343.69
284.901	328.69
285.132	359.69
285.364	325.69
285.595	327.69
285.826	332.69
286.057	344.69
286.288	341.69
286.52	336.69
286.751	325.69
286.982	331.69
287.213	358.69
287.444	375.69
287.675	363.69
287.906	364.69
288.138	350.69
288.369	363.69
288.6	360.69
288.831	360.69
289.062	361.69
289.293	347.69
289.524	339.69
289.755	367.69
289.986	365.69
290.217	371.69
290.448	348.69
290.679	367.69
290.91	362.69
291.141	351.69
291.371	361.69
291.602	369.69
291.833	343.69
292.064	367.69
292.295	351.69
292.526	350.69
292.757	342.69
292.987	352.69
293.218	364.69
293.449	383.69
293.68	359.69
293.91	362.69
294.141	369.69
294.372	374.69
294.603	370.69
294.833	354.69
295.064	362.69
295.295	359.69
295.525	368.69
295.756	373.69
295.987	377.69
296.217	398.69
296.448	399.69
296.679	382.69
296.909	380.69
297.14	370.69
297.37	374.69
297.601	383.69
297.831	374.69
298.062	382.69
298.292	403.69
298.523	369.69
298.753	380.69
298.984	368.69
299.214	397.69
299.445	393.69
299.675	382.69
299.905	392.69
300.136	403.69
300.366	388.69
300.597	389.69
300.827	392.69
301.057	394.69
301.288	396.69
301.518	401.69
301.748	387.69
301.979	396.69
302.209	419.69
302.439	406.69
302.669	424.69
302.9	407.69
303.13	388.69
303.36	401.69
303.59	421.69
303.82	408.69
304.051	419.69
304.281	423.69
304.511	408.69
304.741	404.69
304.971	425.69
305.201	396.69
305.431	423.69
305.661	407.69
305.891	412.69
306.121	424.69
306.352	408.69
306.582	413.69
306.812	415.69
307.042	420.69
307.272	422.69
307.502	415.69
307.731	403.69
307.961	409.69
308.191	396.69
308.421	404.69
308.651	412.69
308.881	419.69
309.111	412.69
309.341	409.69
309.571	423.69
309.8	434.69
310.03	420.69
310.26	449.69
310.49	456.69
310.72	424.69
310.949	460.69
311.179	452.69
311.409	440.69
311.639	437.69
311.868	450.69
312.098	452.69
312.328	445.69
312.557	459.69
312.787	465.69
313.017	470.69
313.246	476.69
313.476	454.69
313.706	454.69
313.935	453.69
314.165	466.69
314.394	459.69
314.624	488.69
314.853	444.69
315.083	467.69
315.312	462.69
315.542	472.69
315.771	454.69
316.001	468.69
316.23	448.69
316.46	441.69
316.689	446.69
316.919	457.69
317.148	449.69
317.377	453.69
317.607	456.69
317.836	457.69
318.065	456.69
318.295	459.69
318.524	452.69
318.753	432.69
318.983	452.69
319.212	461.69
319.441	445.69
319.67	446.69
319.9	451.69
320.129	448.69
320.358	464.69
320.587	458.69
320.816	475.69
321.046	463.69
321.275	481.69
321.504	476.69
321.733	483.69
321.962	486.69
322.191	457.69
322.42	475.69
322.649	491.69
322.878	486.69
323.108	486.69
323.337	516.69
323.566	523.69
323.795	531.69
324.024	573.69
324.253	613.69
324.482	777.69
324.71	1154.69
324.939	1579.69
325.168	1403.69
325.397	797.69
325.626	607.69
325.855	585.69
326.084	550.69
326.313	545.69
326.542	546.69
326.77	570.69
326.999	608.69
327.228	748.69
327.457	1052.69
327.686	1281.69
327.914	912.69
328.143	680.69
328.372	615.69
328.6	573.69
328.829	552.69
329.058	556.69
329.287	591.69
329.515	579.69
329.744	535.69
329.972	553.69
330.201	572.69
330.43	604.69
330.658	619.69
330.887	616.69
331.115	574.69
331.344	577.69
331.572	566.69
331.801	565.69
332.03	590.69
332.258	570.69
332.486	578.69
332.715	553.69
332.943	560.69
333.172	567.69
333.4	609.69
333.629	643.69
333.857	623.69
334.085	634.69
334.314	625.69
334.542	647.69
334.771	676.69
334.999	643.69
335.227	635.69
335.455	611.69
335.684	598.69
335.912	567.69
336.14	586.69
336.369	576.69
336.597	579.69
336.825	586.69
337.053	576.69
337.281	544.69
337.51	580.69
337.738	594.69
337.966	528.69
338.194	567.69
338.422	550.69
338.65	539.69
338.878	533.69
339.106	551.69
339.334	547.69
339.562	535.69
339.79	534.69
340.018	544.69
340.246	530.69
340.474	524.69
340.702	521.69
340.93	521.69
341.158	531.69
341.386	520.69
341.614	517.69
341.842	537.69
342.07	533.69
342.298	509.69
342.526	531.69
342.754	514.69
342.981	503.69
343.209	503.69
343.437	531.69
343.665	537.69
343.893	585.69
344.12	593.69
344.348	581.69
344.576	569.69
344.804	568.69
345.031	560.69
345.259	562.69
345.487	519.69
345.714	537.69
345.942	503.69
346.17	501.69
346.397	496.69
346.625	506.69
346.853	520.69
347.08	489.69
347.308	503.69
347.535	517.69
347.763	506.69
347.99	484.69
348.218	515.69
348.445	527.69
348.673	508.69
348.9	503.69
349.128	492.69
349.355	489.69
349.583	520.69
349.81	483.69
350.037	479.69
350.265	512.69
350.492	508.69
350.72	489.69
350.947	508.69
351.174	480.69
351.402	515.69
351.629	485.69
351.856	493.69
352.083	508.69
352.311	478.69
352.538	489.69
352.765	503.69
352.992	504.69
353.22	483.69
353.447	476.69
353.674	481.69
353.901	502.69
354.128	489.69
354.355	488.69
354.583	477.69
354.81	481.69
355.037	454.69
355.264	502.69
355.491	465.69
355.718	495.69
355.945	503.69
356.172	477.69
356.399	499.69
356.626	471.69
356.853	508.69
357.08	475.69
357.307	477.69
357.534	466.69
357.761	489.69
357.988	491.69
358.215	476.69
358.441	468.69
358.668	478.69
358.895	472.69
359.122	485.69
359.349	497.69
359.576	487.69
359.802	507.69
360.029	521.69
360.256	529.69
360.483	521.69
360.709	527.69
360.936	499.69
361.163	499.69
361.39	490.69
361.616	479.69
361.843	513.69
362.07	499.69
362.296	498.69
362.523	503.69
362.749	518.69
362.976	512.69
363.203	497.69
363.429	486.69
363.656	489.69
363.882	483.69
364.109	496.69
364.335	485.69
364.562	497.69
364.788	491.69
365.015	485.69
365.241	502.69
365.468	508.69
365.694	491.69
365.92	480.69
366.147	487.69
366.373	501.69
366.599	497.69
366.826	472.69
367.052	496.69
367.278	513.69
367.505	492.69
367.731	481.69
367.957	492.69
368.184	495.69
368.41	485.69
368.636	509.69
368.862	489.69
369.089	524.69
369.315	509.69
369.541	500.69
369.767	489.69
369.993	511.69
370.219	485.69
370.445	511.69
370.672	505.69
370.898	515.69
371.124	500.69
371.35	515.69
371.576	521.69
371.802	512.69
372.028	507.69
372.254	496.69
372.48	507.69
372.706	520.69
372.932	550.69
373.158	525.69
373.384	515.69
373.61	513.69
373.835	515.69
374.061	522.69
374.287	521.69
374.513	525.69
374.739	547.69
374.965	537.69
375.191	561.69
375.416	540.69
375.642	543.69
375.868	524.69
376.094	523.69
376.319	524.69
376.545	524.69
376.771	531.69
376.997	513.69
377.222	495.69
377.448	517.69
377.674	538.69
377.899	490.69
378.125	513.69
378.35	503.69
378.576	507.69
378.802	530.69
379.027	499.69
379.253	513.69
379.478	499.69
379.704	505.69
379.929	534.69
380.155	531.69
380.38	524.69
380.606	489.69
380.831	513.69
381.057	519.69
381.282	519.69
381.507	511.69
381.733	532.69
381.958	539.69
382.184	538.69
382.409	534.69
382.634	536.69
382.86	539.69
383.085	538.69
383.31	550.69
383.535	556.69
383.761	576.69
383.986	552.69
384.211	564.69
384.436	587.69
384.662	575.69
384.887	572.69
385.112	594.69
385.337	612.69
385.562	582.69
385.787	604.69
386.013	603.69
386.238	574.69
386.463	592.69
386.688	608.69
386.913	575.69
387.138	600.69
387.363	571.69
387.588	601.69
387.813	591.69
388.038	581.69
388.263	586.69
388.488	601.69
388.713	586.69
388.938	584.69
389.163	589.69
389.387	603.69
389.612	573.69
389.837	582.69
390.062	581.69
390.287	571.69
390.512	593.69
390.736	613.69
390.961	562.69
391.186	576.69
391.411	613.69
391.636	603.69
391.86	636.69
392.085	634.69
392.31	648.69
392.534	637.69
392.759	613.69
392.984	619.69
393.208	609.69
393.433	635.69
393.658	607.69
393.882	617.69
394.107	617.69
394.331	614.69
394.556	618.69
394.78	616.69
395.005	628.69
395.229	636.69
395.454	634.69
395.678	657.69
395.903	657.69
396.127	667.69
396.352	660.69
396.576	625.69
396.801	624.69
397.025	640.69
397.249	620.69
397.474	629.69
397.698	648.69
397.922	636.69
398.147	655.69
398.371	654.69
398.595	687.69
398.82	695.69
399.044	729.69
399.268	793.69
399.492	860.69
399.717	962.69
399.941	967.69
400.165	921.69
400.389	843.69
400.613	791.69
400.837	764.69
401.062	728.69
401.286	738.69
401.51	717.69
401.734	706.69
401.958	712.69
402.182	708.69
402.406	741.69
402.63	744.69
402.854	745.69
403.078	755.69
403.302	788.69
403.526	767.69
403.75	761.69
403.974	767.69
404.198	767.69
404.422	769.69
404.645	763.69
404.869	794.69
405.093	775.69
405.317	840.69
405.541	860.69
405.765	803.69
405.988	804.69
406.212	785.69
406.436	772.69
406.66	819.69
406.883	809.69
407.107	854.69
407.331	851.69
407.555	945.69
407.778	938.69
408.002	891.69
408.226	849.69
408.449	805.69
408.673	825.69
408.896	858.69
409.12	812.69
409.344	808.69
409.567	792.69
409.791	793.69
410.014	763.69
410.238	751.69
410.461	760.69
410.685	784.69
410.908	752.69
411.132	770.69
411.355	805.69
411.578	773.69
411.802	745.69
412.025	729.69
412.249	744.69
412.472	758.69
412.695	792.69
412.919	769.69
413.142	740.69
413.365	716.69
413.589	736.69
413.812	728.69
414.035	706.69
414.258	689.69
414.482	711.69
414.705	718.69
414.928	706.69
415.151	706.69
415.374	707.69
415.597	690.69
415.821	692.69
416.044	689.69
416.267	723.69
416.49	693.69
416.713	681.69
416.936	705.69
417.159	687.69
417.382	688.69
417.605	711.69
417.828	719.69
418.051	692.69
418.274	731.69
418.497	722.69
418.72	703.69
418.943	700.69
419.166	724.69
419.389	786.69
419.611	775.69
419.834	756.69
420.057	717.69
420.28	748.69
420.503	710.69
420.726	731.69
420.948	707.69
421.171	732.69
421.394	754.69
421.617	700.69
421.839	715.69
422.062	717.69
422.285	717.69
422.507	772.69
422.73	821.69
422.953	776.69
423.175	756.69
423.398	748.69
423.621	711.69
423.843	762.69
424.066	776.69
424.288	762.69
424.511	775.69
424.733	803.69
424.956	862.69
425.178	828.69
425.401	817.69
425.623	867.69
425.846	745.69
426.068	732.69
426.291	731.69
426.513	698.69
426.735	712.69
426.958	746.69
427.18	817.69
427.402	906.69
427.625	970.69
427.847	867.69
428.069	757.69
428.292	744.69
428.514	669.69
428.736	674.69
428.958	647.69
429.181	628.69
429.403	641.69
429.625	662.69
429.847	683.69
430.069	722.69
430.292	743.69
430.514	682.69
430.736	654.69
430.958	648.69
431.18	652.69
431.402	661.69
431.624	653.69
431.846	653.69
432.068	634.69
432.29	654.69
432.512	626.69
432.734	667.69
432.956	633.69
433.178	655.69
433.4	669.69
433.622	660.69
433.844	633.69
434.066	636.69
434.287	673.69
434.509	660.69
434.731	707.69
434.953	705.69
435.175	742.69
435.397	734.69
435.618	714.69
435.84	742.69
436.062	802.69
436.284	840.69
436.505	730.69
436.727	700.69
436.949	685.69
437.17	699.69
437.392	659.69
437.614	691.69
437.835	712.69
438.057	763.69
438.278	819.69
438.5	808.69
438.721	889.69
438.943	863.69
439.165	737.69
439.386	676.69
439.608	689.69
439.829	693.69
440.05	701.69
440.272	743.69
440.493	729.69
440.715	704.69
440.936	698.69
441.158	684.69
441.379	678.69
441.6	714.69
441.822	740.69
442.043	760.69
442.264	813.69
442.486	867.69
442.707	760.69
442.928	724.69
443.149	740.69
443.371	753.69
443.592	783.69
443.813	866.69
444.034	921.69
444.255	839.69
444.476	798.69
444.698	789.69
444.919	803.69
445.14	916.69
445.361	811.69
445.582	776.69
445.803	776.69
446.024	873.69
446.245	833.69
446.466	823.69
446.687	731.69
446.908	669.69
447.129	674.69
447.35	667.69
447.571	639.69
447.792	630.69
448.013	644.69
448.234	643.69
448.455	660.69
448.675	774.69
448.896	887.69
449.117	748.69
449.338	727.69
449.559	799.69
449.779	872.69
450	732.69
450.221	653.69
450.442	642.69
450.662	613.69
450.883	635.69
451.104	651.69
451.324	615.69
451.545	625.69
451.766	623.69
451.986	596.69
452.207	589.69
452.428	591.69
452.648	594.69
452.869	573.69
453.089	592.69
453.31	596.69
453.53	607.69
453.751	605.69
453.971	582.69
454.192	595.69
454.412	584.69
454.633	577.69
454.853	561.69
455.073	597.69
455.294	597.69
455.514	664.69
455.734	611.69
455.955	587.69
456.175	579.69
456.395	574.69
456.616	553.69
456.836	564.69
457.056	540.69
457.276	556.69
457.497	570.69
457.717	562.69
457.937	566.69
458.157	544.69
458.377	574.69
458.598	603.69
458.818	657.69
459.038	707.69
459.258	719.69
459.478	675.69
459.698	657.69
459.918	688.69
460.138	701.69
460.358	718.69
460.578	708.69
460.798	701.69
461.018	724.69
461.238	704.69
461.458	703.69
461.678	692.69
461.898	709.69
462.118	713.69
462.338	747.69
462.558	793.69
462.777	804.69
462.997	819.69
463.217	885.69
463.437	865.69
463.657	833.69
463.876	796.69
464.096	798.69
464.316	780.69
464.536	797.69
464.755	810.69
464.975	775.69
465.195	779.69
465.414	794.69
465.634	701.69
465.854	691.69
466.073	668.69
466.293	667.69
466.512	651.69
466.732	616.69
466.951	620.69
467.171	616.69
467.391	619.69
467.61	642.69
467.829	633.69
468.049	631.69
468.268	617.69
468.488	625.69
468.707	599.69
468.927	603.69
469.146	602.69
469.365	614.69
469.585	591.69
469.804	623.69
470.023	643.69
470.243	644.69
470.462	651.69
470.681	669.69
470.901	653.69
471.12	623.69
471.339	625.69
471.558	615.69
471.777	621.69
471.997	616.69
472.216	623.69
472.435	655.69
472.654	643.69
472.873	628.69
473.092	624.69
473.311	609.69
473.53	608.69
473.749	592.69
473.968	634.69
474.187	721.69
474.406	721.69
474.625	647.69
474.844	608.69
475.063	625.69
475.282	613.69
475.501	633.69
475.72	615.69
475.939	628.69
476.158	632.69
476.377	622.69
476.596	652.69
476.814	631.69
477.033	647.69
477.252	645.69
477.471	703.69
477.69	668.69
477.908	707.69
478.127	700.69
478.346	712.69
478.564	729.69
478.783	754.69
479.002	745.69
479.22	769.69
479.439	742.69
479.658	763.69
479.876	756.69
480.095	765.69
480.313	817.69
480.532	804.69
480.751	804.69
480.969	787.69
481.188	835.69
481.406	861.69
481.624	787.69
481.843	740.69
482.061	738.69
482.28	720.69
482.498	719.69
482.717	711.69
482.935	716.69
483.153	737.69
483.372	720.69
483.59	705.69
483.808	708.69
484.027	724.69
484.245	717.69
484.463	717.69
484.681	746.69
484.9	746.69
485.118	727.69
485.336	744.69
485.554	726.69
485.772	737.69
485.99	739.69
486.209	744.69
486.427	765.69
486.645	759.69
486.863	764.69
487.081	777.69
487.299	753.69
487.517	762.69
487.735	755.69
487.953	749.69
488.171	769.69
488.389	742.69
488.607	744.69
488.825	768.69
489.043	774.69
489.261	760.69
489.479	763.69
489.696	772.69
489.914	792.69
490.132	788.69
490.35	794.69
490.568	804.69
490.786	801.69
491.003	802.69
491.221	806.69
491.439	836.69
491.657	831.69
491.874	850.69
492.092	817.69
492.31	870.69
492.527	882.69
492.745	856.69
492.963	873.69
493.18	864.69
493.398	871.69
493.615	882.69
493.833	887.69
494.05	869.69
494.268	901.69
494.485	874.69
494.703	857.69
494.92	867.69
495.138	881.69
495.355	895.69
495.573	885.69
495.79	886.69
496.008	897.69
496.225	880.69
496.442	891.69
496.66	915.69
496.877	921.69
497.094	914.69
497.312	914.69
497.529	901.69
497.746	933.69
497.963	1001.69
498.181	1035.69
498.398	1048.69
498.615	1076.69
498.832	1138.69
499.049	1184.69
499.267	1197.69
499.484	1319.69
499.701	1394.69
499.918	1485.69
500.135	1655.69
500.352	1758.69
500.569	1837.69
500.786	1813.69
501.003	1719.69
501.22	1599.69
501.437	1516.69
501.654	1403.69
