Data from 1963.PennyLincolnUp.Lamp.En5.5.200Scan.071719.P1._HRD10591_13-59-44-064.txt Node
Date: Thu Jul 18 13:59:44 EDT 2019
User: cochatt
Spectrometer: HR+D1059
Trigger mode: 1
Integration Time (sec): 1.000000E-1
Scans to average: 1
Electric dark correction enabled: true
Nonlinearity correction enabled: false
Boxcar width: 0
XAxis mode: Wavelengths
Number of Pixels in Spectrum: 2048
>>>>>Begin Spectral Data<<<<<
223.165	-24.5
223.4	-24.5
223.635	-24.5
223.869	-12.5
224.104	-5.5
224.338	-3.5
224.573	-16.5
224.808	-11.5
225.042	-1.5
225.277	-17.5
225.511	6.5
225.746	4.5
225.98	6.5
226.215	1.5
226.449	22.5
226.683	23.5
226.918	15.5
227.152	12.5
227.387	33.5
227.621	29.5
227.856	29.5
228.09	36.5
228.324	45.5
228.559	42.5
228.793	58.5
229.027	91.5
229.262	93.5
229.496	111.5
229.73	112.5
229.964	140.5
230.199	117.5
230.433	110.5
230.667	118.5
230.901	105.5
231.136	115.5
231.37	126.5
231.604	116.5
231.838	121.5
232.072	121.5
232.306	106.5
232.541	115.5
232.775	123.5
233.009	124.5
233.243	112.5
233.477	101.5
233.711	110.5
233.945	120.5
234.179	123.5
234.413	124.5
234.647	130.5
234.881	105.5
235.115	113.5
235.349	118.5
235.583	116.5
235.817	126.5
236.051	150.5
236.285	113.5
236.519	129.5
236.753	135.5
236.987	152.5
237.221	158.5
237.455	210.5
237.689	168.5
237.922	156.5
238.156	152.5
238.39	132.5
238.624	130.5
238.858	131.5
239.091	143.5
239.325	146.5
239.559	115.5
239.793	143.5
240.027	156.5
240.26	160.5
240.494	165.5
240.728	154.5
240.961	146.5
241.195	166.5
241.429	137.5
241.662	151.5
241.896	135.5
242.13	140.5
242.363	148.5
242.597	132.5
242.83	143.5
243.064	156.5
243.298	158.5
243.531	146.5
243.765	135.5
243.998	139.5
244.232	156.5
244.465	149.5
244.699	170.5
244.932	160.5
245.166	164.5
245.399	157.5
245.633	157.5
245.866	172.5
246.099	151.5
246.333	168.5
246.566	162.5
246.8	175.5
247.033	182.5
247.266	173.5
247.5	180.5
247.733	195.5
247.966	177.5
248.2	169.5
248.433	188.5
248.666	192.5
248.899	197.5
249.133	190.5
249.366	213.5
249.599	196.5
249.832	193.5
250.066	180.5
250.299	197.5
250.532	212.5
250.765	223.5
250.998	229.5
251.231	233.5
251.465	219.5
251.698	222.5
251.931	224.5
252.164	211.5
252.397	218.5
252.63	217.5
252.863	218.5
253.096	237.5
253.329	233.5
253.562	250.5
253.795	233.5
254.028	247.5
254.261	221.5
254.494	254.5
254.727	269.5
254.96	272.5
255.193	277.5
255.426	256.5
255.659	258.5
255.892	251.5
256.124	242.5
256.357	260.5
256.59	238.5
256.823	225.5
257.056	219.5
257.289	228.5
257.521	234.5
257.754	228.5
257.987	219.5
258.22	211.5
258.452	225.5
258.685	231.5
258.918	232.5
259.151	224.5
259.383	221.5
259.616	216.5
259.849	228.5
260.081	251.5
260.314	245.5
260.547	239.5
260.779	266.5
261.012	251.5
261.244	251.5
261.477	253.5
261.71	223.5
261.942	229.5
262.175	258.5
262.407	231.5
262.64	231.5
262.872	242.5
263.105	229.5
263.337	240.5
263.57	238.5
263.802	236.5
264.035	230.5
264.267	260.5
264.499	248.5
264.732	243.5
264.964	218.5
265.197	220.5
265.429	254.5
265.661	244.5
265.894	260.5
266.126	239.5
266.358	249.5
266.591	270.5
266.823	257.5
267.055	249.5
267.287	244.5
267.52	247.5
267.752	259.5
267.984	255.5
268.216	249.5
268.448	265.5
268.681	281.5
268.913	267.5
269.145	290.5
269.377	293.5
269.609	302.5
269.841	293.5
270.073	290.5
270.306	321.5
270.538	316.5
270.77	340.5
271.002	319.5
271.234	304.5
271.466	327.5
271.698	329.5
271.93	333.5
272.162	342.5
272.394	323.5
272.626	325.5
272.858	305.5
273.09	305.5
273.322	304.5
273.553	290.5
273.785	304.5
274.017	284.5
274.249	297.5
274.481	312.5
274.713	292.5
274.945	289.5
275.176	303.5
275.408	298.5
275.64	302.5
275.872	305.5
276.104	317.5
276.335	308.5
276.567	313.5
276.799	333.5
277.031	350.5
277.262	352.5
277.494	338.5
277.726	342.5
277.957	328.5
278.189	326.5
278.421	322.5
278.652	328.5
278.884	313.5
279.115	321.5
279.347	319.5
279.579	301.5
279.81	316.5
280.042	300.5
280.273	285.5
280.505	305.5
280.736	320.5
280.968	329.5
281.199	322.5
281.431	306.5
281.662	322.5
281.894	325.5
282.125	303.5
282.356	341.5
282.588	333.5
282.819	355.5
283.051	339.5
283.282	332.5
283.513	329.5
283.745	312.5
283.976	324.5
284.207	323.5
284.439	327.5
284.67	334.5
284.901	317.5
285.132	343.5
285.364	335.5
285.595	349.5
285.826	336.5
286.057	343.5
286.288	346.5
286.52	351.5
286.751	323.5
286.982	356.5
287.213	337.5
287.444	367.5
287.675	374.5
287.906	343.5
288.138	366.5
288.369	352.5
288.6	350.5
288.831	360.5
289.062	336.5
289.293	362.5
289.524	351.5
289.755	370.5
289.986	348.5
290.217	340.5
290.448	352.5
290.679	360.5
290.91	356.5
291.141	343.5
291.371	375.5
291.602	357.5
291.833	349.5
292.064	358.5
292.295	353.5
292.526	358.5
292.757	349.5
292.987	377.5
293.218	365.5
293.449	344.5
293.68	359.5
293.91	369.5
294.141	372.5
294.372	365.5
294.603	364.5
294.833	365.5
295.064	354.5
295.295	353.5
295.525	362.5
295.756	376.5
295.987	388.5
296.217	387.5
296.448	390.5
296.679	374.5
296.909	365.5
297.14	382.5
297.37	380.5
297.601	387.5
297.831	378.5
298.062	383.5
298.292	360.5
298.523	366.5
298.753	392.5
298.984	393.5
299.214	405.5
299.445	374.5
299.675	388.5
299.905	382.5
300.136	391.5
300.366	402.5
300.597	387.5
300.827	392.5
301.057	402.5
301.288	406.5
301.518	414.5
301.748	408.5
301.979	408.5
302.209	409.5
302.439	407.5
302.669	408.5
302.9	421.5
303.13	435.5
303.36	411.5
303.59	408.5
303.82	422.5
304.051	420.5
304.281	407.5
304.511	409.5
304.741	413.5
304.971	404.5
305.201	430.5
305.431	404.5
305.661	415.5
305.891	413.5
306.121	434.5
306.352	414.5
306.582	410.5
306.812	424.5
307.042	409.5
307.272	397.5
307.502	401.5
307.731	400.5
307.961	419.5
308.191	407.5
308.421	385.5
308.651	409.5
308.881	400.5
309.111	412.5
309.341	417.5
309.571	438.5
309.8	432.5
310.03	409.5
310.26	430.5
310.49	439.5
310.72	432.5
310.949	440.5
311.179	461.5
311.409	462.5
311.639	442.5
311.868	444.5
312.098	442.5
312.328	449.5
312.557	462.5
312.787	462.5
313.017	468.5
313.246	466.5
313.476	461.5
313.706	447.5
313.935	471.5
314.165	455.5
314.394	464.5
314.624	476.5
314.853	472.5
315.083	471.5
315.312	433.5
315.542	447.5
315.771	481.5
316.001	447.5
316.23	466.5
316.46	459.5
316.689	446.5
316.919	462.5
317.148	441.5
317.377	456.5
317.607	438.5
317.836	452.5
318.065	452.5
318.295	464.5
318.524	463.5
318.753	450.5
318.983	471.5
319.212	439.5
319.441	458.5
319.67	468.5
319.9	456.5
320.129	449.5
320.358	457.5
320.587	462.5
320.816	454.5
321.046	468.5
321.275	492.5
321.504	466.5
321.733	468.5
321.962	453.5
322.191	468.5
322.42	500.5
322.649	493.5
322.878	480.5
323.108	510.5
323.337	510.5
323.566	535.5
323.795	564.5
324.024	574.5
324.253	638.5
324.482	879.5
324.71	1264.5
324.939	1769.5
325.168	1539.5
325.397	873.5
325.626	641.5
325.855	576.5
326.084	553.5
326.313	543.5
326.542	577.5
326.77	578.5
326.999	638.5
327.228	804.5
327.457	1179.5
327.686	1395.5
327.914	925.5
328.143	696.5
328.372	636.5
328.6	623.5
328.829	593.5
329.058	608.5
329.287	605.5
329.515	601.5
329.744	572.5
329.972	566.5
330.201	577.5
330.43	614.5
330.658	612.5
330.887	640.5
331.115	622.5
331.344	576.5
331.572	560.5
331.801	566.5
332.03	563.5
332.258	577.5
332.486	574.5
332.715	554.5
332.943	561.5
333.172	593.5
333.4	629.5
333.629	620.5
333.857	644.5
334.085	640.5
334.314	627.5
334.542	664.5
334.771	686.5
334.999	644.5
335.227	606.5
335.455	590.5
335.684	598.5
335.912	592.5
336.14	561.5
336.369	528.5
336.597	569.5
336.825	580.5
337.053	585.5
337.281	557.5
337.51	532.5
337.738	540.5
337.966	553.5
338.194	538.5
338.422	542.5
338.65	548.5
338.878	548.5
339.106	527.5
339.334	540.5
339.562	545.5
339.79	525.5
340.018	531.5
340.246	545.5
340.474	549.5
340.702	558.5
340.93	539.5
341.158	522.5
341.386	533.5
341.614	524.5
341.842	486.5
342.07	520.5
342.298	521.5
342.526	526.5
342.754	527.5
342.981	510.5
343.209	532.5
343.437	526.5
343.665	541.5
343.893	562.5
344.12	586.5
344.348	599.5
344.576	566.5
344.804	562.5
345.031	551.5
345.259	538.5
345.487	549.5
345.714	535.5
345.942	521.5
346.17	515.5
346.397	532.5
346.625	528.5
346.853	508.5
347.08	506.5
347.308	526.5
347.535	528.5
347.763	516.5
347.99	481.5
348.218	497.5
348.445	531.5
348.673	506.5
348.9	513.5
349.128	488.5
349.355	499.5
349.583	503.5
349.81	500.5
350.037	484.5
350.265	482.5
350.492	509.5
350.72	518.5
350.947	486.5
351.174	489.5
351.402	501.5
351.629	487.5
351.856	519.5
352.083	486.5
352.311	494.5
352.538	489.5
352.765	516.5
352.992	510.5
353.22	505.5
353.447	507.5
353.674	481.5
353.901	490.5
354.128	489.5
354.355	464.5
354.583	487.5
354.81	498.5
355.037	488.5
355.264	486.5
355.491	470.5
355.718	488.5
355.945	494.5
356.172	496.5
356.399	500.5
356.626	482.5
356.853	479.5
357.08	471.5
357.307	480.5
357.534	474.5
357.761	486.5
357.988	483.5
358.215	462.5
358.441	485.5
358.668	477.5
358.895	498.5
359.122	502.5
359.349	502.5
359.576	514.5
359.802	519.5
360.029	528.5
360.256	551.5
360.483	504.5
360.709	486.5
360.936	493.5
361.163	504.5
361.39	508.5
361.616	505.5
361.843	507.5
362.07	527.5
362.296	528.5
362.523	515.5
362.749	527.5
362.976	486.5
363.203	500.5
363.429	485.5
363.656	492.5
363.882	496.5
364.109	496.5
364.335	509.5
364.562	498.5
364.788	487.5
365.015	474.5
365.241	486.5
365.468	503.5
365.694	482.5
365.92	525.5
366.147	518.5
366.373	479.5
366.599	484.5
366.826	484.5
367.052	481.5
367.278	465.5
367.505	481.5
367.731	508.5
367.957	483.5
368.184	487.5
368.41	505.5
368.636	512.5
368.862	516.5
369.089	493.5
369.315	525.5
369.541	500.5
369.767	501.5
369.993	492.5
370.219	500.5
370.445	513.5
370.672	512.5
370.898	499.5
371.124	528.5
371.35	512.5
371.576	521.5
371.802	508.5
372.028	493.5
372.254	506.5
372.48	496.5
372.706	538.5
372.932	545.5
373.158	522.5
373.384	516.5
373.61	523.5
373.835	497.5
374.061	502.5
374.287	540.5
374.513	513.5
374.739	528.5
374.965	530.5
375.191	558.5
375.416	544.5
375.642	528.5
375.868	514.5
376.094	503.5
376.319	517.5
376.545	511.5
376.771	538.5
376.997	508.5
377.222	506.5
377.448	498.5
377.674	508.5
377.899	497.5
378.125	522.5
378.35	511.5
378.576	521.5
378.802	528.5
379.027	510.5
379.253	515.5
379.478	504.5
379.704	471.5
379.929	510.5
380.155	520.5
380.38	498.5
380.606	544.5
380.831	535.5
381.057	519.5
381.282	498.5
381.507	526.5
381.733	520.5
381.958	518.5
382.184	533.5
382.409	527.5
382.634	539.5
382.86	540.5
383.085	563.5
383.31	510.5
383.535	534.5
383.761	534.5
383.986	542.5
384.211	544.5
384.436	558.5
384.662	590.5
384.887	553.5
385.112	578.5
385.337	596.5
385.562	588.5
385.787	589.5
386.013	593.5
386.238	566.5
386.463	601.5
386.688	586.5
386.913	575.5
387.138	574.5
387.363	580.5
387.588	596.5
387.813	574.5
388.038	559.5
388.263	591.5
388.488	604.5
388.713	596.5
388.938	575.5
389.163	575.5
389.387	598.5
389.612	556.5
389.837	571.5
390.062	586.5
390.287	576.5
390.512	608.5
390.736	574.5
390.961	593.5
391.186	599.5
391.411	610.5
391.636	601.5
391.86	636.5
392.085	642.5
392.31	661.5
392.534	644.5
392.759	619.5
392.984	623.5
393.208	609.5
393.433	602.5
393.658	643.5
393.882	600.5
394.107	624.5
394.331	613.5
394.556	601.5
394.78	611.5
395.005	597.5
395.229	595.5
395.454	625.5
395.678	654.5
395.903	665.5
396.127	666.5
396.352	658.5
396.576	641.5
396.801	640.5
397.025	628.5
397.249	641.5
397.474	632.5
397.698	640.5
397.922	656.5
398.147	676.5
398.371	673.5
398.595	656.5
398.82	714.5
399.044	721.5
399.268	787.5
399.492	853.5
399.717	910.5
399.941	969.5
400.165	900.5
400.389	886.5
400.613	813.5
400.837	741.5
401.062	733.5
401.286	732.5
401.51	707.5
401.734	688.5
401.958	701.5
402.182	712.5
402.406	720.5
402.63	739.5
402.854	733.5
403.078	745.5
403.302	748.5
403.526	772.5
403.75	769.5
403.974	760.5
404.198	793.5
404.422	770.5
404.645	749.5
404.869	791.5
405.093	801.5
405.317	826.5
405.541	839.5
405.765	802.5
405.988	757.5
406.212	808.5
406.436	781.5
406.66	800.5
406.883	779.5
407.107	852.5
407.331	914.5
407.555	961.5
407.778	940.5
408.002	864.5
408.226	852.5
408.449	796.5
408.673	829.5
408.896	828.5
409.12	866.5
409.344	827.5
409.567	766.5
409.791	750.5
410.014	752.5
410.238	749.5
410.461	754.5
410.685	748.5
410.908	745.5
411.132	772.5
411.355	801.5
411.578	784.5
411.802	752.5
412.025	729.5
412.249	750.5
412.472	758.5
412.695	800.5
412.919	763.5
413.142	722.5
413.365	708.5
413.589	735.5
413.812	698.5
414.035	687.5
414.258	692.5
414.482	709.5
414.705	714.5
414.928	718.5
415.151	735.5
415.374	708.5
415.597	720.5
415.821	709.5
416.044	700.5
416.267	688.5
416.49	681.5
416.713	700.5
416.936	711.5
417.159	669.5
417.382	700.5
417.605	709.5
417.828	698.5
418.051	723.5
418.274	705.5
418.497	706.5
418.72	707.5
418.943	705.5
419.166	756.5
419.389	797.5
419.611	757.5
419.834	745.5
420.057	763.5
420.28	728.5
420.503	710.5
420.726	728.5
420.948	705.5
421.171	762.5
421.394	792.5
421.617	725.5
421.839	699.5
422.062	706.5
422.285	725.5
422.507	801.5
422.73	847.5
422.953	821.5
423.175	755.5
423.398	758.5
423.621	759.5
423.843	756.5
424.066	793.5
424.288	763.5
424.511	749.5
424.733	790.5
424.956	878.5
425.178	856.5
425.401	850.5
425.623	862.5
425.846	765.5
426.068	726.5
426.291	748.5
426.513	721.5
426.735	714.5
426.958	775.5
427.18	820.5
427.402	924.5
427.625	975.5
427.847	880.5
428.069	802.5
428.292	743.5
428.514	678.5
428.736	669.5
428.958	693.5
429.181	654.5
429.403	661.5
429.625	665.5
429.847	684.5
430.069	762.5
430.292	733.5
430.514	662.5
430.736	654.5
430.958	671.5
431.18	645.5
431.402	640.5
431.624	663.5
431.846	642.5
432.068	672.5
432.29	669.5
432.512	670.5
432.734	656.5
432.956	654.5
433.178	656.5
433.4	666.5
433.622	654.5
433.844	654.5
434.066	656.5
434.287	660.5
434.509	663.5
434.731	675.5
434.953	704.5
435.175	735.5
435.397	743.5
435.618	744.5
435.84	742.5
436.062	782.5
436.284	869.5
436.505	765.5
436.727	707.5
436.949	666.5
437.17	663.5
437.392	656.5
437.614	657.5
437.835	696.5
438.057	780.5
438.278	822.5
438.5	837.5
438.721	878.5
438.943	889.5
439.165	760.5
439.386	703.5
439.608	707.5
439.829	686.5
440.05	727.5
440.272	738.5
440.493	723.5
440.715	694.5
440.936	679.5
441.158	694.5
441.379	686.5
441.6	732.5
441.822	723.5
442.043	768.5
442.264	836.5
442.486	846.5
442.707	786.5
442.928	718.5
443.149	726.5
443.371	769.5
443.592	782.5
443.813	879.5
444.034	933.5
444.255	845.5
444.476	781.5
444.698	809.5
444.919	809.5
445.14	916.5
445.361	824.5
445.582	794.5
445.803	793.5
446.024	899.5
446.245	873.5
446.466	819.5
446.687	728.5
446.908	702.5
447.129	676.5
447.35	663.5
447.571	658.5
447.792	642.5
448.013	636.5
448.234	675.5
448.455	712.5
448.675	775.5
448.896	872.5
449.117	788.5
449.338	724.5
449.559	792.5
449.779	928.5
450	773.5
450.221	673.5
450.442	660.5
450.662	644.5
450.883	644.5
451.104	639.5
451.324	637.5
451.545	616.5
451.766	601.5
451.986	604.5
452.207	596.5
452.428	579.5
452.648	598.5
452.869	569.5
453.089	587.5
453.31	612.5
453.53	588.5
453.751	605.5
453.971	594.5
454.192	590.5
454.412	583.5
454.633	596.5
454.853	577.5
455.073	588.5
455.294	586.5
455.514	657.5
455.734	632.5
455.955	599.5
456.175	575.5
456.395	582.5
456.616	547.5
456.836	572.5
457.056	556.5
457.276	531.5
457.497	559.5
457.717	577.5
457.937	570.5
458.157	604.5
458.377	573.5
458.598	596.5
458.818	611.5
459.038	720.5
459.258	734.5
459.478	673.5
459.698	662.5
459.918	660.5
460.138	673.5
460.358	699.5
460.578	704.5
460.798	697.5
461.018	727.5
461.238	709.5
461.458	689.5
461.678	681.5
461.898	717.5
462.118	706.5
462.338	757.5
462.558	783.5
462.777	790.5
462.997	832.5
463.217	872.5
463.437	878.5
463.657	798.5
463.876	814.5
464.096	782.5
464.316	776.5
464.536	796.5
464.755	807.5
464.975	782.5
465.195	772.5
465.414	792.5
465.634	742.5
465.854	659.5
466.073	660.5
466.293	665.5
466.512	628.5
466.732	646.5
466.951	625.5
467.171	635.5
467.391	639.5
467.61	641.5
467.829	634.5
468.049	609.5
468.268	617.5
468.488	602.5
468.707	586.5
468.927	596.5
469.146	611.5
469.365	609.5
469.585	613.5
469.804	621.5
470.023	632.5
470.243	652.5
470.462	644.5
470.681	638.5
470.901	656.5
471.12	628.5
471.339	638.5
471.558	629.5
471.777	614.5
471.997	622.5
472.216	617.5
472.435	632.5
472.654	652.5
472.873	630.5
473.092	633.5
473.311	631.5
473.53	597.5
473.749	605.5
473.968	640.5
474.187	710.5
474.406	739.5
474.625	672.5
474.844	640.5
475.063	625.5
475.282	609.5
475.501	596.5
475.72	632.5
475.939	626.5
476.158	623.5
476.377	618.5
476.596	630.5
476.814	639.5
477.033	664.5
477.252	660.5
477.471	670.5
477.69	655.5
477.908	698.5
478.127	689.5
478.346	681.5
478.564	711.5
478.783	726.5
479.002	758.5
479.22	725.5
479.439	758.5
479.658	771.5
479.876	765.5
480.095	767.5
480.313	792.5
480.532	797.5
480.751	782.5
480.969	777.5
481.188	854.5
481.406	844.5
481.624	784.5
481.843	754.5
482.061	744.5
482.28	740.5
482.498	709.5
482.717	707.5
482.935	703.5
483.153	715.5
483.372	714.5
483.59	720.5
483.808	699.5
484.027	724.5
484.245	734.5
484.463	724.5
484.681	724.5
484.9	714.5
485.118	746.5
485.336	740.5
485.554	748.5
485.772	775.5
485.99	737.5
486.209	718.5
486.427	756.5
486.645	766.5
486.863	767.5
487.081	741.5
487.299	739.5
487.517	764.5
487.735	765.5
487.953	773.5
488.171	774.5
488.389	754.5
488.607	776.5
488.825	750.5
489.043	748.5
489.261	784.5
489.479	776.5
489.696	777.5
489.914	814.5
490.132	778.5
490.35	798.5
490.568	782.5
490.786	823.5
491.003	809.5
491.221	834.5
491.439	828.5
491.657	826.5
491.874	857.5
492.092	855.5
492.31	858.5
492.527	867.5
492.745	865.5
492.963	868.5
493.18	878.5
493.398	876.5
493.615	886.5
493.833	888.5
494.05	894.5
494.268	887.5
494.485	882.5
494.703	891.5
494.92	884.5
495.138	892.5
495.355	890.5
495.573	887.5
495.79	896.5
496.008	912.5
496.225	909.5
496.442	875.5
496.66	893.5
496.877	920.5
497.094	948.5
497.312	938.5
497.529	944.5
497.746	969.5
497.963	974.5
498.181	1015.5
498.398	1035.5
498.615	1104.5
498.832	1142.5
499.049	1142.5
499.267	1191.5
499.484	1310.5
499.701	1396.5
499.918	1519.5
500.135	1613.5
500.352	1776.5
500.569	1829.5
500.786	1812.5
501.003	1760.5
501.22	1625.5
501.437	1518.5
501.654	1411.5
501.871	1373.5
502.088	1242.5
502.305	1184.5
502.522	1146.5
502.739	1118.5
502.956	1031.5
503.172	1024.5
503.389	985.5
503.606	985.5
503.823	989.5
504.04	960.5
504.256	961.5
504.473	949.5
504.69	991.5
504.907	961.5
505.123	893.5
505.34	883.5
505.557	881.5
505.773	844.5
505.99	854.5
506.207	860.5
506.423	845.5
506.64	826.5
506.856	819.5
507.073	829.5
507.289	802.5
507.506	800.5
507.722	838.5
507.939	824.5
508.155	811.5
508.372	788.5
508.588	774.5
508.805	753.5
509.021	783.5
509.238	800.5
509.454	785.5
509.67	777.5
509.887	789.5
510.103	813.5
510.319	746.5
510.536	842.5
510.752	1267.5
510.968	1070.5
511.184	776.5
511.401	739.5
511.617	717.5
511.833	719.5
512.049	737.5
512.265	722.5
512.481	732.5
512.698	723.5
512.914	724.5
513.13	714.5
513.346	720.5
513.562	732.5
513.778	737.5
513.994	743.5
514.21	733.5
514.426	775.5
514.642	771.5
514.858	778.5
515.074	840.5
515.29	927.5
515.506	1271.5
515.721	1100.5
515.937	848.5
516.153	811.5
516.369	786.5
516.585	776.5
516.801	811.5
517.016	853.5
517.232	827.5
517.448	892.5
517.664	900.5
517.879	864.5
518.095	902.5
518.311	857.5
518.527	865.5
518.742	832.5
518.958	823.5
519.173	810.5
519.389	789.5
519.605	782.5
