Data from 1963.PennyLincolnUp.Lamp.En5.5.200Scan.071719.P1._HRD10591_13-59-35-063.txt Node
Date: Thu Jul 18 13:59:35 EDT 2019
User: cochatt
Spectrometer: HR+D1059
Trigger mode: 1
Integration Time (sec): 1.000000E-1
Scans to average: 1
Electric dark correction enabled: true
Nonlinearity correction enabled: false
Boxcar width: 0
XAxis mode: Wavelengths
Number of Pixels in Spectrum: 2048
>>>>>Begin Spectral Data<<<<<
223.165	-13.06
223.4	-13.06
223.635	-13.06
223.869	-8.06
224.104	-19.06
224.338	-24.06
224.573	-5.06
224.808	-26.06
225.042	-0.06
225.277	-9.06
225.511	-5.06
225.746	8.94
225.98	2.94
226.215	7.94
226.449	10.94
226.683	9.94
226.918	27.94
227.152	40.94
227.387	26.94
227.621	47.94
227.856	53.94
228.09	41.94
228.324	47.94
228.559	62.94
228.793	61.94
229.027	105.94
229.262	122.94
229.496	111.94
229.73	130.94
229.964	150.94
230.199	123.94
230.433	109.94
230.667	117.94
230.901	123.94
231.136	108.94
231.37	107.94
231.604	120.94
231.838	126.94
232.072	125.94
232.306	116.94
232.541	130.94
232.775	125.94
233.009	130.94
233.243	126.94
233.477	121.94
233.711	122.94
233.945	133.94
234.179	135.94
234.413	123.94
234.647	118.94
234.881	117.94
235.115	137.94
235.349	135.94
235.583	126.94
235.817	134.94
236.051	128.94
236.285	134.94
236.519	124.94
236.753	142.94
236.987	160.94
237.221	173.94
237.455	213.94
237.689	191.94
237.922	170.94
238.156	134.94
238.39	143.94
238.624	143.94
238.858	136.94
239.091	128.94
239.325	130.94
239.559	144.94
239.793	152.94
240.027	144.94
240.26	153.94
240.494	169.94
240.728	144.94
240.961	168.94
241.195	161.94
241.429	161.94
241.662	159.94
241.896	155.94
242.13	145.94
242.363	146.94
242.597	152.94
242.83	166.94
243.064	151.94
243.298	156.94
243.531	155.94
243.765	139.94
243.998	147.94
244.232	167.94
244.465	164.94
244.699	157.94
244.932	152.94
245.166	159.94
245.399	173.94
245.633	173.94
245.866	174.94
246.099	178.94
246.333	181.94
246.566	171.94
246.8	181.94
247.033	179.94
247.266	184.94
247.5	188.94
247.733	183.94
247.966	202.94
248.2	210.94
248.433	191.94
248.666	207.94
248.899	200.94
249.133	213.94
249.366	208.94
249.599	217.94
249.832	208.94
250.066	188.94
250.299	206.94
250.532	215.94
250.765	236.94
250.998	230.94
251.231	247.94
251.465	219.94
251.698	230.94
251.931	215.94
252.164	205.94
252.397	230.94
252.63	237.94
252.863	219.94
253.096	217.94
253.329	238.94
253.562	250.94
253.795	234.94
254.028	237.94
254.261	229.94
254.494	246.94
254.727	265.94
254.96	298.94
255.193	281.94
255.426	252.94
255.659	244.94
255.892	245.94
256.124	257.94
256.357	251.94
256.59	268.94
256.823	238.94
257.056	254.94
257.289	229.94
257.521	243.94
257.754	226.94
257.987	235.94
258.22	235.94
258.452	238.94
258.685	230.94
258.918	246.94
259.151	242.94
259.383	223.94
259.616	234.94
259.849	234.94
260.081	268.94
260.314	267.94
260.547	270.94
260.779	275.94
261.012	250.94
261.244	234.94
261.477	246.94
261.71	254.94
261.942	257.94
262.175	255.94
262.407	252.94
262.64	242.94
262.872	235.94
263.105	232.94
263.337	239.94
263.57	253.94
263.802	253.94
264.035	261.94
264.267	265.94
264.499	250.94
264.732	256.94
264.964	241.94
265.197	267.94
265.429	244.94
265.661	254.94
265.894	261.94
266.126	277.94
266.358	267.94
266.591	257.94
266.823	253.94
267.055	279.94
267.287	278.94
267.52	267.94
267.752	260.94
267.984	271.94
268.216	255.94
268.448	265.94
268.681	300.94
268.913	286.94
269.145	293.94
269.377	311.94
269.609	309.94
269.841	309.94
270.073	315.94
270.306	330.94
270.538	348.94
270.77	343.94
271.002	333.94
271.234	326.94
271.466	321.94
271.698	337.94
271.93	336.94
272.162	354.94
272.394	350.94
272.626	328.94
272.858	328.94
273.09	322.94
273.322	321.94
273.553	311.94
273.785	312.94
274.017	323.94
274.249	285.94
274.481	310.94
274.713	302.94
274.945	310.94
275.176	328.94
275.408	303.94
275.64	312.94
275.872	312.94
276.104	311.94
276.335	325.94
276.567	308.94
276.799	316.94
277.031	347.94
277.262	354.94
277.494	353.94
277.726	337.94
277.957	335.94
278.189	340.94
278.421	338.94
278.652	318.94
278.884	315.94
279.115	333.94
279.347	314.94
279.579	318.94
279.81	341.94
280.042	336.94
280.273	334.94
280.505	328.94
280.736	324.94
280.968	314.94
281.199	340.94
281.431	344.94
281.662	332.94
281.894	334.94
282.125	338.94
282.356	364.94
282.588	352.94
282.819	386.94
283.051	345.94
283.282	331.94
283.513	328.94
283.745	324.94
283.976	357.94
284.207	336.94
284.439	332.94
284.67	337.94
284.901	354.94
285.132	363.94
285.364	338.94
285.595	335.94
285.826	344.94
286.057	358.94
286.288	335.94
286.52	363.94
286.751	370.94
286.982	345.94
287.213	352.94
287.444	362.94
287.675	355.94
287.906	387.94
288.138	368.94
288.369	374.94
288.6	393.94
288.831	372.94
289.062	383.94
289.293	368.94
289.524	380.94
289.755	374.94
289.986	384.94
290.217	347.94
290.448	368.94
290.679	363.94
290.91	366.94
291.141	356.94
291.371	356.94
291.602	359.94
291.833	364.94
292.064	363.94
292.295	380.94
292.526	370.94
292.757	372.94
292.987	363.94
293.218	352.94
293.449	378.94
293.68	381.94
293.91	391.94
294.141	379.94
294.372	375.94
294.603	380.94
294.833	368.94
295.064	373.94
295.295	376.94
295.525	372.94
295.756	385.94
295.987	381.94
296.217	397.94
296.448	422.94
296.679	416.94
296.909	397.94
297.14	398.94
297.37	404.94
297.601	392.94
297.831	386.94
298.062	383.94
298.292	368.94
298.523	405.94
298.753	386.94
298.984	386.94
299.214	397.94
299.445	407.94
299.675	392.94
299.905	399.94
300.136	420.94
300.366	403.94
300.597	415.94
300.827	394.94
301.057	431.94
301.288	422.94
301.518	428.94
301.748	418.94
301.979	440.94
302.209	438.94
302.439	429.94
302.669	408.94
302.9	404.94
303.13	422.94
303.36	435.94
303.59	418.94
303.82	434.94
304.051	444.94
304.281	431.94
304.511	418.94
304.741	405.94
304.971	416.94
305.201	430.94
305.431	403.94
305.661	390.94
305.891	440.94
306.121	406.94
306.352	421.94
306.582	449.94
306.812	413.94
307.042	416.94
307.272	413.94
307.502	425.94
307.731	436.94
307.961	422.94
308.191	420.94
308.421	421.94
308.651	420.94
308.881	437.94
309.111	434.94
309.341	434.94
309.571	427.94
309.8	452.94
310.03	448.94
310.26	446.94
310.49	448.94
310.72	461.94
310.949	479.94
311.179	454.94
311.409	468.94
311.639	462.94
311.868	455.94
312.098	462.94
312.328	461.94
312.557	482.94
312.787	466.94
313.017	468.94
313.246	474.94
313.476	485.94
313.706	467.94
313.935	475.94
314.165	467.94
314.394	487.94
314.624	488.94
314.853	476.94
315.083	479.94
315.312	456.94
315.542	477.94
315.771	445.94
316.001	480.94
316.23	461.94
316.46	464.94
316.689	463.94
316.919	487.94
317.148	472.94
317.377	472.94
317.607	468.94
317.836	492.94
318.065	463.94
318.295	450.94
318.524	476.94
318.753	462.94
318.983	456.94
319.212	472.94
319.441	489.94
319.67	472.94
319.9	472.94
320.129	477.94
320.358	461.94
320.587	481.94
320.816	504.94
321.046	484.94
321.275	479.94
321.504	482.94
321.733	479.94
321.962	487.94
322.191	508.94
322.42	500.94
322.649	533.94
322.878	534.94
323.108	531.94
323.337	527.94
323.566	564.94
323.795	588.94
324.024	607.94
324.253	678.94
324.482	908.94
324.71	1304.94
324.939	1852.94
325.168	1599.94
325.397	886.94
325.626	652.94
325.855	597.94
326.084	572.94
326.313	540.94
326.542	570.94
326.77	605.94
326.999	672.94
327.228	856.94
327.457	1235.94
327.686	1455.94
327.914	1034.94
328.143	720.94
328.372	655.94
328.6	618.94
328.829	590.94
329.058	591.94
329.287	644.94
329.515	595.94
329.744	572.94
329.972	599.94
330.201	599.94
330.43	639.94
330.658	646.94
330.887	659.94
331.115	627.94
331.344	581.94
331.572	582.94
331.801	585.94
332.03	609.94
332.258	591.94
332.486	579.94
332.715	593.94
332.943	606.94
333.172	612.94
333.4	639.94
333.629	636.94
333.857	673.94
334.085	679.94
334.314	680.94
334.542	665.94
334.771	719.94
334.999	678.94
335.227	651.94
335.455	620.94
335.684	606.94
335.912	616.94
336.14	586.94
336.369	613.94
336.597	606.94
336.825	592.94
337.053	590.94
337.281	587.94
337.51	583.94
337.738	589.94
337.966	574.94
338.194	587.94
338.422	594.94
338.65	571.94
338.878	570.94
339.106	566.94
339.334	565.94
339.562	544.94
339.79	535.94
340.018	538.94
340.246	564.94
340.474	539.94
340.702	533.94
340.93	569.94
341.158	544.94
341.386	552.94
341.614	550.94
341.842	533.94
342.07	525.94
342.298	544.94
342.526	518.94
342.754	568.94
342.981	527.94
343.209	540.94
343.437	582.94
343.665	584.94
343.893	605.94
344.12	598.94
344.348	599.94
344.576	600.94
344.804	573.94
345.031	562.94
345.259	551.94
345.487	535.94
345.714	565.94
345.942	565.94
346.17	543.94
346.397	511.94
346.625	524.94
346.853	499.94
347.08	496.94
347.308	515.94
347.535	518.94
347.763	540.94
347.99	540.94
348.218	533.94
348.445	540.94
348.673	524.94
348.9	525.94
349.128	510.94
349.355	508.94
349.583	514.94
349.81	492.94
350.037	508.94
350.265	533.94
350.492	524.94
350.72	532.94
350.947	518.94
351.174	536.94
351.402	525.94
351.629	531.94
351.856	517.94
352.083	511.94
352.311	522.94
352.538	514.94
352.765	514.94
352.992	498.94
353.22	512.94
353.447	498.94
353.674	505.94
353.901	504.94
354.128	507.94
354.355	494.94
354.583	503.94
354.81	487.94
355.037	512.94
355.264	505.94
355.491	495.94
355.718	504.94
355.945	510.94
356.172	491.94
356.399	489.94
356.626	526.94
356.853	511.94
357.08	499.94
357.307	484.94
357.534	521.94
357.761	522.94
357.988	492.94
358.215	497.94
358.441	492.94
358.668	513.94
358.895	503.94
359.122	501.94
359.349	511.94
359.576	542.94
359.802	529.94
360.029	543.94
360.256	557.94
360.483	549.94
360.709	523.94
360.936	521.94
361.163	524.94
361.39	516.94
361.616	518.94
361.843	507.94
362.07	528.94
362.296	525.94
362.523	527.94
362.749	521.94
362.976	512.94
363.203	510.94
363.429	504.94
363.656	498.94
363.882	512.94
364.109	520.94
364.335	521.94
364.562	524.94
364.788	512.94
365.015	517.94
365.241	516.94
365.468	513.94
365.694	511.94
365.92	505.94
366.147	500.94
366.373	507.94
366.599	498.94
366.826	491.94
367.052	512.94
367.278	493.94
367.505	514.94
367.731	514.94
367.957	510.94
368.184	511.94
368.41	517.94
368.636	529.94
368.862	541.94
369.089	514.94
369.315	508.94
369.541	490.94
369.767	504.94
369.993	510.94
370.219	521.94
370.445	538.94
370.672	520.94
370.898	535.94
371.124	549.94
371.35	542.94
371.576	529.94
371.802	532.94
372.028	529.94
372.254	524.94
372.48	534.94
372.706	533.94
372.932	547.94
373.158	555.94
373.384	538.94
373.61	557.94
373.835	524.94
374.061	545.94
374.287	525.94
374.513	543.94
374.739	548.94
374.965	575.94
375.191	567.94
375.416	555.94
375.642	538.94
375.868	528.94
376.094	540.94
376.319	559.94
376.545	551.94
376.771	503.94
376.997	554.94
377.222	543.94
377.448	532.94
377.674	531.94
377.899	526.94
378.125	503.94
378.35	528.94
378.576	541.94
378.802	525.94
379.027	538.94
379.253	526.94
379.478	494.94
379.704	526.94
379.929	533.94
380.155	535.94
380.38	538.94
380.606	522.94
380.831	527.94
381.057	529.94
381.282	540.94
381.507	552.94
381.733	532.94
381.958	534.94
382.184	537.94
382.409	535.94
382.634	539.94
382.86	568.94
383.085	550.94
383.31	542.94
383.535	570.94
383.761	566.94
383.986	562.94
384.211	581.94
384.436	595.94
384.662	585.94
384.887	601.94
385.112	606.94
385.337	596.94
385.562	598.94
385.787	624.94
386.013	596.94
386.238	639.94
386.463	627.94
386.688	628.94
386.913	617.94
387.138	598.94
387.363	610.94
387.588	604.94
387.813	591.94
388.038	598.94
388.263	635.94
388.488	638.94
388.713	606.94
388.938	624.94
389.163	599.94
389.387	588.94
389.612	569.94
389.837	596.94
390.062	610.94
390.287	615.94
390.512	605.94
390.736	596.94
390.961	587.94
391.186	622.94
391.411	609.94
391.636	636.94
391.86	641.94
392.085	650.94
392.31	646.94
392.534	654.94
392.759	643.94
392.984	628.94
393.208	638.94
393.433	645.94
393.658	622.94
393.882	635.94
394.107	646.94
394.331	655.94
394.556	634.94
394.78	618.94
395.005	626.94
395.229	653.94
395.454	661.94
395.678	649.94
395.903	662.94
396.127	680.94
396.352	682.94
396.576	661.94
396.801	646.94
397.025	660.94
397.249	636.94
397.474	672.94
397.698	674.94
397.922	695.94
398.147	698.94
398.371	680.94
398.595	685.94
398.82	735.94
399.044	783.94
399.268	809.94
399.492	876.94
399.717	994.94
399.941	1000.94
400.165	924.94
400.389	920.94
400.613	826.94
400.837	782.94
401.062	743.94
401.286	746.94
401.51	722.94
401.734	744.94
401.958	739.94
402.182	737.94
402.406	754.94
402.63	755.94
402.854	761.94
403.078	764.94
403.302	792.94
403.526	766.94
403.75	790.94
403.974	786.94
404.198	814.94
404.422	778.94
404.645	836.94
404.869	811.94
405.093	829.94
405.317	859.94
405.541	869.94
405.765	820.94
405.988	792.94
406.212	819.94
406.436	821.94
406.66	847.94
406.883	815.94
407.107	851.94
407.331	943.94
407.555	986.94
407.778	960.94
408.002	930.94
408.226	861.94
408.449	879.94
408.673	840.94
408.896	836.94
409.12	858.94
409.344	859.94
409.567	798.94
409.791	803.94
410.014	762.94
410.238	759.94
410.461	782.94
410.685	776.94
410.908	772.94
411.132	810.94
411.355	824.94
411.578	809.94
411.802	743.94
412.025	762.94
412.249	750.94
412.472	790.94
412.695	800.94
412.919	815.94
413.142	780.94
413.365	749.94
413.589	749.94
413.812	739.94
414.035	726.94
414.258	728.94
414.482	741.94
414.705	710.94
414.928	732.94
415.151	765.94
415.374	718.94
415.597	708.94
415.821	717.94
416.044	724.94
416.267	728.94
416.49	717.94
416.713	727.94
416.936	758.94
417.159	724.94
417.382	714.94
417.605	713.94
417.828	749.94
418.051	768.94
418.274	751.94
418.497	732.94
418.72	719.94
418.943	748.94
419.166	768.94
419.389	804.94
419.611	806.94
419.834	782.94
420.057	738.94
420.28	734.94
420.503	740.94
420.726	767.94
420.948	762.94
421.171	775.94
421.394	802.94
421.617	748.94
421.839	739.94
422.062	746.94
422.285	750.94
422.507	813.94
422.73	882.94
422.953	858.94
423.175	782.94
423.398	764.94
423.621	757.94
423.843	780.94
424.066	823.94
424.288	793.94
424.511	804.94
424.733	824.94
424.956	887.94
425.178	878.94
425.401	867.94
425.623	869.94
425.846	762.94
426.068	741.94
426.291	763.94
426.513	739.94
426.735	744.94
426.958	773.94
427.18	834.94
427.402	959.94
427.625	1036.94
427.847	881.94
428.069	807.94
428.292	763.94
428.514	729.94
428.736	723.94
428.958	707.94
429.181	696.94
429.403	659.94
429.625	699.94
429.847	726.94
430.069	773.94
430.292	776.94
430.514	707.94
430.736	698.94
430.958	642.94
431.18	652.94
431.402	687.94
431.624	662.94
431.846	656.94
432.068	673.94
432.29	674.94
432.512	675.94
432.734	679.94
432.956	669.94
433.178	681.94
433.4	654.94
433.622	663.94
433.844	656.94
434.066	696.94
434.287	661.94
434.509	695.94
434.731	715.94
434.953	724.94
435.175	759.94
435.397	760.94
435.618	728.94
435.84	764.94
436.062	846.94
436.284	887.94
436.505	781.94
436.727	737.94
436.949	699.94
437.17	692.94
437.392	690.94
437.614	666.94
437.835	702.94
438.057	791.94
438.278	850.94
438.5	857.94
438.721	920.94
438.943	911.94
439.165	776.94
439.386	725.94
439.608	725.94
439.829	703.94
440.05	755.94
440.272	781.94
440.493	765.94
440.715	726.94
440.936	715.94
441.158	700.94
441.379	706.94
441.6	755.94
441.822	744.94
442.043	770.94
442.264	855.94
442.486	889.94
442.707	788.94
442.928	746.94
443.149	767.94
443.371	786.94
443.592	823.94
443.813	891.94
444.034	950.94
444.255	846.94
444.476	797.94
444.698	830.94
444.919	837.94
445.14	958.94
445.361	868.94
445.582	817.94
445.803	855.94
446.024	903.94
446.245	904.94
446.466	841.94
446.687	756.94
446.908	687.94
447.129	700.94
447.35	684.94
447.571	689.94
447.792	659.94
448.013	659.94
448.234	700.94
448.455	718.94
448.675	815.94
448.896	892.94
449.117	804.94
449.338	746.94
449.559	867.94
449.779	917.94
450	826.94
450.221	694.94
450.442	661.94
450.662	646.94
450.883	636.94
451.104	670.94
451.324	654.94
451.545	647.94
451.766	611.94
451.986	615.94
452.207	588.94
452.428	620.94
452.648	615.94
452.869	615.94
453.089	608.94
453.31	616.94
453.53	626.94
453.751	594.94
453.971	633.94
454.192	615.94
454.412	632.94
454.633	595.94
454.853	588.94
455.073	566.94
455.294	615.94
455.514	653.94
455.734	652.94
455.955	612.94
456.175	559.94
456.395	576.94
456.616	579.94
456.836	586.94
457.056	599.94
457.276	546.94
457.497	564.94
457.717	575.94
457.937	582.94
458.157	585.94
458.377	601.94
458.598	629.94
458.818	702.94
459.038	728.94
459.258	749.94
459.478	709.94
459.698	691.94
459.918	697.94
460.138	715.94
460.358	732.94
460.578	744.94
460.798	744.94
461.018	754.94
461.238	738.94
461.458	725.94
461.678	699.94
461.898	744.94
462.118	741.94
462.338	776.94
462.558	758.94
462.777	799.94
462.997	826.94
463.217	888.94
463.437	900.94
463.657	865.94
463.876	844.94
464.096	826.94
464.316	801.94
464.536	824.94
464.755	827.94
464.975	794.94
465.195	781.94
465.414	818.94
465.634	781.94
465.854	698.94
466.073	678.94
466.293	654.94
466.512	673.94
466.732	630.94
466.951	654.94
467.171	653.94
467.391	654.94
467.61	632.94
467.829	642.94
468.049	658.94
468.268	657.94
468.488	619.94
468.707	633.94
468.927	626.94
469.146	619.94
469.365	633.94
469.585	615.94
469.804	652.94
470.023	666.94
470.243	643.94
470.462	665.94
470.681	678.94
470.901	680.94
471.12	646.94
471.339	648.94
471.558	644.94
471.777	644.94
471.997	639.94
472.216	656.94
472.435	672.94
472.654	658.94
472.873	657.94
473.092	639.94
473.311	622.94
473.53	640.94
473.749	635.94
473.968	659.94
474.187	737.94
474.406	752.94
474.625	656.94
474.844	610.94
475.063	648.94
475.282	626.94
475.501	625.94
475.72	628.94
475.939	653.94
476.158	634.94
476.377	649.94
476.596	654.94
476.814	663.94
477.033	658.94
477.252	688.94
477.471	672.94
477.69	680.94
477.908	715.94
478.127	708.94
478.346	730.94
478.564	745.94
478.783	767.94
479.002	767.94
479.22	748.94
479.439	776.94
479.658	794.94
479.876	791.94
480.095	814.94
480.313	834.94
480.532	847.94
480.751	838.94
480.969	826.94
481.188	846.94
481.406	845.94
481.624	798.94
481.843	767.94
482.061	779.94
482.28	745.94
482.498	758.94
482.717	744.94
482.935	754.94
483.153	719.94
483.372	742.94
483.59	726.94
483.808	758.94
484.027	751.94
484.245	734.94
484.463	752.94
484.681	775.94
484.9	765.94
485.118	739.94
485.336	767.94
485.554	758.94
485.772	774.94
485.99	810.94
486.209	788.94
486.427	788.94
486.645	800.94
486.863	807.94
487.081	796.94
487.299	783.94
487.517	812.94
487.735	778.94
487.953	801.94
488.171	812.94
488.389	777.94
488.607	773.94
488.825	783.94
489.043	798.94
489.261	782.94
489.479	787.94
489.696	834.94
489.914	812.94
490.132	792.94
490.35	820.94
490.568	829.94
490.786	844.94
491.003	854.94
491.221	845.94
491.439	863.94
491.657	867.94
491.874	888.94
492.092	860.94
492.31	858.94
492.527	876.94
492.745	891.94
492.963	916.94
493.18	892.94
493.398	936.94
493.615	911.94
493.833	901.94
494.05	916.94
494.268	918.94
494.485	905.94
494.703	930.94
494.92	918.94
495.138	892.94
495.355	931.94
495.573	932.94
495.79	925.94
496.008	919.94
496.225	920.94
496.442	920.94
496.66	935.94
496.877	940.94
497.094	979.94
497.312	971.94
497.529	970.94
497.746	990.94
497.963	1021.94
498.181	1027.94
498.398	1085.94
498.615	1135.94
498.832	1150.94
499.049	1217.94
499.267	1285.94
499.484	1353.94
499.701	1440.94
499.918	1572.94
500.135	1662.94
500.352	1820.94
500.569	1884.94
500.786	1896.94
501.003	1814.94
501.22	1694.94
501.437	1586.94
501.654	1431.94
