Data from 1963.PennyLincolnUp.Lamp.En5.5.200Scan.071719.P1._HRD10591_13-57-41-063.txt Node
Date: Thu Jul 18 13:57:41 EDT 2019
User: cochatt
Spectrometer: HR+D1059
Trigger mode: 1
Integration Time (sec): 1.000000E-1
Scans to average: 1
Electric dark correction enabled: true
Nonlinearity correction enabled: false
Boxcar width: 0
XAxis mode: Wavelengths
Number of Pixels in Spectrum: 2048
>>>>>Begin Spectral Data<<<<<
223.165	-7.5
223.4	-7.5
223.635	-7.5
223.869	-6.5
224.104	-17.5
224.338	-2.5
224.573	-7.5
224.808	-16.5
225.042	1.5
225.277	-10.5
225.511	-0.5
225.746	5.5
225.98	12.5
226.215	-16.5
226.449	1.5
226.683	19.5
226.918	20.5
227.152	24.5
227.387	31.5
227.621	24.5
227.856	32.5
228.09	31.5
228.324	36.5
228.559	54.5
228.793	58.5
229.027	82.5
229.262	101.5
229.496	112.5
229.73	122.5
229.964	124.5
230.199	124.5
230.433	113.5
230.667	99.5
230.901	115.5
231.136	98.5
231.37	99.5
231.604	96.5
231.838	121.5
232.072	104.5
232.306	117.5
232.541	111.5
232.775	113.5
233.009	118.5
233.243	115.5
233.477	119.5
233.711	111.5
233.945	114.5
234.179	113.5
234.413	98.5
234.647	105.5
234.881	116.5
235.115	113.5
235.349	114.5
235.583	117.5
235.817	121.5
236.051	123.5
236.285	108.5
236.519	126.5
236.753	126.5
236.987	141.5
237.221	147.5
237.455	172.5
237.689	160.5
237.922	116.5
238.156	119.5
238.39	128.5
238.624	131.5
238.858	137.5
239.091	133.5
239.325	123.5
239.559	135.5
239.793	124.5
240.027	127.5
240.26	136.5
240.494	141.5
240.728	151.5
240.961	148.5
241.195	148.5
241.429	126.5
241.662	123.5
241.896	135.5
242.13	130.5
242.363	123.5
242.597	137.5
242.83	133.5
243.064	143.5
243.298	141.5
243.531	147.5
243.765	147.5
243.998	143.5
244.232	144.5
244.465	151.5
244.699	157.5
244.932	152.5
245.166	159.5
245.399	148.5
245.633	164.5
245.866	158.5
246.099	157.5
246.333	155.5
246.566	165.5
246.8	146.5
247.033	164.5
247.266	177.5
247.5	157.5
247.733	165.5
247.966	177.5
248.2	175.5
248.433	175.5
248.666	173.5
248.899	174.5
249.133	194.5
249.366	187.5
249.599	185.5
249.832	178.5
250.066	177.5
250.299	195.5
250.532	186.5
250.765	208.5
250.998	201.5
251.231	222.5
251.465	179.5
251.698	193.5
251.931	197.5
252.164	182.5
252.397	200.5
252.63	196.5
252.863	201.5
253.096	202.5
253.329	205.5
253.562	215.5
253.795	217.5
254.028	215.5
254.261	210.5
254.494	212.5
254.727	225.5
254.96	255.5
255.193	231.5
255.426	224.5
255.659	207.5
255.892	215.5
256.124	223.5
256.357	205.5
256.59	210.5
256.823	201.5
257.056	193.5
257.289	211.5
257.521	204.5
257.754	206.5
257.987	211.5
258.22	230.5
258.452	208.5
258.685	216.5
258.918	232.5
259.151	221.5
259.383	208.5
259.616	215.5
259.849	244.5
260.081	238.5
260.314	246.5
260.547	241.5
260.779	237.5
261.012	238.5
261.244	243.5
261.477	230.5
261.71	216.5
261.942	227.5
262.175	225.5
262.407	251.5
262.64	218.5
262.872	235.5
263.105	208.5
263.337	225.5
263.57	215.5
263.802	229.5
264.035	255.5
264.267	233.5
264.499	231.5
264.732	220.5
264.964	228.5
265.197	224.5
265.429	225.5
265.661	232.5
265.894	231.5
266.126	238.5
266.358	235.5
266.591	238.5
266.823	236.5
267.055	227.5
267.287	245.5
267.52	227.5
267.752	230.5
267.984	245.5
268.216	256.5
268.448	258.5
268.681	251.5
268.913	250.5
269.145	275.5
269.377	273.5
269.609	265.5
269.841	285.5
270.073	272.5
270.306	271.5
270.538	285.5
270.77	296.5
271.002	294.5
271.234	301.5
271.466	287.5
271.698	319.5
271.93	290.5
272.162	295.5
272.394	288.5
272.626	300.5
272.858	284.5
273.09	286.5
273.322	292.5
273.553	268.5
273.785	274.5
274.017	261.5
274.249	288.5
274.481	283.5
274.713	273.5
274.945	279.5
275.176	284.5
275.408	272.5
275.64	288.5
275.872	283.5
276.104	284.5
276.335	292.5
276.567	277.5
276.799	279.5
277.031	276.5
277.262	307.5
277.494	304.5
277.726	313.5
277.957	302.5
278.189	294.5
278.421	293.5
278.652	309.5
278.884	283.5
279.115	304.5
279.347	298.5
279.579	299.5
279.81	297.5
280.042	293.5
280.273	301.5
280.505	301.5
280.736	299.5
280.968	304.5
281.199	307.5
281.431	305.5
281.662	319.5
281.894	308.5
282.125	301.5
282.356	326.5
282.588	329.5
282.819	327.5
283.051	305.5
283.282	314.5
283.513	307.5
283.745	299.5
283.976	323.5
284.207	319.5
284.439	306.5
284.67	314.5
284.901	309.5
285.132	324.5
285.364	305.5
285.595	315.5
285.826	315.5
286.057	332.5
286.288	329.5
286.52	326.5
286.751	333.5
286.982	339.5
287.213	343.5
287.444	333.5
287.675	333.5
287.906	341.5
288.138	342.5
288.369	340.5
288.6	337.5
288.831	317.5
289.062	342.5
289.293	339.5
289.524	324.5
289.755	357.5
289.986	336.5
290.217	344.5
290.448	313.5
290.679	350.5
290.91	351.5
291.141	344.5
291.371	344.5
291.602	347.5
291.833	342.5
292.064	338.5
292.295	342.5
292.526	336.5
292.757	333.5
292.987	355.5
293.218	334.5
293.449	349.5
293.68	339.5
293.91	344.5
294.141	334.5
294.372	329.5
294.603	347.5
294.833	333.5
295.064	358.5
295.295	351.5
295.525	357.5
295.756	359.5
295.987	347.5
296.217	369.5
296.448	357.5
296.679	367.5
296.909	365.5
297.14	358.5
297.37	358.5
297.601	373.5
297.831	356.5
298.062	367.5
298.292	355.5
298.523	378.5
298.753	375.5
298.984	376.5
299.214	343.5
299.445	367.5
299.675	379.5
299.905	374.5
300.136	372.5
300.366	380.5
300.597	351.5
300.827	363.5
301.057	385.5
301.288	394.5
301.518	407.5
301.748	386.5
301.979	395.5
302.209	396.5
302.439	393.5
302.669	398.5
302.9	407.5
303.13	376.5
303.36	398.5
303.59	391.5
303.82	384.5
304.051	374.5
304.281	380.5
304.511	389.5
304.741	391.5
304.971	399.5
305.201	400.5
305.431	411.5
305.661	377.5
305.891	380.5
306.121	372.5
306.352	375.5
306.582	383.5
306.812	383.5
307.042	389.5
307.272	389.5
307.502	392.5
307.731	388.5
307.961	384.5
308.191	387.5
308.421	406.5
308.651	379.5
308.881	388.5
309.111	391.5
309.341	397.5
309.571	396.5
309.8	406.5
310.03	393.5
310.26	400.5
310.49	424.5
310.72	402.5
310.949	399.5
311.179	409.5
311.409	409.5
311.639	406.5
311.868	421.5
312.098	406.5
312.328	397.5
312.557	411.5
312.787	413.5
313.017	448.5
313.246	443.5
313.476	425.5
313.706	425.5
313.935	409.5
314.165	443.5
314.394	427.5
314.624	433.5
314.853	417.5
315.083	434.5
315.312	439.5
315.542	421.5
315.771	436.5
316.001	433.5
316.23	423.5
316.46	416.5
316.689	443.5
316.919	456.5
317.148	422.5
317.377	432.5
317.607	417.5
317.836	423.5
318.065	432.5
318.295	423.5
318.524	445.5
318.753	435.5
318.983	413.5
319.212	430.5
319.441	408.5
319.67	437.5
319.9	437.5
320.129	447.5
320.358	441.5
320.587	426.5
320.816	422.5
321.046	453.5
321.275	441.5
321.504	423.5
321.733	438.5
321.962	448.5
322.191	443.5
322.42	428.5
322.649	463.5
322.878	456.5
323.108	468.5
323.337	496.5
323.566	486.5
323.795	492.5
324.024	507.5
324.253	561.5
324.482	685.5
324.71	949.5
324.939	1365.5
325.168	1169.5
325.397	685.5
325.626	546.5
325.855	511.5
326.084	476.5
326.313	492.5
326.542	480.5
326.77	517.5
326.999	554.5
327.228	675.5
327.457	890.5
327.686	1100.5
327.914	750.5
328.143	573.5
328.372	536.5
328.6	530.5
328.829	523.5
329.058	521.5
329.287	543.5
329.515	497.5
329.744	524.5
329.972	515.5
330.201	527.5
330.43	555.5
330.658	563.5
330.887	558.5
331.115	551.5
331.344	541.5
331.572	524.5
331.801	524.5
332.03	520.5
332.258	534.5
332.486	515.5
332.715	537.5
332.943	568.5
333.172	559.5
333.4	561.5
333.629	572.5
333.857	596.5
334.085	603.5
334.314	601.5
334.542	615.5
334.771	598.5
334.999	571.5
335.227	559.5
335.455	537.5
335.684	561.5
335.912	550.5
336.14	541.5
336.369	532.5
336.597	547.5
336.825	578.5
337.053	545.5
337.281	530.5
337.51	539.5
337.738	547.5
337.966	518.5
338.194	522.5
338.422	515.5
338.65	514.5
338.878	486.5
339.106	497.5
339.334	509.5
339.562	510.5
339.79	494.5
340.018	469.5
340.246	485.5
340.474	487.5
340.702	489.5
340.93	477.5
341.158	500.5
341.386	510.5
341.614	499.5
341.842	498.5
342.07	496.5
342.298	484.5
342.526	487.5
342.754	469.5
342.981	468.5
343.209	481.5
343.437	519.5
343.665	519.5
343.893	555.5
344.12	551.5
344.348	559.5
344.576	528.5
344.804	533.5
345.031	511.5
345.259	497.5
345.487	497.5
345.714	485.5
345.942	492.5
346.17	485.5
346.397	501.5
346.625	467.5
346.853	479.5
347.08	484.5
347.308	461.5
347.535	460.5
347.763	484.5
347.99	475.5
348.218	475.5
348.445	478.5
348.673	472.5
348.9	469.5
349.128	469.5
349.355	462.5
349.583	469.5
349.81	469.5
350.037	462.5
350.265	475.5
350.492	471.5
350.72	470.5
350.947	462.5
351.174	461.5
351.402	465.5
351.629	465.5
351.856	454.5
352.083	446.5
352.311	470.5
352.538	472.5
352.765	495.5
352.992	468.5
353.22	457.5
353.447	449.5
353.674	465.5
353.901	464.5
354.128	441.5
354.355	443.5
354.583	470.5
354.81	475.5
355.037	468.5
355.264	462.5
355.491	450.5
355.718	458.5
355.945	461.5
356.172	461.5
356.399	463.5
356.626	462.5
356.853	447.5
357.08	480.5
357.307	473.5
357.534	456.5
357.761	453.5
357.988	447.5
358.215	446.5
358.441	476.5
358.668	461.5
358.895	459.5
359.122	469.5
359.349	453.5
359.576	473.5
359.802	472.5
360.029	475.5
360.256	503.5
360.483	482.5
360.709	465.5
360.936	476.5
361.163	466.5
361.39	463.5
361.616	472.5
361.843	465.5
362.07	469.5
362.296	479.5
362.523	451.5
362.749	465.5
362.976	461.5
363.203	450.5
363.429	468.5
363.656	438.5
363.882	485.5
364.109	448.5
364.335	473.5
364.562	450.5
364.788	464.5
365.015	490.5
365.241	475.5
365.468	486.5
365.694	492.5
365.92	446.5
366.147	463.5
366.373	474.5
366.599	467.5
366.826	456.5
367.052	455.5
367.278	445.5
367.505	468.5
367.731	455.5
367.957	458.5
368.184	482.5
368.41	463.5
368.636	461.5
368.862	494.5
369.089	469.5
369.315	465.5
369.541	493.5
369.767	472.5
369.993	467.5
370.219	467.5
370.445	457.5
370.672	459.5
370.898	484.5
371.124	510.5
371.35	497.5
371.576	485.5
371.802	482.5
372.028	487.5
372.254	483.5
372.48	489.5
372.706	490.5
372.932	497.5
373.158	481.5
373.384	535.5
373.61	487.5
373.835	481.5
374.061	493.5
374.287	496.5
374.513	511.5
374.739	515.5
374.965	511.5
375.191	518.5
375.416	537.5
375.642	520.5
375.868	513.5
376.094	511.5
376.319	516.5
376.545	491.5
376.771	485.5
376.997	503.5
377.222	484.5
377.448	502.5
377.674	500.5
377.899	493.5
378.125	481.5
378.35	495.5
378.576	470.5
378.802	482.5
379.027	485.5
379.253	465.5
379.478	485.5
379.704	491.5
379.929	455.5
380.155	479.5
380.38	506.5
380.606	488.5
380.831	481.5
381.057	482.5
381.282	491.5
381.507	483.5
381.733	508.5
381.958	492.5
382.184	503.5
382.409	518.5
382.634	508.5
382.86	525.5
383.085	520.5
383.31	500.5
383.535	520.5
383.761	533.5
383.986	527.5
384.211	516.5
384.436	545.5
384.662	546.5
384.887	569.5
385.112	564.5
385.337	576.5
385.562	583.5
385.787	558.5
386.013	565.5
386.238	592.5
386.463	558.5
386.688	568.5
386.913	560.5
387.138	565.5
387.363	576.5
387.588	540.5
387.813	580.5
388.038	579.5
388.263	572.5
388.488	547.5
388.713	573.5
388.938	565.5
389.163	553.5
389.387	560.5
389.612	536.5
389.837	571.5
390.062	559.5
390.287	565.5
390.512	583.5
390.736	566.5
390.961	577.5
391.186	561.5
391.411	568.5
391.636	597.5
391.86	627.5
392.085	602.5
392.31	637.5
392.534	603.5
392.759	601.5
392.984	584.5
393.208	586.5
393.433	573.5
393.658	584.5
393.882	580.5
394.107	583.5
394.331	589.5
394.556	584.5
394.78	574.5
395.005	577.5
395.229	588.5
395.454	601.5
395.678	630.5
395.903	621.5
396.127	618.5
396.352	612.5
396.576	587.5
396.801	577.5
397.025	588.5
397.249	616.5
397.474	637.5
397.698	616.5
397.922	624.5
398.147	631.5
398.371	645.5
398.595	638.5
398.82	647.5
399.044	711.5
399.268	749.5
399.492	827.5
399.717	909.5
399.941	895.5
400.165	859.5
400.389	797.5
400.613	754.5
400.837	705.5
401.062	691.5
401.286	693.5
401.51	696.5
401.734	677.5
401.958	662.5
402.182	688.5
402.406	683.5
402.63	703.5
402.854	688.5
403.078	696.5
403.302	721.5
403.526	716.5
403.75	751.5
403.974	751.5
404.198	711.5
404.422	759.5
404.645	754.5
404.869	733.5
405.093	751.5
405.317	789.5
405.541	789.5
405.765	757.5
405.988	725.5
406.212	736.5
406.436	722.5
406.66	774.5
406.883	764.5
407.107	803.5
407.331	799.5
407.555	867.5
407.778	880.5
408.002	847.5
408.226	800.5
408.449	807.5
408.673	772.5
408.896	787.5
409.12	785.5
409.344	773.5
409.567	727.5
409.791	735.5
410.014	731.5
410.238	709.5
410.461	728.5
410.685	720.5
410.908	704.5
411.132	732.5
411.355	751.5
411.578	744.5
411.802	701.5
412.025	702.5
412.249	733.5
412.472	731.5
412.695	744.5
412.919	720.5
413.142	709.5
413.365	682.5
413.589	681.5
413.812	660.5
414.035	663.5
414.258	665.5
414.482	647.5
414.705	686.5
414.928	648.5
415.151	661.5
415.374	641.5
415.597	663.5
415.821	640.5
416.044	645.5
416.267	644.5
416.49	644.5
416.713	635.5
416.936	662.5
417.159	640.5
417.382	673.5
417.605	670.5
417.828	665.5
418.051	691.5
418.274	672.5
418.497	644.5
418.72	683.5
418.943	667.5
419.166	688.5
419.389	749.5
419.611	734.5
419.834	729.5
420.057	702.5
420.28	689.5
420.503	660.5
420.726	678.5
420.948	666.5
421.171	728.5
421.394	731.5
421.617	707.5
421.839	687.5
422.062	679.5
422.285	663.5
422.507	699.5
422.73	768.5
422.953	757.5
423.175	704.5
423.398	722.5
423.621	693.5
423.843	725.5
424.066	735.5
424.288	713.5
424.511	713.5
424.733	741.5
424.956	770.5
425.178	763.5
425.401	773.5
425.623	809.5
425.846	696.5
426.068	681.5
426.291	674.5
426.513	661.5
426.735	656.5
426.958	695.5
427.18	714.5
427.402	840.5
427.625	880.5
427.847	790.5
428.069	693.5
428.292	696.5
428.514	647.5
428.736	635.5
428.958	629.5
429.181	627.5
429.403	629.5
429.625	621.5
429.847	642.5
430.069	712.5
430.292	701.5
430.514	608.5
430.736	630.5
430.958	655.5
431.18	596.5
431.402	600.5
431.624	620.5
431.846	620.5
432.068	616.5
432.29	636.5
432.512	613.5
432.734	640.5
432.956	643.5
433.178	619.5
433.4	615.5
433.622	597.5
433.844	623.5
434.066	617.5
434.287	602.5
434.509	631.5
434.731	653.5
434.953	662.5
435.175	673.5
435.397	687.5
435.618	684.5
435.84	696.5
436.062	741.5
436.284	749.5
436.505	679.5
436.727	665.5
436.949	615.5
437.17	596.5
437.392	629.5
437.614	639.5
437.835	624.5
438.057	676.5
438.278	715.5
438.5	747.5
438.721	815.5
438.943	773.5
439.165	682.5
439.386	639.5
439.608	635.5
439.829	626.5
440.05	657.5
440.272	690.5
440.493	703.5
440.715	612.5
440.936	616.5
441.158	654.5
441.379	648.5
441.6	676.5
441.822	696.5
442.043	719.5
442.264	740.5
442.486	779.5
442.707	729.5
442.928	696.5
443.149	727.5
443.371	689.5
443.592	736.5
443.813	824.5
444.034	852.5
444.255	756.5
444.476	719.5
444.698	741.5
444.919	755.5
445.14	854.5
445.361	779.5
445.582	727.5
445.803	736.5
446.024	792.5
446.245	808.5
446.466	758.5
446.687	669.5
446.908	645.5
447.129	659.5
447.35	641.5
447.571	626.5
447.792	615.5
448.013	607.5
448.234	595.5
448.455	637.5
448.675	724.5
448.896	777.5
449.117	704.5
449.338	673.5
449.559	738.5
449.779	823.5
450	715.5
450.221	639.5
450.442	584.5
450.662	584.5
450.883	580.5
451.104	617.5
451.324	583.5
451.545	551.5
451.766	567.5
451.986	555.5
452.207	537.5
452.428	569.5
452.648	558.5
452.869	552.5
453.089	565.5
453.31	565.5
453.53	571.5
453.751	574.5
453.971	536.5
454.192	565.5
454.412	569.5
454.633	558.5
454.853	541.5
455.073	541.5
455.294	538.5
455.514	603.5
455.734	601.5
455.955	551.5
456.175	518.5
456.395	543.5
456.616	517.5
456.836	526.5
457.056	519.5
457.276	503.5
457.497	539.5
457.717	536.5
457.937	517.5
458.157	535.5
458.377	534.5
458.598	556.5
458.818	609.5
459.038	655.5
459.258	679.5
459.478	655.5
459.698	611.5
459.918	640.5
460.138	648.5
460.358	636.5
460.578	667.5
460.798	687.5
461.018	691.5
461.238	694.5
461.458	648.5
461.678	690.5
461.898	689.5
462.118	672.5
462.338	705.5
462.558	726.5
462.777	752.5
462.997	807.5
463.217	836.5
463.437	821.5
463.657	792.5
463.876	773.5
464.096	739.5
464.316	773.5
464.536	759.5
464.755	756.5
464.975	728.5
465.195	718.5
465.414	727.5
465.634	662.5
465.854	638.5
466.073	635.5
466.293	607.5
466.512	596.5
466.732	565.5
466.951	597.5
467.171	589.5
467.391	605.5
467.61	582.5
467.829	607.5
468.049	581.5
468.268	590.5
468.488	583.5
468.707	574.5
468.927	576.5
469.146	579.5
469.365	599.5
469.585	584.5
469.804	579.5
470.023	616.5
470.243	589.5
470.462	606.5
470.681	610.5
470.901	631.5
471.12	614.5
471.339	608.5
471.558	580.5
471.777	596.5
471.997	584.5
472.216	593.5
472.435	583.5
472.654	609.5
472.873	583.5
473.092	566.5
473.311	559.5
473.53	560.5
473.749	591.5
473.968	603.5
474.187	658.5
474.406	661.5
474.625	631.5
474.844	570.5
475.063	585.5
475.282	573.5
475.501	611.5
475.72	598.5
475.939	602.5
476.158	592.5
476.377	606.5
476.596	603.5
476.814	613.5
477.033	604.5
477.252	605.5
477.471	626.5
477.69	643.5
477.908	653.5
478.127	661.5
478.346	659.5
478.564	689.5
478.783	694.5
479.002	703.5
479.22	708.5
479.439	712.5
479.658	716.5
479.876	702.5
480.095	736.5
480.313	766.5
480.532	765.5
480.751	761.5
480.969	774.5
481.188	764.5
481.406	775.5
481.624	709.5
481.843	713.5
482.061	712.5
482.28	695.5
482.498	679.5
482.717	677.5
482.935	656.5
483.153	653.5
483.372	667.5
483.59	683.5
483.808	687.5
484.027	664.5
484.245	685.5
484.463	689.5
484.681	690.5
484.9	689.5
485.118	716.5
485.336	699.5
485.554	704.5
485.772	705.5
485.99	725.5
486.209	711.5
486.427	732.5
486.645	705.5
486.863	720.5
487.081	707.5
487.299	730.5
487.517	732.5
487.735	717.5
487.953	727.5
488.171	716.5
488.389	728.5
488.607	706.5
488.825	692.5
489.043	713.5
489.261	693.5
489.479	703.5
489.696	712.5
489.914	729.5
490.132	723.5
490.35	749.5
490.568	752.5
490.786	768.5
491.003	750.5
491.221	767.5
491.439	746.5
491.657	772.5
491.874	777.5
492.092	777.5
492.31	797.5
492.527	818.5
492.745	818.5
492.963	796.5
493.18	843.5
493.398	810.5
493.615	821.5
493.833	813.5
494.05	827.5
494.268	816.5
494.485	817.5
494.703	812.5
494.92	812.5
495.138	822.5
495.355	837.5
495.573	839.5
495.79	846.5
496.008	841.5
496.225	829.5
496.442	829.5
496.66	845.5
496.877	821.5
497.094	865.5
497.312	871.5
497.529	870.5
497.746	919.5
497.963	913.5
498.181	943.5
498.398	981.5
498.615	1019.5
498.832	1065.5
499.049	1104.5
499.267	1191.5
499.484	1232.5
499.701	1341.5
499.918	1403.5
500.135	1553.5
500.352	1697.5
500.569	1703.5
500.786	1708.5
501.003	1660.5
501.22	1553.5
501.437	1429.5
501.654	1304.5
501.871	1253.5
502.088	1197.5
502.305	1117.5
502.522	1074.5
502.739	1044.5
502.956	993.5
503.172	928.5
503.389	937.5
503.606	925.5
503.823	909.5
504.04	932.5
504.256	895.5
504.473	895.5
504.69	902.5
504.907	914.5
505.123	864.5
505.34	827.5
505.557	820.5
505.773	804.5
505.99	802.5
506.207	794.5
506.423	795.5
506.64	774.5
506.856	775.5
507.073	748.5
507.289	750.5
507.506	734.5
507.722	775.5
507.939	739.5
508.155	720.5
508.372	709.5
508.588	701.5
508.805	689.5
509.021	720.5
509.238	718.5
509.454	735.5
509.67	711.5
509.887	719.5
510.103	695.5
510.319	709.5
510.536	771.5
510.752	1012.5
510.968	897.5
511.184	716.5
511.401	672.5
511.617	689.5
511.833	683.5
512.049	689.5
512.265	680.5
512.481	695.5
512.698	678.5
512.914	672.5
513.13	663.5
513.346	679.5
513.562	678.5
513.778	657.5
513.994	695.5
514.21	668.5
514.426	712.5
514.642	729.5
514.858	727.5
515.074	743.5
515.29	807.5
515.506	1016.5
515.721	911.5
515.937	754.5
516.153	715.5
516.369	718.5
516.585	763.5
516.801	749.5
517.016	775.5
517.232	795.5
517.448	831.5
517.664	829.5
517.879	859.5
518.095	859.5
518.311	814.5
518.527	809.5
518.742	787.5
518.958	765.5
519.173	751.5
519.389	750.5
519.605	695.5
519.82	693.5
