Data from 1963.PennyLincolnUp.Lamp.En5.5.200Scan.071719.P1._HRD10591_13-59-42-063.txt Node
Date: Thu Jul 18 13:59:42 EDT 2019
User: cochatt
Spectrometer: HR+D1059
Trigger mode: 1
Integration Time (sec): 1.000000E-1
Scans to average: 1
Electric dark correction enabled: true
Nonlinearity correction enabled: false
Boxcar width: 0
XAxis mode: Wavelengths
Number of Pixels in Spectrum: 2048
>>>>>Begin Spectral Data<<<<<
223.165	2.12
223.4	2.12
223.635	2.12
223.869	-33.88
224.104	-21.88
224.338	-8.88
224.573	-8.88
224.808	-22.88
225.042	-19.88
225.277	-3.88
225.511	11.12
225.746	-6.88
225.98	8.12
226.215	8.12
226.449	23.12
226.683	14.12
226.918	34.12
227.152	26.12
227.387	35.12
227.621	30.12
227.856	44.12
228.09	52.12
228.324	52.12
228.559	52.12
228.793	80.12
229.027	109.12
229.262	116.12
229.496	112.12
229.73	139.12
229.964	156.12
230.199	115.12
230.433	118.12
230.667	111.12
230.901	118.12
231.136	119.12
231.37	106.12
231.604	111.12
231.838	118.12
232.072	127.12
232.306	128.12
232.541	132.12
232.775	124.12
233.009	112.12
233.243	127.12
233.477	116.12
233.711	135.12
233.945	129.12
234.179	124.12
234.413	118.12
234.647	126.12
234.881	136.12
235.115	119.12
235.349	132.12
235.583	131.12
235.817	133.12
236.051	121.12
236.285	126.12
236.519	133.12
236.753	142.12
236.987	154.12
237.221	171.12
237.455	224.12
237.689	187.12
237.922	150.12
238.156	170.12
238.39	149.12
238.624	143.12
238.858	143.12
239.091	127.12
239.325	138.12
239.559	154.12
239.793	134.12
240.027	137.12
240.26	142.12
240.494	156.12
240.728	170.12
240.961	181.12
241.195	160.12
241.429	160.12
241.662	151.12
241.896	165.12
242.13	141.12
242.363	159.12
242.597	143.12
242.83	157.12
243.064	149.12
243.298	151.12
243.531	162.12
243.765	155.12
243.998	159.12
244.232	169.12
244.465	158.12
244.699	155.12
244.932	159.12
245.166	171.12
245.399	167.12
245.633	177.12
245.866	172.12
246.099	192.12
246.333	174.12
246.566	172.12
246.8	171.12
247.033	185.12
247.266	191.12
247.5	175.12
247.733	180.12
247.966	182.12
248.2	205.12
248.433	203.12
248.666	188.12
248.899	196.12
249.133	207.12
249.366	221.12
249.599	201.12
249.832	215.12
250.066	201.12
250.299	213.12
250.532	206.12
250.765	218.12
250.998	252.12
251.231	237.12
251.465	214.12
251.698	202.12
251.931	219.12
252.164	224.12
252.397	232.12
252.63	226.12
252.863	221.12
253.096	229.12
253.329	243.12
253.562	235.12
253.795	226.12
254.028	238.12
254.261	220.12
254.494	231.12
254.727	261.12
254.96	298.12
255.193	272.12
255.426	271.12
255.659	258.12
255.892	256.12
256.124	269.12
256.357	276.12
256.59	250.12
256.823	230.12
257.056	240.12
257.289	250.12
257.521	219.12
257.754	240.12
257.987	232.12
258.22	250.12
258.452	235.12
258.685	230.12
258.918	244.12
259.151	233.12
259.383	255.12
259.616	262.12
259.849	252.12
260.081	259.12
260.314	265.12
260.547	272.12
260.779	262.12
261.012	265.12
261.244	266.12
261.477	248.12
261.71	236.12
261.942	260.12
262.175	266.12
262.407	256.12
262.64	234.12
262.872	261.12
263.105	249.12
263.337	231.12
263.57	259.12
263.802	217.12
264.035	253.12
264.267	261.12
264.499	248.12
264.732	251.12
264.964	251.12
265.197	248.12
265.429	256.12
265.661	245.12
265.894	267.12
266.126	255.12
266.358	277.12
266.591	275.12
266.823	260.12
267.055	279.12
267.287	295.12
267.52	283.12
267.752	284.12
267.984	269.12
268.216	277.12
268.448	269.12
268.681	274.12
268.913	310.12
269.145	289.12
269.377	316.12
269.609	302.12
269.841	292.12
270.073	302.12
270.306	325.12
270.538	342.12
270.77	338.12
271.002	330.12
271.234	321.12
271.466	311.12
271.698	340.12
271.93	334.12
272.162	371.12
272.394	343.12
272.626	325.12
272.858	332.12
273.09	310.12
273.322	283.12
273.553	327.12
273.785	297.12
274.017	320.12
274.249	313.12
274.481	305.12
274.713	319.12
274.945	297.12
275.176	323.12
275.408	313.12
275.64	323.12
275.872	312.12
276.104	291.12
276.335	330.12
276.567	325.12
276.799	327.12
277.031	356.12
277.262	349.12
277.494	368.12
277.726	349.12
277.957	337.12
278.189	319.12
278.421	313.12
278.652	325.12
278.884	336.12
279.115	338.12
279.347	332.12
279.579	320.12
279.81	316.12
280.042	329.12
280.273	337.12
280.505	333.12
280.736	332.12
280.968	311.12
281.199	330.12
281.431	331.12
281.662	332.12
281.894	347.12
282.125	331.12
282.356	363.12
282.588	357.12
282.819	355.12
283.051	339.12
283.282	334.12
283.513	329.12
283.745	341.12
283.976	351.12
284.207	355.12
284.439	340.12
284.67	369.12
284.901	355.12
285.132	349.12
285.364	345.12
285.595	333.12
285.826	342.12
286.057	359.12
286.288	359.12
286.52	373.12
286.751	351.12
286.982	347.12
287.213	353.12
287.444	348.12
287.675	358.12
287.906	356.12
288.138	372.12
288.369	373.12
288.6	378.12
288.831	367.12
289.062	377.12
289.293	356.12
289.524	365.12
289.755	379.12
289.986	380.12
290.217	362.12
290.448	370.12
290.679	362.12
290.91	371.12
291.141	358.12
291.371	376.12
291.602	355.12
291.833	363.12
292.064	363.12
292.295	367.12
292.526	367.12
292.757	362.12
292.987	356.12
293.218	381.12
293.449	367.12
293.68	361.12
293.91	374.12
294.141	391.12
294.372	359.12
294.603	373.12
294.833	380.12
295.064	381.12
295.295	395.12
295.525	376.12
295.756	391.12
295.987	398.12
296.217	423.12
296.448	405.12
296.679	383.12
296.909	371.12
297.14	366.12
297.37	379.12
297.601	397.12
297.831	405.12
298.062	384.12
298.292	397.12
298.523	396.12
298.753	422.12
298.984	393.12
299.214	400.12
299.445	382.12
299.675	401.12
299.905	407.12
300.136	405.12
300.366	390.12
300.597	413.12
300.827	422.12
301.057	415.12
301.288	439.12
301.518	423.12
301.748	420.12
301.979	415.12
302.209	445.12
302.439	437.12
302.669	417.12
302.9	409.12
303.13	417.12
303.36	416.12
303.59	430.12
303.82	418.12
304.051	416.12
304.281	411.12
304.511	421.12
304.741	436.12
304.971	419.12
305.201	430.12
305.431	429.12
305.661	420.12
305.891	407.12
306.121	408.12
306.352	419.12
306.582	429.12
306.812	441.12
307.042	415.12
307.272	410.12
307.502	425.12
307.731	418.12
307.961	421.12
308.191	413.12
308.421	427.12
308.651	428.12
308.881	421.12
309.111	442.12
309.341	441.12
309.571	438.12
309.8	443.12
310.03	471.12
310.26	453.12
310.49	464.12
310.72	441.12
310.949	447.12
311.179	486.12
311.409	477.12
311.639	452.12
311.868	472.12
312.098	471.12
312.328	455.12
312.557	481.12
312.787	490.12
313.017	480.12
313.246	470.12
313.476	462.12
313.706	457.12
313.935	486.12
314.165	485.12
314.394	469.12
314.624	473.12
314.853	470.12
315.083	476.12
315.312	470.12
315.542	459.12
315.771	484.12
316.001	461.12
316.23	453.12
316.46	457.12
316.689	472.12
316.919	478.12
317.148	482.12
317.377	472.12
317.607	477.12
317.836	477.12
318.065	478.12
318.295	465.12
318.524	455.12
318.753	455.12
318.983	469.12
319.212	464.12
319.441	465.12
319.67	471.12
319.9	451.12
320.129	449.12
320.358	475.12
320.587	462.12
320.816	481.12
321.046	470.12
321.275	477.12
321.504	470.12
321.733	481.12
321.962	481.12
322.191	514.12
322.42	504.12
322.649	524.12
322.878	517.12
323.108	528.12
323.337	555.12
323.566	519.12
323.795	557.12
324.024	611.12
324.253	700.12
324.482	872.12
324.71	1308.12
324.939	1856.12
325.168	1596.12
325.397	867.12
325.626	653.12
325.855	585.12
326.084	573.12
326.313	577.12
326.542	565.12
326.77	613.12
326.999	671.12
327.228	825.12
327.457	1168.12
327.686	1425.12
327.914	996.12
328.143	719.12
328.372	641.12
328.6	627.12
328.829	596.12
329.058	631.12
329.287	625.12
329.515	618.12
329.744	581.12
329.972	586.12
330.201	594.12
330.43	638.12
330.658	652.12
330.887	646.12
331.115	647.12
331.344	606.12
331.572	574.12
331.801	599.12
332.03	600.12
332.258	581.12
332.486	581.12
332.715	581.12
332.943	591.12
333.172	629.12
333.4	632.12
333.629	616.12
333.857	656.12
334.085	675.12
334.314	653.12
334.542	695.12
334.771	694.12
334.999	644.12
335.227	638.12
335.455	613.12
335.684	601.12
335.912	600.12
336.14	596.12
336.369	579.12
336.597	593.12
336.825	577.12
337.053	601.12
337.281	576.12
337.51	578.12
337.738	597.12
337.966	572.12
338.194	590.12
338.422	556.12
338.65	555.12
338.878	559.12
339.106	556.12
339.334	559.12
339.562	552.12
339.79	547.12
340.018	545.12
340.246	555.12
340.474	561.12
340.702	553.12
340.93	539.12
341.158	547.12
341.386	532.12
341.614	560.12
341.842	548.12
342.07	526.12
342.298	544.12
342.526	537.12
342.754	552.12
342.981	540.12
343.209	535.12
343.437	544.12
343.665	568.12
343.893	577.12
344.12	635.12
344.348	598.12
344.576	595.12
344.804	559.12
345.031	563.12
345.259	569.12
345.487	568.12
345.714	529.12
345.942	522.12
346.17	516.12
346.397	528.12
346.625	523.12
346.853	528.12
347.08	530.12
347.308	513.12
347.535	541.12
347.763	549.12
347.99	529.12
348.218	519.12
348.445	521.12
348.673	537.12
348.9	505.12
349.128	511.12
349.355	494.12
349.583	519.12
349.81	501.12
350.037	519.12
350.265	494.12
350.492	503.12
350.72	491.12
350.947	521.12
351.174	527.12
351.402	549.12
351.629	516.12
351.856	520.12
352.083	511.12
352.311	521.12
352.538	511.12
352.765	527.12
352.992	535.12
353.22	515.12
353.447	521.12
353.674	511.12
353.901	513.12
354.128	492.12
354.355	508.12
354.583	501.12
354.81	504.12
355.037	490.12
355.264	476.12
355.491	482.12
355.718	488.12
355.945	492.12
356.172	485.12
356.399	509.12
356.626	532.12
356.853	525.12
357.08	490.12
357.307	504.12
357.534	491.12
357.761	511.12
357.988	505.12
358.215	508.12
358.441	503.12
358.668	486.12
358.895	523.12
359.122	519.12
359.349	522.12
359.576	526.12
359.802	520.12
360.029	556.12
360.256	566.12
360.483	560.12
360.709	497.12
360.936	517.12
361.163	539.12
361.39	521.12
361.616	550.12
361.843	514.12
362.07	521.12
362.296	527.12
362.523	532.12
362.749	513.12
362.976	511.12
363.203	529.12
363.429	503.12
363.656	505.12
363.882	504.12
364.109	503.12
364.335	493.12
364.562	512.12
364.788	485.12
365.015	511.12
365.241	506.12
365.468	507.12
365.694	535.12
365.92	504.12
366.147	497.12
366.373	502.12
366.599	524.12
366.826	486.12
367.052	499.12
367.278	501.12
367.505	511.12
367.731	491.12
367.957	502.12
368.184	515.12
368.41	488.12
368.636	511.12
368.862	541.12
369.089	537.12
369.315	527.12
369.541	524.12
369.767	529.12
369.993	523.12
370.219	536.12
370.445	539.12
370.672	506.12
370.898	504.12
371.124	522.12
371.35	516.12
371.576	540.12
371.802	534.12
372.028	521.12
372.254	507.12
372.48	563.12
372.706	538.12
372.932	541.12
373.158	540.12
373.384	527.12
373.61	530.12
373.835	552.12
374.061	539.12
374.287	537.12
374.513	556.12
374.739	573.12
374.965	554.12
375.191	551.12
375.416	579.12
375.642	559.12
375.868	540.12
376.094	537.12
376.319	538.12
376.545	549.12
376.771	529.12
376.997	546.12
377.222	515.12
377.448	519.12
377.674	541.12
377.899	522.12
378.125	515.12
378.35	516.12
378.576	523.12
378.802	527.12
379.027	524.12
379.253	547.12
379.478	521.12
379.704	510.12
379.929	528.12
380.155	534.12
380.38	528.12
380.606	546.12
380.831	536.12
381.057	539.12
381.282	541.12
381.507	527.12
381.733	539.12
381.958	557.12
382.184	543.12
382.409	537.12
382.634	544.12
382.86	538.12
383.085	572.12
383.31	576.12
383.535	554.12
383.761	564.12
383.986	593.12
384.211	567.12
384.436	569.12
384.662	584.12
384.887	578.12
385.112	578.12
385.337	610.12
385.562	606.12
385.787	606.12
386.013	618.12
386.238	614.12
386.463	611.12
386.688	596.12
386.913	602.12
387.138	612.12
387.363	627.12
387.588	607.12
387.813	606.12
388.038	602.12
388.263	614.12
388.488	596.12
388.713	597.12
388.938	613.12
389.163	611.12
389.387	592.12
389.612	595.12
389.837	599.12
390.062	589.12
390.287	595.12
390.512	582.12
390.736	609.12
390.961	590.12
391.186	628.12
391.411	611.12
391.636	610.12
391.86	650.12
392.085	664.12
392.31	678.12
392.534	649.12
392.759	642.12
392.984	651.12
393.208	627.12
393.433	629.12
393.658	653.12
393.882	608.12
394.107	633.12
394.331	655.12
394.556	614.12
394.78	613.12
395.005	611.12
395.229	627.12
395.454	635.12
395.678	645.12
395.903	655.12
396.127	686.12
396.352	662.12
396.576	641.12
396.801	662.12
397.025	657.12
397.249	644.12
397.474	645.12
397.698	667.12
397.922	700.12
398.147	694.12
398.371	700.12
398.595	698.12
398.82	721.12
399.044	746.12
399.268	808.12
399.492	890.12
399.717	952.12
399.941	988.12
400.165	924.12
400.389	899.12
400.613	839.12
400.837	760.12
401.062	746.12
401.286	736.12
401.51	724.12
401.734	727.12
401.958	707.12
402.182	743.12
402.406	778.12
402.63	765.12
402.854	770.12
403.078	767.12
403.302	779.12
403.526	775.12
403.75	783.12
403.974	813.12
404.198	807.12
404.422	825.12
404.645	831.12
404.869	805.12
405.093	819.12
405.317	834.12
405.541	854.12
405.765	848.12
405.988	815.12
406.212	798.12
406.436	804.12
406.66	853.12
406.883	840.12
407.107	856.12
407.331	921.12
407.555	969.12
407.778	970.12
408.002	897.12
408.226	854.12
408.449	855.12
408.673	845.12
408.896	827.12
409.12	875.12
409.344	852.12
409.567	797.12
409.791	800.12
410.014	789.12
410.238	769.12
410.461	769.12
410.685	747.12
410.908	762.12
411.132	829.12
411.355	826.12
411.578	807.12
411.802	769.12
412.025	748.12
412.249	790.12
412.472	771.12
412.695	813.12
412.919	813.12
413.142	780.12
413.365	724.12
413.589	736.12
413.812	731.12
414.035	717.12
414.258	731.12
414.482	702.12
414.705	744.12
414.928	710.12
415.151	702.12
415.374	720.12
415.597	725.12
415.821	711.12
416.044	701.12
416.267	713.12
416.49	703.12
416.713	720.12
416.936	716.12
417.159	707.12
417.382	707.12
417.605	717.12
417.828	713.12
418.051	725.12
418.274	737.12
418.497	701.12
418.72	716.12
418.943	704.12
419.166	763.12
419.389	817.12
419.611	791.12
419.834	782.12
420.057	760.12
420.28	740.12
420.503	729.12
420.726	720.12
420.948	741.12
421.171	777.12
421.394	799.12
421.617	747.12
421.839	708.12
422.062	731.12
422.285	744.12
422.507	818.12
422.73	845.12
422.953	834.12
423.175	786.12
423.398	775.12
423.621	756.12
423.843	796.12
424.066	788.12
424.288	784.12
424.511	797.12
424.733	855.12
424.956	928.12
425.178	864.12
425.401	882.12
425.623	890.12
425.846	777.12
426.068	758.12
426.291	742.12
426.513	739.12
426.735	760.12
426.958	782.12
427.18	839.12
427.402	951.12
427.625	1017.12
427.847	913.12
428.069	812.12
428.292	767.12
428.514	691.12
428.736	709.12
428.958	694.12
429.181	672.12
429.403	649.12
429.625	678.12
429.847	736.12
430.069	755.12
430.292	771.12
430.514	673.12
430.736	700.12
430.958	656.12
431.18	676.12
431.402	678.12
431.624	680.12
431.846	677.12
432.068	677.12
432.29	720.12
432.512	689.12
432.734	683.12
432.956	681.12
433.178	653.12
433.4	700.12
433.622	693.12
433.844	665.12
434.066	675.12
434.287	670.12
434.509	687.12
434.731	702.12
434.953	730.12
435.175	740.12
435.397	747.12
435.618	764.12
435.84	763.12
436.062	830.12
436.284	886.12
436.505	780.12
436.727	757.12
436.949	713.12
437.17	694.12
437.392	695.12
437.614	691.12
437.835	703.12
438.057	777.12
438.278	859.12
438.5	854.12
438.721	912.12
438.943	894.12
439.165	731.12
439.386	732.12
439.608	703.12
439.829	725.12
440.05	742.12
440.272	777.12
440.493	746.12
440.715	715.12
440.936	693.12
441.158	702.12
441.379	697.12
441.6	738.12
441.822	716.12
442.043	806.12
442.264	838.12
442.486	853.12
442.707	783.12
442.928	777.12
443.149	766.12
443.371	775.12
443.592	798.12
443.813	872.12
444.034	927.12
444.255	847.12
444.476	813.12
444.698	800.12
444.919	839.12
445.14	912.12
445.361	853.12
445.582	817.12
445.803	835.12
446.024	889.12
446.245	905.12
446.466	845.12
446.687	773.12
446.908	717.12
447.129	690.12
447.35	686.12
447.571	671.12
447.792	646.12
448.013	655.12
448.234	675.12
448.455	715.12
448.675	814.12
448.896	893.12
449.117	797.12
449.338	759.12
449.559	824.12
449.779	924.12
450	791.12
450.221	685.12
450.442	675.12
450.662	659.12
450.883	647.12
451.104	652.12
451.324	638.12
451.545	611.12
451.766	612.12
451.986	608.12
452.207	624.12
452.428	614.12
452.648	596.12
452.869	630.12
453.089	611.12
453.31	636.12
453.53	627.12
453.751	631.12
453.971	599.12
454.192	617.12
454.412	617.12
454.633	597.12
454.853	616.12
455.073	569.12
455.294	635.12
455.514	650.12
455.734	668.12
455.955	600.12
456.175	577.12
456.395	576.12
456.616	570.12
456.836	570.12
457.056	590.12
457.276	560.12
457.497	580.12
457.717	555.12
457.937	611.12
458.157	609.12
458.377	595.12
458.598	608.12
458.818	647.12
459.038	733.12
459.258	793.12
459.478	719.12
459.698	663.12
459.918	693.12
460.138	682.12
460.358	729.12
460.578	723.12
460.798	736.12
461.018	736.12
461.238	717.12
461.458	712.12
461.678	717.12
461.898	743.12
462.118	722.12
462.338	771.12
462.558	812.12
462.777	808.12
462.997	841.12
463.217	893.12
463.437	897.12
463.657	836.12
463.876	802.12
464.096	831.12
464.316	813.12
464.536	808.12
464.755	796.12
464.975	788.12
465.195	788.12
465.414	827.12
465.634	755.12
465.854	713.12
466.073	697.12
466.293	662.12
466.512	633.12
466.732	635.12
466.951	629.12
467.171	650.12
467.391	647.12
467.61	656.12
467.829	665.12
468.049	647.12
468.268	635.12
468.488	607.12
468.707	620.12
468.927	629.12
469.146	608.12
469.365	629.12
469.585	625.12
469.804	647.12
470.023	669.12
470.243	658.12
470.462	668.12
470.681	668.12
470.901	675.12
471.12	647.12
471.339	653.12
471.558	649.12
471.777	637.12
471.997	631.12
472.216	636.12
472.435	656.12
472.654	657.12
472.873	622.12
473.092	637.12
473.311	615.12
473.53	612.12
473.749	612.12
473.968	648.12
474.187	744.12
474.406	756.12
474.625	675.12
474.844	641.12
475.063	653.12
475.282	636.12
475.501	631.12
475.72	630.12
475.939	639.12
476.158	639.12
476.377	634.12
476.596	671.12
476.814	673.12
477.033	680.12
477.252	699.12
477.471	692.12
477.69	697.12
477.908	729.12
478.127	719.12
478.346	707.12
478.564	761.12
478.783	760.12
479.002	772.12
479.22	762.12
479.439	764.12
479.658	796.12
479.876	794.12
480.095	782.12
480.313	824.12
480.532	839.12
480.751	821.12
480.969	817.12
481.188	854.12
481.406	869.12
481.624	819.12
481.843	761.12
482.061	776.12
482.28	765.12
482.498	731.12
482.717	732.12
482.935	736.12
483.153	737.12
483.372	748.12
483.59	737.12
483.808	731.12
484.027	726.12
484.245	742.12
484.463	770.12
484.681	748.12
484.9	764.12
485.118	745.12
485.336	800.12
485.554	749.12
485.772	759.12
485.99	752.12
486.209	747.12
486.427	784.12
486.645	790.12
486.863	775.12
487.081	791.12
487.299	795.12
487.517	784.12
487.735	801.12
487.953	790.12
488.171	789.12
488.389	787.12
488.607	784.12
488.825	777.12
489.043	790.12
489.261	798.12
489.479	797.12
489.696	795.12
489.914	829.12
490.132	821.12
490.35	805.12
490.568	831.12
490.786	819.12
491.003	842.12
491.221	844.12
491.439	869.12
491.657	859.12
491.874	862.12
492.092	879.12
492.31	873.12
492.527	851.12
492.745	875.12
492.963	878.12
493.18	895.12
493.398	906.12
493.615	901.12
493.833	932.12
494.05	924.12
494.268	917.12
494.485	897.12
494.703	929.12
494.92	899.12
495.138	915.12
495.355	923.12
495.573	925.12
495.79	917.12
496.008	910.12
496.225	926.12
496.442	947.12
496.66	934.12
496.877	945.12
497.094	915.12
497.312	979.12
497.529	963.12
497.746	988.12
497.963	1002.12
498.181	1055.12
498.398	1067.12
498.615	1137.12
498.832	1145.12
499.049	1173.12
499.267	1247.12
499.484	1352.12
499.701	1456.12
499.918	1543.12
500.135	1661.12
500.352	1807.12
500.569	1843.12
500.786	1866.12
501.003	1755.12
501.22	1678.12
501.437	1532.12
501.654	1425.12
