Data from 1963.PennyLincolnUp.Lamp.En5.5.200Scan.071719.P1._HRD10591_13-57-16-062.txt Node
Date: Thu Jul 18 13:57:16 EDT 2019
User: cochatt
Spectrometer: HR+D1059
Trigger mode: 1
Integration Time (sec): 1.000000E-1
Scans to average: 1
Electric dark correction enabled: true
Nonlinearity correction enabled: false
Boxcar width: 0
XAxis mode: Wavelengths
Number of Pixels in Spectrum: 2048
>>>>>Begin Spectral Data<<<<<
223.165	-11.75
223.4	-11.75
223.635	-11.75
223.869	-12.75
224.104	-14.75
224.338	-8.75
224.573	-11.75
224.808	-9.75
225.042	1.25
225.277	-5.75
225.511	-7.75
225.746	1.25
225.98	10.25
226.215	3.25
226.449	3.25
226.683	11.25
226.918	20.25
227.152	32.25
227.387	25.25
227.621	30.25
227.856	56.25
228.09	39.25
228.324	42.25
228.559	52.25
228.793	52.25
229.027	94.25
229.262	99.25
229.496	97.25
229.73	100.25
229.964	114.25
230.199	108.25
230.433	121.25
230.667	119.25
230.901	119.25
231.136	106.25
231.37	112.25
231.604	124.25
231.838	124.25
232.072	120.25
232.306	128.25
232.541	114.25
232.775	121.25
233.009	112.25
233.243	102.25
233.477	118.25
233.711	123.25
233.945	115.25
234.179	117.25
234.413	108.25
234.647	119.25
234.881	138.25
235.115	112.25
235.349	120.25
235.583	121.25
235.817	126.25
236.051	117.25
236.285	124.25
236.519	126.25
236.753	134.25
236.987	135.25
237.221	159.25
237.455	176.25
237.689	153.25
237.922	151.25
238.156	130.25
238.39	132.25
238.624	115.25
238.858	142.25
239.091	129.25
239.325	123.25
239.559	130.25
239.793	147.25
240.027	121.25
240.26	152.25
240.494	151.25
240.728	142.25
240.961	143.25
241.195	155.25
241.429	147.25
241.662	140.25
241.896	144.25
242.13	139.25
242.363	136.25
242.597	141.25
242.83	143.25
243.064	152.25
243.298	133.25
243.531	155.25
243.765	145.25
243.998	153.25
244.232	128.25
244.465	167.25
244.699	148.25
244.932	159.25
245.166	165.25
245.399	140.25
245.633	147.25
245.866	153.25
246.099	155.25
246.333	149.25
246.566	155.25
246.8	137.25
247.033	160.25
247.266	167.25
247.5	169.25
247.733	169.25
247.966	162.25
248.2	172.25
248.433	195.25
248.666	192.25
248.899	195.25
249.133	181.25
249.366	199.25
249.599	174.25
249.832	161.25
250.066	194.25
250.299	178.25
250.532	205.25
250.765	191.25
250.998	219.25
251.231	213.25
251.465	194.25
251.698	195.25
251.931	202.25
252.164	192.25
252.397	185.25
252.63	198.25
252.863	192.25
253.096	204.25
253.329	207.25
253.562	202.25
253.795	207.25
254.028	204.25
254.261	214.25
254.494	212.25
254.727	226.25
254.96	242.25
255.193	225.25
255.426	211.25
255.659	217.25
255.892	220.25
256.124	226.25
256.357	224.25
256.59	223.25
256.823	201.25
257.056	208.25
257.289	201.25
257.521	209.25
257.754	200.25
257.987	215.25
258.22	232.25
258.452	213.25
258.685	218.25
258.918	222.25
259.151	218.25
259.383	230.25
259.616	246.25
259.849	221.25
260.081	230.25
260.314	235.25
260.547	244.25
260.779	248.25
261.012	234.25
261.244	219.25
261.477	205.25
261.71	226.25
261.942	224.25
262.175	216.25
262.407	227.25
262.64	205.25
262.872	216.25
263.105	232.25
263.337	240.25
263.57	229.25
263.802	229.25
264.035	222.25
264.267	239.25
264.499	233.25
264.732	259.25
264.964	222.25
265.197	242.25
265.429	225.25
265.661	234.25
265.894	219.25
266.126	230.25
266.358	249.25
266.591	239.25
266.823	242.25
267.055	235.25
267.287	248.25
267.52	230.25
267.752	245.25
267.984	238.25
268.216	241.25
268.448	253.25
268.681	266.25
268.913	255.25
269.145	261.25
269.377	275.25
269.609	280.25
269.841	268.25
270.073	266.25
270.306	275.25
270.538	291.25
270.77	298.25
271.002	300.25
271.234	297.25
271.466	283.25
271.698	270.25
271.93	297.25
272.162	274.25
272.394	282.25
272.626	275.25
272.858	290.25
273.09	286.25
273.322	263.25
273.553	272.25
273.785	277.25
274.017	282.25
274.249	281.25
274.481	287.25
274.713	282.25
274.945	265.25
275.176	283.25
275.408	283.25
275.64	294.25
275.872	286.25
276.104	283.25
276.335	266.25
276.567	295.25
276.799	287.25
277.031	285.25
277.262	303.25
277.494	316.25
277.726	288.25
277.957	298.25
278.189	288.25
278.421	291.25
278.652	295.25
278.884	283.25
279.115	284.25
279.347	305.25
279.579	295.25
279.81	294.25
280.042	297.25
280.273	304.25
280.505	290.25
280.736	291.25
280.968	294.25
281.199	299.25
281.431	291.25
281.662	304.25
281.894	306.25
282.125	298.25
282.356	317.25
282.588	324.25
282.819	314.25
283.051	294.25
283.282	291.25
283.513	302.25
283.745	317.25
283.976	305.25
284.207	325.25
284.439	330.25
284.67	318.25
284.901	336.25
285.132	327.25
285.364	308.25
285.595	318.25
285.826	318.25
286.057	314.25
286.288	312.25
286.52	306.25
286.751	328.25
286.982	329.25
287.213	319.25
287.444	311.25
287.675	320.25
287.906	338.25
288.138	325.25
288.369	343.25
288.6	345.25
288.831	335.25
289.062	332.25
289.293	330.25
289.524	333.25
289.755	324.25
289.986	340.25
290.217	319.25
290.448	341.25
290.679	331.25
290.91	321.25
291.141	343.25
291.371	332.25
291.602	346.25
291.833	338.25
292.064	333.25
292.295	348.25
292.526	335.25
292.757	336.25
292.987	340.25
293.218	341.25
293.449	350.25
293.68	341.25
293.91	340.25
294.141	341.25
294.372	346.25
294.603	346.25
294.833	364.25
295.064	344.25
295.295	348.25
295.525	356.25
295.756	346.25
295.987	333.25
296.217	358.25
296.448	356.25
296.679	350.25
296.909	358.25
297.14	351.25
297.37	361.25
297.601	364.25
297.831	355.25
298.062	363.25
298.292	365.25
298.523	369.25
298.753	368.25
298.984	378.25
299.214	347.25
299.445	361.25
299.675	347.25
299.905	349.25
300.136	336.25
300.366	388.25
300.597	385.25
300.827	382.25
301.057	384.25
301.288	392.25
301.518	400.25
301.748	391.25
301.979	378.25
302.209	384.25
302.439	379.25
302.669	394.25
302.9	372.25
303.13	363.25
303.36	373.25
303.59	371.25
303.82	385.25
304.051	384.25
304.281	402.25
304.511	377.25
304.741	397.25
304.971	390.25
305.201	378.25
305.431	387.25
305.661	371.25
305.891	375.25
306.121	400.25
306.352	380.25
306.582	364.25
306.812	363.25
307.042	388.25
307.272	388.25
307.502	379.25
307.731	369.25
307.961	383.25
308.191	379.25
308.421	402.25
308.651	387.25
308.881	379.25
309.111	406.25
309.341	392.25
309.571	409.25
309.8	410.25
310.03	416.25
310.26	410.25
310.49	400.25
310.72	398.25
310.949	422.25
311.179	411.25
311.409	403.25
311.639	386.25
311.868	374.25
312.098	432.25
312.328	401.25
312.557	430.25
312.787	412.25
313.017	409.25
313.246	423.25
313.476	408.25
313.706	421.25
313.935	415.25
314.165	422.25
314.394	401.25
314.624	426.25
314.853	422.25
315.083	431.25
315.312	410.25
315.542	421.25
315.771	412.25
316.001	414.25
316.23	421.25
316.46	409.25
316.689	421.25
316.919	424.25
317.148	418.25
317.377	416.25
317.607	420.25
317.836	428.25
318.065	439.25
318.295	427.25
318.524	414.25
318.753	410.25
318.983	416.25
319.212	416.25
319.441	435.25
319.67	425.25
319.9	418.25
320.129	430.25
320.358	433.25
320.587	415.25
320.816	430.25
321.046	432.25
321.275	439.25
321.504	438.25
321.733	438.25
321.962	436.25
322.191	419.25
322.42	442.25
322.649	427.25
322.878	438.25
323.108	455.25
323.337	471.25
323.566	462.25
323.795	461.25
324.024	488.25
324.253	517.25
324.482	614.25
324.71	832.25
324.939	1171.25
325.168	1034.25
325.397	610.25
325.626	508.25
325.855	500.25
326.084	483.25
326.313	476.25
326.542	471.25
326.77	476.25
326.999	531.25
327.228	605.25
327.457	795.25
327.686	947.25
327.914	701.25
328.143	539.25
328.372	530.25
328.6	499.25
328.829	483.25
329.058	503.25
329.287	510.25
329.515	483.25
329.744	500.25
329.972	484.25
330.201	492.25
330.43	530.25
330.658	528.25
330.887	538.25
331.115	530.25
331.344	494.25
331.572	522.25
331.801	511.25
332.03	537.25
332.258	521.25
332.486	511.25
332.715	528.25
332.943	535.25
333.172	564.25
333.4	540.25
333.629	583.25
333.857	563.25
334.085	582.25
334.314	582.25
334.542	585.25
334.771	584.25
334.999	554.25
335.227	546.25
335.455	549.25
335.684	530.25
335.912	545.25
336.14	527.25
336.369	495.25
336.597	516.25
336.825	543.25
337.053	521.25
337.281	514.25
337.51	487.25
337.738	524.25
337.966	509.25
338.194	491.25
338.422	505.25
338.65	495.25
338.878	488.25
339.106	487.25
339.334	514.25
339.562	493.25
339.79	490.25
340.018	480.25
340.246	487.25
340.474	482.25
340.702	510.25
340.93	479.25
341.158	496.25
341.386	460.25
341.614	484.25
341.842	500.25
342.07	495.25
342.298	459.25
342.526	479.25
342.754	487.25
342.981	476.25
343.209	479.25
343.437	508.25
343.665	527.25
343.893	506.25
344.12	540.25
344.348	539.25
344.576	539.25
344.804	527.25
345.031	512.25
345.259	489.25
345.487	497.25
345.714	468.25
345.942	454.25
346.17	473.25
346.397	455.25
346.625	456.25
346.853	444.25
347.08	477.25
347.308	482.25
347.535	459.25
347.763	471.25
347.99	475.25
348.218	469.25
348.445	491.25
348.673	491.25
348.9	475.25
349.128	470.25
349.355	452.25
349.583	458.25
349.81	460.25
350.037	446.25
350.265	443.25
350.492	442.25
350.72	456.25
350.947	455.25
351.174	467.25
351.402	438.25
351.629	468.25
351.856	465.25
352.083	452.25
352.311	456.25
352.538	457.25
352.765	456.25
352.992	481.25
353.22	452.25
353.447	435.25
353.674	464.25
353.901	446.25
354.128	437.25
354.355	445.25
354.583	462.25
354.81	442.25
355.037	473.25
355.264	454.25
355.491	451.25
355.718	447.25
355.945	454.25
356.172	440.25
356.399	459.25
356.626	448.25
356.853	458.25
357.08	434.25
357.307	442.25
357.534	453.25
357.761	454.25
357.988	439.25
358.215	461.25
358.441	444.25
358.668	430.25
358.895	451.25
359.122	472.25
359.349	450.25
359.576	466.25
359.802	475.25
360.029	470.25
360.256	469.25
360.483	453.25
360.709	458.25
360.936	452.25
361.163	448.25
361.39	440.25
361.616	466.25
361.843	449.25
362.07	450.25
362.296	461.25
362.523	453.25
362.749	477.25
362.976	444.25
363.203	473.25
363.429	450.25
363.656	450.25
363.882	470.25
364.109	447.25
364.335	479.25
364.562	467.25
364.788	455.25
365.015	448.25
365.241	434.25
365.468	456.25
365.694	464.25
365.92	466.25
366.147	459.25
366.373	464.25
366.599	445.25
366.826	431.25
367.052	435.25
367.278	447.25
367.505	443.25
367.731	472.25
367.957	456.25
368.184	455.25
368.41	474.25
368.636	457.25
368.862	482.25
369.089	461.25
369.315	462.25
369.541	452.25
369.767	460.25
369.993	471.25
370.219	482.25
370.445	465.25
370.672	468.25
370.898	475.25
371.124	468.25
371.35	476.25
371.576	488.25
371.802	477.25
372.028	492.25
372.254	484.25
372.48	478.25
372.706	499.25
372.932	508.25
373.158	492.25
373.384	491.25
373.61	513.25
373.835	460.25
374.061	478.25
374.287	467.25
374.513	483.25
374.739	499.25
374.965	513.25
375.191	506.25
375.416	520.25
375.642	501.25
375.868	509.25
376.094	475.25
376.319	478.25
376.545	498.25
376.771	498.25
376.997	470.25
377.222	494.25
377.448	487.25
377.674	485.25
377.899	500.25
378.125	489.25
378.35	490.25
378.576	480.25
378.802	489.25
379.027	455.25
379.253	487.25
379.478	476.25
379.704	474.25
379.929	479.25
380.155	485.25
380.38	505.25
380.606	463.25
380.831	487.25
381.057	499.25
381.282	491.25
381.507	485.25
381.733	495.25
381.958	485.25
382.184	483.25
382.409	538.25
382.634	517.25
382.86	510.25
383.085	512.25
383.31	510.25
383.535	529.25
383.761	530.25
383.986	524.25
384.211	524.25
384.436	543.25
384.662	561.25
384.887	556.25
385.112	581.25
385.337	574.25
385.562	555.25
385.787	585.25
386.013	575.25
386.238	568.25
386.463	554.25
386.688	572.25
386.913	545.25
387.138	574.25
387.363	562.25
387.588	565.25
387.813	561.25
388.038	548.25
388.263	576.25
388.488	576.25
388.713	535.25
388.938	574.25
389.163	558.25
389.387	545.25
389.612	530.25
389.837	563.25
390.062	558.25
390.287	576.25
390.512	552.25
390.736	557.25
390.961	570.25
391.186	578.25
391.411	583.25
391.636	560.25
391.86	594.25
392.085	610.25
392.31	601.25
392.534	574.25
392.759	607.25
392.984	597.25
393.208	603.25
393.433	656.25
393.658	656.25
393.882	600.25
394.107	597.25
394.331	578.25
394.556	592.25
394.78	589.25
395.005	574.25
395.229	592.25
395.454	604.25
395.678	600.25
395.903	624.25
396.127	623.25
396.352	580.25
396.576	610.25
396.801	620.25
397.025	648.25
397.249	630.25
397.474	604.25
397.698	615.25
397.922	625.25
398.147	626.25
398.371	633.25
398.595	610.25
398.82	670.25
399.044	679.25
399.268	745.25
399.492	814.25
399.717	883.25
399.941	910.25
400.165	853.25
400.389	817.25
400.613	753.25
400.837	690.25
401.062	690.25
401.286	650.25
401.51	662.25
401.734	658.25
401.958	664.25
402.182	671.25
402.406	689.25
402.63	680.25
402.854	681.25
403.078	686.25
403.302	716.25
403.526	697.25
403.75	724.25
403.974	730.25
404.198	721.25
404.422	738.25
404.645	749.25
404.869	713.25
405.093	739.25
405.317	779.25
405.541	768.25
405.765	732.25
405.988	722.25
406.212	710.25
406.436	719.25
406.66	755.25
406.883	724.25
407.107	787.25
407.331	840.25
407.555	872.25
407.778	901.25
408.002	829.25
408.226	770.25
408.449	784.25
408.673	750.25
408.896	746.25
409.12	780.25
409.344	739.25
409.567	732.25
409.791	753.25
410.014	703.25
410.238	703.25
410.461	719.25
410.685	691.25
410.908	716.25
411.132	742.25
411.355	724.25
411.578	716.25
411.802	667.25
412.025	686.25
412.249	711.25
412.472	724.25
412.695	715.25
412.919	694.25
413.142	699.25
413.365	690.25
413.589	675.25
413.812	660.25
414.035	688.25
414.258	676.25
414.482	663.25
414.705	671.25
414.928	658.25
415.151	651.25
415.374	649.25
415.597	681.25
415.821	666.25
416.044	665.25
416.267	662.25
416.49	643.25
416.713	665.25
416.936	656.25
417.159	648.25
417.382	625.25
417.605	664.25
417.828	660.25
418.051	658.25
418.274	637.25
418.497	660.25
418.72	680.25
418.943	662.25
419.166	668.25
419.389	745.25
419.611	719.25
419.834	707.25
420.057	706.25
420.28	678.25
420.503	680.25
420.726	649.25
420.948	650.25
421.171	694.25
421.394	715.25
421.617	660.25
421.839	654.25
422.062	663.25
422.285	680.25
422.507	720.25
422.73	747.25
422.953	714.25
423.175	699.25
423.398	671.25
423.621	680.25
423.843	695.25
424.066	717.25
424.288	712.25
424.511	699.25
424.733	732.25
424.956	779.25
425.178	755.25
425.401	739.25
425.623	769.25
425.846	682.25
426.068	663.25
426.291	654.25
426.513	681.25
426.735	662.25
426.958	679.25
427.18	734.25
427.402	798.25
427.625	820.25
427.847	744.25
428.069	698.25
428.292	654.25
428.514	625.25
428.736	623.25
428.958	630.25
429.181	611.25
429.403	609.25
429.625	617.25
429.847	646.25
430.069	672.25
430.292	663.25
430.514	626.25
430.736	602.25
430.958	611.25
431.18	594.25
431.402	606.25
431.624	595.25
431.846	644.25
432.068	612.25
432.29	629.25
432.512	602.25
432.734	596.25
432.956	600.25
433.178	612.25
433.4	637.25
433.622	626.25
433.844	638.25
434.066	614.25
434.287	609.25
434.509	631.25
434.731	659.25
434.953	668.25
435.175	641.25
435.397	680.25
435.618	669.25
435.84	688.25
436.062	733.25
436.284	732.25
436.505	681.25
436.727	632.25
436.949	617.25
437.17	628.25
437.392	609.25
437.614	608.25
437.835	628.25
438.057	696.25
438.278	730.25
438.5	735.25
438.721	739.25
438.943	759.25
439.165	650.25
439.386	654.25
439.608	654.25
439.829	631.25
440.05	664.25
440.272	665.25
440.493	626.25
440.715	641.25
440.936	633.25
441.158	629.25
441.379	645.25
441.6	667.25
441.822	678.25
442.043	715.25
442.264	728.25
442.486	746.25
442.707	676.25
442.928	696.25
443.149	664.25
443.371	677.25
443.592	695.25
443.813	794.25
444.034	795.25
444.255	748.25
444.476	710.25
444.698	719.25
444.919	748.25
445.14	854.25
445.361	773.25
445.582	706.25
445.803	719.25
446.024	745.25
446.245	767.25
446.466	722.25
446.687	670.25
446.908	655.25
447.129	594.25
447.35	592.25
447.571	606.25
447.792	560.25
448.013	591.25
448.234	593.25
448.455	616.25
448.675	675.25
448.896	750.25
449.117	650.25
449.338	623.25
449.559	720.25
449.779	790.25
450	669.25
450.221	633.25
450.442	575.25
450.662	598.25
450.883	570.25
451.104	587.25
451.324	595.25
451.545	566.25
451.766	568.25
451.986	566.25
452.207	562.25
452.428	540.25
452.648	540.25
452.869	543.25
453.089	568.25
453.31	542.25
453.53	547.25
453.751	524.25
453.971	527.25
454.192	554.25
454.412	554.25
454.633	496.25
454.853	538.25
455.073	522.25
455.294	540.25
455.514	570.25
455.734	577.25
455.955	538.25
456.175	537.25
456.395	522.25
456.616	529.25
456.836	544.25
457.056	528.25
457.276	522.25
457.497	522.25
457.717	546.25
457.937	566.25
458.157	536.25
458.377	535.25
458.598	562.25
458.818	608.25
459.038	640.25
459.258	658.25
459.478	626.25
459.698	614.25
459.918	630.25
460.138	665.25
460.358	659.25
460.578	688.25
460.798	667.25
461.018	670.25
461.238	675.25
461.458	689.25
461.678	662.25
461.898	679.25
462.118	678.25
462.338	690.25
462.558	714.25
462.777	752.25
462.997	774.25
463.217	811.25
463.437	819.25
463.657	778.25
463.876	754.25
464.096	787.25
464.316	751.25
464.536	723.25
464.755	739.25
464.975	727.25
465.195	724.25
465.414	708.25
465.634	678.25
465.854	652.25
466.073	626.25
466.293	609.25
466.512	589.25
466.732	589.25
466.951	610.25
467.171	591.25
467.391	612.25
467.61	613.25
467.829	585.25
468.049	596.25
468.268	574.25
468.488	566.25
468.707	574.25
468.927	555.25
469.146	580.25
469.365	593.25
469.585	583.25
469.804	595.25
470.023	602.25
470.243	601.25
470.462	606.25
470.681	629.25
470.901	627.25
471.12	611.25
471.339	600.25
471.558	600.25
471.777	581.25
471.997	569.25
472.216	583.25
472.435	593.25
472.654	579.25
472.873	567.25
473.092	574.25
473.311	568.25
473.53	581.25
473.749	576.25
473.968	594.25
474.187	649.25
474.406	638.25
474.625	612.25
474.844	589.25
475.063	578.25
475.282	575.25
475.501	579.25
475.72	596.25
475.939	600.25
476.158	593.25
476.377	592.25
476.596	604.25
476.814	599.25
477.033	598.25
477.252	635.25
477.471	629.25
477.69	658.25
477.908	643.25
478.127	651.25
478.346	658.25
478.564	677.25
478.783	677.25
479.002	697.25
479.22	700.25
479.439	729.25
479.658	703.25
479.876	714.25
480.095	732.25
480.313	776.25
480.532	763.25
480.751	777.25
480.969	759.25
481.188	764.25
481.406	739.25
481.624	735.25
481.843	719.25
482.061	706.25
482.28	683.25
482.498	670.25
482.717	659.25
482.935	675.25
483.153	683.25
483.372	673.25
483.59	687.25
483.808	679.25
484.027	668.25
484.245	695.25
484.463	675.25
484.681	688.25
484.9	689.25
485.118	696.25
485.336	689.25
485.554	735.25
485.772	718.25
485.99	712.25
486.209	721.25
486.427	708.25
486.645	738.25
486.863	712.25
487.081	736.25
487.299	709.25
487.517	718.25
487.735	720.25
487.953	712.25
488.171	736.25
488.389	710.25
488.607	723.25
488.825	705.25
489.043	710.25
489.261	728.25
489.479	720.25
489.696	734.25
489.914	726.25
490.132	758.25
490.35	738.25
490.568	741.25
490.786	726.25
491.003	724.25
491.221	739.25
491.439	766.25
491.657	764.25
491.874	795.25
492.092	781.25
492.31	770.25
492.527	781.25
492.745	785.25
492.963	775.25
493.18	768.25
493.398	785.25
493.615	794.25
493.833	814.25
494.05	801.25
494.268	799.25
494.485	804.25
494.703	816.25
494.92	825.25
495.138	809.25
495.355	804.25
495.573	810.25
495.79	849.25
496.008	816.25
496.225	818.25
496.442	820.25
496.66	831.25
496.877	844.25
497.094	860.25
497.312	856.25
497.529	873.25
497.746	883.25
497.963	942.25
498.181	951.25
498.398	973.25
498.615	997.25
498.832	1051.25
499.049	1094.25
499.267	1150.25
499.484	1224.25
499.701	1294.25
499.918	1431.25
500.135	1538.25
500.352	1735.25
500.569	1742.25
500.786	1743.25
501.003	1658.25
501.22	1532.25
501.437	1424.25
501.654	1315.25
501.871	1235.25
