Data from 1963.PennyLincolnUp.Lamp.En5.5.200Scan.071719.P1._HRD10591_14-00-07-064.txt Node
Date: Thu Jul 18 14:00:07 EDT 2019
User: cochatt
Spectrometer: HR+D1059
Trigger mode: 1
Integration Time (sec): 1.000000E-1
Scans to average: 1
Electric dark correction enabled: true
Nonlinearity correction enabled: false
Boxcar width: 0
XAxis mode: Wavelengths
Number of Pixels in Spectrum: 2048
>>>>>Begin Spectral Data<<<<<
223.165	-10.69
223.4	-10.69
223.635	-10.69
223.869	-29.69
224.104	-18.69
224.338	-13.69
224.573	-16.69
224.808	-9.69
225.042	-10.69
225.277	1.31
225.511	2.31
225.746	2.31
225.98	-5.69
226.215	6.31
226.449	15.31
226.683	15.31
226.918	34.31
227.152	38.31
227.387	28.31
227.621	33.31
227.856	40.31
228.09	52.31
228.324	54.31
228.559	49.31
228.793	69.31
229.027	102.31
229.262	98.31
229.496	105.31
229.73	131.31
229.964	142.31
230.199	130.31
230.433	113.31
230.667	114.31
230.901	119.31
231.136	115.31
231.37	114.31
231.604	133.31
231.838	117.31
232.072	116.31
232.306	122.31
232.541	134.31
232.775	115.31
233.009	113.31
233.243	126.31
233.477	133.31
233.711	133.31
233.945	139.31
234.179	117.31
234.413	117.31
234.647	117.31
234.881	116.31
235.115	108.31
235.349	133.31
235.583	132.31
235.817	129.31
236.051	134.31
236.285	136.31
236.519	136.31
236.753	147.31
236.987	148.31
237.221	168.31
237.455	199.31
237.689	180.31
237.922	140.31
238.156	142.31
238.39	146.31
238.624	134.31
238.858	146.31
239.091	126.31
239.325	132.31
239.559	137.31
239.793	132.31
240.027	140.31
240.26	161.31
240.494	148.31
240.728	172.31
240.961	161.31
241.195	152.31
241.429	151.31
241.662	138.31
241.896	138.31
242.13	157.31
242.363	150.31
242.597	149.31
242.83	152.31
243.064	164.31
243.298	156.31
243.531	169.31
243.765	160.31
243.998	149.31
244.232	146.31
244.465	160.31
244.699	141.31
244.932	171.31
245.166	172.31
245.399	169.31
245.633	166.31
245.866	168.31
246.099	169.31
246.333	171.31
246.566	170.31
246.8	165.31
247.033	172.31
247.266	180.31
247.5	179.31
247.733	200.31
247.966	191.31
248.2	191.31
248.433	177.31
248.666	188.31
248.899	201.31
249.133	205.31
249.366	207.31
249.599	211.31
249.832	198.31
250.066	201.31
250.299	216.31
250.532	214.31
250.765	228.31
250.998	230.31
251.231	240.31
251.465	217.31
251.698	238.31
251.931	228.31
252.164	205.31
252.397	220.31
252.63	227.31
252.863	236.31
253.096	235.31
253.329	235.31
253.562	236.31
253.795	225.31
254.028	226.31
254.261	244.31
254.494	228.31
254.727	266.31
254.96	287.31
255.193	279.31
255.426	253.31
255.659	242.31
255.892	238.31
256.124	243.31
256.357	242.31
256.59	235.31
256.823	243.31
257.056	228.31
257.289	243.31
257.521	228.31
257.754	221.31
257.987	232.31
258.22	228.31
258.452	225.31
258.685	231.31
258.918	238.31
259.151	235.31
259.383	253.31
259.616	246.31
259.849	247.31
260.081	260.31
260.314	274.31
260.547	276.31
260.779	273.31
261.012	258.31
261.244	273.31
261.477	256.31
261.71	245.31
261.942	238.31
262.175	267.31
262.407	258.31
262.64	248.31
262.872	248.31
263.105	248.31
263.337	263.31
263.57	243.31
263.802	266.31
264.035	241.31
264.267	235.31
264.499	247.31
264.732	258.31
264.964	270.31
265.197	243.31
265.429	250.31
265.661	260.31
265.894	254.31
266.126	228.31
266.358	264.31
266.591	273.31
266.823	264.31
267.055	266.31
267.287	256.31
267.52	259.31
267.752	279.31
267.984	253.31
268.216	264.31
268.448	296.31
268.681	264.31
268.913	278.31
269.145	292.31
269.377	314.31
269.609	301.31
269.841	308.31
270.073	302.31
270.306	303.31
270.538	322.31
270.77	317.31
271.002	337.31
271.234	320.31
271.466	326.31
271.698	329.31
271.93	353.31
272.162	326.31
272.394	358.31
272.626	342.31
272.858	331.31
273.09	307.31
273.322	314.31
273.553	299.31
273.785	297.31
274.017	306.31
274.249	310.31
274.481	308.31
274.713	309.31
274.945	298.31
275.176	308.31
275.408	308.31
275.64	314.31
275.872	294.31
276.104	304.31
276.335	306.31
276.567	309.31
276.799	304.31
277.031	348.31
277.262	347.31
277.494	341.31
277.726	320.31
277.957	318.31
278.189	334.31
278.421	302.31
278.652	302.31
278.884	304.31
279.115	346.31
279.347	327.31
279.579	310.31
279.81	316.31
280.042	330.31
280.273	322.31
280.505	330.31
280.736	326.31
280.968	330.31
281.199	320.31
281.431	317.31
281.662	312.31
281.894	326.31
282.125	342.31
282.356	345.31
282.588	357.31
282.819	364.31
283.051	335.31
283.282	312.31
283.513	340.31
283.745	334.31
283.976	352.31
284.207	324.31
284.439	340.31
284.67	350.31
284.901	333.31
285.132	360.31
285.364	353.31
285.595	340.31
285.826	352.31
286.057	337.31
286.288	350.31
286.52	343.31
286.751	342.31
286.982	339.31
287.213	349.31
287.444	364.31
287.675	365.31
287.906	374.31
288.138	356.31
288.369	346.31
288.6	368.31
288.831	363.31
289.062	366.31
289.293	360.31
289.524	348.31
289.755	337.31
289.986	345.31
290.217	370.31
290.448	365.31
290.679	363.31
290.91	374.31
291.141	370.31
291.371	356.31
291.602	387.31
291.833	368.31
292.064	369.31
292.295	366.31
292.526	358.31
292.757	352.31
292.987	354.31
293.218	363.31
293.449	370.31
293.68	374.31
293.91	374.31
294.141	345.31
294.372	372.31
294.603	378.31
294.833	369.31
295.064	375.31
295.295	379.31
295.525	390.31
295.756	379.31
295.987	386.31
296.217	408.31
296.448	409.31
296.679	380.31
296.909	376.31
297.14	367.31
297.37	364.31
297.601	380.31
297.831	379.31
298.062	396.31
298.292	382.31
298.523	392.31
298.753	372.31
298.984	386.31
299.214	390.31
299.445	403.31
299.675	401.31
299.905	392.31
300.136	380.31
300.366	411.31
300.597	420.31
300.827	412.31
301.057	411.31
301.288	435.31
301.518	393.31
301.748	413.31
301.979	418.31
302.209	423.31
302.439	424.31
302.669	399.31
302.9	410.31
303.13	424.31
303.36	445.31
303.59	434.31
303.82	425.31
304.051	415.31
304.281	424.31
304.511	416.31
304.741	443.31
304.971	425.31
305.201	430.31
305.431	429.31
305.661	404.31
305.891	419.31
306.121	402.31
306.352	428.31
306.582	419.31
306.812	409.31
307.042	412.31
307.272	437.31
307.502	408.31
307.731	401.31
307.961	422.31
308.191	408.31
308.421	411.31
308.651	409.31
308.881	437.31
309.111	432.31
309.341	441.31
309.571	420.31
309.8	462.31
310.03	436.31
310.26	453.31
310.49	425.31
310.72	436.31
310.949	442.31
311.179	460.31
311.409	456.31
311.639	468.31
311.868	459.31
312.098	461.31
312.328	456.31
312.557	471.31
312.787	486.31
313.017	462.31
313.246	474.31
313.476	461.31
313.706	458.31
313.935	461.31
314.165	469.31
314.394	484.31
314.624	478.31
314.853	447.31
315.083	468.31
315.312	492.31
315.542	470.31
315.771	500.31
316.001	450.31
316.23	472.31
316.46	472.31
316.689	473.31
316.919	487.31
317.148	479.31
317.377	471.31
317.607	454.31
317.836	465.31
318.065	453.31
318.295	470.31
318.524	491.31
318.753	473.31
318.983	450.31
319.212	461.31
319.441	466.31
319.67	477.31
319.9	467.31
320.129	468.31
320.358	467.31
320.587	490.31
320.816	486.31
321.046	473.31
321.275	468.31
321.504	485.31
321.733	480.31
321.962	485.31
322.191	496.31
322.42	495.31
322.649	515.31
322.878	512.31
323.108	501.31
323.337	522.31
323.566	537.31
323.795	557.31
324.024	610.31
324.253	653.31
324.482	849.31
324.71	1242.31
324.939	1730.31
325.168	1558.31
325.397	882.31
325.626	643.31
325.855	590.31
326.084	561.31
326.313	558.31
326.542	580.31
326.77	580.31
326.999	648.31
327.228	832.31
327.457	1160.31
327.686	1411.31
327.914	986.31
328.143	713.31
328.372	629.31
328.6	598.31
328.829	592.31
329.058	612.31
329.287	608.31
329.515	587.31
329.744	571.31
329.972	581.31
330.201	578.31
330.43	617.31
330.658	633.31
330.887	653.31
331.115	618.31
331.344	603.31
331.572	570.31
331.801	581.31
332.03	561.31
332.258	585.31
332.486	572.31
332.715	591.31
332.943	601.31
333.172	625.31
333.4	644.31
333.629	641.31
333.857	640.31
334.085	663.31
334.314	675.31
334.542	682.31
334.771	683.31
334.999	656.31
335.227	638.31
335.455	638.31
335.684	595.31
335.912	589.31
336.14	597.31
336.369	576.31
336.597	605.31
336.825	596.31
337.053	605.31
337.281	572.31
337.51	560.31
337.738	557.31
337.966	575.31
338.194	561.31
338.422	565.31
338.65	570.31
338.878	549.31
339.106	577.31
339.334	542.31
339.562	544.31
339.79	535.31
340.018	526.31
340.246	553.31
340.474	541.31
340.702	560.31
340.93	536.31
341.158	545.31
341.386	542.31
341.614	548.31
341.842	538.31
342.07	536.31
342.298	532.31
342.526	532.31
342.754	549.31
342.981	523.31
343.209	518.31
343.437	549.31
343.665	564.31
343.893	597.31
344.12	615.31
344.348	608.31
344.576	593.31
344.804	575.31
345.031	560.31
345.259	556.31
345.487	546.31
345.714	529.31
345.942	519.31
346.17	515.31
346.397	505.31
346.625	503.31
346.853	508.31
347.08	523.31
347.308	530.31
347.535	524.31
347.763	538.31
347.99	530.31
348.218	509.31
348.445	538.31
348.673	523.31
348.9	518.31
349.128	493.31
349.355	491.31
349.583	501.31
349.81	498.31
350.037	514.31
350.265	504.31
350.492	501.31
350.72	499.31
350.947	517.31
351.174	514.31
351.402	519.31
351.629	536.31
351.856	526.31
352.083	517.31
352.311	502.31
352.538	515.31
352.765	513.31
352.992	482.31
353.22	506.31
353.447	514.31
353.674	517.31
353.901	507.31
354.128	501.31
354.355	491.31
354.583	486.31
354.81	494.31
355.037	499.31
355.264	497.31
355.491	506.31
355.718	480.31
355.945	472.31
356.172	496.31
356.399	499.31
356.626	502.31
356.853	481.31
357.08	509.31
357.307	486.31
357.534	487.31
357.761	487.31
357.988	493.31
358.215	480.31
358.441	483.31
358.668	504.31
358.895	498.31
359.122	513.31
359.349	519.31
359.576	520.31
359.802	507.31
360.029	530.31
360.256	549.31
360.483	545.31
360.709	500.31
360.936	502.31
361.163	492.31
361.39	522.31
361.616	521.31
361.843	503.31
362.07	522.31
362.296	508.31
362.523	515.31
362.749	517.31
362.976	517.31
363.203	505.31
363.429	504.31
363.656	486.31
363.882	510.31
364.109	505.31
364.335	500.31
364.562	516.31
364.788	501.31
365.015	517.31
365.241	487.31
365.468	510.31
365.694	498.31
365.92	502.31
366.147	514.31
366.373	510.31
366.599	497.31
366.826	498.31
367.052	497.31
367.278	504.31
367.505	496.31
367.731	512.31
367.957	491.31
368.184	498.31
368.41	518.31
368.636	525.31
368.862	510.31
369.089	502.31
369.315	504.31
369.541	503.31
369.767	494.31
369.993	512.31
370.219	520.31
370.445	525.31
370.672	530.31
370.898	519.31
371.124	536.31
371.35	502.31
371.576	502.31
371.802	523.31
372.028	535.31
372.254	534.31
372.48	496.31
372.706	525.31
372.932	529.31
373.158	532.31
373.384	536.31
373.61	516.31
373.835	535.31
374.061	524.31
374.287	558.31
374.513	563.31
374.739	548.31
374.965	547.31
375.191	572.31
375.416	555.31
375.642	548.31
375.868	544.31
376.094	539.31
376.319	524.31
376.545	541.31
376.771	520.31
376.997	522.31
377.222	537.31
377.448	513.31
377.674	523.31
377.899	529.31
378.125	506.31
378.35	514.31
378.576	527.31
378.802	504.31
379.027	508.31
379.253	510.31
379.478	492.31
379.704	534.31
379.929	529.31
380.155	526.31
380.38	543.31
380.606	547.31
380.831	535.31
381.057	536.31
381.282	517.31
381.507	531.31
381.733	529.31
381.958	493.31
382.184	548.31
382.409	549.31
382.634	567.31
382.86	536.31
383.085	552.31
383.31	545.31
383.535	558.31
383.761	562.31
383.986	564.31
384.211	576.31
384.436	577.31
384.662	580.31
384.887	620.31
385.112	598.31
385.337	610.31
385.562	607.31
385.787	619.31
386.013	595.31
386.238	641.31
386.463	612.31
386.688	607.31
386.913	609.31
387.138	613.31
387.363	609.31
387.588	599.31
387.813	600.31
388.038	601.31
388.263	599.31
388.488	616.31
388.713	632.31
388.938	584.31
389.163	589.31
389.387	595.31
389.612	591.31
389.837	590.31
390.062	608.31
390.287	612.31
390.512	583.31
390.736	605.31
390.961	608.31
391.186	583.31
391.411	614.31
391.636	623.31
391.86	636.31
392.085	637.31
392.31	672.31
392.534	669.31
392.759	648.31
392.984	611.31
393.208	610.31
393.433	620.31
393.658	631.31
393.882	632.31
394.107	590.31
394.331	619.31
394.556	608.31
394.78	625.31
395.005	626.31
395.229	621.31
395.454	657.31
395.678	668.31
395.903	664.31
396.127	676.31
396.352	677.31
396.576	640.31
396.801	651.31
397.025	640.31
397.249	662.31
397.474	654.31
397.698	669.31
397.922	690.31
398.147	678.31
398.371	692.31
398.595	702.31
398.82	710.31
399.044	769.31
399.268	832.31
399.492	888.31
399.717	974.31
399.941	975.31
400.165	952.31
400.389	898.31
400.613	807.31
400.837	772.31
401.062	753.31
401.286	759.31
401.51	712.31
401.734	729.31
401.958	723.31
402.182	730.31
402.406	746.31
402.63	768.31
402.854	773.31
403.078	761.31
403.302	781.31
403.526	771.31
403.75	786.31
403.974	778.31
404.198	793.31
404.422	795.31
404.645	791.31
404.869	792.31
405.093	826.31
405.317	842.31
405.541	890.31
405.765	849.31
405.988	806.31
406.212	803.31
406.436	837.31
406.66	827.31
406.883	808.31
407.107	869.31
407.331	908.31
407.555	990.31
407.778	987.31
408.002	907.31
408.226	870.31
408.449	825.31
408.673	843.31
408.896	829.31
409.12	872.31
409.344	838.31
409.567	788.31
409.791	796.31
410.014	782.31
410.238	779.31
410.461	782.31
410.685	738.31
410.908	790.31
411.132	825.31
411.355	818.31
411.578	782.31
411.802	753.31
412.025	763.31
412.249	777.31
412.472	797.31
412.695	811.31
412.919	802.31
413.142	749.31
413.365	729.31
413.589	753.31
413.812	725.31
414.035	711.31
414.258	710.31
414.482	749.31
414.705	724.31
414.928	728.31
415.151	716.31
415.374	716.31
415.597	722.31
415.821	708.31
416.044	710.31
416.267	708.31
416.49	688.31
416.713	705.31
416.936	711.31
417.159	690.31
417.382	714.31
417.605	724.31
417.828	718.31
418.051	714.31
418.274	730.31
418.497	728.31
418.72	728.31
418.943	732.31
419.166	727.31
419.389	809.31
419.611	764.31
419.834	759.31
420.057	789.31
420.28	753.31
420.503	699.31
420.726	732.31
420.948	729.31
421.171	767.31
421.394	794.31
421.617	756.31
421.839	758.31
422.062	732.31
422.285	730.31
422.507	770.31
422.73	842.31
422.953	841.31
423.175	773.31
423.398	775.31
423.621	754.31
423.843	813.31
424.066	808.31
424.288	784.31
424.511	802.31
424.733	811.31
424.956	904.31
425.178	870.31
425.401	852.31
425.623	886.31
425.846	776.31
426.068	770.31
426.291	733.31
426.513	749.31
426.735	756.31
426.958	782.31
427.18	837.31
427.402	960.31
427.625	1008.31
427.847	897.31
428.069	775.31
428.292	762.31
428.514	715.31
428.736	712.31
428.958	678.31
429.181	668.31
429.403	651.31
429.625	689.31
429.847	698.31
430.069	735.31
430.292	740.31
430.514	671.31
430.736	676.31
430.958	660.31
431.18	668.31
431.402	675.31
431.624	652.31
431.846	639.31
432.068	669.31
432.29	661.31
432.512	641.31
432.734	685.31
432.956	681.31
433.178	647.31
433.4	670.31
433.622	682.31
433.844	671.31
434.066	672.31
434.287	671.31
434.509	705.31
434.731	706.31
434.953	721.31
435.175	741.31
435.397	743.31
435.618	737.31
435.84	759.31
436.062	865.31
436.284	869.31
436.505	775.31
436.727	725.31
436.949	688.31
437.17	677.31
437.392	663.31
437.614	664.31
437.835	717.31
438.057	786.31
438.278	853.31
438.5	852.31
438.721	913.31
438.943	886.31
439.165	788.31
439.386	739.31
439.608	707.31
439.829	702.31
440.05	736.31
440.272	755.31
440.493	724.31
440.715	685.31
440.936	708.31
441.158	705.31
441.379	715.31
441.6	731.31
441.822	726.31
442.043	785.31
442.264	832.31
442.486	867.31
442.707	757.31
442.928	748.31
443.149	772.31
443.371	775.31
443.592	807.31
443.813	890.31
444.034	936.31
444.255	858.31
444.476	825.31
444.698	828.31
444.919	826.31
445.14	900.31
445.361	840.31
445.582	788.31
445.803	806.31
446.024	887.31
446.245	866.31
446.466	837.31
446.687	744.31
446.908	715.31
447.129	693.31
447.35	648.31
447.571	676.31
447.792	630.31
448.013	644.31
448.234	649.31
448.455	705.31
448.675	801.31
448.896	902.31
449.117	800.31
449.338	759.31
449.559	859.31
449.779	907.31
450	757.31
450.221	670.31
450.442	660.31
450.662	640.31
450.883	651.31
451.104	652.31
451.324	657.31
451.545	660.31
451.766	642.31
451.986	601.31
452.207	605.31
452.428	575.31
452.648	613.31
452.869	595.31
453.089	615.31
453.31	634.31
453.53	610.31
453.751	605.31
453.971	614.31
454.192	615.31
454.412	617.31
454.633	589.31
454.853	610.31
455.073	588.31
455.294	603.31
455.514	653.31
455.734	648.31
455.955	610.31
456.175	578.31
456.395	578.31
456.616	552.31
456.836	595.31
457.056	578.31
457.276	571.31
457.497	562.31
457.717	561.31
457.937	585.31
458.157	604.31
458.377	582.31
458.598	598.31
458.818	660.31
459.038	736.31
459.258	758.31
459.478	704.31
459.698	678.31
459.918	679.31
460.138	709.31
460.358	710.31
460.578	701.31
460.798	758.31
461.018	728.31
461.238	731.31
461.458	714.31
461.678	692.31
461.898	701.31
462.118	721.31
462.338	774.31
462.558	776.31
462.777	790.31
462.997	844.31
463.217	890.31
463.437	887.31
463.657	836.31
463.876	826.31
464.096	831.31
464.316	819.31
464.536	825.31
464.755	810.31
464.975	801.31
465.195	784.31
465.414	823.31
465.634	749.31
465.854	692.31
466.073	684.31
466.293	649.31
466.512	646.31
466.732	643.31
466.951	646.31
467.171	637.31
467.391	639.31
467.61	651.31
467.829	661.31
468.049	646.31
468.268	636.31
468.488	636.31
468.707	597.31
468.927	609.31
469.146	601.31
469.365	630.31
469.585	618.31
469.804	630.31
470.023	642.31
470.243	660.31
470.462	676.31
470.681	658.31
470.901	655.31
471.12	659.31
471.339	655.31
471.558	668.31
471.777	641.31
471.997	660.31
472.216	642.31
472.435	675.31
472.654	646.31
472.873	649.31
473.092	644.31
473.311	613.31
473.53	615.31
473.749	619.31
473.968	632.31
474.187	729.31
474.406	742.31
474.625	646.31
474.844	634.31
475.063	613.31
475.282	613.31
475.501	612.31
475.72	653.31
475.939	617.31
476.158	638.31
476.377	636.31
476.596	627.31
476.814	644.31
477.033	671.31
477.252	672.31
477.471	684.31
477.69	680.31
477.908	697.31
478.127	720.31
478.346	714.31
478.564	741.31
478.783	742.31
479.002	767.31
479.22	746.31
479.439	767.31
479.658	798.31
479.876	782.31
480.095	792.31
480.313	846.31
480.532	854.31
480.751	822.31
480.969	821.31
481.188	866.31
481.406	858.31
481.624	821.31
481.843	774.31
482.061	740.31
482.28	732.31
482.498	737.31
482.717	718.31
482.935	740.31
483.153	702.31
483.372	734.31
483.59	740.31
483.808	724.31
484.027	763.31
484.245	736.31
484.463	736.31
484.681	753.31
484.9	733.31
485.118	772.31
485.336	756.31
485.554	782.31
485.772	757.31
485.99	745.31
486.209	772.31
486.427	770.31
486.645	769.31
486.863	787.31
487.081	774.31
487.299	788.31
487.517	774.31
487.735	762.31
487.953	786.31
488.171	789.31
488.389	766.31
488.607	776.31
488.825	783.31
489.043	772.31
489.261	772.31
489.479	800.31
489.696	791.31
489.914	787.31
490.132	796.31
490.35	810.31
490.568	812.31
490.786	804.31
491.003	810.31
491.221	841.31
491.439	856.31
491.657	858.31
491.874	859.31
492.092	856.31
492.31	864.31
492.527	860.31
492.745	896.31
492.963	893.31
493.18	864.31
493.398	902.31
493.615	897.31
493.833	894.31
494.05	910.31
494.268	907.31
494.485	916.31
494.703	908.31
494.92	894.31
495.138	893.31
495.355	902.31
495.573	921.31
495.79	887.31
496.008	904.31
496.225	937.31
496.442	925.31
496.66	932.31
496.877	940.31
497.094	949.31
497.312	939.31
497.529	987.31
497.746	981.31
497.963	1030.31
498.181	1064.31
498.398	1073.31
498.615	1101.31
498.832	1193.31
499.049	1202.31
499.267	1257.31
499.484	1344.31
499.701	1456.31
499.918	1540.31
500.135	1637.31
500.352	1789.31
500.569	1853.31
500.786	1882.31
501.003	1769.31
501.22	1657.31
501.437	1558.31
501.654	1446.31
