Data from 1963.PennyLincolnUp.Lamp.En5.5.200Scan.071719.P1._HRD10591_13-57-18-063.txt Node
Date: Thu Jul 18 13:57:18 EDT 2019
User: cochatt
Spectrometer: HR+D1059
Trigger mode: 1
Integration Time (sec): 1.000000E-1
Scans to average: 1
Electric dark correction enabled: true
Nonlinearity correction enabled: false
Boxcar width: 0
XAxis mode: Wavelengths
Number of Pixels in Spectrum: 2048
>>>>>Begin Spectral Data<<<<<
223.165	-20.12
223.4	-20.12
223.635	-20.12
223.869	-14.12
224.104	-4.12
224.338	-14.12
224.573	-20.12
224.808	-20.12
225.042	-6.12
225.277	-8.12
225.511	5.88
225.746	-11.12
225.98	6.88
226.215	9.88
226.449	34.88
226.683	27.88
226.918	16.88
227.152	15.88
227.387	41.88
227.621	36.88
227.856	59.88
228.09	49.88
228.324	53.88
228.559	66.88
228.793	85.88
229.027	88.88
229.262	96.88
229.496	101.88
229.73	120.88
229.964	120.88
230.199	126.88
230.433	106.88
230.667	117.88
230.901	118.88
231.136	109.88
231.37	111.88
231.604	113.88
231.838	118.88
232.072	111.88
232.306	118.88
232.541	115.88
232.775	127.88
233.009	104.88
233.243	109.88
233.477	109.88
233.711	120.88
233.945	127.88
234.179	121.88
234.413	117.88
234.647	136.88
234.881	110.88
235.115	128.88
235.349	129.88
235.583	117.88
235.817	125.88
236.051	126.88
236.285	121.88
236.519	138.88
236.753	133.88
236.987	137.88
237.221	141.88
237.455	174.88
237.689	144.88
237.922	136.88
238.156	135.88
238.39	121.88
238.624	130.88
238.858	127.88
239.091	122.88
239.325	133.88
239.559	134.88
239.793	134.88
240.027	127.88
240.26	144.88
240.494	151.88
240.728	147.88
240.961	139.88
241.195	157.88
241.429	140.88
241.662	145.88
241.896	143.88
242.13	119.88
242.363	140.88
242.597	135.88
242.83	145.88
243.064	151.88
243.298	144.88
243.531	145.88
243.765	135.88
243.998	143.88
244.232	148.88
244.465	133.88
244.699	148.88
244.932	168.88
245.166	164.88
245.399	168.88
245.633	157.88
245.866	157.88
246.099	149.88
246.333	141.88
246.566	143.88
246.8	153.88
247.033	167.88
247.266	175.88
247.5	145.88
247.733	174.88
247.966	186.88
248.2	182.88
248.433	185.88
248.666	174.88
248.899	189.88
249.133	184.88
249.366	187.88
249.599	209.88
249.832	197.88
250.066	174.88
250.299	185.88
250.532	205.88
250.765	194.88
250.998	228.88
251.231	211.88
251.465	210.88
251.698	191.88
251.931	190.88
252.164	208.88
252.397	200.88
252.63	202.88
252.863	207.88
253.096	203.88
253.329	216.88
253.562	213.88
253.795	197.88
254.028	215.88
254.261	216.88
254.494	225.88
254.727	230.88
254.96	257.88
255.193	265.88
255.426	248.88
255.659	221.88
255.892	230.88
256.124	230.88
256.357	221.88
256.59	201.88
256.823	208.88
257.056	212.88
257.289	215.88
257.521	209.88
257.754	215.88
257.987	211.88
258.22	199.88
258.452	235.88
258.685	229.88
258.918	220.88
259.151	223.88
259.383	223.88
259.616	225.88
259.849	217.88
260.081	236.88
260.314	236.88
260.547	234.88
260.779	237.88
261.012	249.88
261.244	234.88
261.477	230.88
261.71	212.88
261.942	223.88
262.175	231.88
262.407	223.88
262.64	214.88
262.872	224.88
263.105	246.88
263.337	232.88
263.57	229.88
263.802	236.88
264.035	231.88
264.267	236.88
264.499	233.88
264.732	238.88
264.964	221.88
265.197	221.88
265.429	237.88
265.661	240.88
265.894	230.88
266.126	234.88
266.358	235.88
266.591	238.88
266.823	249.88
267.055	255.88
267.287	255.88
267.52	261.88
267.752	237.88
267.984	260.88
268.216	253.88
268.448	246.88
268.681	241.88
268.913	280.88
269.145	281.88
269.377	292.88
269.609	274.88
269.841	277.88
270.073	278.88
270.306	274.88
270.538	273.88
270.77	294.88
271.002	287.88
271.234	298.88
271.466	268.88
271.698	302.88
271.93	303.88
272.162	301.88
272.394	313.88
272.626	295.88
272.858	281.88
273.09	280.88
273.322	300.88
273.553	273.88
273.785	253.88
274.017	270.88
274.249	296.88
274.481	270.88
274.713	281.88
274.945	303.88
275.176	295.88
275.408	281.88
275.64	300.88
275.872	291.88
276.104	288.88
276.335	319.88
276.567	296.88
276.799	282.88
277.031	320.88
277.262	319.88
277.494	322.88
277.726	304.88
277.957	302.88
278.189	291.88
278.421	307.88
278.652	288.88
278.884	297.88
279.115	285.88
279.347	312.88
279.579	318.88
279.81	298.88
280.042	287.88
280.273	294.88
280.505	310.88
280.736	310.88
280.968	304.88
281.199	315.88
281.431	303.88
281.662	315.88
281.894	313.88
282.125	310.88
282.356	312.88
282.588	314.88
282.819	316.88
283.051	321.88
283.282	315.88
283.513	310.88
283.745	318.88
283.976	320.88
284.207	318.88
284.439	320.88
284.67	321.88
284.901	323.88
285.132	325.88
285.364	309.88
285.595	331.88
285.826	329.88
286.057	328.88
286.288	329.88
286.52	323.88
286.751	317.88
286.982	327.88
287.213	325.88
287.444	333.88
287.675	325.88
287.906	340.88
288.138	347.88
288.369	349.88
288.6	348.88
288.831	343.88
289.062	355.88
289.293	352.88
289.524	364.88
289.755	342.88
289.986	350.88
290.217	347.88
290.448	330.88
290.679	350.88
290.91	352.88
291.141	334.88
291.371	345.88
291.602	352.88
291.833	341.88
292.064	341.88
292.295	343.88
292.526	342.88
292.757	337.88
292.987	343.88
293.218	337.88
293.449	355.88
293.68	347.88
293.91	334.88
294.141	336.88
294.372	348.88
294.603	348.88
294.833	348.88
295.064	336.88
295.295	360.88
295.525	335.88
295.756	362.88
295.987	355.88
296.217	369.88
296.448	378.88
296.679	364.88
296.909	349.88
297.14	360.88
297.37	361.88
297.601	347.88
297.831	362.88
298.062	357.88
298.292	372.88
298.523	358.88
298.753	375.88
298.984	361.88
299.214	363.88
299.445	377.88
299.675	385.88
299.905	374.88
300.136	389.88
300.366	364.88
300.597	372.88
300.827	387.88
301.057	391.88
301.288	402.88
301.518	392.88
301.748	390.88
301.979	389.88
302.209	405.88
302.439	406.88
302.669	401.88
302.9	396.88
303.13	393.88
303.36	393.88
303.59	395.88
303.82	376.88
304.051	387.88
304.281	381.88
304.511	395.88
304.741	395.88
304.971	358.88
305.201	373.88
305.431	395.88
305.661	392.88
305.891	394.88
306.121	365.88
306.352	395.88
306.582	371.88
306.812	379.88
307.042	389.88
307.272	385.88
307.502	387.88
307.731	397.88
307.961	382.88
308.191	402.88
308.421	384.88
308.651	390.88
308.881	392.88
309.111	407.88
309.341	391.88
309.571	408.88
309.8	393.88
310.03	388.88
310.26	400.88
310.49	412.88
310.72	397.88
310.949	402.88
311.179	413.88
311.409	412.88
311.639	410.88
311.868	407.88
312.098	412.88
312.328	425.88
312.557	423.88
312.787	430.88
313.017	443.88
313.246	421.88
313.476	423.88
313.706	408.88
313.935	424.88
314.165	435.88
314.394	433.88
314.624	452.88
314.853	430.88
315.083	427.88
315.312	413.88
315.542	437.88
315.771	431.88
316.001	438.88
316.23	429.88
316.46	417.88
316.689	433.88
316.919	423.88
317.148	428.88
317.377	416.88
317.607	421.88
317.836	403.88
318.065	414.88
318.295	425.88
318.524	441.88
318.753	419.88
318.983	444.88
319.212	421.88
319.441	425.88
319.67	441.88
319.9	433.88
320.129	423.88
320.358	429.88
320.587	396.88
320.816	434.88
321.046	449.88
321.275	433.88
321.504	423.88
321.733	427.88
321.962	428.88
322.191	423.88
322.42	450.88
322.649	451.88
322.878	452.88
323.108	467.88
323.337	468.88
323.566	466.88
323.795	491.88
324.024	477.88
324.253	539.88
324.482	627.88
324.71	852.88
324.939	1185.88
325.168	1055.88
325.397	635.88
325.626	518.88
325.855	495.88
326.084	485.88
326.313	493.88
326.542	488.88
326.77	500.88
326.999	516.88
327.228	614.88
327.457	807.88
327.686	947.88
327.914	703.88
328.143	556.88
328.372	528.88
328.6	521.88
328.829	511.88
329.058	514.88
329.287	509.88
329.515	494.88
329.744	490.88
329.972	510.88
330.201	514.88
330.43	518.88
330.658	546.88
330.887	555.88
331.115	547.88
331.344	521.88
331.572	528.88
331.801	518.88
332.03	537.88
332.258	518.88
332.486	520.88
332.715	534.88
332.943	547.88
333.172	556.88
333.4	563.88
333.629	608.88
333.857	598.88
334.085	597.88
334.314	619.88
334.542	602.88
334.771	583.88
334.999	588.88
335.227	544.88
335.455	551.88
335.684	531.88
335.912	522.88
336.14	543.88
336.369	544.88
336.597	544.88
336.825	527.88
337.053	537.88
337.281	517.88
337.51	516.88
337.738	557.88
337.966	512.88
338.194	519.88
338.422	541.88
338.65	517.88
338.878	508.88
339.106	522.88
339.334	521.88
339.562	503.88
339.79	499.88
340.018	489.88
340.246	504.88
340.474	499.88
340.702	487.88
340.93	485.88
341.158	486.88
341.386	496.88
341.614	500.88
341.842	491.88
342.07	500.88
342.298	477.88
342.526	473.88
342.754	492.88
342.981	484.88
343.209	504.88
343.437	510.88
343.665	543.88
343.893	544.88
344.12	561.88
344.348	546.88
344.576	548.88
344.804	523.88
345.031	503.88
345.259	510.88
345.487	505.88
345.714	478.88
345.942	475.88
346.17	467.88
346.397	489.88
346.625	489.88
346.853	476.88
347.08	464.88
347.308	496.88
347.535	484.88
347.763	466.88
347.99	469.88
348.218	471.88
348.445	456.88
348.673	480.88
348.9	469.88
349.128	481.88
349.355	474.88
349.583	456.88
349.81	461.88
350.037	461.88
350.265	469.88
350.492	452.88
350.72	476.88
350.947	465.88
351.174	477.88
351.402	462.88
351.629	463.88
351.856	474.88
352.083	465.88
352.311	470.88
352.538	464.88
352.765	470.88
352.992	461.88
353.22	467.88
353.447	469.88
353.674	488.88
353.901	449.88
354.128	479.88
354.355	445.88
354.583	427.88
354.81	452.88
355.037	457.88
355.264	482.88
355.491	452.88
355.718	425.88
355.945	444.88
356.172	469.88
356.399	437.88
356.626	454.88
356.853	466.88
357.08	462.88
357.307	452.88
357.534	475.88
357.761	445.88
357.988	467.88
358.215	474.88
358.441	455.88
358.668	457.88
358.895	468.88
359.122	451.88
359.349	478.88
359.576	472.88
359.802	458.88
360.029	492.88
360.256	511.88
360.483	481.88
360.709	459.88
360.936	443.88
361.163	480.88
361.39	461.88
361.616	465.88
361.843	459.88
362.07	473.88
362.296	469.88
362.523	463.88
362.749	473.88
362.976	468.88
363.203	467.88
363.429	457.88
363.656	461.88
363.882	452.88
364.109	442.88
364.335	459.88
364.562	459.88
364.788	475.88
365.015	471.88
365.241	453.88
365.468	465.88
365.694	464.88
365.92	449.88
366.147	448.88
366.373	465.88
366.599	448.88
366.826	459.88
367.052	445.88
367.278	469.88
367.505	469.88
367.731	475.88
367.957	475.88
368.184	471.88
368.41	465.88
368.636	475.88
368.862	478.88
369.089	494.88
369.315	467.88
369.541	478.88
369.767	471.88
369.993	472.88
370.219	465.88
370.445	479.88
370.672	483.88
370.898	478.88
371.124	479.88
371.35	501.88
371.576	515.88
371.802	477.88
372.028	475.88
372.254	491.88
372.48	498.88
372.706	484.88
372.932	517.88
373.158	496.88
373.384	481.88
373.61	476.88
373.835	478.88
374.061	492.88
374.287	513.88
374.513	512.88
374.739	521.88
374.965	533.88
375.191	523.88
375.416	515.88
375.642	499.88
375.868	517.88
376.094	524.88
376.319	506.88
376.545	494.88
376.771	466.88
376.997	480.88
377.222	497.88
377.448	491.88
377.674	510.88
377.899	497.88
378.125	483.88
378.35	500.88
378.576	515.88
378.802	500.88
379.027	483.88
379.253	487.88
379.478	481.88
379.704	474.88
379.929	476.88
380.155	495.88
380.38	482.88
380.606	482.88
380.831	468.88
381.057	517.88
381.282	489.88
381.507	466.88
381.733	504.88
381.958	513.88
382.184	504.88
382.409	512.88
382.634	503.88
382.86	528.88
383.085	533.88
383.31	539.88
383.535	532.88
383.761	544.88
383.986	522.88
384.211	528.88
384.436	543.88
384.662	575.88
384.887	544.88
385.112	557.88
385.337	563.88
385.562	567.88
385.787	556.88
386.013	572.88
386.238	583.88
386.463	587.88
386.688	574.88
386.913	573.88
387.138	572.88
387.363	573.88
387.588	571.88
387.813	570.88
388.038	579.88
388.263	587.88
388.488	575.88
388.713	567.88
388.938	548.88
389.163	555.88
389.387	554.88
389.612	541.88
389.837	557.88
390.062	549.88
390.287	552.88
390.512	567.88
390.736	559.88
390.961	552.88
391.186	560.88
391.411	587.88
391.636	603.88
391.86	620.88
392.085	621.88
392.31	609.88
392.534	596.88
392.759	599.88
392.984	591.88
393.208	613.88
393.433	631.88
393.658	617.88
393.882	594.88
394.107	571.88
394.331	584.88
394.556	589.88
394.78	601.88
395.005	584.88
395.229	570.88
395.454	626.88
395.678	624.88
395.903	621.88
396.127	637.88
396.352	612.88
396.576	607.88
396.801	607.88
397.025	646.88
397.249	608.88
397.474	612.88
397.698	619.88
397.922	634.88
398.147	638.88
398.371	633.88
398.595	642.88
398.82	668.88
399.044	691.88
399.268	733.88
399.492	815.88
399.717	890.88
399.941	907.88
400.165	861.88
400.389	801.88
400.613	760.88
400.837	731.88
401.062	722.88
401.286	677.88
401.51	675.88
401.734	671.88
401.958	681.88
402.182	681.88
402.406	695.88
402.63	700.88
402.854	718.88
403.078	717.88
403.302	727.88
403.526	731.88
403.75	726.88
403.974	736.88
404.198	720.88
404.422	739.88
404.645	762.88
404.869	748.88
405.093	764.88
405.317	741.88
405.541	779.88
405.765	739.88
405.988	723.88
406.212	718.88
406.436	732.88
406.66	782.88
406.883	748.88
407.107	814.88
407.331	844.88
407.555	892.88
407.778	884.88
408.002	821.88
408.226	819.88
408.449	789.88
408.673	767.88
408.896	774.88
409.12	829.88
409.344	756.88
409.567	709.88
409.791	745.88
410.014	708.88
410.238	712.88
410.461	732.88
410.685	742.88
410.908	705.88
411.132	717.88
411.355	720.88
411.578	725.88
411.802	691.88
412.025	702.88
412.249	729.88
412.472	723.88
412.695	731.88
412.919	719.88
413.142	695.88
413.365	699.88
413.589	685.88
413.812	669.88
414.035	694.88
414.258	639.88
414.482	667.88
414.705	680.88
414.928	681.88
415.151	668.88
415.374	679.88
415.597	655.88
415.821	673.88
416.044	645.88
416.267	671.88
416.49	651.88
416.713	646.88
416.936	656.88
417.159	661.88
417.382	665.88
417.605	652.88
417.828	685.88
418.051	664.88
418.274	645.88
418.497	661.88
418.72	675.88
418.943	676.88
419.166	719.88
419.389	754.88
419.611	747.88
419.834	710.88
420.057	686.88
420.28	661.88
420.503	659.88
420.726	648.88
420.948	657.88
421.171	682.88
421.394	697.88
421.617	667.88
421.839	669.88
422.062	671.88
422.285	684.88
422.507	720.88
422.73	776.88
422.953	761.88
423.175	717.88
423.398	681.88
423.621	663.88
423.843	714.88
424.066	691.88
424.288	699.88
424.511	699.88
424.733	739.88
424.956	790.88
425.178	775.88
425.401	747.88
425.623	771.88
425.846	682.88
426.068	665.88
426.291	685.88
426.513	661.88
426.735	687.88
426.958	692.88
427.18	742.88
427.402	805.88
427.625	849.88
427.847	757.88
428.069	687.88
428.292	665.88
428.514	638.88
428.736	657.88
428.958	627.88
429.181	643.88
429.403	592.88
429.625	618.88
429.847	630.88
430.069	675.88
430.292	696.88
430.514	632.88
430.736	641.88
430.958	636.88
431.18	600.88
431.402	605.88
431.624	590.88
431.846	592.88
432.068	595.88
432.29	619.88
432.512	613.88
432.734	617.88
432.956	608.88
433.178	625.88
433.4	617.88
433.622	622.88
433.844	619.88
434.066	639.88
434.287	641.88
434.509	636.88
434.731	641.88
434.953	665.88
435.175	697.88
435.397	686.88
435.618	662.88
435.84	692.88
436.062	718.88
436.284	748.88
436.505	683.88
436.727	647.88
436.949	651.88
437.17	628.88
437.392	607.88
437.614	626.88
437.835	638.88
438.057	654.88
438.278	715.88
438.5	737.88
438.721	797.88
438.943	752.88
439.165	663.88
439.386	635.88
439.608	629.88
439.829	646.88
440.05	656.88
440.272	700.88
440.493	677.88
440.715	675.88
440.936	658.88
441.158	649.88
441.379	676.88
441.6	679.88
441.822	672.88
442.043	693.88
442.264	745.88
442.486	762.88
442.707	699.88
442.928	651.88
443.149	687.88
443.371	677.88
443.592	723.88
443.813	776.88
444.034	824.88
444.255	735.88
444.476	720.88
444.698	750.88
444.919	773.88
445.14	881.88
445.361	798.88
445.582	731.88
445.803	706.88
446.024	752.88
446.245	776.88
446.466	723.88
446.687	643.88
446.908	647.88
447.129	610.88
447.35	625.88
447.571	628.88
447.792	619.88
448.013	609.88
448.234	609.88
448.455	616.88
448.675	671.88
448.896	750.88
449.117	656.88
449.338	656.88
449.559	732.88
449.779	791.88
450	683.88
450.221	615.88
450.442	592.88
450.662	556.88
450.883	576.88
451.104	591.88
451.324	599.88
451.545	573.88
451.766	592.88
451.986	556.88
452.207	557.88
452.428	564.88
452.648	559.88
452.869	560.88
453.089	539.88
453.31	579.88
453.53	533.88
453.751	568.88
453.971	559.88
454.192	569.88
454.412	560.88
454.633	544.88
454.853	545.88
455.073	556.88
455.294	569.88
455.514	582.88
455.734	601.88
455.955	529.88
456.175	526.88
456.395	537.88
456.616	542.88
456.836	540.88
457.056	520.88
457.276	507.88
457.497	535.88
457.717	532.88
457.937	543.88
458.157	563.88
458.377	552.88
458.598	554.88
458.818	568.88
459.038	647.88
459.258	651.88
459.478	622.88
459.698	607.88
459.918	646.88
460.138	663.88
460.358	679.88
460.578	652.88
460.798	685.88
461.018	664.88
461.238	670.88
461.458	677.88
461.678	685.88
461.898	697.88
462.118	663.88
462.338	747.88
462.558	724.88
462.777	740.88
462.997	785.88
463.217	840.88
463.437	813.88
463.657	785.88
463.876	772.88
464.096	794.88
464.316	763.88
464.536	761.88
464.755	747.88
464.975	713.88
465.195	701.88
465.414	705.88
465.634	662.88
465.854	633.88
466.073	635.88
466.293	612.88
466.512	599.88
466.732	597.88
466.951	597.88
467.171	620.88
467.391	575.88
467.61	614.88
467.829	595.88
468.049	603.88
468.268	586.88
468.488	584.88
468.707	570.88
468.927	578.88
469.146	592.88
469.365	610.88
469.585	570.88
469.804	594.88
470.023	614.88
470.243	607.88
470.462	587.88
470.681	619.88
470.901	613.88
471.12	603.88
471.339	613.88
471.558	612.88
471.777	602.88
471.997	587.88
472.216	603.88
472.435	610.88
472.654	573.88
472.873	575.88
473.092	582.88
473.311	591.88
473.53	574.88
473.749	584.88
473.968	614.88
474.187	659.88
474.406	658.88
474.625	613.88
474.844	574.88
475.063	586.88
475.282	587.88
475.501	597.88
475.72	590.88
475.939	584.88
476.158	607.88
476.377	597.88
476.596	618.88
476.814	600.88
477.033	615.88
477.252	611.88
477.471	620.88
477.69	638.88
477.908	673.88
478.127	671.88
478.346	705.88
478.564	708.88
478.783	700.88
479.002	697.88
479.22	719.88
479.439	725.88
479.658	720.88
479.876	720.88
480.095	718.88
480.313	742.88
480.532	736.88
480.751	753.88
480.969	739.88
481.188	741.88
481.406	739.88
481.624	735.88
481.843	721.88
482.061	708.88
482.28	659.88
482.498	697.88
482.717	682.88
482.935	697.88
483.153	697.88
483.372	670.88
483.59	697.88
483.808	678.88
484.027	699.88
484.245	696.88
484.463	674.88
484.681	701.88
484.9	694.88
485.118	703.88
485.336	715.88
485.554	699.88
485.772	716.88
485.99	726.88
486.209	704.88
486.427	718.88
486.645	732.88
486.863	742.88
487.081	720.88
487.299	695.88
487.517	707.88
487.735	736.88
487.953	724.88
488.171	713.88
488.389	733.88
488.607	719.88
488.825	706.88
489.043	729.88
489.261	715.88
489.479	747.88
489.696	731.88
489.914	712.88
490.132	752.88
490.35	767.88
490.568	711.88
490.786	749.88
491.003	744.88
491.221	764.88
491.439	769.88
491.657	766.88
491.874	781.88
492.092	781.88
492.31	799.88
492.527	783.88
492.745	816.88
492.963	807.88
493.18	821.88
493.398	829.88
493.615	813.88
493.833	826.88
494.05	801.88
494.268	785.88
494.485	822.88
494.703	828.88
494.92	828.88
495.138	850.88
495.355	811.88
495.573	826.88
495.79	811.88
496.008	852.88
496.225	846.88
496.442	835.88
496.66	844.88
496.877	862.88
497.094	839.88
497.312	872.88
497.529	903.88
497.746	901.88
497.963	934.88
498.181	977.88
498.398	988.88
498.615	999.88
498.832	1035.88
499.049	1109.88
499.267	1166.88
499.484	1241.88
499.701	1344.88
499.918	1444.88
500.135	1559.88
500.352	1677.88
500.569	1735.88
500.786	1743.88
501.003	1656.88
501.22	1572.88
501.437	1428.88
501.654	1328.88
501.871	1249.88
