Data from 1963.PennyLincolnUp.Lamp.En5.5.200Scan.071719.P1._HRD10591_13-57-40-062.txt Node
Date: Thu Jul 18 13:57:40 EDT 2019
User: cochatt
Spectrometer: HR+D1059
Trigger mode: 1
Integration Time (sec): 1.000000E-1
Scans to average: 1
Electric dark correction enabled: true
Nonlinearity correction enabled: false
Boxcar width: 0
XAxis mode: Wavelengths
Number of Pixels in Spectrum: 2048
>>>>>Begin Spectral Data<<<<<
223.165	-13.31
223.4	-13.31
223.635	-13.31
223.869	-20.31
224.104	-17.31
224.338	-8.31
224.573	-7.31
224.808	5.69
225.042	-8.31
225.277	-18.31
225.511	-5.31
225.746	3.69
225.98	-2.31
226.215	5.69
226.449	7.69
226.683	23.69
226.918	21.69
227.152	32.69
227.387	38.69
227.621	33.69
227.856	43.69
228.09	51.69
228.324	42.69
228.559	58.69
228.793	56.69
229.027	97.69
229.262	89.69
229.496	89.69
229.73	118.69
229.964	131.69
230.199	115.69
230.433	105.69
230.667	95.69
230.901	107.69
231.136	119.69
231.37	102.69
231.604	127.69
231.838	117.69
232.072	127.69
232.306	121.69
232.541	99.69
232.775	112.69
233.009	112.69
233.243	112.69
233.477	114.69
233.711	114.69
233.945	113.69
234.179	108.69
234.413	108.69
234.647	121.69
234.881	118.69
235.115	102.69
235.349	106.69
235.583	108.69
235.817	124.69
236.051	135.69
236.285	133.69
236.519	132.69
236.753	125.69
236.987	133.69
237.221	142.69
237.455	187.69
237.689	168.69
237.922	129.69
238.156	139.69
238.39	135.69
238.624	132.69
238.858	129.69
239.091	132.69
239.325	128.69
239.559	143.69
239.793	130.69
240.027	132.69
240.26	131.69
240.494	157.69
240.728	145.69
240.961	154.69
241.195	155.69
241.429	138.69
241.662	141.69
241.896	156.69
242.13	149.69
242.363	132.69
242.597	127.69
242.83	147.69
243.064	143.69
243.298	145.69
243.531	144.69
243.765	140.69
243.998	139.69
244.232	153.69
244.465	154.69
244.699	160.69
244.932	170.69
245.166	157.69
245.399	154.69
245.633	159.69
245.866	159.69
246.099	162.69
246.333	160.69
246.566	148.69
246.8	169.69
247.033	155.69
247.266	169.69
247.5	165.69
247.733	165.69
247.966	201.69
248.2	183.69
248.433	176.69
248.666	202.69
248.899	182.69
249.133	197.69
249.366	193.69
249.599	205.69
249.832	170.69
250.066	188.69
250.299	191.69
250.532	196.69
250.765	215.69
250.998	205.69
251.231	205.69
251.465	211.69
251.698	206.69
251.931	196.69
252.164	197.69
252.397	189.69
252.63	209.69
252.863	229.69
253.096	217.69
253.329	213.69
253.562	220.69
253.795	204.69
254.028	215.69
254.261	224.69
254.494	231.69
254.727	242.69
254.96	272.69
255.193	259.69
255.426	243.69
255.659	219.69
255.892	213.69
256.124	231.69
256.357	243.69
256.59	229.69
256.823	220.69
257.056	220.69
257.289	216.69
257.521	216.69
257.754	219.69
257.987	212.69
258.22	220.69
258.452	229.69
258.685	210.69
258.918	215.69
259.151	212.69
259.383	245.69
259.616	234.69
259.849	221.69
260.081	229.69
260.314	252.69
260.547	244.69
260.779	245.69
261.012	254.69
261.244	236.69
261.477	229.69
261.71	221.69
261.942	244.69
262.175	249.69
262.407	232.69
262.64	223.69
262.872	235.69
263.105	237.69
263.337	221.69
263.57	241.69
263.802	237.69
264.035	239.69
264.267	241.69
264.499	237.69
264.732	223.69
264.964	227.69
265.197	239.69
265.429	240.69
265.661	234.69
265.894	231.69
266.126	231.69
266.358	255.69
266.591	232.69
266.823	234.69
267.055	248.69
267.287	252.69
267.52	242.69
267.752	251.69
267.984	239.69
268.216	264.69
268.448	259.69
268.681	271.69
268.913	276.69
269.145	279.69
269.377	281.69
269.609	277.69
269.841	284.69
270.073	274.69
270.306	287.69
270.538	308.69
270.77	284.69
271.002	290.69
271.234	287.69
271.466	313.69
271.698	311.69
271.93	307.69
272.162	321.69
272.394	308.69
272.626	298.69
272.858	293.69
273.09	270.69
273.322	273.69
273.553	290.69
273.785	289.69
274.017	285.69
274.249	281.69
274.481	288.69
274.713	291.69
274.945	275.69
275.176	290.69
275.408	303.69
275.64	279.69
275.872	286.69
276.104	296.69
276.335	301.69
276.567	302.69
276.799	307.69
277.031	309.69
277.262	312.69
277.494	320.69
277.726	313.69
277.957	319.69
278.189	307.69
278.421	285.69
278.652	284.69
278.884	300.69
279.115	297.69
279.347	307.69
279.579	292.69
279.81	295.69
280.042	331.69
280.273	331.69
280.505	321.69
280.736	306.69
280.968	311.69
281.199	315.69
281.431	324.69
281.662	335.69
281.894	319.69
282.125	311.69
282.356	332.69
282.588	318.69
282.819	336.69
283.051	298.69
283.282	315.69
283.513	331.69
283.745	310.69
283.976	315.69
284.207	305.69
284.439	322.69
284.67	327.69
284.901	334.69
285.132	329.69
285.364	317.69
285.595	314.69
285.826	339.69
286.057	327.69
286.288	328.69
286.52	328.69
286.751	313.69
286.982	317.69
287.213	341.69
287.444	335.69
287.675	340.69
287.906	360.69
288.138	343.69
288.369	339.69
288.6	348.69
288.831	340.69
289.062	342.69
289.293	340.69
289.524	347.69
289.755	336.69
289.986	354.69
290.217	357.69
290.448	337.69
290.679	351.69
290.91	360.69
291.141	352.69
291.371	351.69
291.602	337.69
291.833	344.69
292.064	352.69
292.295	342.69
292.526	353.69
292.757	369.69
292.987	344.69
293.218	350.69
293.449	362.69
293.68	354.69
293.91	367.69
294.141	349.69
294.372	339.69
294.603	345.69
294.833	377.69
295.064	355.69
295.295	377.69
295.525	359.69
295.756	365.69
295.987	365.69
296.217	362.69
296.448	368.69
296.679	379.69
296.909	367.69
297.14	363.69
297.37	377.69
297.601	353.69
297.831	345.69
298.062	377.69
298.292	389.69
298.523	396.69
298.753	364.69
298.984	375.69
299.214	378.69
299.445	388.69
299.675	373.69
299.905	385.69
300.136	381.69
300.366	393.69
300.597	375.69
300.827	384.69
301.057	398.69
301.288	400.69
301.518	395.69
301.748	405.69
301.979	394.69
302.209	399.69
302.439	410.69
302.669	397.69
302.9	412.69
303.13	409.69
303.36	386.69
303.59	412.69
303.82	414.69
304.051	411.69
304.281	412.69
304.511	405.69
304.741	397.69
304.971	396.69
305.201	393.69
305.431	404.69
305.661	397.69
305.891	389.69
306.121	389.69
306.352	400.69
306.582	396.69
306.812	401.69
307.042	396.69
307.272	397.69
307.502	418.69
307.731	387.69
307.961	387.69
308.191	408.69
308.421	400.69
308.651	393.69
308.881	389.69
309.111	415.69
309.341	411.69
309.571	411.69
309.8	416.69
310.03	397.69
310.26	409.69
310.49	397.69
310.72	396.69
310.949	435.69
311.179	454.69
311.409	443.69
311.639	412.69
311.868	420.69
312.098	434.69
312.328	424.69
312.557	457.69
312.787	443.69
313.017	446.69
313.246	431.69
313.476	418.69
313.706	428.69
313.935	444.69
314.165	437.69
314.394	442.69
314.624	467.69
314.853	432.69
315.083	441.69
315.312	449.69
315.542	443.69
315.771	424.69
316.001	418.69
316.23	444.69
316.46	426.69
316.689	445.69
316.919	449.69
317.148	438.69
317.377	443.69
317.607	436.69
317.836	451.69
318.065	428.69
318.295	437.69
318.524	457.69
318.753	426.69
318.983	450.69
319.212	435.69
319.441	433.69
319.67	440.69
319.9	435.69
320.129	448.69
320.358	450.69
320.587	458.69
320.816	449.69
321.046	462.69
321.275	454.69
321.504	458.69
321.733	444.69
321.962	460.69
322.191	474.69
322.42	464.69
322.649	457.69
322.878	458.69
323.108	490.69
323.337	476.69
323.566	485.69
323.795	487.69
324.024	500.69
324.253	575.69
324.482	702.69
324.71	981.69
324.939	1339.69
325.168	1203.69
325.397	715.69
325.626	557.69
325.855	525.69
326.084	505.69
326.313	499.69
326.542	509.69
326.77	543.69
326.999	592.69
327.228	683.69
327.457	959.69
327.686	1128.69
327.914	810.69
328.143	616.69
328.372	550.69
328.6	559.69
328.829	523.69
329.058	520.69
329.287	564.69
329.515	539.69
329.744	530.69
329.972	503.69
330.201	535.69
330.43	567.69
330.658	554.69
330.887	620.69
331.115	578.69
331.344	533.69
331.572	530.69
331.801	560.69
332.03	545.69
332.258	538.69
332.486	543.69
332.715	573.69
332.943	544.69
333.172	561.69
333.4	570.69
333.629	601.69
333.857	599.69
334.085	602.69
334.314	607.69
334.542	641.69
334.771	641.69
334.999	603.69
335.227	602.69
335.455	573.69
335.684	565.69
335.912	577.69
336.14	564.69
336.369	554.69
336.597	573.69
336.825	557.69
337.053	558.69
337.281	559.69
337.51	548.69
337.738	555.69
337.966	543.69
338.194	529.69
338.422	540.69
338.65	503.69
338.878	526.69
339.106	515.69
339.334	519.69
339.562	522.69
339.79	514.69
340.018	499.69
340.246	511.69
340.474	514.69
340.702	501.69
340.93	496.69
341.158	482.69
341.386	501.69
341.614	504.69
341.842	501.69
342.07	504.69
342.298	496.69
342.526	521.69
342.754	483.69
342.981	513.69
343.209	522.69
343.437	532.69
343.665	529.69
343.893	538.69
344.12	573.69
344.348	553.69
344.576	559.69
344.804	557.69
345.031	513.69
345.259	528.69
345.487	500.69
345.714	497.69
345.942	496.69
346.17	509.69
346.397	467.69
346.625	489.69
346.853	473.69
347.08	460.69
347.308	478.69
347.535	470.69
347.763	476.69
347.99	497.69
348.218	476.69
348.445	493.69
348.673	485.69
348.9	474.69
349.128	473.69
349.355	475.69
349.583	481.69
349.81	481.69
350.037	469.69
350.265	461.69
350.492	478.69
350.72	463.69
350.947	478.69
351.174	469.69
351.402	497.69
351.629	475.69
351.856	474.69
352.083	499.69
352.311	486.69
352.538	485.69
352.765	491.69
352.992	488.69
353.22	481.69
353.447	467.69
353.674	461.69
353.901	476.69
354.128	490.69
354.355	451.69
354.583	464.69
354.81	467.69
355.037	482.69
355.264	477.69
355.491	471.69
355.718	466.69
355.945	475.69
356.172	454.69
356.399	471.69
356.626	493.69
356.853	477.69
357.08	449.69
357.307	461.69
357.534	467.69
357.761	452.69
357.988	454.69
358.215	479.69
358.441	492.69
358.668	490.69
358.895	482.69
359.122	468.69
359.349	480.69
359.576	482.69
359.802	486.69
360.029	504.69
360.256	489.69
360.483	491.69
360.709	488.69
360.936	472.69
361.163	490.69
361.39	477.69
361.616	492.69
361.843	501.69
362.07	491.69
362.296	478.69
362.523	483.69
362.749	450.69
362.976	476.69
363.203	497.69
363.429	457.69
363.656	495.69
363.882	475.69
364.109	495.69
364.335	471.69
364.562	487.69
364.788	500.69
365.015	484.69
365.241	439.69
365.468	443.69
365.694	498.69
365.92	483.69
366.147	451.69
366.373	477.69
366.599	475.69
366.826	470.69
367.052	478.69
367.278	468.69
367.505	465.69
367.731	479.69
367.957	479.69
368.184	475.69
368.41	489.69
368.636	484.69
368.862	505.69
369.089	499.69
369.315	490.69
369.541	496.69
369.767	480.69
369.993	489.69
370.219	475.69
370.445	485.69
370.672	471.69
370.898	493.69
371.124	475.69
371.35	485.69
371.576	507.69
371.802	481.69
372.028	504.69
372.254	503.69
372.48	499.69
372.706	508.69
372.932	513.69
373.158	492.69
373.384	504.69
373.61	509.69
373.835	507.69
374.061	490.69
374.287	518.69
374.513	507.69
374.739	529.69
374.965	523.69
375.191	529.69
375.416	533.69
375.642	522.69
375.868	511.69
376.094	488.69
376.319	491.69
376.545	490.69
376.771	511.69
376.997	508.69
377.222	507.69
377.448	503.69
377.674	495.69
377.899	492.69
378.125	492.69
378.35	500.69
378.576	489.69
378.802	481.69
379.027	495.69
379.253	522.69
379.478	504.69
379.704	492.69
379.929	473.69
380.155	500.69
380.38	507.69
380.606	504.69
380.831	508.69
381.057	498.69
381.282	514.69
381.507	494.69
381.733	490.69
381.958	518.69
382.184	505.69
382.409	515.69
382.634	503.69
382.86	492.69
383.085	531.69
383.31	533.69
383.535	547.69
383.761	539.69
383.986	541.69
384.211	561.69
384.436	571.69
384.662	568.69
384.887	563.69
385.112	548.69
385.337	570.69
385.562	568.69
385.787	579.69
386.013	596.69
386.238	575.69
386.463	586.69
386.688	593.69
386.913	582.69
387.138	564.69
387.363	583.69
387.588	571.69
387.813	585.69
388.038	578.69
388.263	580.69
388.488	607.69
388.713	569.69
388.938	556.69
389.163	575.69
389.387	587.69
389.612	551.69
389.837	565.69
390.062	574.69
390.287	581.69
390.512	551.69
390.736	576.69
390.961	591.69
391.186	598.69
391.411	587.69
391.636	608.69
391.86	614.69
392.085	623.69
392.31	618.69
392.534	592.69
392.759	604.69
392.984	585.69
393.208	575.69
393.433	603.69
393.658	594.69
393.882	593.69
394.107	599.69
394.331	581.69
394.556	591.69
394.78	596.69
395.005	574.69
395.229	617.69
395.454	607.69
395.678	627.69
395.903	633.69
396.127	626.69
396.352	617.69
396.576	606.69
396.801	599.69
397.025	604.69
397.249	633.69
397.474	639.69
397.698	641.69
397.922	630.69
398.147	671.69
398.371	661.69
398.595	663.69
398.82	682.69
399.044	705.69
399.268	763.69
399.492	839.69
399.717	923.69
399.941	927.69
400.165	884.69
400.389	858.69
400.613	787.69
400.837	730.69
401.062	717.69
401.286	702.69
401.51	691.69
401.734	683.69
401.958	695.69
402.182	715.69
402.406	689.69
402.63	703.69
402.854	719.69
403.078	709.69
403.302	736.69
403.526	759.69
403.75	742.69
403.974	767.69
404.198	749.69
404.422	738.69
404.645	751.69
404.869	744.69
405.093	788.69
405.317	802.69
405.541	825.69
405.765	770.69
405.988	759.69
406.212	747.69
406.436	761.69
406.66	801.69
406.883	796.69
407.107	800.69
407.331	845.69
407.555	897.69
407.778	913.69
408.002	876.69
408.226	831.69
408.449	827.69
408.673	767.69
408.896	795.69
409.12	828.69
409.344	786.69
409.567	753.69
409.791	748.69
410.014	726.69
410.238	716.69
410.461	751.69
410.685	714.69
410.908	770.69
411.132	751.69
411.355	754.69
411.578	761.69
411.802	721.69
412.025	686.69
412.249	730.69
412.472	729.69
412.695	742.69
412.919	736.69
413.142	722.69
413.365	679.69
413.589	703.69
413.812	695.69
414.035	682.69
414.258	688.69
414.482	696.69
414.705	704.69
414.928	693.69
415.151	674.69
415.374	679.69
415.597	675.69
415.821	675.69
416.044	667.69
416.267	636.69
416.49	666.69
416.713	651.69
416.936	696.69
417.159	675.69
417.382	673.69
417.605	695.69
417.828	671.69
418.051	681.69
418.274	727.69
418.497	703.69
418.72	691.69
418.943	674.69
419.166	746.69
419.389	745.69
419.611	725.69
419.834	706.69
420.057	729.69
420.28	708.69
420.503	715.69
420.726	708.69
420.948	683.69
421.171	728.69
421.394	728.69
421.617	707.69
421.839	697.69
422.062	694.69
422.285	692.69
422.507	732.69
422.73	770.69
422.953	775.69
423.175	725.69
423.398	724.69
423.621	747.69
423.843	729.69
424.066	763.69
424.288	739.69
424.511	764.69
424.733	764.69
424.956	816.69
425.178	773.69
425.401	769.69
425.623	782.69
425.846	713.69
426.068	715.69
426.291	697.69
426.513	699.69
426.735	676.69
426.958	717.69
427.18	757.69
427.402	822.69
427.625	915.69
427.847	795.69
428.069	745.69
428.292	699.69
428.514	674.69
428.736	642.69
428.958	639.69
429.181	598.69
429.403	625.69
429.625	627.69
429.847	664.69
430.069	700.69
430.292	693.69
430.514	635.69
430.736	643.69
430.958	648.69
431.18	629.69
431.402	607.69
431.624	605.69
431.846	636.69
432.068	635.69
432.29	617.69
432.512	603.69
432.734	649.69
432.956	635.69
433.178	608.69
433.4	653.69
433.622	629.69
433.844	626.69
434.066	630.69
434.287	641.69
434.509	651.69
434.731	659.69
434.953	693.69
435.175	672.69
435.397	707.69
435.618	698.69
435.84	700.69
436.062	760.69
436.284	797.69
436.505	706.69
436.727	664.69
436.949	635.69
437.17	629.69
437.392	627.69
437.614	633.69
437.835	665.69
438.057	712.69
438.278	781.69
438.5	745.69
438.721	825.69
438.943	841.69
439.165	704.69
439.386	667.69
439.608	654.69
439.829	650.69
440.05	688.69
440.272	700.69
440.493	696.69
440.715	664.69
440.936	657.69
441.158	647.69
441.379	659.69
441.6	705.69
441.822	685.69
442.043	740.69
442.264	757.69
442.486	790.69
442.707	715.69
442.928	687.69
443.149	715.69
443.371	721.69
443.592	745.69
443.813	825.69
444.034	846.69
444.255	780.69
444.476	757.69
444.698	748.69
444.919	768.69
445.14	877.69
445.361	805.69
445.582	739.69
445.803	755.69
446.024	817.69
446.245	802.69
446.466	741.69
446.687	703.69
446.908	687.69
447.129	630.69
447.35	641.69
447.571	623.69
447.792	627.69
448.013	601.69
448.234	616.69
448.455	633.69
448.675	717.69
448.896	818.69
449.117	701.69
449.338	673.69
449.559	751.69
449.779	845.69
450	724.69
450.221	647.69
450.442	635.69
450.662	603.69
450.883	589.69
451.104	604.69
451.324	605.69
451.545	585.69
451.766	569.69
451.986	578.69
452.207	579.69
452.428	563.69
452.648	570.69
452.869	565.69
453.089	582.69
453.31	579.69
453.53	562.69
453.751	547.69
453.971	569.69
454.192	566.69
454.412	581.69
454.633	556.69
454.853	563.69
455.073	545.69
455.294	560.69
455.514	598.69
455.734	616.69
455.955	569.69
456.175	524.69
456.395	559.69
456.616	549.69
456.836	543.69
457.056	554.69
457.276	527.69
457.497	564.69
457.717	525.69
457.937	544.69
458.157	572.69
458.377	555.69
458.598	589.69
458.818	598.69
459.038	687.69
459.258	700.69
459.478	653.69
459.698	633.69
459.918	621.69
460.138	643.69
460.358	667.69
460.578	680.69
460.798	697.69
461.018	693.69
461.238	682.69
461.458	697.69
461.678	673.69
461.898	683.69
462.118	696.69
462.338	706.69
462.558	743.69
462.777	726.69
462.997	795.69
463.217	815.69
463.437	843.69
463.657	799.69
463.876	797.69
464.096	763.69
464.316	777.69
464.536	765.69
464.755	776.69
464.975	765.69
465.195	736.69
465.414	748.69
465.634	668.69
465.854	641.69
466.073	631.69
466.293	614.69
466.512	621.69
466.732	615.69
466.951	612.69
467.171	594.69
467.391	602.69
467.61	616.69
467.829	603.69
468.049	601.69
468.268	579.69
468.488	594.69
468.707	580.69
468.927	612.69
469.146	580.69
469.365	608.69
469.585	596.69
469.804	605.69
470.023	623.69
470.243	603.69
470.462	621.69
470.681	633.69
470.901	620.69
471.12	618.69
471.339	595.69
471.558	585.69
471.777	632.69
471.997	589.69
472.216	591.69
472.435	617.69
472.654	602.69
472.873	593.69
473.092	598.69
473.311	594.69
473.53	592.69
473.749	588.69
473.968	632.69
474.187	686.69
474.406	691.69
474.625	612.69
474.844	587.69
475.063	588.69
475.282	582.69
475.501	600.69
475.72	631.69
475.939	586.69
476.158	601.69
476.377	623.69
476.596	600.69
476.814	615.69
477.033	623.69
477.252	629.69
477.471	676.69
477.69	659.69
477.908	658.69
478.127	667.69
478.346	705.69
478.564	690.69
478.783	698.69
479.002	690.69
479.22	721.69
479.439	707.69
479.658	729.69
479.876	734.69
480.095	725.69
480.313	779.69
480.532	767.69
480.751	784.69
480.969	773.69
481.188	776.69
481.406	779.69
481.624	762.69
481.843	730.69
482.061	696.69
482.28	679.69
482.498	679.69
482.717	693.69
482.935	684.69
483.153	681.69
483.372	684.69
483.59	714.69
483.808	692.69
484.027	674.69
484.245	706.69
484.463	704.69
484.681	701.69
484.9	699.69
485.118	711.69
485.336	689.69
485.554	696.69
485.772	710.69
485.99	730.69
486.209	732.69
486.427	722.69
486.645	726.69
486.863	728.69
487.081	743.69
487.299	763.69
487.517	735.69
487.735	761.69
487.953	737.69
488.171	721.69
488.389	717.69
488.607	739.69
488.825	730.69
489.043	747.69
489.261	732.69
489.479	752.69
489.696	740.69
489.914	753.69
490.132	744.69
490.35	737.69
490.568	754.69
490.786	745.69
491.003	751.69
491.221	775.69
491.439	823.69
491.657	799.69
491.874	785.69
492.092	819.69
492.31	819.69
492.527	821.69
492.745	798.69
492.963	821.69
493.18	807.69
493.398	836.69
493.615	835.69
493.833	819.69
494.05	819.69
494.268	871.69
494.485	828.69
494.703	851.69
494.92	839.69
495.138	846.69
495.355	831.69
495.573	841.69
495.79	863.69
496.008	851.69
496.225	847.69
496.442	835.69
496.66	840.69
496.877	864.69
497.094	891.69
497.312	891.69
497.529	891.69
497.746	931.69
497.963	938.69
498.181	992.69
498.398	997.69
498.615	1024.69
498.832	1073.69
499.049	1119.69
499.267	1199.69
499.484	1261.69
499.701	1326.69
499.918	1425.69
500.135	1563.69
500.352	1733.69
500.569	1771.69
500.786	1768.69
501.003	1696.69
501.22	1565.69
501.437	1434.69
501.654	1346.69
501.871	1297.69
