Data from 1963.PennyLincolnUp.Lamp.En5.5.200Scan.071719.P1._HRD10591_13-59-11-063.txt Node
Date: Thu Jul 18 13:59:11 EDT 2019
User: cochatt
Spectrometer: HR+D1059
Trigger mode: 1
Integration Time (sec): 1.000000E-1
Scans to average: 1
Electric dark correction enabled: true
Nonlinearity correction enabled: false
Boxcar width: 0
XAxis mode: Wavelengths
Number of Pixels in Spectrum: 2048
>>>>>Begin Spectral Data<<<<<
223.165	-15.69
223.4	-15.69
223.635	-15.69
223.869	-12.69
224.104	-23.69
224.338	-3.69
224.573	-8.69
224.808	-12.69
225.042	-16.69
225.277	-1.69
225.511	-7.69
225.746	-4.69
225.98	7.31
226.215	4.31
226.449	18.31
226.683	18.31
226.918	35.31
227.152	24.31
227.387	35.31
227.621	40.31
227.856	54.31
228.09	43.31
228.324	41.31
228.559	48.31
228.793	64.31
229.027	102.31
229.262	109.31
229.496	104.31
229.73	143.31
229.964	153.31
230.199	118.31
230.433	107.31
230.667	105.31
230.901	128.31
231.136	123.31
231.37	112.31
231.604	106.31
231.838	132.31
232.072	133.31
232.306	129.31
232.541	135.31
232.775	124.31
233.009	135.31
233.243	120.31
233.477	117.31
233.711	124.31
233.945	123.31
234.179	117.31
234.413	129.31
234.647	127.31
234.881	124.31
235.115	133.31
235.349	124.31
235.583	124.31
235.817	133.31
236.051	118.31
236.285	139.31
236.519	145.31
236.753	132.31
236.987	121.31
237.221	171.31
237.455	211.31
237.689	169.31
237.922	156.31
238.156	145.31
238.39	140.31
238.624	140.31
238.858	126.31
239.091	133.31
239.325	135.31
239.559	146.31
239.793	145.31
240.027	147.31
240.26	144.31
240.494	151.31
240.728	164.31
240.961	168.31
241.195	151.31
241.429	161.31
241.662	142.31
241.896	159.31
242.13	154.31
242.363	149.31
242.597	157.31
242.83	172.31
243.064	151.31
243.298	169.31
243.531	148.31
243.765	152.31
243.998	155.31
244.232	163.31
244.465	172.31
244.699	163.31
244.932	153.31
245.166	165.31
245.399	166.31
245.633	164.31
245.866	159.31
246.099	164.31
246.333	165.31
246.566	168.31
246.8	167.31
247.033	169.31
247.266	176.31
247.5	184.31
247.733	195.31
247.966	179.31
248.2	182.31
248.433	186.31
248.666	200.31
248.899	187.31
249.133	194.31
249.366	207.31
249.599	220.31
249.832	213.31
250.066	211.31
250.299	196.31
250.532	208.31
250.765	211.31
250.998	222.31
251.231	240.31
251.465	234.31
251.698	214.31
251.931	228.31
252.164	203.31
252.397	217.31
252.63	226.31
252.863	223.31
253.096	243.31
253.329	253.31
253.562	230.31
253.795	224.31
254.028	234.31
254.261	231.31
254.494	255.31
254.727	243.31
254.96	261.31
255.193	285.31
255.426	263.31
255.659	251.31
255.892	253.31
256.124	240.31
256.357	261.31
256.59	244.31
256.823	240.31
257.056	234.31
257.289	233.31
257.521	238.31
257.754	251.31
257.987	237.31
258.22	232.31
258.452	250.31
258.685	234.31
258.918	235.31
259.151	237.31
259.383	234.31
259.616	235.31
259.849	254.31
260.081	253.31
260.314	264.31
260.547	279.31
260.779	251.31
261.012	262.31
261.244	254.31
261.477	247.31
261.71	240.31
261.942	258.31
262.175	261.31
262.407	273.31
262.64	263.31
262.872	234.31
263.105	239.31
263.337	250.31
263.57	235.31
263.802	250.31
264.035	243.31
264.267	247.31
264.499	245.31
264.732	234.31
264.964	255.31
265.197	241.31
265.429	239.31
265.661	238.31
265.894	248.31
266.126	253.31
266.358	249.31
266.591	261.31
266.823	259.31
267.055	257.31
267.287	269.31
267.52	252.31
267.752	273.31
267.984	263.31
268.216	284.31
268.448	263.31
268.681	249.31
268.913	300.31
269.145	280.31
269.377	285.31
269.609	293.31
269.841	314.31
270.073	304.31
270.306	316.31
270.538	321.31
270.77	347.31
271.002	334.31
271.234	309.31
271.466	319.31
271.698	346.31
271.93	328.31
272.162	328.31
272.394	332.31
272.626	323.31
272.858	302.31
273.09	294.31
273.322	312.31
273.553	293.31
273.785	297.31
274.017	321.31
274.249	320.31
274.481	279.31
274.713	292.31
274.945	311.31
275.176	299.31
275.408	295.31
275.64	311.31
275.872	310.31
276.104	302.31
276.335	298.31
276.567	308.31
276.799	366.31
277.031	335.31
277.262	331.31
277.494	341.31
277.726	333.31
277.957	345.31
278.189	322.31
278.421	321.31
278.652	325.31
278.884	310.31
279.115	313.31
279.347	324.31
279.579	296.31
279.81	307.31
280.042	315.31
280.273	325.31
280.505	324.31
280.736	342.31
280.968	323.31
281.199	324.31
281.431	305.31
281.662	325.31
281.894	322.31
282.125	328.31
282.356	352.31
282.588	356.31
282.819	344.31
283.051	324.31
283.282	349.31
283.513	333.31
283.745	351.31
283.976	352.31
284.207	323.31
284.439	349.31
284.67	329.31
284.901	332.31
285.132	353.31
285.364	326.31
285.595	346.31
285.826	347.31
286.057	346.31
286.288	348.31
286.52	347.31
286.751	337.31
286.982	358.31
287.213	353.31
287.444	352.31
287.675	355.31
287.906	373.31
288.138	387.31
288.369	367.31
288.6	360.31
288.831	353.31
289.062	379.31
289.293	371.31
289.524	365.31
289.755	379.31
289.986	347.31
290.217	366.31
290.448	363.31
290.679	351.31
290.91	348.31
291.141	339.31
291.371	341.31
291.602	357.31
291.833	358.31
292.064	388.31
292.295	371.31
292.526	374.31
292.757	368.31
292.987	368.31
293.218	359.31
293.449	365.31
293.68	384.31
293.91	371.31
294.141	361.31
294.372	348.31
294.603	377.31
294.833	383.31
295.064	384.31
295.295	379.31
295.525	362.31
295.756	379.31
295.987	376.31
296.217	373.31
296.448	379.31
296.679	386.31
296.909	372.31
297.14	361.31
297.37	395.31
297.601	388.31
297.831	366.31
298.062	386.31
298.292	396.31
298.523	398.31
298.753	391.31
298.984	380.31
299.214	392.31
299.445	404.31
299.675	387.31
299.905	372.31
300.136	410.31
300.366	395.31
300.597	398.31
300.827	404.31
301.057	399.31
301.288	413.31
301.518	396.31
301.748	405.31
301.979	402.31
302.209	420.31
302.439	416.31
302.669	419.31
302.9	429.31
303.13	419.31
303.36	414.31
303.59	425.31
303.82	445.31
304.051	412.31
304.281	428.31
304.511	415.31
304.741	409.31
304.971	408.31
305.201	400.31
305.431	414.31
305.661	421.31
305.891	421.31
306.121	401.31
306.352	405.31
306.582	403.31
306.812	402.31
307.042	410.31
307.272	410.31
307.502	442.31
307.731	437.31
307.961	400.31
308.191	409.31
308.421	424.31
308.651	422.31
308.881	400.31
309.111	419.31
309.341	392.31
309.571	446.31
309.8	448.31
310.03	434.31
310.26	448.31
310.49	441.31
310.72	437.31
310.949	444.31
311.179	445.31
311.409	436.31
311.639	447.31
311.868	467.31
312.098	444.31
312.328	435.31
312.557	444.31
312.787	454.31
313.017	474.31
313.246	461.31
313.476	438.31
313.706	464.31
313.935	460.31
314.165	473.31
314.394	484.31
314.624	475.31
314.853	464.31
315.083	467.31
315.312	470.31
315.542	473.31
315.771	463.31
316.001	447.31
316.23	443.31
316.46	468.31
316.689	467.31
316.919	490.31
317.148	454.31
317.377	480.31
317.607	447.31
317.836	446.31
318.065	455.31
318.295	465.31
318.524	466.31
318.753	448.31
318.983	468.31
319.212	446.31
319.441	435.31
319.67	473.31
319.9	428.31
320.129	452.31
320.358	465.31
320.587	475.31
320.816	481.31
321.046	480.31
321.275	477.31
321.504	470.31
321.733	479.31
321.962	454.31
322.191	492.31
322.42	502.31
322.649	495.31
322.878	495.31
323.108	487.31
323.337	528.31
323.566	520.31
323.795	537.31
324.024	568.31
324.253	659.31
324.482	800.31
324.71	1159.31
324.939	1638.31
325.168	1433.31
325.397	803.31
325.626	639.31
325.855	569.31
326.084	563.31
326.313	553.31
326.542	553.31
326.77	585.31
326.999	617.31
327.228	776.31
327.457	1134.31
327.686	1289.31
327.914	923.31
328.143	679.31
328.372	605.31
328.6	588.31
328.829	577.31
329.058	598.31
329.287	603.31
329.515	563.31
329.744	587.31
329.972	563.31
330.201	567.31
330.43	598.31
330.658	609.31
330.887	641.31
331.115	621.31
331.344	572.31
331.572	557.31
331.801	559.31
332.03	570.31
332.258	561.31
332.486	579.31
332.715	574.31
332.943	575.31
333.172	604.31
333.4	622.31
333.629	631.31
333.857	642.31
334.085	639.31
334.314	654.31
334.542	662.31
334.771	668.31
334.999	633.31
335.227	635.31
335.455	602.31
335.684	582.31
335.912	583.31
336.14	565.31
336.369	578.31
336.597	604.31
336.825	589.31
337.053	567.31
337.281	555.31
337.51	553.31
337.738	567.31
337.966	564.31
338.194	569.31
338.422	570.31
338.65	549.31
338.878	556.31
339.106	540.31
339.334	547.31
339.562	533.31
339.79	529.31
340.018	576.31
340.246	528.31
340.474	537.31
340.702	540.31
340.93	525.31
341.158	531.31
341.386	527.31
341.614	546.31
341.842	530.31
342.07	540.31
342.298	505.31
342.526	543.31
342.754	537.31
342.981	514.31
343.209	521.31
343.437	550.31
343.665	565.31
343.893	593.31
344.12	614.31
344.348	574.31
344.576	568.31
344.804	552.31
345.031	586.31
345.259	536.31
345.487	542.31
345.714	523.31
345.942	533.31
346.17	533.31
346.397	512.31
346.625	503.31
346.853	506.31
347.08	494.31
347.308	508.31
347.535	518.31
347.763	521.31
347.99	519.31
348.218	517.31
348.445	515.31
348.673	523.31
348.9	496.31
349.128	496.31
349.355	488.31
349.583	524.31
349.81	503.31
350.037	499.31
350.265	494.31
350.492	509.31
350.72	523.31
350.947	497.31
351.174	483.31
351.402	512.31
351.629	507.31
351.856	502.31
352.083	510.31
352.311	530.31
352.538	506.31
352.765	492.31
352.992	515.31
353.22	499.31
353.447	490.31
353.674	513.31
353.901	495.31
354.128	469.31
354.355	485.31
354.583	475.31
354.81	476.31
355.037	483.31
355.264	475.31
355.491	483.31
355.718	492.31
355.945	500.31
356.172	486.31
356.399	494.31
356.626	494.31
356.853	493.31
357.08	489.31
357.307	479.31
357.534	477.31
357.761	477.31
357.988	509.31
358.215	519.31
358.441	497.31
358.668	482.31
358.895	489.31
359.122	480.31
359.349	499.31
359.576	510.31
359.802	523.31
360.029	543.31
360.256	530.31
360.483	519.31
360.709	523.31
360.936	499.31
361.163	493.31
361.39	507.31
361.616	520.31
361.843	513.31
362.07	496.31
362.296	506.31
362.523	490.31
362.749	499.31
362.976	521.31
363.203	509.31
363.429	487.31
363.656	515.31
363.882	508.31
364.109	500.31
364.335	484.31
364.562	472.31
364.788	496.31
365.015	500.31
365.241	477.31
365.468	503.31
365.694	495.31
365.92	508.31
366.147	499.31
366.373	502.31
366.599	494.31
366.826	486.31
367.052	500.31
367.278	490.31
367.505	494.31
367.731	489.31
367.957	521.31
368.184	489.31
368.41	525.31
368.636	525.31
368.862	543.31
369.089	512.31
369.315	513.31
369.541	506.31
369.767	501.31
369.993	508.31
370.219	492.31
370.445	503.31
370.672	488.31
370.898	501.31
371.124	466.31
371.35	517.31
371.576	517.31
371.802	526.31
372.028	505.31
372.254	515.31
372.48	540.31
372.706	514.31
372.932	541.31
373.158	535.31
373.384	532.31
373.61	502.31
373.835	537.31
374.061	522.31
374.287	523.31
374.513	543.31
374.739	541.31
374.965	539.31
375.191	550.31
375.416	559.31
375.642	548.31
375.868	551.31
376.094	525.31
376.319	529.31
376.545	505.31
376.771	491.31
376.997	534.31
377.222	518.31
377.448	500.31
377.674	527.31
377.899	533.31
378.125	516.31
378.35	525.31
378.576	538.31
378.802	520.31
379.027	533.31
379.253	537.31
379.478	524.31
379.704	527.31
379.929	515.31
380.155	541.31
380.38	519.31
380.606	515.31
380.831	510.31
381.057	537.31
381.282	528.31
381.507	529.31
381.733	527.31
381.958	515.31
382.184	508.31
382.409	548.31
382.634	533.31
382.86	546.31
383.085	521.31
383.31	540.31
383.535	541.31
383.761	541.31
383.986	576.31
384.211	561.31
384.436	592.31
384.662	595.31
384.887	598.31
385.112	579.31
385.337	600.31
385.562	594.31
385.787	601.31
386.013	633.31
386.238	600.31
386.463	593.31
386.688	589.31
386.913	573.31
387.138	591.31
387.363	586.31
387.588	586.31
387.813	611.31
388.038	609.31
388.263	583.31
388.488	603.31
388.713	599.31
388.938	603.31
389.163	580.31
389.387	603.31
389.612	573.31
389.837	575.31
390.062	561.31
390.287	590.31
390.512	584.31
390.736	587.31
390.961	597.31
391.186	599.31
391.411	620.31
391.636	622.31
391.86	656.31
392.085	641.31
392.31	654.31
392.534	627.31
392.759	617.31
392.984	608.31
393.208	646.31
393.433	595.31
393.658	622.31
393.882	613.31
394.107	611.31
394.331	594.31
394.556	631.31
394.78	618.31
395.005	625.31
395.229	623.31
395.454	634.31
395.678	654.31
395.903	669.31
396.127	667.31
396.352	644.31
396.576	627.31
396.801	607.31
397.025	624.31
397.249	637.31
397.474	663.31
397.698	644.31
397.922	673.31
398.147	675.31
398.371	700.31
398.595	690.31
398.82	719.31
399.044	752.31
399.268	784.31
399.492	852.31
399.717	951.31
399.941	973.31
400.165	950.31
400.389	897.31
400.613	826.31
400.837	760.31
401.062	741.31
401.286	731.31
401.51	704.31
401.734	700.31
401.958	711.31
402.182	731.31
402.406	753.31
402.63	753.31
402.854	769.31
403.078	755.31
403.302	751.31
403.526	764.31
403.75	757.31
403.974	773.31
404.198	766.31
404.422	791.31
404.645	804.31
404.869	797.31
405.093	808.31
405.317	855.31
405.541	865.31
405.765	800.31
405.988	792.31
406.212	805.31
406.436	817.31
406.66	837.31
406.883	800.31
407.107	860.31
407.331	919.31
407.555	955.31
407.778	943.31
408.002	912.31
408.226	867.31
408.449	799.31
408.673	828.31
408.896	826.31
409.12	851.31
409.344	832.31
409.567	792.31
409.791	764.31
410.014	779.31
410.238	759.31
410.461	740.31
410.685	758.31
410.908	758.31
411.132	773.31
411.355	816.31
411.578	773.31
411.802	744.31
412.025	752.31
412.249	740.31
412.472	780.31
412.695	804.31
412.919	803.31
413.142	745.31
413.365	733.31
413.589	723.31
413.812	704.31
414.035	712.31
414.258	710.31
414.482	709.31
414.705	718.31
414.928	711.31
415.151	716.31
415.374	700.31
415.597	716.31
415.821	712.31
416.044	694.31
416.267	685.31
416.49	718.31
416.713	661.31
416.936	710.31
417.159	697.31
417.382	703.31
417.605	716.31
417.828	721.31
418.051	741.31
418.274	709.31
418.497	702.31
418.72	684.31
418.943	709.31
419.166	758.31
419.389	783.31
419.611	774.31
419.834	747.31
420.057	762.31
420.28	748.31
420.503	727.31
420.726	733.31
420.948	705.31
421.171	761.31
421.394	787.31
421.617	736.31
421.839	715.31
422.062	729.31
422.285	724.31
422.507	780.31
422.73	838.31
422.953	805.31
423.175	796.31
423.398	748.31
423.621	770.31
423.843	796.31
424.066	799.31
424.288	762.31
424.511	781.31
424.733	823.31
424.956	864.31
425.178	849.31
425.401	814.31
425.623	855.31
425.846	778.31
426.068	724.31
426.291	727.31
426.513	720.31
426.735	760.31
426.958	769.31
427.18	820.31
427.402	915.31
427.625	978.31
427.847	857.31
428.069	788.31
428.292	743.31
428.514	717.31
428.736	663.31
428.958	672.31
429.181	664.31
429.403	658.31
429.625	657.31
429.847	688.31
430.069	723.31
430.292	723.31
430.514	700.31
430.736	649.31
430.958	691.31
431.18	639.31
431.402	645.31
431.624	652.31
431.846	661.31
432.068	637.31
432.29	693.31
432.512	657.31
432.734	684.31
432.956	649.31
433.178	653.31
433.4	650.31
433.622	661.31
433.844	644.31
434.066	654.31
434.287	656.31
434.509	659.31
434.731	699.31
434.953	700.31
435.175	743.31
435.397	726.31
435.618	708.31
435.84	743.31
436.062	809.31
436.284	856.31
436.505	756.31
436.727	701.31
436.949	695.31
437.17	686.31
437.392	660.31
437.614	688.31
437.835	697.31
438.057	768.31
438.278	851.31
438.5	821.31
438.721	888.31
438.943	907.31
439.165	728.31
439.386	720.31
439.608	729.31
439.829	685.31
440.05	726.31
440.272	746.31
440.493	734.31
440.715	693.31
440.936	685.31
441.158	679.31
441.379	703.31
441.6	715.31
441.822	751.31
442.043	786.31
442.264	863.31
442.486	847.31
442.707	766.31
442.928	742.31
443.149	732.31
443.371	743.31
443.592	794.31
443.813	875.31
444.034	948.31
444.255	831.31
444.476	807.31
444.698	810.31
444.919	830.31
445.14	929.31
445.361	848.31
445.582	809.31
445.803	802.31
446.024	871.31
446.245	865.31
446.466	801.31
446.687	735.31
446.908	727.31
447.129	693.31
447.35	660.31
447.571	666.31
447.792	630.31
448.013	650.31
448.234	671.31
448.455	696.31
448.675	783.31
448.896	883.31
449.117	762.31
449.338	756.31
449.559	807.31
449.779	911.31
450	783.31
450.221	649.31
450.442	660.31
450.662	607.31
450.883	655.31
451.104	666.31
451.324	637.31
451.545	628.31
451.766	599.31
451.986	607.31
452.207	594.31
452.428	605.31
452.648	583.31
452.869	587.31
453.089	603.31
453.31	630.31
453.53	621.31
453.751	599.31
453.971	577.31
454.192	580.31
454.412	601.31
454.633	588.31
454.853	575.31
455.073	572.31
455.294	607.31
455.514	647.31
455.734	647.31
455.955	595.31
456.175	581.31
456.395	557.31
456.616	569.31
456.836	577.31
457.056	569.31
457.276	570.31
457.497	571.31
457.717	565.31
457.937	589.31
458.157	591.31
458.377	613.31
458.598	629.31
458.818	649.31
459.038	735.31
459.258	741.31
459.478	703.31
459.698	705.31
459.918	648.31
460.138	685.31
460.358	736.31
460.578	725.31
460.798	743.31
461.018	710.31
461.238	704.31
461.458	717.31
461.678	711.31
461.898	736.31
462.118	722.31
462.338	749.31
462.558	776.31
462.777	788.31
462.997	821.31
463.217	858.31
463.437	909.31
463.657	847.31
463.876	812.31
464.096	794.31
464.316	794.31
464.536	790.31
464.755	771.31
464.975	775.31
465.195	765.31
465.414	789.31
465.634	749.31
465.854	656.31
466.073	675.31
466.293	675.31
466.512	637.31
466.732	654.31
466.951	617.31
467.171	616.31
467.391	632.31
467.61	621.31
467.829	618.31
468.049	608.31
468.268	635.31
468.488	617.31
468.707	610.31
468.927	595.31
469.146	605.31
469.365	606.31
469.585	608.31
469.804	627.31
470.023	672.31
470.243	624.31
470.462	649.31
470.681	693.31
470.901	671.31
471.12	646.31
471.339	657.31
471.558	643.31
471.777	617.31
471.997	605.31
472.216	629.31
472.435	629.31
472.654	644.31
472.873	621.31
473.092	622.31
473.311	603.31
473.53	620.31
473.749	604.31
473.968	671.31
474.187	718.31
474.406	747.31
474.625	668.31
474.844	614.31
475.063	600.31
475.282	617.31
475.501	607.31
475.72	632.31
475.939	645.31
476.158	622.31
476.377	635.31
476.596	654.31
476.814	656.31
477.033	652.31
477.252	692.31
477.471	675.31
477.69	693.31
477.908	710.31
478.127	687.31
478.346	722.31
478.564	744.31
478.783	746.31
479.002	745.31
479.22	739.31
479.439	725.31
479.658	767.31
479.876	750.31
480.095	751.31
480.313	808.31
480.532	805.31
480.751	798.31
480.969	796.31
481.188	850.31
481.406	859.31
481.624	784.31
481.843	722.31
482.061	757.31
482.28	718.31
482.498	740.31
482.717	728.31
482.935	741.31
483.153	732.31
483.372	725.31
483.59	745.31
483.808	710.31
484.027	676.31
484.245	707.31
484.463	734.31
484.681	740.31
484.9	743.31
485.118	745.31
485.336	719.31
485.554	739.31
485.772	764.31
485.99	761.31
486.209	774.31
486.427	753.31
486.645	795.31
486.863	749.31
487.081	782.31
487.299	802.31
487.517	773.31
487.735	782.31
487.953	791.31
488.171	780.31
488.389	777.31
488.607	777.31
488.825	778.31
489.043	783.31
489.261	771.31
489.479	781.31
489.696	778.31
489.914	782.31
490.132	798.31
490.35	821.31
490.568	797.31
490.786	813.31
491.003	820.31
491.221	856.31
491.439	849.31
491.657	826.31
491.874	835.31
492.092	842.31
492.31	843.31
492.527	852.31
492.745	873.31
492.963	876.31
493.18	877.31
493.398	879.31
493.615	863.31
493.833	885.31
494.05	889.31
494.268	884.31
494.485	915.31
494.703	889.31
494.92	887.31
495.138	891.31
495.355	905.31
495.573	880.31
495.79	889.31
496.008	903.31
496.225	899.31
496.442	901.31
496.66	922.31
496.877	944.31
497.094	960.31
497.312	955.31
497.529	951.31
497.746	990.31
497.963	977.31
498.181	1011.31
498.398	1060.31
498.615	1092.31
498.832	1138.31
499.049	1189.31
499.267	1233.31
499.484	1349.31
499.701	1418.31
499.918	1485.31
500.135	1644.31
500.352	1751.31
500.569	1816.31
500.786	1819.31
501.003	1762.31
501.22	1640.31
501.437	1525.31
501.654	1395.31
