Data from 1963.PennyLincolnUp.Lamp.En5.5.200Scan.071719.P1._HRD10591_13-58-08-062.txt Node
Date: Thu Jul 18 13:58:08 EDT 2019
User: cochatt
Spectrometer: HR+D1059
Trigger mode: 1
Integration Time (sec): 1.000000E-1
Scans to average: 1
Electric dark correction enabled: true
Nonlinearity correction enabled: false
Boxcar width: 0
XAxis mode: Wavelengths
Number of Pixels in Spectrum: 2048
>>>>>Begin Spectral Data<<<<<
223.165	-18.69
223.4	-18.69
223.635	-18.69
223.869	-19.69
224.104	-20.69
224.338	-4.69
224.573	-10.69
224.808	-12.69
225.042	-11.69
225.277	-8.69
225.511	11.31
225.746	8.31
225.98	8.31
226.215	8.31
226.449	2.31
226.683	16.31
226.918	16.31
227.152	36.31
227.387	29.31
227.621	37.31
227.856	57.31
228.09	59.31
228.324	55.31
228.559	59.31
228.793	77.31
229.027	80.31
229.262	102.31
229.496	112.31
229.73	129.31
229.964	130.31
230.199	122.31
230.433	106.31
230.667	106.31
230.901	115.31
231.136	114.31
231.37	114.31
231.604	106.31
231.838	107.31
232.072	127.31
232.306	115.31
232.541	128.31
232.775	130.31
233.009	101.31
233.243	108.31
233.477	123.31
233.711	112.31
233.945	120.31
234.179	127.31
234.413	116.31
234.647	122.31
234.881	122.31
235.115	130.31
235.349	129.31
235.583	136.31
235.817	119.31
236.051	134.31
236.285	118.31
236.519	125.31
236.753	150.31
236.987	145.31
237.221	172.31
237.455	184.31
237.689	176.31
237.922	138.31
238.156	142.31
238.39	137.31
238.624	149.31
238.858	136.31
239.091	132.31
239.325	139.31
239.559	126.31
239.793	117.31
240.027	158.31
240.26	140.31
240.494	146.31
240.728	137.31
240.961	160.31
241.195	160.31
241.429	150.31
241.662	133.31
241.896	143.31
242.13	132.31
242.363	143.31
242.597	152.31
242.83	148.31
243.064	144.31
243.298	146.31
243.531	156.31
243.765	137.31
243.998	150.31
244.232	149.31
244.465	150.31
244.699	151.31
244.932	161.31
245.166	157.31
245.399	164.31
245.633	167.31
245.866	167.31
246.099	159.31
246.333	159.31
246.566	146.31
246.8	164.31
247.033	183.31
247.266	152.31
247.5	164.31
247.733	183.31
247.966	184.31
248.2	194.31
248.433	182.31
248.666	196.31
248.899	189.31
249.133	179.31
249.366	195.31
249.599	196.31
249.832	199.31
250.066	186.31
250.299	192.31
250.532	197.31
250.765	207.31
250.998	216.31
251.231	227.31
251.465	221.31
251.698	215.31
251.931	202.31
252.164	190.31
252.397	211.31
252.63	219.31
252.863	221.31
253.096	214.31
253.329	223.31
253.562	209.31
253.795	232.31
254.028	227.31
254.261	212.31
254.494	220.31
254.727	242.31
254.96	262.31
255.193	250.31
255.426	239.31
255.659	206.31
255.892	223.31
256.124	250.31
256.357	248.31
256.59	246.31
256.823	213.31
257.056	222.31
257.289	234.31
257.521	235.31
257.754	231.31
257.987	226.31
258.22	231.31
258.452	216.31
258.685	219.31
258.918	217.31
259.151	219.31
259.383	213.31
259.616	219.31
259.849	231.31
260.081	244.31
260.314	250.31
260.547	252.31
260.779	264.31
261.012	246.31
261.244	250.31
261.477	235.31
261.71	223.31
261.942	241.31
262.175	261.31
262.407	237.31
262.64	233.31
262.872	250.31
263.105	229.31
263.337	227.31
263.57	247.31
263.802	217.31
264.035	241.31
264.267	236.31
264.499	220.31
264.732	243.31
264.964	246.31
265.197	251.31
265.429	237.31
265.661	244.31
265.894	250.31
266.126	244.31
266.358	240.31
266.591	230.31
266.823	247.31
267.055	243.31
267.287	257.31
267.52	239.31
267.752	254.31
267.984	258.31
268.216	236.31
268.448	264.31
268.681	261.31
268.913	285.31
269.145	260.31
269.377	290.31
269.609	285.31
269.841	304.31
270.073	275.31
270.306	299.31
270.538	296.31
270.77	324.31
271.002	308.31
271.234	289.31
271.466	280.31
271.698	304.31
271.93	307.31
272.162	325.31
272.394	336.31
272.626	315.31
272.858	301.31
273.09	276.31
273.322	274.31
273.553	284.31
273.785	293.31
274.017	293.31
274.249	290.31
274.481	310.31
274.713	288.31
274.945	299.31
275.176	298.31
275.408	297.31
275.64	302.31
275.872	278.31
276.104	300.31
276.335	316.31
276.567	293.31
276.799	292.31
277.031	314.31
277.262	338.31
277.494	340.31
277.726	331.31
277.957	327.31
278.189	314.31
278.421	303.31
278.652	298.31
278.884	301.31
279.115	304.31
279.347	319.31
279.579	303.31
279.81	316.31
280.042	311.31
280.273	314.31
280.505	310.31
280.736	308.31
280.968	301.31
281.199	314.31
281.431	310.31
281.662	301.31
281.894	317.31
282.125	314.31
282.356	340.31
282.588	337.31
282.819	326.31
283.051	336.31
283.282	301.31
283.513	333.31
283.745	338.31
283.976	300.31
284.207	334.31
284.439	330.31
284.67	345.31
284.901	318.31
285.132	327.31
285.364	339.31
285.595	333.31
285.826	327.31
286.057	341.31
286.288	322.31
286.52	344.31
286.751	329.31
286.982	336.31
287.213	343.31
287.444	343.31
287.675	339.31
287.906	333.31
288.138	363.31
288.369	359.31
288.6	365.31
288.831	368.31
289.062	358.31
289.293	346.31
289.524	344.31
289.755	340.31
289.986	348.31
290.217	358.31
290.448	345.31
290.679	342.31
290.91	349.31
291.141	350.31
291.371	343.31
291.602	355.31
291.833	336.31
292.064	356.31
292.295	345.31
292.526	356.31
292.757	358.31
292.987	359.31
293.218	347.31
293.449	352.31
293.68	359.31
293.91	340.31
294.141	358.31
294.372	340.31
294.603	342.31
294.833	354.31
295.064	363.31
295.295	342.31
295.525	375.31
295.756	391.31
295.987	362.31
296.217	378.31
296.448	405.31
296.679	377.31
296.909	381.31
297.14	379.31
297.37	389.31
297.601	358.31
297.831	366.31
298.062	383.31
298.292	380.31
298.523	376.31
298.753	387.31
298.984	395.31
299.214	365.31
299.445	395.31
299.675	388.31
299.905	378.31
300.136	389.31
300.366	384.31
300.597	394.31
300.827	402.31
301.057	391.31
301.288	397.31
301.518	386.31
301.748	395.31
301.979	419.31
302.209	414.31
302.439	403.31
302.669	412.31
302.9	409.31
303.13	395.31
303.36	401.31
303.59	414.31
303.82	416.31
304.051	400.31
304.281	400.31
304.511	413.31
304.741	404.31
304.971	393.31
305.201	418.31
305.431	408.31
305.661	394.31
305.891	390.31
306.121	400.31
306.352	380.31
306.582	397.31
306.812	407.31
307.042	399.31
307.272	404.31
307.502	396.31
307.731	386.31
307.961	390.31
308.191	408.31
308.421	408.31
308.651	403.31
308.881	396.31
309.111	406.31
309.341	416.31
309.571	411.31
309.8	422.31
310.03	402.31
310.26	431.31
310.49	429.31
310.72	429.31
310.949	431.31
311.179	411.31
311.409	418.31
311.639	431.31
311.868	445.31
312.098	432.31
312.328	455.31
312.557	458.31
312.787	451.31
313.017	437.31
313.246	437.31
313.476	418.31
313.706	424.31
313.935	468.31
314.165	447.31
314.394	457.31
314.624	473.31
314.853	450.31
315.083	447.31
315.312	443.31
315.542	420.31
315.771	430.31
316.001	460.31
316.23	462.31
316.46	436.31
316.689	424.31
316.919	422.31
317.148	447.31
317.377	459.31
317.607	435.31
317.836	433.31
318.065	423.31
318.295	431.31
318.524	438.31
318.753	428.31
318.983	449.31
319.212	439.31
319.441	421.31
319.67	429.31
319.9	430.31
320.129	437.31
320.358	467.31
320.587	444.31
320.816	436.31
321.046	449.31
321.275	448.31
321.504	464.31
321.733	465.31
321.962	443.31
322.191	466.31
322.42	463.31
322.649	466.31
322.878	498.31
323.108	488.31
323.337	489.31
323.566	485.31
323.795	517.31
324.024	555.31
324.253	603.31
324.482	736.31
324.71	1047.31
324.939	1420.31
325.168	1303.31
325.397	746.31
325.626	578.31
325.855	538.31
326.084	514.31
326.313	525.31
326.542	533.31
326.77	543.31
326.999	593.31
327.228	715.31
327.457	976.31
327.686	1188.31
327.914	842.31
328.143	598.31
328.372	570.31
328.6	550.31
328.829	536.31
329.058	543.31
329.287	564.31
329.515	566.31
329.744	529.31
329.972	535.31
330.201	546.31
330.43	550.31
330.658	598.31
330.887	587.31
331.115	571.31
331.344	531.31
331.572	545.31
331.801	552.31
332.03	550.31
332.258	554.31
332.486	557.31
332.715	579.31
332.943	544.31
333.172	573.31
333.4	576.31
333.629	609.31
333.857	615.31
334.085	619.31
334.314	602.31
334.542	639.31
334.771	652.31
334.999	627.31
335.227	585.31
335.455	573.31
335.684	564.31
335.912	582.31
336.14	573.31
336.369	546.31
336.597	554.31
336.825	546.31
337.053	533.31
337.281	539.31
337.51	535.31
337.738	547.31
337.966	526.31
338.194	540.31
338.422	523.31
338.65	526.31
338.878	526.31
339.106	528.31
339.334	502.31
339.562	528.31
339.79	523.31
340.018	518.31
340.246	512.31
340.474	514.31
340.702	496.31
340.93	514.31
341.158	515.31
341.386	529.31
341.614	540.31
341.842	517.31
342.07	496.31
342.298	499.31
342.526	494.31
342.754	486.31
342.981	491.31
343.209	519.31
343.437	511.31
343.665	562.31
343.893	561.31
344.12	546.31
344.348	546.31
344.576	546.31
344.804	541.31
345.031	520.31
345.259	515.31
345.487	510.31
345.714	510.31
345.942	510.31
346.17	507.31
346.397	475.31
346.625	492.31
346.853	477.31
347.08	497.31
347.308	502.31
347.535	482.31
347.763	488.31
347.99	494.31
348.218	477.31
348.445	468.31
348.673	480.31
348.9	499.31
349.128	502.31
349.355	480.31
349.583	478.31
349.81	468.31
350.037	471.31
350.265	460.31
350.492	479.31
350.72	462.31
350.947	458.31
351.174	513.31
351.402	508.31
351.629	492.31
351.856	487.31
352.083	513.31
352.311	485.31
352.538	491.31
352.765	504.31
352.992	490.31
353.22	489.31
353.447	482.31
353.674	497.31
353.901	475.31
354.128	442.31
354.355	466.31
354.583	465.31
354.81	465.31
355.037	475.31
355.264	480.31
355.491	493.31
355.718	493.31
355.945	486.31
356.172	474.31
356.399	467.31
356.626	456.31
356.853	484.31
357.08	469.31
357.307	488.31
357.534	486.31
357.761	452.31
357.988	484.31
358.215	474.31
358.441	468.31
358.668	466.31
358.895	477.31
359.122	490.31
359.349	479.31
359.576	493.31
359.802	494.31
360.029	513.31
360.256	520.31
360.483	509.31
360.709	498.31
360.936	481.31
361.163	489.31
361.39	495.31
361.616	482.31
361.843	463.31
362.07	494.31
362.296	502.31
362.523	483.31
362.749	458.31
362.976	485.31
363.203	466.31
363.429	473.31
363.656	471.31
363.882	477.31
364.109	476.31
364.335	499.31
364.562	492.31
364.788	475.31
365.015	480.31
365.241	471.31
365.468	476.31
365.694	478.31
365.92	506.31
366.147	468.31
366.373	466.31
366.599	467.31
366.826	470.31
367.052	461.31
367.278	483.31
367.505	487.31
367.731	469.31
367.957	457.31
368.184	471.31
368.41	468.31
368.636	486.31
368.862	492.31
369.089	496.31
369.315	458.31
369.541	484.31
369.767	514.31
369.993	500.31
370.219	482.31
370.445	496.31
370.672	506.31
370.898	482.31
371.124	486.31
371.35	502.31
371.576	495.31
371.802	493.31
372.028	500.31
372.254	504.31
372.48	492.31
372.706	508.31
372.932	510.31
373.158	516.31
373.384	524.31
373.61	528.31
373.835	516.31
374.061	499.31
374.287	523.31
374.513	520.31
374.739	524.31
374.965	546.31
375.191	526.31
375.416	519.31
375.642	533.31
375.868	545.31
376.094	515.31
376.319	492.31
376.545	506.31
376.771	521.31
376.997	502.31
377.222	464.31
377.448	516.31
377.674	505.31
377.899	504.31
378.125	495.31
378.35	490.31
378.576	494.31
378.802	484.31
379.027	491.31
379.253	521.31
379.478	496.31
379.704	476.31
379.929	486.31
380.155	492.31
380.38	481.31
380.606	512.31
380.831	495.31
381.057	520.31
381.282	508.31
381.507	500.31
381.733	520.31
381.958	501.31
382.184	517.31
382.409	522.31
382.634	533.31
382.86	524.31
383.085	499.31
383.31	516.31
383.535	524.31
383.761	550.31
383.986	529.31
384.211	555.31
384.436	564.31
384.662	573.31
384.887	589.31
385.112	577.31
385.337	565.31
385.562	566.31
385.787	557.31
386.013	594.31
386.238	571.31
386.463	586.31
386.688	601.31
386.913	576.31
387.138	570.31
387.363	561.31
387.588	562.31
387.813	566.31
388.038	571.31
388.263	579.31
388.488	576.31
388.713	576.31
388.938	558.31
389.163	592.31
389.387	556.31
389.612	578.31
389.837	571.31
390.062	564.31
390.287	573.31
390.512	582.31
390.736	592.31
390.961	567.31
391.186	599.31
391.411	611.31
391.636	599.31
391.86	643.31
392.085	631.31
392.31	656.31
392.534	618.31
392.759	599.31
392.984	597.31
393.208	605.31
393.433	610.31
393.658	588.31
393.882	577.31
394.107	609.31
394.331	606.31
394.556	597.31
394.78	604.31
395.005	595.31
395.229	613.31
395.454	626.31
395.678	603.31
395.903	631.31
396.127	641.31
396.352	634.31
396.576	622.31
396.801	607.31
397.025	650.31
397.249	637.31
397.474	623.31
397.698	619.31
397.922	635.31
398.147	645.31
398.371	664.31
398.595	668.31
398.82	675.31
399.044	709.31
399.268	778.31
399.492	836.31
399.717	905.31
399.941	940.31
400.165	898.31
400.389	860.31
400.613	764.31
400.837	730.31
401.062	696.31
401.286	711.31
401.51	701.31
401.734	691.31
401.958	706.31
402.182	693.31
402.406	712.31
402.63	717.31
402.854	701.31
403.078	709.31
403.302	729.31
403.526	719.31
403.75	754.31
403.974	726.31
404.198	727.31
404.422	742.31
404.645	744.31
404.869	767.31
405.093	764.31
405.317	806.31
405.541	814.31
405.765	765.31
405.988	763.31
406.212	761.31
406.436	796.31
406.66	801.31
406.883	788.31
407.107	831.31
407.331	849.31
407.555	936.31
407.778	896.31
408.002	882.31
408.226	836.31
408.449	817.31
408.673	780.31
408.896	804.31
409.12	824.31
409.344	811.31
409.567	744.31
409.791	739.31
410.014	733.31
410.238	756.31
410.461	730.31
410.685	726.31
410.908	730.31
411.132	759.31
411.355	745.31
411.578	745.31
411.802	705.31
412.025	699.31
412.249	728.31
412.472	747.31
412.695	771.31
412.919	747.31
413.142	723.31
413.365	717.31
413.589	711.31
413.812	702.31
414.035	696.31
414.258	696.31
414.482	674.31
414.705	706.31
414.928	684.31
415.151	695.31
415.374	701.31
415.597	682.31
415.821	654.31
416.044	672.31
416.267	669.31
416.49	667.31
416.713	649.31
416.936	652.31
417.159	681.31
417.382	664.31
417.605	681.31
417.828	702.31
418.051	695.31
418.274	680.31
418.497	669.31
418.72	714.31
418.943	686.31
419.166	733.31
419.389	755.31
419.611	750.31
419.834	737.31
420.057	702.31
420.28	711.31
420.503	696.31
420.726	704.31
420.948	698.31
421.171	714.31
421.394	764.31
421.617	692.31
421.839	719.31
422.062	694.31
422.285	704.31
422.507	743.31
422.73	795.31
422.953	776.31
423.175	735.31
423.398	718.31
423.621	714.31
423.843	714.31
424.066	757.31
424.288	716.31
424.511	749.31
424.733	776.31
424.956	822.31
425.178	794.31
425.401	784.31
425.623	810.31
425.846	728.31
426.068	702.31
426.291	699.31
426.513	655.31
426.735	708.31
426.958	751.31
427.18	775.31
427.402	866.31
427.625	951.31
427.847	826.31
428.069	738.31
428.292	715.31
428.514	663.31
428.736	650.31
428.958	650.31
429.181	628.31
429.403	645.31
429.625	650.31
429.847	653.31
430.069	706.31
430.292	736.31
430.514	639.31
430.736	647.31
430.958	629.31
431.18	630.31
431.402	637.31
431.624	616.31
431.846	630.31
432.068	630.31
432.29	632.31
432.512	613.31
432.734	628.31
432.956	658.31
433.178	645.31
433.4	630.31
433.622	614.31
433.844	634.31
434.066	627.31
434.287	642.31
434.509	688.31
434.731	690.31
434.953	692.31
435.175	687.31
435.397	704.31
435.618	727.31
435.84	703.31
436.062	764.31
436.284	789.31
436.505	698.31
436.727	672.31
436.949	662.31
437.17	653.31
437.392	645.31
437.614	670.31
437.835	652.31
438.057	721.31
438.278	793.31
438.5	799.31
438.721	830.31
438.943	818.31
439.165	703.31
439.386	664.31
439.608	685.31
439.829	681.31
440.05	670.31
440.272	743.31
440.493	681.31
440.715	683.31
440.936	656.31
441.158	667.31
441.379	682.31
441.6	693.31
441.822	700.31
442.043	732.31
442.264	822.31
442.486	818.31
442.707	742.31
442.928	710.31
443.149	716.31
443.371	733.31
443.592	756.31
443.813	846.31
444.034	879.31
444.255	785.31
444.476	784.31
444.698	772.31
444.919	813.31
445.14	884.31
445.361	807.31
445.582	767.31
445.803	773.31
446.024	841.31
446.245	814.31
446.466	758.31
446.687	700.31
446.908	678.31
447.129	636.31
447.35	613.31
447.571	637.31
447.792	600.31
448.013	622.31
448.234	636.31
448.455	653.31
448.675	756.31
448.896	826.31
449.117	721.31
449.338	707.31
449.559	782.31
449.779	855.31
450	687.31
450.221	651.31
450.442	618.31
450.662	590.31
450.883	596.31
451.104	606.31
451.324	614.31
451.545	599.31
451.766	592.31
451.986	586.31
452.207	571.31
452.428	587.31
452.648	566.31
452.869	546.31
453.089	570.31
453.31	576.31
453.53	593.31
453.751	555.31
453.971	574.31
454.192	582.31
454.412	564.31
454.633	556.31
454.853	584.31
455.073	571.31
455.294	588.31
455.514	616.31
455.734	599.31
455.955	566.31
456.175	567.31
456.395	541.31
456.616	539.31
456.836	545.31
457.056	514.31
457.276	546.31
457.497	547.31
457.717	536.31
457.937	551.31
458.157	564.31
458.377	571.31
458.598	596.31
458.818	600.31
459.038	655.31
459.258	685.31
459.478	633.31
459.698	626.31
459.918	638.31
460.138	651.31
460.358	684.31
460.578	693.31
460.798	723.31
461.018	715.31
461.238	688.31
461.458	690.31
461.678	704.31
461.898	709.31
462.118	682.31
462.338	747.31
462.558	733.31
462.777	758.31
462.997	802.31
463.217	850.31
463.437	869.31
463.657	821.31
463.876	761.31
464.096	740.31
464.316	748.31
464.536	745.31
464.755	757.31
464.975	733.31
465.195	758.31
465.414	761.31
465.634	724.31
465.854	652.31
466.073	626.31
466.293	608.31
466.512	624.31
466.732	616.31
466.951	583.31
467.171	603.31
467.391	628.31
467.61	644.31
467.829	627.31
468.049	592.31
468.268	588.31
468.488	592.31
468.707	589.31
468.927	610.31
469.146	598.31
469.365	589.31
469.585	608.31
469.804	615.31
470.023	637.31
470.243	619.31
470.462	621.31
470.681	620.31
470.901	638.31
471.12	612.31
471.339	629.31
471.558	616.31
471.777	620.31
471.997	614.31
472.216	604.31
472.435	636.31
472.654	604.31
472.873	602.31
473.092	604.31
473.311	579.31
473.53	600.31
473.749	607.31
473.968	647.31
474.187	664.31
474.406	697.31
474.625	646.31
474.844	607.31
475.063	615.31
475.282	596.31
475.501	590.31
475.72	615.31
475.939	583.31
476.158	630.31
476.377	601.31
476.596	598.31
476.814	620.31
477.033	638.31
477.252	646.31
477.471	655.31
477.69	662.31
477.908	683.31
478.127	668.31
478.346	702.31
478.564	726.31
478.783	720.31
479.002	701.31
479.22	703.31
479.439	714.31
479.658	750.31
479.876	728.31
480.095	741.31
480.313	777.31
480.532	788.31
480.751	785.31
480.969	788.31
481.188	801.31
481.406	798.31
481.624	745.31
481.843	713.31
482.061	698.31
482.28	711.31
482.498	705.31
482.717	720.31
482.935	723.31
483.153	674.31
483.372	683.31
483.59	694.31
483.808	686.31
484.027	662.31
484.245	687.31
484.463	717.31
484.681	715.31
484.9	735.31
485.118	730.31
485.336	713.31
485.554	708.31
485.772	740.31
485.99	743.31
486.209	725.31
486.427	745.31
486.645	729.31
486.863	738.31
487.081	726.31
487.299	741.31
487.517	766.31
487.735	727.31
487.953	742.31
488.171	738.31
488.389	739.31
488.607	732.31
488.825	740.31
489.043	737.31
489.261	734.31
489.479	770.31
489.696	772.31
489.914	768.31
490.132	764.31
490.35	780.31
490.568	744.31
490.786	767.31
491.003	792.31
491.221	773.31
491.439	802.31
491.657	794.31
491.874	814.31
492.092	816.31
492.31	805.31
492.527	806.31
492.745	833.31
492.963	837.31
493.18	846.31
493.398	828.31
493.615	843.31
493.833	842.31
494.05	848.31
494.268	824.31
494.485	875.31
494.703	863.31
494.92	837.31
495.138	841.31
495.355	831.31
495.573	867.31
495.79	844.31
496.008	836.31
496.225	874.31
496.442	858.31
496.66	844.31
496.877	863.31
497.094	871.31
497.312	903.31
497.529	898.31
497.746	916.31
497.963	932.31
498.181	990.31
498.398	994.31
498.615	1044.31
498.832	1088.31
499.049	1146.31
499.267	1215.31
499.484	1269.31
499.701	1351.31
499.918	1425.31
500.135	1580.31
500.352	1711.31
500.569	1814.31
500.786	1765.31
501.003	1679.31
501.22	1562.31
501.437	1428.31
501.654	1350.31
