Data from 1963.PennyLincolnUp.Lamp.En5.5.200Scan.071719.P1._HRD10591_13-59-25-064.txt Node
Date: Thu Jul 18 13:59:25 EDT 2019
User: cochatt
Spectrometer: HR+D1059
Trigger mode: 1
Integration Time (sec): 1.000000E-1
Scans to average: 1
Electric dark correction enabled: true
Nonlinearity correction enabled: false
Boxcar width: 0
XAxis mode: Wavelengths
Number of Pixels in Spectrum: 2048
>>>>>Begin Spectral Data<<<<<
223.165	-20.62
223.4	-20.62
223.635	-20.62
223.869	-14.62
224.104	-18.62
224.338	-1.62
224.573	11.38
224.808	-17.62
225.042	-5.62
225.277	2.38
225.511	-15.62
225.746	-1.62
225.98	-9.62
226.215	2.38
226.449	10.38
226.683	14.38
226.918	22.38
227.152	42.38
227.387	16.38
227.621	40.38
227.856	39.38
228.09	42.38
228.324	62.38
228.559	57.38
228.793	63.38
229.027	107.38
229.262	98.38
229.496	122.38
229.73	129.38
229.964	150.38
230.199	118.38
230.433	121.38
230.667	123.38
230.901	116.38
231.136	110.38
231.37	126.38
231.604	119.38
231.838	120.38
232.072	116.38
232.306	135.38
232.541	126.38
232.775	118.38
233.009	126.38
233.243	125.38
233.477	126.38
233.711	125.38
233.945	138.38
234.179	141.38
234.413	125.38
234.647	136.38
234.881	139.38
235.115	120.38
235.349	136.38
235.583	121.38
235.817	133.38
236.051	153.38
236.285	136.38
236.519	136.38
236.753	133.38
236.987	148.38
237.221	169.38
237.455	213.38
237.689	182.38
237.922	144.38
238.156	124.38
238.39	150.38
238.624	123.38
238.858	139.38
239.091	152.38
239.325	136.38
239.559	138.38
239.793	143.38
240.027	134.38
240.26	157.38
240.494	164.38
240.728	174.38
240.961	158.38
241.195	180.38
241.429	159.38
241.662	162.38
241.896	146.38
242.13	142.38
242.363	164.38
242.597	146.38
242.83	168.38
243.064	162.38
243.298	169.38
243.531	167.38
243.765	164.38
243.998	169.38
244.232	160.38
244.465	173.38
244.699	173.38
244.932	176.38
245.166	180.38
245.399	166.38
245.633	164.38
245.866	175.38
246.099	169.38
246.333	170.38
246.566	166.38
246.8	171.38
247.033	160.38
247.266	184.38
247.5	186.38
247.733	191.38
247.966	180.38
248.2	180.38
248.433	191.38
248.666	193.38
248.899	207.38
249.133	208.38
249.366	236.38
249.599	213.38
249.832	204.38
250.066	209.38
250.299	190.38
250.532	212.38
250.765	208.38
250.998	232.38
251.231	244.38
251.465	236.38
251.698	224.38
251.931	223.38
252.164	220.38
252.397	224.38
252.63	222.38
252.863	235.38
253.096	232.38
253.329	229.38
253.562	237.38
253.795	237.38
254.028	244.38
254.261	236.38
254.494	241.38
254.727	252.38
254.96	303.38
255.193	293.38
255.426	259.38
255.659	255.38
255.892	254.38
256.124	258.38
256.357	253.38
256.59	245.38
256.823	229.38
257.056	238.38
257.289	245.38
257.521	253.38
257.754	228.38
257.987	239.38
258.22	224.38
258.452	238.38
258.685	245.38
258.918	225.38
259.151	258.38
259.383	250.38
259.616	240.38
259.849	238.38
260.081	266.38
260.314	256.38
260.547	280.38
260.779	274.38
261.012	270.38
261.244	247.38
261.477	235.38
261.71	242.38
261.942	250.38
262.175	254.38
262.407	264.38
262.64	251.38
262.872	238.38
263.105	254.38
263.337	232.38
263.57	242.38
263.802	244.38
264.035	247.38
264.267	240.38
264.499	239.38
264.732	249.38
264.964	243.38
265.197	244.38
265.429	239.38
265.661	262.38
265.894	260.38
266.126	247.38
266.358	259.38
266.591	263.38
266.823	261.38
267.055	270.38
267.287	267.38
267.52	278.38
267.752	262.38
267.984	266.38
268.216	272.38
268.448	266.38
268.681	286.38
268.913	275.38
269.145	312.38
269.377	300.38
269.609	302.38
269.841	304.38
270.073	321.38
270.306	304.38
270.538	327.38
270.77	328.38
271.002	340.38
271.234	302.38
271.466	314.38
271.698	330.38
271.93	355.38
272.162	341.38
272.394	335.38
272.626	335.38
272.858	344.38
273.09	319.38
273.322	323.38
273.553	308.38
273.785	331.38
274.017	312.38
274.249	278.38
274.481	328.38
274.713	318.38
274.945	326.38
275.176	324.38
275.408	317.38
275.64	317.38
275.872	304.38
276.104	325.38
276.335	312.38
276.567	323.38
276.799	302.38
277.031	343.38
277.262	363.38
277.494	358.38
277.726	319.38
277.957	334.38
278.189	319.38
278.421	328.38
278.652	324.38
278.884	322.38
279.115	315.38
279.347	311.38
279.579	321.38
279.81	310.38
280.042	291.38
280.273	322.38
280.505	325.38
280.736	326.38
280.968	301.38
281.199	320.38
281.431	324.38
281.662	334.38
281.894	335.38
282.125	332.38
282.356	337.38
282.588	342.38
282.819	364.38
283.051	344.38
283.282	332.38
283.513	333.38
283.745	351.38
283.976	348.38
284.207	345.38
284.439	350.38
284.67	329.38
284.901	342.38
285.132	351.38
285.364	343.38
285.595	333.38
285.826	374.38
286.057	348.38
286.288	357.38
286.52	337.38
286.751	347.38
286.982	346.38
287.213	339.38
287.444	359.38
287.675	386.38
287.906	375.38
288.138	362.38
288.369	367.38
288.6	382.38
288.831	398.38
289.062	370.38
289.293	346.38
289.524	352.38
289.755	367.38
289.986	373.38
290.217	365.38
290.448	357.38
290.679	360.38
290.91	357.38
291.141	380.38
291.371	382.38
291.602	381.38
291.833	360.38
292.064	360.38
292.295	364.38
292.526	375.38
292.757	371.38
292.987	354.38
293.218	356.38
293.449	366.38
293.68	374.38
293.91	385.38
294.141	361.38
294.372	374.38
294.603	378.38
294.833	372.38
295.064	376.38
295.295	370.38
295.525	376.38
295.756	380.38
295.987	375.38
296.217	417.38
296.448	425.38
296.679	393.38
296.909	382.38
297.14	397.38
297.37	390.38
297.601	390.38
297.831	383.38
298.062	387.38
298.292	379.38
298.523	416.38
298.753	406.38
298.984	384.38
299.214	411.38
299.445	398.38
299.675	386.38
299.905	392.38
300.136	405.38
300.366	390.38
300.597	398.38
300.827	400.38
301.057	411.38
301.288	421.38
301.518	432.38
301.748	431.38
301.979	442.38
302.209	415.38
302.439	417.38
302.669	426.38
302.9	427.38
303.13	421.38
303.36	414.38
303.59	423.38
303.82	438.38
304.051	443.38
304.281	418.38
304.511	422.38
304.741	412.38
304.971	434.38
305.201	424.38
305.431	430.38
305.661	431.38
305.891	420.38
306.121	404.38
306.352	412.38
306.582	408.38
306.812	437.38
307.042	408.38
307.272	404.38
307.502	446.38
307.731	450.38
307.961	427.38
308.191	422.38
308.421	427.38
308.651	424.38
308.881	416.38
309.111	415.38
309.341	424.38
309.571	438.38
309.8	436.38
310.03	441.38
310.26	463.38
310.49	462.38
310.72	458.38
310.949	463.38
311.179	452.38
311.409	437.38
311.639	455.38
311.868	468.38
312.098	452.38
312.328	451.38
312.557	480.38
312.787	454.38
313.017	482.38
313.246	482.38
313.476	442.38
313.706	488.38
313.935	479.38
314.165	499.38
314.394	511.38
314.624	476.38
314.853	454.38
315.083	460.38
315.312	485.38
315.542	470.38
315.771	471.38
316.001	468.38
316.23	474.38
316.46	469.38
316.689	456.38
316.919	477.38
317.148	479.38
317.377	468.38
317.607	440.38
317.836	472.38
318.065	449.38
318.295	455.38
318.524	468.38
318.753	474.38
318.983	463.38
319.212	463.38
319.441	484.38
319.67	468.38
319.9	471.38
320.129	482.38
320.358	476.38
320.587	474.38
320.816	488.38
321.046	493.38
321.275	457.38
321.504	459.38
321.733	480.38
321.962	503.38
322.191	515.38
322.42	504.38
322.649	512.38
322.878	504.38
323.108	532.38
323.337	522.38
323.566	549.38
323.795	572.38
324.024	588.38
324.253	652.38
324.482	873.38
324.71	1256.38
324.939	1764.38
325.168	1575.38
325.397	859.38
325.626	635.38
325.855	592.38
326.084	585.38
326.313	571.38
326.542	544.38
326.77	591.38
326.999	654.38
327.228	824.38
327.457	1166.38
327.686	1397.38
327.914	982.38
328.143	732.38
328.372	683.38
328.6	618.38
328.829	612.38
329.058	604.38
329.287	623.38
329.515	598.38
329.744	572.38
329.972	586.38
330.201	602.38
330.43	628.38
330.658	662.38
330.887	648.38
331.115	645.38
331.344	597.38
331.572	582.38
331.801	553.38
332.03	579.38
332.258	594.38
332.486	575.38
332.715	568.38
332.943	612.38
333.172	604.38
333.4	619.38
333.629	619.38
333.857	650.38
334.085	649.38
334.314	639.38
334.542	698.38
334.771	675.38
334.999	640.38
335.227	608.38
335.455	613.38
335.684	600.38
335.912	608.38
336.14	606.38
336.369	582.38
336.597	587.38
336.825	589.38
337.053	571.38
337.281	588.38
337.51	571.38
337.738	580.38
337.966	558.38
338.194	571.38
338.422	565.38
338.65	566.38
338.878	556.38
339.106	534.38
339.334	567.38
339.562	550.38
339.79	536.38
340.018	525.38
340.246	539.38
340.474	541.38
340.702	548.38
340.93	550.38
341.158	528.38
341.386	551.38
341.614	553.38
341.842	552.38
342.07	539.38
342.298	543.38
342.526	536.38
342.754	526.38
342.981	502.38
343.209	535.38
343.437	557.38
343.665	573.38
343.893	621.38
344.12	630.38
344.348	611.38
344.576	596.38
344.804	571.38
345.031	554.38
345.259	578.38
345.487	559.38
345.714	538.38
345.942	534.38
346.17	512.38
346.397	515.38
346.625	529.38
346.853	522.38
347.08	508.38
347.308	522.38
347.535	542.38
347.763	515.38
347.99	518.38
348.218	531.38
348.445	528.38
348.673	516.38
348.9	517.38
349.128	539.38
349.355	514.38
349.583	526.38
349.81	501.38
350.037	514.38
350.265	511.38
350.492	522.38
350.72	499.38
350.947	514.38
351.174	524.38
351.402	520.38
351.629	520.38
351.856	531.38
352.083	548.38
352.311	527.38
352.538	524.38
352.765	527.38
352.992	515.38
353.22	504.38
353.447	507.38
353.674	532.38
353.901	491.38
354.128	495.38
354.355	517.38
354.583	502.38
354.81	477.38
355.037	516.38
355.264	490.38
355.491	484.38
355.718	493.38
355.945	495.38
356.172	482.38
356.399	499.38
356.626	485.38
356.853	506.38
357.08	510.38
357.307	501.38
357.534	482.38
357.761	482.38
357.988	504.38
358.215	498.38
358.441	514.38
358.668	499.38
358.895	491.38
359.122	478.38
359.349	500.38
359.576	529.38
359.802	530.38
360.029	543.38
360.256	557.38
360.483	544.38
360.709	511.38
360.936	515.38
361.163	516.38
361.39	521.38
361.616	517.38
361.843	514.38
362.07	515.38
362.296	527.38
362.523	485.38
362.749	520.38
362.976	504.38
363.203	519.38
363.429	503.38
363.656	501.38
363.882	507.38
364.109	516.38
364.335	500.38
364.562	504.38
364.788	501.38
365.015	531.38
365.241	511.38
365.468	490.38
365.694	516.38
365.92	518.38
366.147	482.38
366.373	508.38
366.599	515.38
366.826	484.38
367.052	474.38
367.278	500.38
367.505	516.38
367.731	521.38
367.957	514.38
368.184	511.38
368.41	509.38
368.636	514.38
368.862	515.38
369.089	516.38
369.315	524.38
369.541	504.38
369.767	511.38
369.993	533.38
370.219	523.38
370.445	528.38
370.672	524.38
370.898	518.38
371.124	512.38
371.35	522.38
371.576	499.38
371.802	508.38
372.028	502.38
372.254	536.38
372.48	539.38
372.706	542.38
372.932	528.38
373.158	560.38
373.384	528.38
373.61	533.38
373.835	524.38
374.061	546.38
374.287	522.38
374.513	524.38
374.739	558.38
374.965	543.38
375.191	549.38
375.416	578.38
375.642	542.38
375.868	534.38
376.094	523.38
376.319	514.38
376.545	535.38
376.771	540.38
376.997	513.38
377.222	516.38
377.448	520.38
377.674	514.38
377.899	543.38
378.125	533.38
378.35	534.38
378.576	533.38
378.802	527.38
379.027	520.38
379.253	514.38
379.478	511.38
379.704	489.38
379.929	506.38
380.155	504.38
380.38	530.38
380.606	518.38
380.831	520.38
381.057	542.38
381.282	532.38
381.507	551.38
381.733	547.38
381.958	542.38
382.184	538.38
382.409	540.38
382.634	535.38
382.86	546.38
383.085	548.38
383.31	536.38
383.535	558.38
383.761	564.38
383.986	578.38
384.211	584.38
384.436	587.38
384.662	586.38
384.887	598.38
385.112	603.38
385.337	624.38
385.562	595.38
385.787	604.38
386.013	625.38
386.238	614.38
386.463	598.38
386.688	595.38
386.913	584.38
387.138	616.38
387.363	618.38
387.588	582.38
387.813	617.38
388.038	604.38
388.263	618.38
388.488	599.38
388.713	610.38
388.938	603.38
389.163	608.38
389.387	607.38
389.612	586.38
389.837	560.38
390.062	609.38
390.287	605.38
390.512	599.38
390.736	589.38
390.961	623.38
391.186	614.38
391.411	618.38
391.636	641.38
391.86	644.38
392.085	669.38
392.31	669.38
392.534	645.38
392.759	666.38
392.984	630.38
393.208	632.38
393.433	618.38
393.658	624.38
393.882	645.38
394.107	618.38
394.331	615.38
394.556	646.38
394.78	648.38
395.005	629.38
395.229	662.38
395.454	642.38
395.678	667.38
395.903	656.38
396.127	685.38
396.352	664.38
396.576	649.38
396.801	653.38
397.025	655.38
397.249	640.38
397.474	618.38
397.698	658.38
397.922	690.38
398.147	684.38
398.371	684.38
398.595	684.38
398.82	711.38
399.044	750.38
399.268	793.38
399.492	890.38
399.717	976.38
399.941	1010.38
400.165	929.38
400.389	891.38
400.613	823.38
400.837	796.38
401.062	768.38
401.286	721.38
401.51	717.38
401.734	718.38
401.958	732.38
402.182	744.38
402.406	731.38
402.63	731.38
402.854	746.38
403.078	767.38
403.302	762.38
403.526	784.38
403.75	790.38
403.974	820.38
404.198	799.38
404.422	782.38
404.645	783.38
404.869	798.38
405.093	840.38
405.317	858.38
405.541	850.38
405.765	838.38
405.988	792.38
406.212	795.38
406.436	797.38
406.66	823.38
406.883	821.38
407.107	873.38
407.331	907.38
407.555	973.38
407.778	969.38
408.002	908.38
408.226	886.38
408.449	855.38
408.673	854.38
408.896	831.38
409.12	877.38
409.344	853.38
409.567	791.38
409.791	779.38
410.014	775.38
410.238	759.38
410.461	778.38
410.685	761.38
410.908	762.38
411.132	800.38
411.355	829.38
411.578	810.38
411.802	744.38
412.025	739.38
412.249	758.38
412.472	780.38
412.695	824.38
412.919	789.38
413.142	772.38
413.365	727.38
413.589	736.38
413.812	720.38
414.035	727.38
414.258	718.38
414.482	715.38
414.705	730.38
414.928	727.38
415.151	722.38
415.374	723.38
415.597	708.38
415.821	712.38
416.044	734.38
416.267	719.38
416.49	707.38
416.713	718.38
416.936	689.38
417.159	698.38
417.382	716.38
417.605	699.38
417.828	702.38
418.051	727.38
418.274	735.38
418.497	712.38
418.72	735.38
418.943	748.38
419.166	768.38
419.389	798.38
419.611	805.38
419.834	787.38
420.057	759.38
420.28	730.38
420.503	730.38
420.726	719.38
420.948	760.38
421.171	753.38
421.394	802.38
421.617	745.38
421.839	746.38
422.062	736.38
422.285	745.38
422.507	780.38
422.73	860.38
422.953	838.38
423.175	781.38
423.398	776.38
423.621	768.38
423.843	812.38
424.066	806.38
424.288	774.38
424.511	763.38
424.733	815.38
424.956	906.38
425.178	856.38
425.401	863.38
425.623	872.38
425.846	784.38
426.068	742.38
426.291	747.38
426.513	730.38
426.735	749.38
426.958	755.38
427.18	838.38
427.402	963.38
427.625	1030.38
427.847	887.38
428.069	804.38
428.292	762.38
428.514	702.38
428.736	710.38
428.958	678.38
429.181	686.38
429.403	681.38
429.625	710.38
429.847	704.38
430.069	751.38
430.292	780.38
430.514	700.38
430.736	675.38
430.958	670.38
431.18	684.38
431.402	656.38
431.624	644.38
431.846	678.38
432.068	690.38
432.29	679.38
432.512	670.38
432.734	688.38
432.956	682.38
433.178	676.38
433.4	688.38
433.622	682.38
433.844	671.38
434.066	658.38
434.287	661.38
434.509	706.38
434.731	703.38
434.953	710.38
435.175	721.38
435.397	755.38
435.618	758.38
435.84	750.38
436.062	837.38
436.284	909.38
436.505	774.38
436.727	748.38
436.949	700.38
437.17	674.38
437.392	674.38
437.614	713.38
437.835	710.38
438.057	760.38
438.278	863.38
438.5	855.38
438.721	916.38
438.943	908.38
439.165	745.38
439.386	704.38
439.608	747.38
439.829	705.38
440.05	733.38
440.272	764.38
440.493	722.38
440.715	706.38
440.936	724.38
441.158	715.38
441.379	725.38
441.6	718.38
441.822	736.38
442.043	788.38
442.264	866.38
442.486	870.38
442.707	800.38
442.928	752.38
443.149	754.38
443.371	806.38
443.592	798.38
443.813	890.38
444.034	942.38
444.255	834.38
444.476	795.38
444.698	821.38
444.919	825.38
445.14	953.38
445.361	860.38
445.582	824.38
445.803	848.38
446.024	912.38
446.245	891.38
446.466	827.38
446.687	771.38
446.908	730.38
447.129	680.38
447.35	682.38
447.571	676.38
447.792	653.38
448.013	688.38
448.234	678.38
448.455	741.38
448.675	809.38
448.896	882.38
449.117	793.38
449.338	776.38
449.559	847.38
449.779	921.38
450	778.38
450.221	680.38
450.442	678.38
450.662	644.38
450.883	636.38
451.104	662.38
451.324	627.38
451.545	644.38
451.766	606.38
451.986	634.38
452.207	622.38
452.428	613.38
452.648	605.38
452.869	607.38
453.089	619.38
453.31	623.38
453.53	615.38
453.751	614.38
453.971	592.38
454.192	607.38
454.412	590.38
454.633	603.38
454.853	614.38
455.073	606.38
455.294	612.38
455.514	664.38
455.734	657.38
455.955	589.38
456.175	593.38
456.395	569.38
456.616	581.38
456.836	563.38
457.056	592.38
457.276	568.38
457.497	576.38
457.717	584.38
457.937	580.38
458.157	558.38
458.377	604.38
458.598	622.38
458.818	684.38
459.038	743.38
459.258	775.38
459.478	719.38
459.698	687.38
459.918	669.38
460.138	678.38
460.358	695.38
460.578	748.38
460.798	755.38
461.018	743.38
461.238	736.38
461.458	750.38
461.678	733.38
461.898	747.38
462.118	726.38
462.338	788.38
462.558	791.38
462.777	797.38
462.997	814.38
463.217	899.38
463.437	931.38
463.657	826.38
463.876	804.38
464.096	814.38
464.316	804.38
464.536	816.38
464.755	814.38
464.975	782.38
465.195	797.38
465.414	824.38
465.634	750.38
465.854	710.38
466.073	676.38
466.293	670.38
466.512	642.38
466.732	633.38
466.951	648.38
467.171	629.38
467.391	651.38
467.61	668.38
467.829	662.38
468.049	678.38
468.268	660.38
468.488	649.38
468.707	634.38
468.927	623.38
469.146	642.38
469.365	626.38
469.585	620.38
469.804	646.38
470.023	663.38
470.243	661.38
470.462	664.38
470.681	669.38
470.901	669.38
471.12	663.38
471.339	635.38
471.558	631.38
471.777	642.38
471.997	632.38
472.216	635.38
472.435	639.38
472.654	636.38
472.873	608.38
473.092	638.38
473.311	615.38
473.53	628.38
473.749	621.38
473.968	646.38
474.187	735.38
474.406	751.38
474.625	680.38
474.844	640.38
475.063	624.38
475.282	622.38
475.501	622.38
475.72	639.38
475.939	655.38
476.158	640.38
476.377	640.38
476.596	645.38
476.814	659.38
477.033	680.38
477.252	676.38
477.471	688.38
477.69	713.38
477.908	704.38
478.127	707.38
478.346	718.38
478.564	714.38
478.783	749.38
479.002	746.38
479.22	749.38
479.439	760.38
479.658	776.38
479.876	773.38
480.095	794.38
480.313	803.38
480.532	807.38
480.751	839.38
480.969	818.38
481.188	866.38
481.406	876.38
481.624	800.38
481.843	769.38
482.061	778.38
482.28	738.38
482.498	727.38
482.717	715.38
482.935	738.38
483.153	728.38
483.372	713.38
483.59	727.38
483.808	740.38
484.027	727.38
484.245	725.38
484.463	738.38
484.681	762.38
484.9	752.38
485.118	776.38
485.336	734.38
485.554	749.38
485.772	776.38
485.99	747.38
486.209	780.38
486.427	780.38
486.645	782.38
486.863	808.38
487.081	799.38
487.299	762.38
487.517	797.38
487.735	810.38
487.953	792.38
488.171	792.38
488.389	783.38
488.607	781.38
488.825	796.38
489.043	784.38
489.261	785.38
489.479	809.38
489.696	790.38
489.914	768.38
490.132	821.38
490.35	823.38
490.568	838.38
490.786	815.38
491.003	828.38
491.221	836.38
491.439	850.38
491.657	851.38
491.874	858.38
492.092	884.38
492.31	876.38
492.527	878.38
492.745	903.38
492.963	899.38
493.18	921.38
493.398	910.38
493.615	906.38
493.833	903.38
494.05	889.38
494.268	920.38
494.485	922.38
494.703	904.38
494.92	922.38
495.138	906.38
495.355	916.38
495.573	924.38
495.79	917.38
496.008	926.38
496.225	922.38
496.442	930.38
496.66	924.38
496.877	957.38
497.094	949.38
497.312	975.38
497.529	983.38
497.746	975.38
497.963	1023.38
498.181	1066.38
498.398	1084.38
498.615	1092.38
498.832	1152.38
499.049	1186.38
499.267	1287.38
499.484	1355.38
499.701	1430.38
499.918	1515.38
500.135	1673.38
500.352	1804.38
500.569	1902.38
500.786	1850.38
501.003	1771.38
501.22	1670.38
501.437	1498.38
501.654	1449.38
