Data from 1963.PennyLincolnUp.Lamp.En5.5.200Scan.071719.P1._HRD10591_13-59-46-064.txt Node
Date: Thu Jul 18 13:59:46 EDT 2019
User: cochatt
Spectrometer: HR+D1059
Trigger mode: 1
Integration Time (sec): 1.000000E-1
Scans to average: 1
Electric dark correction enabled: true
Nonlinearity correction enabled: false
Boxcar width: 0
XAxis mode: Wavelengths
Number of Pixels in Spectrum: 2048
>>>>>Begin Spectral Data<<<<<
223.165	-20.06
223.4	-20.06
223.635	-20.06
223.869	-16.06
224.104	-19.06
224.338	-21.06
224.573	-20.06
224.808	-12.06
225.042	-11.06
225.277	10.94
225.511	3.94
225.746	10.94
225.98	14.94
226.215	5.94
226.449	15.94
226.683	10.94
226.918	5.94
227.152	39.94
227.387	40.94
227.621	38.94
227.856	37.94
228.09	33.94
228.324	62.94
228.559	57.94
228.793	66.94
229.027	82.94
229.262	99.94
229.496	104.94
229.73	119.94
229.964	145.94
230.199	127.94
230.433	101.94
230.667	127.94
230.901	119.94
231.136	111.94
231.37	116.94
231.604	120.94
231.838	104.94
232.072	101.94
232.306	109.94
232.541	126.94
232.775	117.94
233.009	133.94
233.243	146.94
233.477	105.94
233.711	120.94
233.945	123.94
234.179	115.94
234.413	122.94
234.647	117.94
234.881	118.94
235.115	137.94
235.349	129.94
235.583	120.94
235.817	123.94
236.051	117.94
236.285	124.94
236.519	139.94
236.753	132.94
236.987	140.94
237.221	178.94
237.455	191.94
237.689	158.94
237.922	151.94
238.156	150.94
238.39	133.94
238.624	143.94
238.858	136.94
239.091	133.94
239.325	136.94
239.559	145.94
239.793	142.94
240.027	151.94
240.26	139.94
240.494	136.94
240.728	133.94
240.961	165.94
241.195	147.94
241.429	155.94
241.662	137.94
241.896	156.94
242.13	157.94
242.363	154.94
242.597	147.94
242.83	154.94
243.064	151.94
243.298	159.94
243.531	148.94
243.765	159.94
243.998	151.94
244.232	150.94
244.465	163.94
244.699	166.94
244.932	160.94
245.166	164.94
245.399	150.94
245.633	161.94
245.866	162.94
246.099	160.94
246.333	157.94
246.566	155.94
246.8	150.94
247.033	166.94
247.266	163.94
247.5	169.94
247.733	179.94
247.966	181.94
248.2	173.94
248.433	201.94
248.666	193.94
248.899	199.94
249.133	205.94
249.366	211.94
249.599	207.94
249.832	190.94
250.066	205.94
250.299	187.94
250.532	193.94
250.765	196.94
250.998	201.94
251.231	224.94
251.465	214.94
251.698	209.94
251.931	215.94
252.164	216.94
252.397	216.94
252.63	195.94
252.863	202.94
253.096	224.94
253.329	226.94
253.562	236.94
253.795	213.94
254.028	219.94
254.261	228.94
254.494	232.94
254.727	255.94
254.96	267.94
255.193	263.94
255.426	259.94
255.659	229.94
255.892	252.94
256.124	228.94
256.357	245.94
256.59	229.94
256.823	212.94
257.056	216.94
257.289	215.94
257.521	211.94
257.754	213.94
257.987	232.94
258.22	217.94
258.452	212.94
258.685	217.94
258.918	214.94
259.151	231.94
259.383	226.94
259.616	242.94
259.849	250.94
260.081	266.94
260.314	269.94
260.547	270.94
260.779	269.94
261.012	259.94
261.244	239.94
261.477	228.94
261.71	214.94
261.942	231.94
262.175	247.94
262.407	232.94
262.64	227.94
262.872	222.94
263.105	226.94
263.337	239.94
263.57	234.94
263.802	229.94
264.035	236.94
264.267	236.94
264.499	237.94
264.732	249.94
264.964	243.94
265.197	257.94
265.429	231.94
265.661	236.94
265.894	230.94
266.126	243.94
266.358	241.94
266.591	255.94
266.823	264.94
267.055	236.94
267.287	253.94
267.52	259.94
267.752	277.94
267.984	258.94
268.216	235.94
268.448	243.94
268.681	265.94
268.913	267.94
269.145	297.94
269.377	313.94
269.609	290.94
269.841	293.94
270.073	292.94
270.306	295.94
270.538	333.94
270.77	319.94
271.002	321.94
271.234	296.94
271.466	296.94
271.698	298.94
271.93	322.94
272.162	312.94
272.394	327.94
272.626	325.94
272.858	321.94
273.09	318.94
273.322	288.94
273.553	294.94
273.785	293.94
274.017	300.94
274.249	294.94
274.481	296.94
274.713	285.94
274.945	296.94
275.176	298.94
275.408	299.94
275.64	305.94
275.872	299.94
276.104	293.94
276.335	293.94
276.567	298.94
276.799	295.94
277.031	330.94
277.262	335.94
277.494	348.94
277.726	331.94
277.957	325.94
278.189	314.94
278.421	312.94
278.652	311.94
278.884	300.94
279.115	317.94
279.347	320.94
279.579	319.94
279.81	317.94
280.042	311.94
280.273	307.94
280.505	317.94
280.736	313.94
280.968	313.94
281.199	314.94
281.431	329.94
281.662	319.94
281.894	315.94
282.125	313.94
282.356	315.94
282.588	339.94
282.819	330.94
283.051	326.94
283.282	318.94
283.513	328.94
283.745	317.94
283.976	353.94
284.207	321.94
284.439	313.94
284.67	321.94
284.901	335.94
285.132	337.94
285.364	354.94
285.595	336.94
285.826	332.94
286.057	336.94
286.288	335.94
286.52	337.94
286.751	328.94
286.982	357.94
287.213	335.94
287.444	339.94
287.675	357.94
287.906	357.94
288.138	369.94
288.369	347.94
288.6	343.94
288.831	348.94
289.062	347.94
289.293	349.94
289.524	339.94
289.755	352.94
289.986	349.94
290.217	339.94
290.448	337.94
290.679	348.94
290.91	361.94
291.141	357.94
291.371	352.94
291.602	338.94
291.833	341.94
292.064	344.94
292.295	338.94
292.526	333.94
292.757	340.94
292.987	347.94
293.218	356.94
293.449	355.94
293.68	374.94
293.91	334.94
294.141	363.94
294.372	353.94
294.603	353.94
294.833	355.94
295.064	353.94
295.295	368.94
295.525	353.94
295.756	360.94
295.987	360.94
296.217	385.94
296.448	368.94
296.679	393.94
296.909	345.94
297.14	365.94
297.37	371.94
297.601	357.94
297.831	364.94
298.062	361.94
298.292	374.94
298.523	387.94
298.753	389.94
298.984	383.94
299.214	366.94
299.445	398.94
299.675	371.94
299.905	369.94
300.136	383.94
300.366	396.94
300.597	384.94
300.827	380.94
301.057	381.94
301.288	397.94
301.518	398.94
301.748	388.94
301.979	410.94
302.209	412.94
302.439	410.94
302.669	405.94
302.9	412.94
303.13	399.94
303.36	391.94
303.59	392.94
303.82	402.94
304.051	415.94
304.281	415.94
304.511	398.94
304.741	387.94
304.971	419.94
305.201	401.94
305.431	403.94
305.661	411.94
305.891	390.94
306.121	417.94
306.352	407.94
306.582	399.94
306.812	374.94
307.042	376.94
307.272	403.94
307.502	418.94
307.731	413.94
307.961	387.94
308.191	415.94
308.421	401.94
308.651	401.94
308.881	417.94
309.111	408.94
309.341	423.94
309.571	426.94
309.8	409.94
310.03	412.94
310.26	440.94
310.49	434.94
310.72	435.94
310.949	443.94
311.179	439.94
311.409	417.94
311.639	430.94
311.868	437.94
312.098	444.94
312.328	435.94
312.557	431.94
312.787	449.94
313.017	460.94
313.246	464.94
313.476	452.94
313.706	443.94
313.935	453.94
314.165	433.94
314.394	458.94
314.624	472.94
314.853	458.94
315.083	470.94
315.312	443.94
315.542	433.94
315.771	444.94
316.001	441.94
316.23	429.94
316.46	447.94
316.689	452.94
316.919	467.94
317.148	447.94
317.377	459.94
317.607	431.94
317.836	447.94
318.065	460.94
318.295	464.94
318.524	472.94
318.753	452.94
318.983	458.94
319.212	445.94
319.441	432.94
319.67	451.94
319.9	434.94
320.129	451.94
320.358	447.94
320.587	435.94
320.816	463.94
321.046	472.94
321.275	461.94
321.504	463.94
321.733	452.94
321.962	440.94
322.191	485.94
322.42	477.94
322.649	476.94
322.878	491.94
323.108	481.94
323.337	517.94
323.566	532.94
323.795	553.94
324.024	556.94
324.253	630.94
324.482	826.94
324.71	1174.94
324.939	1638.94
325.168	1488.94
325.397	833.94
325.626	614.94
325.855	564.94
326.084	537.94
326.313	543.94
326.542	537.94
326.77	570.94
326.999	611.94
327.228	791.94
327.457	1126.94
327.686	1352.94
327.914	879.94
328.143	688.94
328.372	623.94
328.6	600.94
328.829	575.94
329.058	573.94
329.287	589.94
329.515	569.94
329.744	565.94
329.972	556.94
330.201	569.94
330.43	595.94
330.658	596.94
330.887	624.94
331.115	623.94
331.344	584.94
331.572	551.94
331.801	558.94
332.03	571.94
332.258	549.94
332.486	539.94
332.715	545.94
332.943	574.94
333.172	572.94
333.4	583.94
333.629	610.94
333.857	639.94
334.085	631.94
334.314	611.94
334.542	657.94
334.771	648.94
334.999	614.94
335.227	590.94
335.455	587.94
335.684	586.94
335.912	554.94
336.14	579.94
336.369	569.94
336.597	593.94
336.825	574.94
337.053	553.94
337.281	554.94
337.51	516.94
337.738	528.94
337.966	539.94
338.194	572.94
338.422	531.94
338.65	531.94
338.878	534.94
339.106	524.94
339.334	549.94
339.562	526.94
339.79	519.94
340.018	519.94
340.246	504.94
340.474	528.94
340.702	521.94
340.93	511.94
341.158	513.94
341.386	524.94
341.614	518.94
341.842	521.94
342.07	519.94
342.298	513.94
342.526	528.94
342.754	532.94
342.981	544.94
343.209	499.94
343.437	500.94
343.665	533.94
343.893	563.94
344.12	577.94
344.348	595.94
344.576	561.94
344.804	537.94
345.031	513.94
345.259	537.94
345.487	540.94
345.714	528.94
345.942	508.94
346.17	528.94
346.397	493.94
346.625	515.94
346.853	507.94
347.08	502.94
347.308	502.94
347.535	516.94
347.763	501.94
347.99	506.94
348.218	497.94
348.445	497.94
348.673	495.94
348.9	502.94
349.128	513.94
349.355	488.94
349.583	505.94
349.81	495.94
350.037	503.94
350.265	513.94
350.492	480.94
350.72	476.94
350.947	500.94
351.174	502.94
351.402	508.94
351.629	500.94
351.856	503.94
352.083	492.94
352.311	507.94
352.538	499.94
352.765	488.94
352.992	500.94
353.22	484.94
353.447	483.94
353.674	485.94
353.901	458.94
354.128	476.94
354.355	483.94
354.583	466.94
354.81	484.94
355.037	465.94
355.264	474.94
355.491	462.94
355.718	467.94
355.945	451.94
356.172	479.94
356.399	467.94
356.626	463.94
356.853	474.94
357.08	485.94
357.307	480.94
357.534	482.94
357.761	496.94
357.988	484.94
358.215	489.94
358.441	471.94
358.668	474.94
358.895	494.94
359.122	471.94
359.349	477.94
359.576	487.94
359.802	515.94
360.029	533.94
360.256	522.94
360.483	526.94
360.709	491.94
360.936	517.94
361.163	487.94
361.39	489.94
361.616	491.94
361.843	498.94
362.07	493.94
362.296	508.94
362.523	478.94
362.749	477.94
362.976	500.94
363.203	488.94
363.429	473.94
363.656	471.94
363.882	479.94
364.109	489.94
364.335	459.94
364.562	472.94
364.788	469.94
365.015	485.94
365.241	477.94
365.468	487.94
365.694	485.94
365.92	500.94
366.147	504.94
366.373	492.94
366.599	492.94
366.826	480.94
367.052	473.94
367.278	491.94
367.505	492.94
367.731	473.94
367.957	503.94
368.184	476.94
368.41	481.94
368.636	486.94
368.862	529.94
369.089	510.94
369.315	492.94
369.541	502.94
369.767	497.94
369.993	509.94
370.219	491.94
370.445	500.94
370.672	497.94
370.898	515.94
371.124	507.94
371.35	500.94
371.576	493.94
371.802	489.94
372.028	508.94
372.254	502.94
372.48	529.94
372.706	491.94
372.932	517.94
373.158	513.94
373.384	516.94
373.61	483.94
373.835	500.94
374.061	491.94
374.287	533.94
374.513	513.94
374.739	535.94
374.965	537.94
375.191	553.94
375.416	543.94
375.642	556.94
375.868	522.94
376.094	498.94
376.319	503.94
376.545	519.94
376.771	522.94
376.997	504.94
377.222	506.94
377.448	488.94
377.674	509.94
377.899	505.94
378.125	482.94
378.35	491.94
378.576	506.94
378.802	489.94
379.027	503.94
379.253	516.94
379.478	495.94
379.704	497.94
379.929	512.94
380.155	489.94
380.38	495.94
380.606	497.94
380.831	515.94
381.057	515.94
381.282	483.94
381.507	492.94
381.733	516.94
381.958	531.94
382.184	526.94
382.409	511.94
382.634	517.94
382.86	522.94
383.085	526.94
383.31	521.94
383.535	543.94
383.761	531.94
383.986	561.94
384.211	560.94
384.436	568.94
384.662	543.94
384.887	570.94
385.112	555.94
385.337	585.94
385.562	554.94
385.787	571.94
386.013	600.94
386.238	577.94
386.463	580.94
386.688	593.94
386.913	561.94
387.138	569.94
387.363	589.94
387.588	565.94
387.813	547.94
388.038	579.94
388.263	592.94
388.488	579.94
388.713	565.94
388.938	573.94
389.163	575.94
389.387	587.94
389.612	582.94
389.837	589.94
390.062	583.94
390.287	565.94
390.512	574.94
390.736	599.94
390.961	583.94
391.186	599.94
391.411	598.94
391.636	585.94
391.86	631.94
392.085	633.94
392.31	651.94
392.534	625.94
392.759	618.94
392.984	591.94
393.208	573.94
393.433	601.94
393.658	602.94
393.882	586.94
394.107	594.94
394.331	602.94
394.556	579.94
394.78	604.94
395.005	586.94
395.229	598.94
395.454	614.94
395.678	615.94
395.903	632.94
396.127	645.94
396.352	636.94
396.576	636.94
396.801	600.94
397.025	620.94
397.249	646.94
397.474	635.94
397.698	633.94
397.922	640.94
398.147	664.94
398.371	683.94
398.595	666.94
398.82	711.94
399.044	737.94
399.268	754.94
399.492	824.94
399.717	916.94
399.941	919.94
400.165	903.94
400.389	868.94
400.613	781.94
400.837	728.94
401.062	713.94
401.286	712.94
401.51	715.94
401.734	716.94
401.958	704.94
402.182	703.94
402.406	719.94
402.63	708.94
402.854	731.94
403.078	714.94
403.302	752.94
403.526	768.94
403.75	762.94
403.974	753.94
404.198	755.94
404.422	764.94
404.645	770.94
404.869	778.94
405.093	776.94
405.317	805.94
405.541	813.94
405.765	799.94
405.988	771.94
406.212	781.94
406.436	781.94
406.66	776.94
406.883	812.94
407.107	843.94
407.331	883.94
407.555	929.94
407.778	935.94
408.002	845.94
408.226	824.94
408.449	829.94
408.673	817.94
408.896	811.94
409.12	832.94
409.344	808.94
409.567	751.94
409.791	761.94
410.014	738.94
410.238	750.94
410.461	735.94
410.685	707.94
410.908	740.94
411.132	767.94
411.355	789.94
411.578	748.94
411.802	720.94
412.025	735.94
412.249	739.94
412.472	748.94
412.695	773.94
412.919	752.94
413.142	750.94
413.365	673.94
413.589	716.94
413.812	680.94
414.035	701.94
414.258	699.94
414.482	696.94
414.705	708.94
414.928	712.94
415.151	687.94
415.374	667.94
415.597	677.94
415.821	668.94
416.044	675.94
416.267	679.94
416.49	672.94
416.713	660.94
416.936	676.94
417.159	687.94
417.382	686.94
417.605	673.94
417.828	699.94
418.051	693.94
418.274	730.94
418.497	665.94
418.72	677.94
418.943	701.94
419.166	733.94
419.389	753.94
419.611	739.94
419.834	735.94
420.057	719.94
420.28	717.94
420.503	701.94
420.726	692.94
420.948	708.94
421.171	735.94
421.394	753.94
421.617	723.94
421.839	692.94
422.062	692.94
422.285	703.94
422.507	744.94
422.73	829.94
422.953	798.94
423.175	739.94
423.398	729.94
423.621	735.94
423.843	740.94
424.066	755.94
424.288	739.94
424.511	747.94
424.733	786.94
424.956	839.94
425.178	819.94
425.401	817.94
425.623	813.94
425.846	780.94
426.068	712.94
426.291	704.94
426.513	701.94
426.735	709.94
426.958	764.94
427.18	811.94
427.402	892.94
427.625	961.94
427.847	838.94
428.069	771.94
428.292	709.94
428.514	693.94
428.736	663.94
428.958	664.94
429.181	648.94
429.403	628.94
429.625	663.94
429.847	677.94
430.069	732.94
430.292	739.94
430.514	646.94
430.736	651.94
430.958	644.94
431.18	649.94
431.402	653.94
431.624	605.94
431.846	623.94
432.068	608.94
432.29	651.94
432.512	634.94
432.734	633.94
432.956	646.94
433.178	639.94
433.4	625.94
433.622	656.94
433.844	638.94
434.066	639.94
434.287	641.94
434.509	653.94
434.731	693.94
434.953	710.94
435.175	700.94
435.397	723.94
435.618	699.94
435.84	727.94
436.062	801.94
436.284	849.94
436.505	744.94
436.727	689.94
436.949	667.94
437.17	649.94
437.392	657.94
437.614	653.94
437.835	664.94
438.057	745.94
438.278	811.94
438.5	804.94
438.721	886.94
438.943	873.94
439.165	726.94
439.386	658.94
439.608	666.94
439.829	679.94
440.05	694.94
440.272	727.94
440.493	712.94
440.715	689.94
440.936	668.94
441.158	682.94
441.379	665.94
441.6	682.94
441.822	709.94
442.043	738.94
442.264	803.94
442.486	833.94
442.707	761.94
442.928	720.94
443.149	743.94
443.371	739.94
443.592	774.94
443.813	861.94
444.034	934.94
444.255	801.94
444.476	787.94
444.698	787.94
444.919	782.94
445.14	869.94
445.361	835.94
445.582	760.94
445.803	800.94
446.024	873.94
446.245	824.94
446.466	811.94
446.687	712.94
446.908	669.94
447.129	646.94
447.35	647.94
447.571	649.94
447.792	619.94
448.013	659.94
448.234	632.94
448.455	663.94
448.675	793.94
448.896	851.94
449.117	754.94
449.338	711.94
449.559	801.94
449.779	849.94
450	716.94
450.221	649.94
450.442	639.94
450.662	620.94
450.883	624.94
451.104	635.94
451.324	603.94
451.545	600.94
451.766	593.94
451.986	574.94
452.207	587.94
452.428	583.94
452.648	585.94
452.869	563.94
453.089	562.94
453.31	605.94
453.53	584.94
453.751	567.94
453.971	575.94
454.192	599.94
454.412	590.94
454.633	580.94
454.853	587.94
455.073	568.94
455.294	585.94
455.514	639.94
455.734	659.94
455.955	563.94
456.175	563.94
456.395	535.94
456.616	549.94
456.836	537.94
457.056	548.94
457.276	536.94
457.497	554.94
457.717	567.94
457.937	558.94
458.157	593.94
458.377	568.94
458.598	585.94
458.818	647.94
459.038	705.94
459.258	760.94
459.478	658.94
459.698	674.94
459.918	659.94
460.138	691.94
460.358	673.94
460.578	677.94
460.798	698.94
461.018	701.94
461.238	714.94
461.458	703.94
461.678	675.94
461.898	715.94
462.118	706.94
462.338	716.94
462.558	739.94
462.777	751.94
462.997	815.94
463.217	881.94
463.437	839.94
463.657	805.94
463.876	751.94
464.096	778.94
464.316	775.94
464.536	783.94
464.755	777.94
464.975	751.94
465.195	747.94
465.414	792.94
465.634	701.94
465.854	670.94
466.073	657.94
466.293	614.94
466.512	621.94
466.732	617.94
466.951	589.94
467.171	621.94
467.391	635.94
467.61	613.94
467.829	631.94
468.049	636.94
468.268	611.94
468.488	581.94
468.707	599.94
468.927	589.94
469.146	606.94
469.365	598.94
469.585	583.94
469.804	612.94
470.023	623.94
470.243	626.94
470.462	635.94
470.681	643.94
470.901	646.94
471.12	638.94
471.339	623.94
471.558	621.94
471.777	620.94
471.997	617.94
472.216	616.94
472.435	623.94
472.654	618.94
472.873	607.94
473.092	592.94
473.311	609.94
473.53	592.94
473.749	609.94
473.968	635.94
474.187	713.94
474.406	712.94
474.625	624.94
474.844	616.94
475.063	602.94
475.282	594.94
475.501	598.94
475.72	618.94
475.939	621.94
476.158	593.94
476.377	632.94
476.596	611.94
476.814	641.94
477.033	639.94
477.252	647.94
477.471	648.94
477.69	669.94
477.908	667.94
478.127	692.94
478.346	695.94
478.564	716.94
478.783	719.94
479.002	727.94
479.22	742.94
479.439	724.94
479.658	744.94
479.876	764.94
480.095	775.94
480.313	795.94
480.532	809.94
480.751	787.94
480.969	799.94
481.188	817.94
481.406	829.94
481.624	764.94
481.843	732.94
482.061	693.94
482.28	700.94
482.498	685.94
482.717	691.94
482.935	693.94
483.153	691.94
483.372	709.94
483.59	694.94
483.808	723.94
484.027	722.94
484.245	704.94
484.463	705.94
484.681	719.94
484.9	701.94
485.118	694.94
485.336	729.94
485.554	726.94
485.772	718.94
485.99	758.94
486.209	742.94
486.427	740.94
486.645	746.94
486.863	770.94
487.081	750.94
487.299	772.94
487.517	735.94
487.735	739.94
487.953	726.94
488.171	762.94
488.389	724.94
488.607	734.94
488.825	753.94
489.043	737.94
489.261	773.94
489.479	748.94
489.696	753.94
489.914	771.94
490.132	733.94
490.35	780.94
490.568	802.94
490.786	803.94
491.003	792.94
491.221	805.94
491.439	835.94
491.657	839.94
491.874	809.94
492.092	851.94
492.31	827.94
492.527	836.94
492.745	861.94
492.963	847.94
493.18	850.94
493.398	849.94
493.615	887.94
493.833	862.94
494.05	864.94
494.268	849.94
494.485	850.94
494.703	866.94
494.92	880.94
495.138	849.94
495.355	887.94
495.573	877.94
495.79	889.94
496.008	915.94
496.225	901.94
496.442	893.94
496.66	903.94
496.877	868.94
497.094	873.94
497.312	887.94
497.529	941.94
497.746	937.94
497.963	951.94
498.181	991.94
498.398	1028.94
498.615	1053.94
498.832	1125.94
499.049	1142.94
499.267	1223.94
499.484	1267.94
499.701	1370.94
499.918	1472.94
500.135	1605.94
500.352	1734.94
500.569	1797.94
500.786	1764.94
501.003	1701.94
501.22	1608.94
501.437	1484.94
501.654	1370.94
