Data from 1963.PennyLincolnUp.Lamp.En5.5.200Scan.071719.P1._HRD10591_14-00-02-063.txt Node
Date: Thu Jul 18 14:00:02 EDT 2019
User: cochatt
Spectrometer: HR+D1059
Trigger mode: 1
Integration Time (sec): 1.000000E-1
Scans to average: 1
Electric dark correction enabled: true
Nonlinearity correction enabled: false
Boxcar width: 0
XAxis mode: Wavelengths
Number of Pixels in Spectrum: 2048
>>>>>Begin Spectral Data<<<<<
223.165	-10.81
223.4	-10.81
223.635	-10.81
223.869	-9.81
224.104	-22.81
224.338	-15.81
224.573	-23.81
224.808	-5.81
225.042	-10.81
225.277	-0.81
225.511	1.19
225.746	8.19
225.98	15.19
226.215	5.19
226.449	15.19
226.683	3.19
226.918	30.19
227.152	22.19
227.387	34.19
227.621	50.19
227.856	47.19
228.09	46.19
228.324	62.19
228.559	42.19
228.793	66.19
229.027	88.19
229.262	111.19
229.496	116.19
229.73	121.19
229.964	148.19
230.199	127.19
230.433	126.19
230.667	125.19
230.901	116.19
231.136	118.19
231.37	92.19
231.604	133.19
231.838	117.19
232.072	120.19
232.306	126.19
232.541	130.19
232.775	128.19
233.009	128.19
233.243	101.19
233.477	111.19
233.711	128.19
233.945	120.19
234.179	111.19
234.413	135.19
234.647	128.19
234.881	134.19
235.115	112.19
235.349	132.19
235.583	132.19
235.817	141.19
236.051	137.19
236.285	126.19
236.519	143.19
236.753	140.19
236.987	128.19
237.221	185.19
237.455	222.19
237.689	180.19
237.922	138.19
238.156	131.19
238.39	135.19
238.624	134.19
238.858	153.19
239.091	131.19
239.325	142.19
239.559	133.19
239.793	138.19
240.027	155.19
240.26	146.19
240.494	172.19
240.728	138.19
240.961	161.19
241.195	166.19
241.429	163.19
241.662	154.19
241.896	148.19
242.13	158.19
242.363	154.19
242.597	150.19
242.83	156.19
243.064	156.19
243.298	155.19
243.531	166.19
243.765	136.19
243.998	158.19
244.232	166.19
244.465	160.19
244.699	175.19
244.932	157.19
245.166	144.19
245.399	165.19
245.633	179.19
245.866	160.19
246.099	167.19
246.333	173.19
246.566	172.19
246.8	160.19
247.033	171.19
247.266	173.19
247.5	176.19
247.733	184.19
247.966	198.19
248.2	173.19
248.433	196.19
248.666	194.19
248.899	207.19
249.133	207.19
249.366	204.19
249.599	202.19
249.832	193.19
250.066	169.19
250.299	183.19
250.532	206.19
250.765	230.19
250.998	248.19
251.231	231.19
251.465	228.19
251.698	215.19
251.931	213.19
252.164	217.19
252.397	198.19
252.63	209.19
252.863	213.19
253.096	231.19
253.329	226.19
253.562	240.19
253.795	233.19
254.028	229.19
254.261	217.19
254.494	237.19
254.727	243.19
254.96	272.19
255.193	273.19
255.426	262.19
255.659	237.19
255.892	255.19
256.124	254.19
256.357	252.19
256.59	251.19
256.823	235.19
257.056	233.19
257.289	222.19
257.521	232.19
257.754	244.19
257.987	227.19
258.22	251.19
258.452	239.19
258.685	247.19
258.918	243.19
259.151	228.19
259.383	222.19
259.616	242.19
259.849	241.19
260.081	272.19
260.314	273.19
260.547	282.19
260.779	273.19
261.012	267.19
261.244	248.19
261.477	261.19
261.71	263.19
261.942	235.19
262.175	251.19
262.407	262.19
262.64	261.19
262.872	252.19
263.105	250.19
263.337	245.19
263.57	221.19
263.802	259.19
264.035	245.19
264.267	251.19
264.499	244.19
264.732	236.19
264.964	250.19
265.197	245.19
265.429	254.19
265.661	249.19
265.894	278.19
266.126	247.19
266.358	259.19
266.591	264.19
266.823	276.19
267.055	273.19
267.287	261.19
267.52	252.19
267.752	258.19
267.984	263.19
268.216	268.19
268.448	278.19
268.681	269.19
268.913	286.19
269.145	287.19
269.377	301.19
269.609	307.19
269.841	286.19
270.073	303.19
270.306	326.19
270.538	346.19
270.77	339.19
271.002	325.19
271.234	312.19
271.466	310.19
271.698	332.19
271.93	322.19
272.162	315.19
272.394	354.19
272.626	337.19
272.858	316.19
273.09	323.19
273.322	317.19
273.553	295.19
273.785	299.19
274.017	292.19
274.249	290.19
274.481	288.19
274.713	295.19
274.945	302.19
275.176	306.19
275.408	307.19
275.64	297.19
275.872	298.19
276.104	312.19
276.335	312.19
276.567	298.19
276.799	330.19
277.031	340.19
277.262	349.19
277.494	357.19
277.726	348.19
277.957	329.19
278.189	328.19
278.421	336.19
278.652	322.19
278.884	325.19
279.115	316.19
279.347	317.19
279.579	311.19
279.81	345.19
280.042	314.19
280.273	312.19
280.505	338.19
280.736	298.19
280.968	309.19
281.199	324.19
281.431	327.19
281.662	329.19
281.894	327.19
282.125	342.19
282.356	353.19
282.588	346.19
282.819	362.19
283.051	348.19
283.282	327.19
283.513	321.19
283.745	327.19
283.976	335.19
284.207	325.19
284.439	339.19
284.67	343.19
284.901	328.19
285.132	341.19
285.364	340.19
285.595	354.19
285.826	350.19
286.057	340.19
286.288	332.19
286.52	347.19
286.751	336.19
286.982	361.19
287.213	350.19
287.444	338.19
287.675	352.19
287.906	379.19
288.138	374.19
288.369	365.19
288.6	358.19
288.831	361.19
289.062	356.19
289.293	371.19
289.524	352.19
289.755	378.19
289.986	380.19
290.217	360.19
290.448	362.19
290.679	370.19
290.91	354.19
291.141	346.19
291.371	350.19
291.602	379.19
291.833	358.19
292.064	348.19
292.295	375.19
292.526	375.19
292.757	383.19
292.987	376.19
293.218	367.19
293.449	370.19
293.68	380.19
293.91	367.19
294.141	377.19
294.372	365.19
294.603	355.19
294.833	385.19
295.064	366.19
295.295	361.19
295.525	355.19
295.756	378.19
295.987	379.19
296.217	405.19
296.448	407.19
296.679	376.19
296.909	379.19
297.14	388.19
297.37	396.19
297.601	367.19
297.831	382.19
298.062	400.19
298.292	395.19
298.523	385.19
298.753	401.19
298.984	404.19
299.214	395.19
299.445	396.19
299.675	371.19
299.905	411.19
300.136	404.19
300.366	394.19
300.597	418.19
300.827	394.19
301.057	405.19
301.288	414.19
301.518	419.19
301.748	426.19
301.979	434.19
302.209	419.19
302.439	405.19
302.669	422.19
302.9	436.19
303.13	414.19
303.36	418.19
303.59	441.19
303.82	425.19
304.051	442.19
304.281	418.19
304.511	407.19
304.741	409.19
304.971	394.19
305.201	412.19
305.431	430.19
305.661	422.19
305.891	403.19
306.121	404.19
306.352	418.19
306.582	428.19
306.812	408.19
307.042	410.19
307.272	417.19
307.502	407.19
307.731	404.19
307.961	420.19
308.191	415.19
308.421	410.19
308.651	406.19
308.881	429.19
309.111	422.19
309.341	418.19
309.571	428.19
309.8	434.19
310.03	447.19
310.26	420.19
310.49	441.19
310.72	438.19
310.949	458.19
311.179	455.19
311.409	450.19
311.639	444.19
311.868	439.19
312.098	439.19
312.328	441.19
312.557	450.19
312.787	469.19
313.017	441.19
313.246	487.19
313.476	454.19
313.706	440.19
313.935	451.19
314.165	483.19
314.394	464.19
314.624	454.19
314.853	453.19
315.083	469.19
315.312	452.19
315.542	474.19
315.771	450.19
316.001	477.19
316.23	448.19
316.46	457.19
316.689	471.19
316.919	476.19
317.148	466.19
317.377	467.19
317.607	454.19
317.836	451.19
318.065	440.19
318.295	470.19
318.524	458.19
318.753	449.19
318.983	468.19
319.212	452.19
319.441	469.19
319.67	476.19
319.9	454.19
320.129	451.19
320.358	452.19
320.587	477.19
320.816	467.19
321.046	489.19
321.275	472.19
321.504	474.19
321.733	491.19
321.962	469.19
322.191	503.19
322.42	510.19
322.649	495.19
322.878	507.19
323.108	518.19
323.337	524.19
323.566	524.19
323.795	553.19
324.024	581.19
324.253	653.19
324.482	840.19
324.71	1222.19
324.939	1706.19
325.168	1560.19
325.397	863.19
325.626	651.19
325.855	573.19
326.084	574.19
326.313	532.19
326.542	559.19
326.77	599.19
326.999	657.19
327.228	826.19
327.457	1143.19
327.686	1382.19
327.914	967.19
328.143	725.19
328.372	612.19
328.6	634.19
328.829	616.19
329.058	593.19
329.287	593.19
329.515	577.19
329.744	585.19
329.972	569.19
330.201	582.19
330.43	618.19
330.658	612.19
330.887	652.19
331.115	647.19
331.344	588.19
331.572	567.19
331.801	565.19
332.03	582.19
332.258	581.19
332.486	573.19
332.715	587.19
332.943	562.19
333.172	603.19
333.4	607.19
333.629	630.19
333.857	658.19
334.085	642.19
334.314	651.19
334.542	647.19
334.771	701.19
334.999	642.19
335.227	613.19
335.455	619.19
335.684	634.19
335.912	607.19
336.14	580.19
336.369	591.19
336.597	578.19
336.825	586.19
337.053	596.19
337.281	558.19
337.51	554.19
337.738	576.19
337.966	576.19
338.194	558.19
338.422	550.19
338.65	565.19
338.878	536.19
339.106	536.19
339.334	528.19
339.562	537.19
339.79	541.19
340.018	544.19
340.246	536.19
340.474	543.19
340.702	547.19
340.93	505.19
341.158	495.19
341.386	552.19
341.614	540.19
341.842	545.19
342.07	515.19
342.298	517.19
342.526	532.19
342.754	547.19
342.981	515.19
343.209	541.19
343.437	546.19
343.665	556.19
343.893	606.19
344.12	579.19
344.348	592.19
344.576	571.19
344.804	579.19
345.031	565.19
345.259	549.19
345.487	519.19
345.714	523.19
345.942	516.19
346.17	511.19
346.397	525.19
346.625	531.19
346.853	527.19
347.08	522.19
347.308	517.19
347.535	515.19
347.763	520.19
347.99	519.19
348.218	529.19
348.445	512.19
348.673	487.19
348.9	516.19
349.128	512.19
349.355	523.19
349.583	491.19
349.81	506.19
350.037	514.19
350.265	502.19
350.492	520.19
350.72	519.19
350.947	514.19
351.174	520.19
351.402	504.19
351.629	517.19
351.856	478.19
352.083	516.19
352.311	514.19
352.538	518.19
352.765	500.19
352.992	491.19
353.22	500.19
353.447	501.19
353.674	516.19
353.901	496.19
354.128	501.19
354.355	493.19
354.583	491.19
354.81	481.19
355.037	495.19
355.264	473.19
355.491	483.19
355.718	488.19
355.945	502.19
356.172	490.19
356.399	471.19
356.626	493.19
356.853	500.19
357.08	492.19
357.307	489.19
357.534	485.19
357.761	490.19
357.988	475.19
358.215	492.19
358.441	492.19
358.668	505.19
358.895	528.19
359.122	510.19
359.349	502.19
359.576	511.19
359.802	524.19
360.029	526.19
360.256	523.19
360.483	528.19
360.709	501.19
360.936	502.19
361.163	521.19
361.39	516.19
361.616	511.19
361.843	498.19
362.07	505.19
362.296	515.19
362.523	508.19
362.749	493.19
362.976	506.19
363.203	506.19
363.429	481.19
363.656	502.19
363.882	502.19
364.109	520.19
364.335	503.19
364.562	498.19
364.788	490.19
365.015	506.19
365.241	491.19
365.468	498.19
365.694	495.19
365.92	519.19
366.147	503.19
366.373	482.19
366.599	492.19
366.826	496.19
367.052	484.19
367.278	499.19
367.505	504.19
367.731	513.19
367.957	491.19
368.184	516.19
368.41	500.19
368.636	523.19
368.862	529.19
369.089	504.19
369.315	509.19
369.541	518.19
369.767	509.19
369.993	506.19
370.219	509.19
370.445	494.19
370.672	502.19
370.898	522.19
371.124	524.19
371.35	532.19
371.576	530.19
371.802	507.19
372.028	493.19
372.254	520.19
372.48	517.19
372.706	528.19
372.932	526.19
373.158	535.19
373.384	535.19
373.61	522.19
373.835	516.19
374.061	537.19
374.287	544.19
374.513	538.19
374.739	545.19
374.965	551.19
375.191	562.19
375.416	573.19
375.642	559.19
375.868	540.19
376.094	532.19
376.319	550.19
376.545	544.19
376.771	534.19
376.997	526.19
377.222	505.19
377.448	515.19
377.674	518.19
377.899	520.19
378.125	509.19
378.35	501.19
378.576	525.19
378.802	525.19
379.027	511.19
379.253	519.19
379.478	506.19
379.704	518.19
379.929	543.19
380.155	520.19
380.38	504.19
380.606	515.19
380.831	518.19
381.057	527.19
381.282	510.19
381.507	518.19
381.733	536.19
381.958	526.19
382.184	538.19
382.409	540.19
382.634	546.19
382.86	537.19
383.085	538.19
383.31	563.19
383.535	532.19
383.761	559.19
383.986	563.19
384.211	572.19
384.436	570.19
384.662	600.19
384.887	590.19
385.112	582.19
385.337	588.19
385.562	578.19
385.787	596.19
386.013	607.19
386.238	620.19
386.463	605.19
386.688	621.19
386.913	593.19
387.138	585.19
387.363	598.19
387.588	604.19
387.813	605.19
388.038	604.19
388.263	558.19
388.488	598.19
388.713	591.19
388.938	589.19
389.163	573.19
389.387	587.19
389.612	566.19
389.837	580.19
390.062	572.19
390.287	565.19
390.512	604.19
390.736	591.19
390.961	603.19
391.186	596.19
391.411	621.19
391.636	624.19
391.86	639.19
392.085	641.19
392.31	662.19
392.534	660.19
392.759	640.19
392.984	634.19
393.208	635.19
393.433	592.19
393.658	652.19
393.882	617.19
394.107	613.19
394.331	668.19
394.556	612.19
394.78	629.19
395.005	630.19
395.229	652.19
395.454	651.19
395.678	655.19
395.903	675.19
396.127	654.19
396.352	644.19
396.576	654.19
396.801	650.19
397.025	664.19
397.249	635.19
397.474	674.19
397.698	676.19
397.922	678.19
398.147	663.19
398.371	705.19
398.595	692.19
398.82	685.19
399.044	755.19
399.268	783.19
399.492	876.19
399.717	949.19
399.941	987.19
400.165	927.19
400.389	903.19
400.613	800.19
400.837	730.19
401.062	741.19
401.286	717.19
401.51	746.19
401.734	705.19
401.958	738.19
402.182	731.19
402.406	748.19
402.63	771.19
402.854	758.19
403.078	768.19
403.302	778.19
403.526	782.19
403.75	774.19
403.974	801.19
404.198	780.19
404.422	784.19
404.645	815.19
404.869	778.19
405.093	806.19
405.317	834.19
405.541	883.19
405.765	837.19
405.988	798.19
406.212	790.19
406.436	829.19
406.66	833.19
406.883	799.19
407.107	830.19
407.331	883.19
407.555	936.19
407.778	961.19
408.002	904.19
408.226	853.19
408.449	838.19
408.673	814.19
408.896	856.19
409.12	879.19
409.344	812.19
409.567	761.19
409.791	801.19
410.014	774.19
410.238	756.19
410.461	758.19
410.685	756.19
410.908	794.19
411.132	813.19
411.355	784.19
411.578	781.19
411.802	758.19
412.025	748.19
412.249	750.19
412.472	772.19
412.695	802.19
412.919	780.19
413.142	767.19
413.365	742.19
413.589	751.19
413.812	709.19
414.035	720.19
414.258	720.19
414.482	723.19
414.705	717.19
414.928	714.19
415.151	723.19
415.374	702.19
415.597	692.19
415.821	708.19
416.044	708.19
416.267	690.19
416.49	694.19
416.713	683.19
416.936	655.19
417.159	704.19
417.382	707.19
417.605	702.19
417.828	718.19
418.051	733.19
418.274	711.19
418.497	730.19
418.72	726.19
418.943	741.19
419.166	754.19
419.389	799.19
419.611	778.19
419.834	762.19
420.057	756.19
420.28	768.19
420.503	762.19
420.726	727.19
420.948	731.19
421.171	777.19
421.394	784.19
421.617	743.19
421.839	721.19
422.062	718.19
422.285	747.19
422.507	784.19
422.73	836.19
422.953	821.19
423.175	794.19
423.398	750.19
423.621	754.19
423.843	759.19
424.066	796.19
424.288	768.19
424.511	782.19
424.733	831.19
424.956	892.19
425.178	860.19
425.401	838.19
425.623	855.19
425.846	796.19
426.068	751.19
426.291	731.19
426.513	722.19
426.735	731.19
426.958	770.19
427.18	824.19
427.402	935.19
427.625	1007.19
427.847	928.19
428.069	800.19
428.292	776.19
428.514	719.19
428.736	697.19
428.958	696.19
429.181	663.19
429.403	657.19
429.625	675.19
429.847	691.19
430.069	756.19
430.292	732.19
430.514	676.19
430.736	664.19
430.958	654.19
431.18	665.19
431.402	643.19
431.624	640.19
431.846	650.19
432.068	676.19
432.29	685.19
432.512	650.19
432.734	658.19
432.956	656.19
433.178	679.19
433.4	661.19
433.622	661.19
433.844	642.19
434.066	677.19
434.287	645.19
434.509	708.19
434.731	696.19
434.953	693.19
435.175	737.19
435.397	746.19
435.618	732.19
435.84	751.19
436.062	795.19
436.284	865.19
436.505	773.19
436.727	715.19
436.949	683.19
437.17	694.19
437.392	686.19
437.614	674.19
437.835	706.19
438.057	781.19
438.278	847.19
438.5	828.19
438.721	897.19
438.943	896.19
439.165	756.19
439.386	676.19
439.608	712.19
439.829	718.19
440.05	725.19
440.272	745.19
440.493	746.19
440.715	715.19
440.936	682.19
441.158	702.19
441.379	684.19
441.6	730.19
441.822	746.19
442.043	767.19
442.264	810.19
442.486	872.19
442.707	786.19
442.928	759.19
443.149	772.19
443.371	744.19
443.592	771.19
443.813	865.19
444.034	937.19
444.255	872.19
444.476	798.19
444.698	798.19
444.919	831.19
445.14	891.19
445.361	828.19
445.582	784.19
445.803	795.19
446.024	888.19
446.245	861.19
446.466	802.19
446.687	723.19
446.908	704.19
447.129	680.19
447.35	662.19
447.571	668.19
447.792	659.19
448.013	662.19
448.234	664.19
448.455	700.19
448.675	775.19
448.896	879.19
449.117	779.19
449.338	750.19
449.559	831.19
449.779	922.19
450	768.19
450.221	706.19
450.442	642.19
450.662	623.19
450.883	621.19
451.104	651.19
451.324	641.19
451.545	623.19
451.766	601.19
451.986	579.19
452.207	580.19
452.428	601.19
452.648	616.19
452.869	593.19
453.089	638.19
453.31	622.19
453.53	583.19
453.751	607.19
453.971	596.19
454.192	622.19
454.412	597.19
454.633	570.19
454.853	580.19
455.073	581.19
455.294	599.19
455.514	654.19
455.734	631.19
455.955	574.19
456.175	589.19
456.395	581.19
456.616	572.19
456.836	564.19
457.056	551.19
457.276	572.19
457.497	594.19
457.717	575.19
457.937	590.19
458.157	576.19
458.377	594.19
458.598	622.19
458.818	644.19
459.038	703.19
459.258	731.19
459.478	662.19
459.698	666.19
459.918	688.19
460.138	711.19
460.358	711.19
460.578	717.19
460.798	725.19
461.018	757.19
461.238	711.19
461.458	692.19
461.678	728.19
461.898	743.19
462.118	716.19
462.338	738.19
462.558	790.19
462.777	784.19
462.997	854.19
463.217	916.19
463.437	901.19
463.657	847.19
463.876	841.19
464.096	816.19
464.316	826.19
464.536	795.19
464.755	787.19
464.975	779.19
465.195	795.19
465.414	798.19
465.634	731.19
465.854	710.19
466.073	693.19
466.293	689.19
466.512	652.19
466.732	626.19
466.951	638.19
467.171	615.19
467.391	611.19
467.61	634.19
467.829	640.19
468.049	641.19
468.268	632.19
468.488	600.19
468.707	598.19
468.927	599.19
469.146	613.19
469.365	614.19
469.585	619.19
469.804	628.19
470.023	666.19
470.243	644.19
470.462	668.19
470.681	655.19
470.901	651.19
471.12	650.19
471.339	629.19
471.558	653.19
471.777	639.19
471.997	635.19
472.216	632.19
472.435	653.19
472.654	642.19
472.873	638.19
473.092	606.19
473.311	630.19
473.53	636.19
473.749	638.19
473.968	661.19
474.187	722.19
474.406	738.19
474.625	646.19
474.844	634.19
475.063	619.19
475.282	632.19
475.501	639.19
475.72	650.19
475.939	618.19
476.158	609.19
476.377	638.19
476.596	636.19
476.814	646.19
477.033	652.19
477.252	667.19
477.471	682.19
477.69	682.19
477.908	713.19
478.127	692.19
478.346	701.19
478.564	729.19
478.783	749.19
479.002	779.19
479.22	772.19
479.439	760.19
479.658	788.19
479.876	758.19
480.095	795.19
480.313	827.19
480.532	815.19
480.751	799.19
480.969	811.19
481.188	855.19
481.406	870.19
481.624	776.19
481.843	770.19
482.061	750.19
482.28	738.19
482.498	700.19
482.717	727.19
482.935	735.19
483.153	683.19
483.372	711.19
483.59	743.19
483.808	719.19
484.027	719.19
484.245	754.19
484.463	758.19
484.681	754.19
484.9	724.19
485.118	730.19
485.336	754.19
485.554	755.19
485.772	743.19
485.99	738.19
486.209	755.19
486.427	780.19
486.645	765.19
486.863	794.19
487.081	796.19
487.299	779.19
487.517	779.19
487.735	762.19
487.953	762.19
488.171	793.19
488.389	762.19
488.607	765.19
488.825	782.19
489.043	776.19
489.261	766.19
489.479	772.19
489.696	786.19
489.914	785.19
490.132	811.19
490.35	838.19
490.568	802.19
490.786	802.19
491.003	822.19
491.221	818.19
491.439	831.19
491.657	860.19
491.874	851.19
492.092	852.19
492.31	852.19
492.527	883.19
492.745	868.19
492.963	840.19
493.18	877.19
493.398	892.19
493.615	889.19
493.833	877.19
494.05	926.19
494.268	914.19
494.485	893.19
494.703	858.19
494.92	935.19
495.138	896.19
495.355	880.19
495.573	898.19
495.79	908.19
496.008	939.19
496.225	912.19
496.442	890.19
496.66	940.19
496.877	928.19
497.094	935.19
497.312	930.19
497.529	951.19
497.746	946.19
497.963	999.19
498.181	1032.19
498.398	1052.19
498.615	1103.19
498.832	1171.19
499.049	1205.19
499.267	1250.19
499.484	1327.19
499.701	1417.19
499.918	1481.19
500.135	1663.19
500.352	1733.19
500.569	1859.19
500.786	1852.19
501.003	1762.19
501.22	1659.19
501.437	1519.19
501.654	1424.19
