Data from 1963.PennyLincolnUp.Lamp.En5.5.200Scan.071719.P1._HRD10591_13-57-27-063.txt Node
Date: Thu Jul 18 13:57:27 EDT 2019
User: cochatt
Spectrometer: HR+D1059
Trigger mode: 1
Integration Time (sec): 1.000000E-1
Scans to average: 1
Electric dark correction enabled: true
Nonlinearity correction enabled: false
Boxcar width: 0
XAxis mode: Wavelengths
Number of Pixels in Spectrum: 2048
>>>>>Begin Spectral Data<<<<<
223.165	-21.81
223.4	-21.81
223.635	-21.81
223.869	-14.81
224.104	-26.81
224.338	-25.81
224.573	-3.81
224.808	-8.81
225.042	1.19
225.277	0.19
225.511	-9.81
225.746	-3.81
225.98	12.19
226.215	8.19
226.449	16.19
226.683	22.19
226.918	24.19
227.152	31.19
227.387	32.19
227.621	22.19
227.856	42.19
228.09	36.19
228.324	60.19
228.559	57.19
228.793	63.19
229.027	97.19
229.262	115.19
229.496	93.19
229.73	123.19
229.964	132.19
230.199	116.19
230.433	106.19
230.667	111.19
230.901	121.19
231.136	117.19
231.37	105.19
231.604	100.19
231.838	120.19
232.072	105.19
232.306	133.19
232.541	109.19
232.775	110.19
233.009	121.19
233.243	113.19
233.477	115.19
233.711	110.19
233.945	117.19
234.179	122.19
234.413	115.19
234.647	121.19
234.881	126.19
235.115	109.19
235.349	102.19
235.583	103.19
235.817	115.19
236.051	133.19
236.285	134.19
236.519	123.19
236.753	124.19
236.987	134.19
237.221	149.19
237.455	174.19
237.689	164.19
237.922	142.19
238.156	139.19
238.39	120.19
238.624	138.19
238.858	115.19
239.091	126.19
239.325	112.19
239.559	142.19
239.793	131.19
240.027	135.19
240.26	132.19
240.494	138.19
240.728	141.19
240.961	132.19
241.195	148.19
241.429	138.19
241.662	136.19
241.896	140.19
242.13	127.19
242.363	136.19
242.597	129.19
242.83	139.19
243.064	138.19
243.298	160.19
243.531	149.19
243.765	135.19
243.998	152.19
244.232	148.19
244.465	151.19
244.699	158.19
244.932	155.19
245.166	137.19
245.399	140.19
245.633	143.19
245.866	147.19
246.099	160.19
246.333	169.19
246.566	162.19
246.8	164.19
247.033	162.19
247.266	174.19
247.5	171.19
247.733	159.19
247.966	149.19
248.2	172.19
248.433	169.19
248.666	185.19
248.899	182.19
249.133	179.19
249.366	176.19
249.599	177.19
249.832	171.19
250.066	179.19
250.299	189.19
250.532	189.19
250.765	194.19
250.998	201.19
251.231	215.19
251.465	208.19
251.698	198.19
251.931	167.19
252.164	193.19
252.397	205.19
252.63	214.19
252.863	202.19
253.096	213.19
253.329	206.19
253.562	211.19
253.795	222.19
254.028	206.19
254.261	202.19
254.494	202.19
254.727	238.19
254.96	243.19
255.193	225.19
255.426	243.19
255.659	215.19
255.892	233.19
256.124	208.19
256.357	225.19
256.59	226.19
256.823	206.19
257.056	201.19
257.289	228.19
257.521	224.19
257.754	212.19
257.987	206.19
258.22	217.19
258.452	197.19
258.685	205.19
258.918	206.19
259.151	227.19
259.383	236.19
259.616	228.19
259.849	202.19
260.081	234.19
260.314	231.19
260.547	244.19
260.779	221.19
261.012	212.19
261.244	212.19
261.477	232.19
261.71	209.19
261.942	205.19
262.175	233.19
262.407	231.19
262.64	216.19
262.872	231.19
263.105	230.19
263.337	237.19
263.57	216.19
263.802	217.19
264.035	240.19
264.267	219.19
264.499	212.19
264.732	226.19
264.964	241.19
265.197	227.19
265.429	224.19
265.661	230.19
265.894	222.19
266.126	238.19
266.358	246.19
266.591	234.19
266.823	245.19
267.055	236.19
267.287	232.19
267.52	253.19
267.752	256.19
267.984	235.19
268.216	248.19
268.448	259.19
268.681	257.19
268.913	270.19
269.145	269.19
269.377	271.19
269.609	254.19
269.841	268.19
270.073	270.19
270.306	276.19
270.538	279.19
270.77	282.19
271.002	283.19
271.234	291.19
271.466	278.19
271.698	285.19
271.93	314.19
272.162	287.19
272.394	307.19
272.626	275.19
272.858	300.19
273.09	297.19
273.322	279.19
273.553	278.19
273.785	272.19
274.017	267.19
274.249	281.19
274.481	279.19
274.713	274.19
274.945	285.19
275.176	286.19
275.408	282.19
275.64	275.19
275.872	283.19
276.104	285.19
276.335	290.19
276.567	279.19
276.799	290.19
277.031	309.19
277.262	311.19
277.494	320.19
277.726	297.19
277.957	307.19
278.189	294.19
278.421	279.19
278.652	279.19
278.884	310.19
279.115	297.19
279.347	279.19
279.579	299.19
279.81	296.19
280.042	305.19
280.273	287.19
280.505	277.19
280.736	293.19
280.968	303.19
281.199	294.19
281.431	303.19
281.662	291.19
281.894	283.19
282.125	303.19
282.356	317.19
282.588	325.19
282.819	315.19
283.051	309.19
283.282	315.19
283.513	309.19
283.745	319.19
283.976	325.19
284.207	313.19
284.439	318.19
284.67	298.19
284.901	318.19
285.132	293.19
285.364	316.19
285.595	308.19
285.826	299.19
286.057	335.19
286.288	309.19
286.52	325.19
286.751	323.19
286.982	331.19
287.213	322.19
287.444	325.19
287.675	291.19
287.906	319.19
288.138	343.19
288.369	338.19
288.6	336.19
288.831	336.19
289.062	327.19
289.293	341.19
289.524	331.19
289.755	344.19
289.986	326.19
290.217	327.19
290.448	328.19
290.679	336.19
290.91	331.19
291.141	346.19
291.371	334.19
291.602	337.19
291.833	316.19
292.064	341.19
292.295	335.19
292.526	339.19
292.757	330.19
292.987	346.19
293.218	342.19
293.449	336.19
293.68	335.19
293.91	332.19
294.141	337.19
294.372	328.19
294.603	338.19
294.833	346.19
295.064	330.19
295.295	345.19
295.525	342.19
295.756	340.19
295.987	345.19
296.217	363.19
296.448	369.19
296.679	335.19
296.909	362.19
297.14	359.19
297.37	370.19
297.601	347.19
297.831	353.19
298.062	360.19
298.292	362.19
298.523	350.19
298.753	349.19
298.984	341.19
299.214	346.19
299.445	348.19
299.675	355.19
299.905	369.19
300.136	375.19
300.366	371.19
300.597	360.19
300.827	377.19
301.057	387.19
301.288	381.19
301.518	387.19
301.748	396.19
301.979	371.19
302.209	383.19
302.439	389.19
302.669	405.19
302.9	389.19
303.13	383.19
303.36	388.19
303.59	373.19
303.82	386.19
304.051	378.19
304.281	375.19
304.511	401.19
304.741	397.19
304.971	394.19
305.201	397.19
305.431	370.19
305.661	365.19
305.891	387.19
306.121	382.19
306.352	398.19
306.582	388.19
306.812	370.19
307.042	390.19
307.272	363.19
307.502	381.19
307.731	365.19
307.961	379.19
308.191	360.19
308.421	401.19
308.651	394.19
308.881	391.19
309.111	384.19
309.341	390.19
309.571	398.19
309.8	394.19
310.03	388.19
310.26	388.19
310.49	419.19
310.72	403.19
310.949	413.19
311.179	426.19
311.409	405.19
311.639	409.19
311.868	405.19
312.098	418.19
312.328	421.19
312.557	403.19
312.787	413.19
313.017	439.19
313.246	452.19
313.476	409.19
313.706	385.19
313.935	417.19
314.165	405.19
314.394	427.19
314.624	426.19
314.853	426.19
315.083	411.19
315.312	429.19
315.542	405.19
315.771	400.19
316.001	416.19
316.23	427.19
316.46	398.19
316.689	423.19
316.919	422.19
317.148	414.19
317.377	429.19
317.607	430.19
317.836	416.19
318.065	414.19
318.295	424.19
318.524	419.19
318.753	428.19
318.983	411.19
319.212	409.19
319.441	436.19
319.67	431.19
319.9	429.19
320.129	426.19
320.358	415.19
320.587	415.19
320.816	424.19
321.046	424.19
321.275	447.19
321.504	411.19
321.733	434.19
321.962	426.19
322.191	441.19
322.42	439.19
322.649	452.19
322.878	464.19
323.108	450.19
323.337	440.19
323.566	471.19
323.795	465.19
324.024	504.19
324.253	531.19
324.482	654.19
324.71	861.19
324.939	1212.19
325.168	1111.19
325.397	653.19
325.626	515.19
325.855	484.19
326.084	454.19
326.313	481.19
326.542	490.19
326.77	516.19
326.999	537.19
327.228	618.19
327.457	832.19
327.686	999.19
327.914	718.19
328.143	541.19
328.372	526.19
328.6	524.19
328.829	514.19
329.058	508.19
329.287	505.19
329.515	494.19
329.744	513.19
329.972	502.19
330.201	485.19
330.43	501.19
330.658	539.19
330.887	544.19
331.115	537.19
331.344	475.19
331.572	498.19
331.801	509.19
332.03	522.19
332.258	532.19
332.486	533.19
332.715	532.19
332.943	508.19
333.172	525.19
333.4	558.19
333.629	580.19
333.857	577.19
334.085	572.19
334.314	574.19
334.542	598.19
334.771	592.19
334.999	574.19
335.227	557.19
335.455	538.19
335.684	550.19
335.912	507.19
336.14	529.19
336.369	511.19
336.597	539.19
336.825	496.19
337.053	528.19
337.281	519.19
337.51	517.19
337.738	511.19
337.966	518.19
338.194	505.19
338.422	485.19
338.65	493.19
338.878	507.19
339.106	510.19
339.334	512.19
339.562	493.19
339.79	491.19
340.018	472.19
340.246	485.19
340.474	470.19
340.702	479.19
340.93	475.19
341.158	478.19
341.386	485.19
341.614	489.19
341.842	473.19
342.07	473.19
342.298	478.19
342.526	477.19
342.754	465.19
342.981	466.19
343.209	483.19
343.437	493.19
343.665	509.19
343.893	525.19
344.12	557.19
344.348	534.19
344.576	522.19
344.804	499.19
345.031	481.19
345.259	502.19
345.487	501.19
345.714	480.19
345.942	497.19
346.17	455.19
346.397	454.19
346.625	480.19
346.853	474.19
347.08	458.19
347.308	471.19
347.535	482.19
347.763	465.19
347.99	458.19
348.218	446.19
348.445	463.19
348.673	452.19
348.9	461.19
349.128	456.19
349.355	459.19
349.583	457.19
349.81	454.19
350.037	459.19
350.265	452.19
350.492	458.19
350.72	463.19
350.947	446.19
351.174	479.19
351.402	472.19
351.629	448.19
351.856	465.19
352.083	462.19
352.311	450.19
352.538	452.19
352.765	455.19
352.992	441.19
353.22	453.19
353.447	457.19
353.674	454.19
353.901	467.19
354.128	457.19
354.355	449.19
354.583	452.19
354.81	422.19
355.037	454.19
355.264	450.19
355.491	456.19
355.718	460.19
355.945	452.19
356.172	455.19
356.399	447.19
356.626	465.19
356.853	445.19
357.08	457.19
357.307	435.19
357.534	418.19
357.761	452.19
357.988	442.19
358.215	457.19
358.441	465.19
358.668	434.19
358.895	455.19
359.122	452.19
359.349	452.19
359.576	467.19
359.802	479.19
360.029	473.19
360.256	465.19
360.483	470.19
360.709	462.19
360.936	467.19
361.163	458.19
361.39	466.19
361.616	482.19
361.843	480.19
362.07	460.19
362.296	458.19
362.523	469.19
362.749	458.19
362.976	448.19
363.203	470.19
363.429	471.19
363.656	467.19
363.882	474.19
364.109	458.19
364.335	456.19
364.562	452.19
364.788	440.19
365.015	457.19
365.241	463.19
365.468	443.19
365.694	452.19
365.92	454.19
366.147	444.19
366.373	455.19
366.599	434.19
366.826	438.19
367.052	455.19
367.278	459.19
367.505	446.19
367.731	449.19
367.957	455.19
368.184	454.19
368.41	453.19
368.636	468.19
368.862	484.19
369.089	467.19
369.315	468.19
369.541	468.19
369.767	441.19
369.993	473.19
370.219	464.19
370.445	460.19
370.672	457.19
370.898	478.19
371.124	474.19
371.35	473.19
371.576	479.19
371.802	475.19
372.028	472.19
372.254	490.19
372.48	499.19
372.706	481.19
372.932	493.19
373.158	484.19
373.384	463.19
373.61	480.19
373.835	475.19
374.061	506.19
374.287	496.19
374.513	473.19
374.739	502.19
374.965	503.19
375.191	516.19
375.416	517.19
375.642	501.19
375.868	494.19
376.094	488.19
376.319	486.19
376.545	482.19
376.771	496.19
376.997	493.19
377.222	497.19
377.448	488.19
377.674	485.19
377.899	471.19
378.125	474.19
378.35	467.19
378.576	469.19
378.802	458.19
379.027	457.19
379.253	470.19
379.478	484.19
379.704	478.19
379.929	474.19
380.155	469.19
380.38	478.19
380.606	473.19
380.831	469.19
381.057	475.19
381.282	465.19
381.507	482.19
381.733	501.19
381.958	487.19
382.184	484.19
382.409	483.19
382.634	474.19
382.86	515.19
383.085	490.19
383.31	502.19
383.535	511.19
383.761	522.19
383.986	540.19
384.211	534.19
384.436	521.19
384.662	568.19
384.887	553.19
385.112	571.19
385.337	550.19
385.562	563.19
385.787	553.19
386.013	560.19
386.238	550.19
386.463	561.19
386.688	555.19
386.913	547.19
387.138	571.19
387.363	561.19
387.588	531.19
387.813	563.19
388.038	573.19
388.263	551.19
388.488	566.19
388.713	543.19
388.938	556.19
389.163	544.19
389.387	551.19
389.612	537.19
389.837	559.19
390.062	555.19
390.287	549.19
390.512	559.19
390.736	536.19
390.961	553.19
391.186	570.19
391.411	555.19
391.636	582.19
391.86	592.19
392.085	601.19
392.31	609.19
392.534	594.19
392.759	575.19
392.984	596.19
393.208	571.19
393.433	610.19
393.658	592.19
393.882	597.19
394.107	540.19
394.331	579.19
394.556	570.19
394.78	582.19
395.005	555.19
395.229	583.19
395.454	598.19
395.678	586.19
395.903	602.19
396.127	615.19
396.352	611.19
396.576	596.19
396.801	592.19
397.025	599.19
397.249	593.19
397.474	584.19
397.698	595.19
397.922	616.19
398.147	614.19
398.371	635.19
398.595	643.19
398.82	631.19
399.044	678.19
399.268	727.19
399.492	793.19
399.717	890.19
399.941	881.19
400.165	854.19
400.389	785.19
400.613	753.19
400.837	692.19
401.062	659.19
401.286	657.19
401.51	651.19
401.734	649.19
401.958	677.19
402.182	647.19
402.406	696.19
402.63	675.19
402.854	693.19
403.078	689.19
403.302	698.19
403.526	730.19
403.75	714.19
403.974	719.19
404.198	708.19
404.422	720.19
404.645	721.19
404.869	708.19
405.093	736.19
405.317	783.19
405.541	773.19
405.765	735.19
405.988	719.19
406.212	715.19
406.436	718.19
406.66	745.19
406.883	747.19
407.107	756.19
407.331	821.19
407.555	848.19
407.778	875.19
408.002	819.19
408.226	809.19
408.449	774.19
408.673	730.19
408.896	747.19
409.12	789.19
409.344	757.19
409.567	726.19
409.791	725.19
410.014	713.19
410.238	693.19
410.461	691.19
410.685	696.19
410.908	698.19
411.132	730.19
411.355	723.19
411.578	687.19
411.802	664.19
412.025	670.19
412.249	697.19
412.472	701.19
412.695	730.19
412.919	717.19
413.142	667.19
413.365	703.19
413.589	669.19
413.812	643.19
414.035	653.19
414.258	657.19
414.482	654.19
414.705	664.19
414.928	671.19
415.151	645.19
415.374	659.19
415.597	676.19
415.821	645.19
416.044	649.19
416.267	683.19
416.49	664.19
416.713	651.19
416.936	640.19
417.159	634.19
417.382	657.19
417.605	661.19
417.828	662.19
418.051	657.19
418.274	665.19
418.497	642.19
418.72	669.19
418.943	665.19
419.166	678.19
419.389	722.19
419.611	715.19
419.834	669.19
420.057	685.19
420.28	652.19
420.503	657.19
420.726	658.19
420.948	664.19
421.171	704.19
421.394	708.19
421.617	680.19
421.839	657.19
422.062	677.19
422.285	662.19
422.507	705.19
422.73	759.19
422.953	738.19
423.175	724.19
423.398	682.19
423.621	697.19
423.843	706.19
424.066	703.19
424.288	712.19
424.511	681.19
424.733	736.19
424.956	788.19
425.178	753.19
425.401	723.19
425.623	763.19
425.846	687.19
426.068	664.19
426.291	656.19
426.513	658.19
426.735	658.19
426.958	693.19
427.18	738.19
427.402	808.19
427.625	860.19
427.847	739.19
428.069	682.19
428.292	641.19
428.514	634.19
428.736	606.19
428.958	626.19
429.181	603.19
429.403	599.19
429.625	584.19
429.847	632.19
430.069	674.19
430.292	666.19
430.514	615.19
430.736	628.19
430.958	596.19
431.18	589.19
431.402	588.19
431.624	584.19
431.846	601.19
432.068	602.19
432.29	603.19
432.512	626.19
432.734	613.19
432.956	578.19
433.178	602.19
433.4	591.19
433.622	600.19
433.844	620.19
434.066	585.19
434.287	593.19
434.509	612.19
434.731	632.19
434.953	659.19
435.175	655.19
435.397	661.19
435.618	645.19
435.84	673.19
436.062	693.19
436.284	758.19
436.505	658.19
436.727	638.19
436.949	622.19
437.17	607.19
437.392	593.19
437.614	611.19
437.835	622.19
438.057	663.19
438.278	734.19
438.5	744.19
438.721	762.19
438.943	741.19
439.165	629.19
439.386	616.19
439.608	621.19
439.829	643.19
440.05	671.19
440.272	652.19
440.493	637.19
440.715	631.19
440.936	643.19
441.158	615.19
441.379	609.19
441.6	681.19
441.822	690.19
442.043	685.19
442.264	746.19
442.486	758.19
442.707	687.19
442.928	669.19
443.149	709.19
443.371	689.19
443.592	716.19
443.813	789.19
444.034	794.19
444.255	744.19
444.476	754.19
444.698	726.19
444.919	728.19
445.14	842.19
445.361	758.19
445.582	716.19
445.803	728.19
446.024	780.19
446.245	753.19
446.466	716.19
446.687	650.19
446.908	622.19
447.129	621.19
447.35	602.19
447.571	582.19
447.792	600.19
448.013	608.19
448.234	564.19
448.455	620.19
448.675	669.19
448.896	754.19
449.117	677.19
449.338	643.19
449.559	687.19
449.779	779.19
450	671.19
450.221	586.19
450.442	580.19
450.662	545.19
450.883	564.19
451.104	586.19
451.324	573.19
451.545	573.19
451.766	549.19
451.986	526.19
452.207	527.19
452.428	531.19
452.648	538.19
452.869	535.19
453.089	554.19
453.31	541.19
453.53	559.19
453.751	539.19
453.971	568.19
454.192	560.19
454.412	545.19
454.633	543.19
454.853	539.19
455.073	535.19
455.294	541.19
455.514	597.19
455.734	585.19
455.955	540.19
456.175	522.19
456.395	515.19
456.616	536.19
456.836	534.19
457.056	520.19
457.276	514.19
457.497	513.19
457.717	518.19
457.937	537.19
458.157	529.19
458.377	541.19
458.598	546.19
458.818	583.19
459.038	628.19
459.258	674.19
459.478	601.19
459.698	612.19
459.918	616.19
460.138	630.19
460.358	639.19
460.578	671.19
460.798	682.19
461.018	665.19
461.238	671.19
461.458	651.19
461.678	669.19
461.898	681.19
462.118	685.19
462.338	699.19
462.558	698.19
462.777	715.19
462.997	768.19
463.217	810.19
463.437	807.19
463.657	773.19
463.876	736.19
464.096	721.19
464.316	757.19
464.536	736.19
464.755	724.19
464.975	706.19
465.195	697.19
465.414	709.19
465.634	675.19
465.854	615.19
466.073	625.19
466.293	589.19
466.512	577.19
466.732	583.19
466.951	583.19
467.171	588.19
467.391	586.19
467.61	566.19
467.829	594.19
468.049	568.19
468.268	550.19
468.488	565.19
468.707	558.19
468.927	536.19
469.146	567.19
469.365	555.19
469.585	581.19
469.804	574.19
470.023	586.19
470.243	601.19
470.462	612.19
470.681	610.19
470.901	626.19
471.12	590.19
471.339	582.19
471.558	601.19
471.777	611.19
471.997	576.19
472.216	567.19
472.435	591.19
472.654	554.19
472.873	552.19
473.092	568.19
473.311	592.19
473.53	563.19
473.749	565.19
473.968	575.19
474.187	619.19
474.406	668.19
474.625	621.19
474.844	561.19
475.063	567.19
475.282	586.19
475.501	579.19
475.72	566.19
475.939	574.19
476.158	592.19
476.377	568.19
476.596	582.19
476.814	599.19
477.033	607.19
477.252	628.19
477.471	608.19
477.69	609.19
477.908	650.19
478.127	659.19
478.346	678.19
478.564	664.19
478.783	680.19
479.002	701.19
479.22	673.19
479.439	707.19
479.658	683.19
479.876	714.19
480.095	713.19
480.313	749.19
480.532	727.19
480.751	762.19
480.969	739.19
481.188	764.19
481.406	756.19
481.624	710.19
481.843	666.19
482.061	671.19
482.28	679.19
482.498	662.19
482.717	674.19
482.935	687.19
483.153	674.19
483.372	674.19
483.59	673.19
483.808	696.19
484.027	659.19
484.245	665.19
484.463	682.19
484.681	674.19
484.9	704.19
485.118	683.19
485.336	681.19
485.554	683.19
485.772	703.19
485.99	701.19
486.209	682.19
486.427	687.19
486.645	689.19
486.863	700.19
487.081	727.19
487.299	709.19
487.517	706.19
487.735	688.19
487.953	709.19
488.171	697.19
488.389	709.19
488.607	704.19
488.825	686.19
489.043	694.19
489.261	697.19
489.479	716.19
489.696	710.19
489.914	705.19
490.132	709.19
490.35	704.19
490.568	762.19
490.786	753.19
491.003	739.19
491.221	727.19
491.439	754.19
491.657	770.19
491.874	761.19
492.092	766.19
492.31	785.19
492.527	790.19
492.745	797.19
492.963	764.19
493.18	787.19
493.398	803.19
493.615	806.19
493.833	776.19
494.05	805.19
494.268	813.19
494.485	817.19
494.703	803.19
494.92	796.19
495.138	798.19
495.355	818.19
495.573	808.19
495.79	809.19
496.008	822.19
496.225	823.19
496.442	836.19
496.66	845.19
496.877	801.19
497.094	809.19
497.312	860.19
497.529	859.19
497.746	882.19
497.963	890.19
498.181	919.19
498.398	917.19
498.615	986.19
498.832	1047.19
499.049	1069.19
499.267	1118.19
499.484	1204.19
499.701	1273.19
499.918	1406.19
500.135	1491.19
500.352	1656.19
500.569	1709.19
500.786	1704.19
501.003	1589.19
501.22	1495.19
501.437	1399.19
501.654	1262.19
501.871	1232.19
