Data from 1963.PennyLincolnUp.Lamp.En5.5.200Scan.071719.P1._HRD10591_14-00-08-063.txt Node
Date: Thu Jul 18 14:00:08 EDT 2019
User: cochatt
Spectrometer: HR+D1059
Trigger mode: 1
Integration Time (sec): 1.000000E-1
Scans to average: 1
Electric dark correction enabled: true
Nonlinearity correction enabled: false
Boxcar width: 0
XAxis mode: Wavelengths
Number of Pixels in Spectrum: 2048
>>>>>Begin Spectral Data<<<<<
223.165	-6.44
223.4	-6.44
223.635	-6.44
223.869	-23.44
224.104	-21.44
224.338	-17.44
224.573	-8.44
224.808	-0.44
225.042	7.56
225.277	-2.44
225.511	-8.44
225.746	1.56
225.98	-0.44
226.215	13.56
226.449	7.56
226.683	19.56
226.918	8.56
227.152	30.56
227.387	39.56
227.621	40.56
227.856	31.56
228.09	41.56
228.324	48.56
228.559	62.56
228.793	76.56
229.027	99.56
229.262	100.56
229.496	111.56
229.73	132.56
229.964	141.56
230.199	131.56
230.433	119.56
230.667	118.56
230.901	115.56
231.136	133.56
231.37	126.56
231.604	116.56
231.838	119.56
232.072	117.56
232.306	135.56
232.541	110.56
232.775	111.56
233.009	123.56
233.243	127.56
233.477	113.56
233.711	121.56
233.945	133.56
234.179	105.56
234.413	120.56
234.647	130.56
234.881	127.56
235.115	144.56
235.349	142.56
235.583	135.56
235.817	128.56
236.051	128.56
236.285	134.56
236.519	131.56
236.753	112.56
236.987	141.56
237.221	171.56
237.455	214.56
237.689	195.56
237.922	163.56
238.156	142.56
238.39	145.56
238.624	129.56
238.858	135.56
239.091	131.56
239.325	156.56
239.559	147.56
239.793	143.56
240.027	146.56
240.26	151.56
240.494	154.56
240.728	159.56
240.961	150.56
241.195	150.56
241.429	159.56
241.662	148.56
241.896	137.56
242.13	150.56
242.363	154.56
242.597	149.56
242.83	156.56
243.064	166.56
243.298	166.56
243.531	157.56
243.765	163.56
243.998	167.56
244.232	173.56
244.465	162.56
244.699	172.56
244.932	165.56
245.166	161.56
245.399	167.56
245.633	168.56
245.866	159.56
246.099	161.56
246.333	164.56
246.566	168.56
246.8	174.56
247.033	174.56
247.266	186.56
247.5	191.56
247.733	192.56
247.966	185.56
248.2	184.56
248.433	180.56
248.666	196.56
248.899	201.56
249.133	200.56
249.366	233.56
249.599	207.56
249.832	197.56
250.066	203.56
250.299	217.56
250.532	210.56
250.765	231.56
250.998	237.56
251.231	215.56
251.465	215.56
251.698	220.56
251.931	230.56
252.164	209.56
252.397	219.56
252.63	232.56
252.863	227.56
253.096	217.56
253.329	242.56
253.562	250.56
253.795	236.56
254.028	230.56
254.261	245.56
254.494	245.56
254.727	264.56
254.96	272.56
255.193	268.56
255.426	250.56
255.659	248.56
255.892	257.56
256.124	232.56
256.357	249.56
256.59	244.56
256.823	232.56
257.056	251.56
257.289	228.56
257.521	240.56
257.754	227.56
257.987	232.56
258.22	225.56
258.452	221.56
258.685	231.56
258.918	237.56
259.151	227.56
259.383	240.56
259.616	233.56
259.849	246.56
260.081	240.56
260.314	269.56
260.547	279.56
260.779	267.56
261.012	263.56
261.244	249.56
261.477	265.56
261.71	240.56
261.942	267.56
262.175	258.56
262.407	249.56
262.64	245.56
262.872	232.56
263.105	247.56
263.337	255.56
263.57	260.56
263.802	253.56
264.035	255.56
264.267	250.56
264.499	245.56
264.732	230.56
264.964	240.56
265.197	250.56
265.429	273.56
265.661	257.56
265.894	247.56
266.126	243.56
266.358	265.56
266.591	253.56
266.823	264.56
267.055	246.56
267.287	268.56
267.52	264.56
267.752	261.56
267.984	259.56
268.216	267.56
268.448	275.56
268.681	280.56
268.913	259.56
269.145	295.56
269.377	310.56
269.609	290.56
269.841	284.56
270.073	288.56
270.306	330.56
270.538	349.56
270.77	340.56
271.002	330.56
271.234	327.56
271.466	332.56
271.698	332.56
271.93	331.56
272.162	341.56
272.394	341.56
272.626	336.56
272.858	323.56
273.09	311.56
273.322	313.56
273.553	300.56
273.785	292.56
274.017	304.56
274.249	318.56
274.481	288.56
274.713	300.56
274.945	312.56
275.176	301.56
275.408	316.56
275.64	304.56
275.872	300.56
276.104	315.56
276.335	299.56
276.567	319.56
276.799	326.56
277.031	348.56
277.262	348.56
277.494	359.56
277.726	339.56
277.957	341.56
278.189	331.56
278.421	313.56
278.652	323.56
278.884	316.56
279.115	325.56
279.347	340.56
279.579	319.56
279.81	326.56
280.042	331.56
280.273	300.56
280.505	322.56
280.736	333.56
280.968	311.56
281.199	309.56
281.431	320.56
281.662	330.56
281.894	328.56
282.125	323.56
282.356	337.56
282.588	359.56
282.819	368.56
283.051	340.56
283.282	335.56
283.513	359.56
283.745	333.56
283.976	337.56
284.207	363.56
284.439	360.56
284.67	343.56
284.901	349.56
285.132	347.56
285.364	345.56
285.595	345.56
285.826	355.56
286.057	351.56
286.288	355.56
286.52	355.56
286.751	356.56
286.982	346.56
287.213	349.56
287.444	364.56
287.675	360.56
287.906	365.56
288.138	376.56
288.369	362.56
288.6	371.56
288.831	379.56
289.062	374.56
289.293	359.56
289.524	359.56
289.755	360.56
289.986	362.56
290.217	355.56
290.448	360.56
290.679	369.56
290.91	360.56
291.141	365.56
291.371	387.56
291.602	381.56
291.833	349.56
292.064	365.56
292.295	360.56
292.526	372.56
292.757	367.56
292.987	352.56
293.218	375.56
293.449	379.56
293.68	362.56
293.91	368.56
294.141	381.56
294.372	368.56
294.603	369.56
294.833	374.56
295.064	381.56
295.295	376.56
295.525	380.56
295.756	371.56
295.987	393.56
296.217	397.56
296.448	391.56
296.679	381.56
296.909	379.56
297.14	381.56
297.37	395.56
297.601	386.56
297.831	379.56
298.062	397.56
298.292	405.56
298.523	395.56
298.753	404.56
298.984	389.56
299.214	390.56
299.445	398.56
299.675	398.56
299.905	416.56
300.136	389.56
300.366	393.56
300.597	384.56
300.827	425.56
301.057	399.56
301.288	411.56
301.518	425.56
301.748	397.56
301.979	432.56
302.209	439.56
302.439	433.56
302.669	418.56
302.9	421.56
303.13	416.56
303.36	417.56
303.59	407.56
303.82	419.56
304.051	417.56
304.281	407.56
304.511	416.56
304.741	417.56
304.971	417.56
305.201	421.56
305.431	408.56
305.661	414.56
305.891	414.56
306.121	426.56
306.352	429.56
306.582	417.56
306.812	418.56
307.042	416.56
307.272	426.56
307.502	415.56
307.731	431.56
307.961	432.56
308.191	427.56
308.421	428.56
308.651	438.56
308.881	409.56
309.111	414.56
309.341	418.56
309.571	426.56
309.8	465.56
310.03	437.56
310.26	452.56
310.49	451.56
310.72	475.56
310.949	455.56
311.179	467.56
311.409	453.56
311.639	436.56
311.868	467.56
312.098	456.56
312.328	449.56
312.557	439.56
312.787	476.56
313.017	473.56
313.246	467.56
313.476	466.56
313.706	450.56
313.935	471.56
314.165	482.56
314.394	483.56
314.624	484.56
314.853	471.56
315.083	465.56
315.312	457.56
315.542	457.56
315.771	454.56
316.001	457.56
316.23	460.56
316.46	456.56
316.689	464.56
316.919	461.56
317.148	478.56
317.377	478.56
317.607	447.56
317.836	472.56
318.065	448.56
318.295	472.56
318.524	464.56
318.753	450.56
318.983	469.56
319.212	478.56
319.441	475.56
319.67	480.56
319.9	484.56
320.129	461.56
320.358	456.56
320.587	473.56
320.816	473.56
321.046	489.56
321.275	491.56
321.504	457.56
321.733	488.56
321.962	472.56
322.191	486.56
322.42	503.56
322.649	500.56
322.878	527.56
323.108	508.56
323.337	525.56
323.566	545.56
323.795	547.56
324.024	582.56
324.253	668.56
324.482	869.56
324.71	1237.56
324.939	1735.56
325.168	1543.56
325.397	849.56
325.626	655.56
325.855	574.56
326.084	565.56
326.313	538.56
326.542	563.56
326.77	579.56
326.999	638.56
327.228	814.56
327.457	1133.56
327.686	1393.56
327.914	953.56
328.143	689.56
328.372	649.56
328.6	624.56
328.829	609.56
329.058	586.56
329.287	601.56
329.515	582.56
329.744	581.56
329.972	557.56
330.201	575.56
330.43	599.56
330.658	616.56
330.887	639.56
331.115	661.56
331.344	597.56
331.572	573.56
331.801	608.56
332.03	577.56
332.258	566.56
332.486	603.56
332.715	597.56
332.943	610.56
333.172	603.56
333.4	635.56
333.629	640.56
333.857	650.56
334.085	653.56
334.314	638.56
334.542	675.56
334.771	690.56
334.999	643.56
335.227	612.56
335.455	619.56
335.684	595.56
335.912	597.56
336.14	574.56
336.369	565.56
336.597	569.56
336.825	576.56
337.053	587.56
337.281	561.56
337.51	566.56
337.738	570.56
337.966	562.56
338.194	576.56
338.422	559.56
338.65	545.56
338.878	536.56
339.106	554.56
339.334	560.56
339.562	563.56
339.79	550.56
340.018	533.56
340.246	534.56
340.474	551.56
340.702	531.56
340.93	531.56
341.158	518.56
341.386	520.56
341.614	548.56
341.842	542.56
342.07	544.56
342.298	541.56
342.526	534.56
342.754	529.56
342.981	540.56
343.209	518.56
343.437	563.56
343.665	577.56
343.893	614.56
344.12	588.56
344.348	590.56
344.576	580.56
344.804	563.56
345.031	537.56
345.259	546.56
345.487	542.56
345.714	522.56
345.942	492.56
346.17	533.56
346.397	508.56
346.625	523.56
346.853	518.56
347.08	498.56
347.308	515.56
347.535	542.56
347.763	513.56
347.99	529.56
348.218	516.56
348.445	530.56
348.673	524.56
348.9	504.56
349.128	510.56
349.355	503.56
349.583	532.56
349.81	513.56
350.037	509.56
350.265	495.56
350.492	487.56
350.72	507.56
350.947	493.56
351.174	517.56
351.402	532.56
351.629	516.56
351.856	481.56
352.083	531.56
352.311	517.56
352.538	519.56
352.765	533.56
352.992	510.56
353.22	501.56
353.447	491.56
353.674	496.56
353.901	493.56
354.128	478.56
354.355	488.56
354.583	488.56
354.81	484.56
355.037	500.56
355.264	496.56
355.491	503.56
355.718	508.56
355.945	475.56
356.172	476.56
356.399	491.56
356.626	481.56
356.853	491.56
357.08	510.56
357.307	499.56
357.534	489.56
357.761	488.56
357.988	513.56
358.215	479.56
358.441	479.56
358.668	515.56
358.895	511.56
359.122	476.56
359.349	515.56
359.576	522.56
359.802	493.56
360.029	569.56
360.256	552.56
360.483	557.56
360.709	516.56
360.936	517.56
361.163	524.56
361.39	484.56
361.616	502.56
361.843	511.56
362.07	506.56
362.296	506.56
362.523	523.56
362.749	520.56
362.976	497.56
363.203	504.56
363.429	486.56
363.656	515.56
363.882	496.56
364.109	497.56
364.335	470.56
364.562	498.56
364.788	482.56
365.015	488.56
365.241	515.56
365.468	505.56
365.694	512.56
365.92	516.56
366.147	516.56
366.373	507.56
366.599	497.56
366.826	499.56
367.052	502.56
367.278	478.56
367.505	500.56
367.731	510.56
367.957	500.56
368.184	487.56
368.41	525.56
368.636	501.56
368.862	520.56
369.089	497.56
369.315	529.56
369.541	523.56
369.767	518.56
369.993	520.56
370.219	521.56
370.445	504.56
370.672	521.56
370.898	508.56
371.124	528.56
371.35	535.56
371.576	535.56
371.802	520.56
372.028	526.56
372.254	534.56
372.48	514.56
372.706	526.56
372.932	538.56
373.158	540.56
373.384	520.56
373.61	528.56
373.835	521.56
374.061	545.56
374.287	537.56
374.513	525.56
374.739	565.56
374.965	559.56
375.191	555.56
375.416	550.56
375.642	533.56
375.868	568.56
376.094	529.56
376.319	518.56
376.545	525.56
376.771	510.56
376.997	523.56
377.222	512.56
377.448	509.56
377.674	507.56
377.899	525.56
378.125	526.56
378.35	545.56
378.576	511.56
378.802	511.56
379.027	537.56
379.253	545.56
379.478	520.56
379.704	514.56
379.929	515.56
380.155	523.56
380.38	503.56
380.606	519.56
380.831	512.56
381.057	517.56
381.282	539.56
381.507	519.56
381.733	519.56
381.958	540.56
382.184	521.56
382.409	549.56
382.634	544.56
382.86	552.56
383.085	530.56
383.31	567.56
383.535	549.56
383.761	579.56
383.986	587.56
384.211	573.56
384.436	581.56
384.662	594.56
384.887	599.56
385.112	595.56
385.337	607.56
385.562	601.56
385.787	595.56
386.013	596.56
386.238	609.56
386.463	614.56
386.688	604.56
386.913	606.56
387.138	583.56
387.363	599.56
387.588	611.56
387.813	629.56
388.038	607.56
388.263	606.56
388.488	591.56
388.713	592.56
388.938	604.56
389.163	583.56
389.387	600.56
389.612	589.56
389.837	591.56
390.062	594.56
390.287	599.56
390.512	612.56
390.736	618.56
390.961	625.56
391.186	611.56
391.411	619.56
391.636	642.56
391.86	664.56
392.085	653.56
392.31	649.56
392.534	629.56
392.759	630.56
392.984	634.56
393.208	632.56
393.433	644.56
393.658	617.56
393.882	629.56
394.107	607.56
394.331	613.56
394.556	608.56
394.78	633.56
395.005	615.56
395.229	646.56
395.454	661.56
395.678	673.56
395.903	640.56
396.127	671.56
396.352	656.56
396.576	636.56
396.801	635.56
397.025	646.56
397.249	653.56
397.474	650.56
397.698	658.56
397.922	678.56
398.147	681.56
398.371	680.56
398.595	696.56
398.82	714.56
399.044	731.56
399.268	822.56
399.492	889.56
399.717	944.56
399.941	967.56
400.165	925.56
400.389	891.56
400.613	825.56
400.837	775.56
401.062	741.56
401.286	717.56
401.51	718.56
401.734	720.56
401.958	740.56
402.182	726.56
402.406	736.56
402.63	760.56
402.854	757.56
403.078	775.56
403.302	775.56
403.526	756.56
403.75	789.56
403.974	800.56
404.198	752.56
404.422	800.56
404.645	779.56
404.869	800.56
405.093	789.56
405.317	862.56
405.541	871.56
405.765	811.56
405.988	791.56
406.212	783.56
406.436	825.56
406.66	847.56
406.883	840.56
407.107	844.56
407.331	874.56
407.555	963.56
407.778	943.56
408.002	911.56
408.226	864.56
408.449	844.56
408.673	839.56
408.896	841.56
409.12	871.56
409.344	840.56
409.567	769.56
409.791	767.56
410.014	757.56
410.238	746.56
410.461	766.56
410.685	761.56
410.908	760.56
411.132	788.56
411.355	805.56
411.578	797.56
411.802	741.56
412.025	731.56
412.249	744.56
412.472	781.56
412.695	785.56
412.919	793.56
413.142	746.56
413.365	734.56
413.589	729.56
413.812	703.56
414.035	717.56
414.258	717.56
414.482	719.56
414.705	719.56
414.928	727.56
415.151	706.56
415.374	711.56
415.597	714.56
415.821	695.56
416.044	715.56
416.267	714.56
416.49	681.56
416.713	679.56
416.936	716.56
417.159	711.56
417.382	718.56
417.605	673.56
417.828	719.56
418.051	731.56
418.274	739.56
418.497	705.56
418.72	716.56
418.943	721.56
419.166	764.56
419.389	777.56
419.611	778.56
419.834	826.56
420.057	732.56
420.28	750.56
420.503	726.56
420.726	719.56
420.948	729.56
421.171	753.56
421.394	783.56
421.617	731.56
421.839	709.56
422.062	743.56
422.285	759.56
422.507	825.56
422.73	856.56
422.953	808.56
423.175	798.56
423.398	737.56
423.621	750.56
423.843	779.56
424.066	803.56
424.288	784.56
424.511	767.56
424.733	815.56
424.956	867.56
425.178	848.56
425.401	840.56
425.623	873.56
425.846	788.56
426.068	735.56
426.291	744.56
426.513	731.56
426.735	731.56
426.958	758.56
427.18	801.56
427.402	921.56
427.625	1024.56
427.847	899.56
428.069	801.56
428.292	755.56
428.514	703.56
428.736	673.56
428.958	687.56
429.181	680.56
429.403	669.56
429.625	688.56
429.847	711.56
430.069	749.56
430.292	761.56
430.514	672.56
430.736	667.56
430.958	668.56
431.18	642.56
431.402	659.56
431.624	658.56
431.846	643.56
432.068	661.56
432.29	679.56
432.512	667.56
432.734	680.56
432.956	653.56
433.178	674.56
433.4	674.56
433.622	673.56
433.844	685.56
434.066	641.56
434.287	657.56
434.509	692.56
434.731	696.56
434.953	707.56
435.175	740.56
435.397	768.56
435.618	736.56
435.84	757.56
436.062	829.56
436.284	878.56
436.505	791.56
436.727	715.56
436.949	711.56
437.17	698.56
437.392	639.56
437.614	688.56
437.835	713.56
438.057	756.56
438.278	864.56
438.5	834.56
438.721	923.56
438.943	883.56
439.165	755.56
439.386	725.56
439.608	711.56
439.829	708.56
440.05	749.56
440.272	774.56
440.493	741.56
440.715	697.56
440.936	697.56
441.158	683.56
441.379	691.56
441.6	744.56
441.822	720.56
442.043	775.56
442.264	847.56
442.486	855.56
442.707	773.56
442.928	752.56
443.149	759.56
443.371	773.56
443.592	795.56
443.813	911.56
444.034	934.56
444.255	836.56
444.476	774.56
444.698	811.56
444.919	817.56
445.14	892.56
445.361	846.56
445.582	821.56
445.803	814.56
446.024	878.56
446.245	886.56
446.466	821.56
446.687	734.56
446.908	703.56
447.129	667.56
447.35	645.56
447.571	682.56
447.792	669.56
448.013	673.56
448.234	662.56
448.455	680.56
448.675	796.56
448.896	880.56
449.117	759.56
449.338	738.56
449.559	832.56
449.779	934.56
450	789.56
450.221	691.56
450.442	649.56
450.662	632.56
450.883	652.56
451.104	653.56
451.324	638.56
451.545	646.56
451.766	609.56
451.986	607.56
452.207	593.56
452.428	601.56
452.648	616.56
452.869	597.56
453.089	581.56
453.31	629.56
453.53	618.56
453.751	627.56
453.971	602.56
454.192	610.56
454.412	597.56
454.633	575.56
454.853	592.56
455.073	592.56
455.294	613.56
455.514	647.56
455.734	657.56
455.955	583.56
456.175	571.56
456.395	580.56
456.616	573.56
456.836	580.56
457.056	556.56
457.276	561.56
457.497	601.56
457.717	585.56
457.937	580.56
458.157	592.56
458.377	602.56
458.598	637.56
458.818	667.56
459.038	718.56
459.258	763.56
459.478	681.56
459.698	668.56
459.918	676.56
460.138	684.56
460.358	721.56
460.578	719.56
460.798	728.56
461.018	715.56
461.238	707.56
461.458	712.56
461.678	689.56
461.898	745.56
462.118	725.56
462.338	759.56
462.558	761.56
462.777	794.56
462.997	838.56
463.217	858.56
463.437	876.56
463.657	833.56
463.876	825.56
464.096	797.56
464.316	824.56
464.536	812.56
464.755	791.56
464.975	797.56
465.195	803.56
465.414	788.56
465.634	744.56
465.854	719.56
466.073	686.56
466.293	665.56
466.512	629.56
466.732	650.56
466.951	630.56
467.171	630.56
467.391	649.56
467.61	655.56
467.829	643.56
468.049	640.56
468.268	643.56
468.488	615.56
468.707	630.56
468.927	626.56
469.146	611.56
469.365	627.56
469.585	601.56
469.804	622.56
470.023	639.56
470.243	669.56
470.462	652.56
470.681	642.56
470.901	670.56
471.12	655.56
471.339	640.56
471.558	640.56
471.777	671.56
471.997	654.56
472.216	613.56
472.435	667.56
472.654	649.56
472.873	625.56
473.092	630.56
473.311	627.56
473.53	635.56
473.749	623.56
473.968	676.56
474.187	741.56
474.406	726.56
474.625	699.56
474.844	635.56
475.063	626.56
475.282	608.56
475.501	643.56
475.72	645.56
475.939	622.56
476.158	639.56
476.377	630.56
476.596	635.56
476.814	659.56
477.033	665.56
477.252	678.56
477.471	669.56
477.69	677.56
477.908	696.56
478.127	695.56
478.346	716.56
478.564	701.56
478.783	732.56
479.002	759.56
479.22	713.56
479.439	755.56
479.658	755.56
479.876	775.56
480.095	785.56
480.313	805.56
480.532	801.56
480.751	819.56
480.969	795.56
481.188	818.56
481.406	846.56
481.624	821.56
481.843	766.56
482.061	767.56
482.28	759.56
482.498	720.56
482.717	725.56
482.935	757.56
483.153	730.56
483.372	728.56
483.59	711.56
483.808	738.56
484.027	755.56
484.245	737.56
484.463	756.56
484.681	772.56
484.9	726.56
485.118	742.56
485.336	753.56
485.554	742.56
485.772	762.56
485.99	744.56
486.209	762.56
486.427	760.56
486.645	760.56
486.863	801.56
487.081	778.56
487.299	765.56
487.517	790.56
487.735	759.56
487.953	780.56
488.171	776.56
488.389	757.56
488.607	768.56
488.825	778.56
489.043	795.56
489.261	815.56
489.479	793.56
489.696	798.56
489.914	799.56
490.132	816.56
490.35	806.56
490.568	812.56
490.786	814.56
491.003	799.56
491.221	816.56
491.439	849.56
491.657	840.56
491.874	876.56
492.092	870.56
492.31	865.56
492.527	867.56
492.745	861.56
492.963	888.56
493.18	885.56
493.398	890.56
493.615	922.56
493.833	886.56
494.05	887.56
494.268	913.56
494.485	881.56
494.703	917.56
494.92	913.56
495.138	917.56
495.355	901.56
495.573	913.56
495.79	912.56
496.008	919.56
496.225	898.56
496.442	927.56
496.66	928.56
496.877	919.56
497.094	941.56
497.312	969.56
497.529	976.56
497.746	1005.56
497.963	990.56
498.181	1036.56
498.398	1075.56
498.615	1108.56
498.832	1152.56
499.049	1196.56
499.267	1263.56
499.484	1352.56
499.701	1463.56
499.918	1489.56
500.135	1659.56
500.352	1806.56
500.569	1878.56
500.786	1881.56
501.003	1755.56
501.22	1662.56
501.437	1550.56
501.654	1454.56
