Data from 1963.PennyLincolnUp.Lamp.En5.5.200Scan.071719.P1._HRD10591_13-58-05-062.txt Node
Date: Thu Jul 18 13:58:05 EDT 2019
User: cochatt
Spectrometer: HR+D1059
Trigger mode: 1
Integration Time (sec): 1.000000E-1
Scans to average: 1
Electric dark correction enabled: true
Nonlinearity correction enabled: false
Boxcar width: 0
XAxis mode: Wavelengths
Number of Pixels in Spectrum: 2048
>>>>>Begin Spectral Data<<<<<
223.165	-14.69
223.4	-14.69
223.635	-14.69
223.869	-16.69
224.104	-21.69
224.338	4.31
224.573	-20.69
224.808	-22.69
225.042	-5.69
225.277	-14.69
225.511	-1.69
225.746	-5.69
225.98	8.31
226.215	9.31
226.449	12.31
226.683	21.31
226.918	29.31
227.152	39.31
227.387	36.31
227.621	29.31
227.856	41.31
228.09	44.31
228.324	43.31
228.559	53.31
228.793	62.31
229.027	87.31
229.262	87.31
229.496	106.31
229.73	109.31
229.964	148.31
230.199	119.31
230.433	105.31
230.667	109.31
230.901	117.31
231.136	119.31
231.37	122.31
231.604	111.31
231.838	102.31
232.072	129.31
232.306	120.31
232.541	116.31
232.775	113.31
233.009	129.31
233.243	122.31
233.477	120.31
233.711	133.31
233.945	124.31
234.179	121.31
234.413	110.31
234.647	123.31
234.881	133.31
235.115	138.31
235.349	125.31
235.583	126.31
235.817	133.31
236.051	113.31
236.285	104.31
236.519	135.31
236.753	134.31
236.987	136.31
237.221	166.31
237.455	200.31
237.689	164.31
237.922	138.31
238.156	149.31
238.39	123.31
238.624	133.31
238.858	141.31
239.091	130.31
239.325	145.31
239.559	155.31
239.793	131.31
240.027	141.31
240.26	131.31
240.494	155.31
240.728	153.31
240.961	135.31
241.195	162.31
241.429	141.31
241.662	138.31
241.896	146.31
242.13	154.31
242.363	131.31
242.597	145.31
242.83	150.31
243.064	157.31
243.298	140.31
243.531	151.31
243.765	151.31
243.998	140.31
244.232	148.31
244.465	160.31
244.699	156.31
244.932	162.31
245.166	169.31
245.399	144.31
245.633	150.31
245.866	152.31
246.099	153.31
246.333	179.31
246.566	177.31
246.8	156.31
247.033	182.31
247.266	167.31
247.5	174.31
247.733	181.31
247.966	189.31
248.2	178.31
248.433	190.31
248.666	166.31
248.899	178.31
249.133	183.31
249.366	191.31
249.599	201.31
249.832	190.31
250.066	187.31
250.299	182.31
250.532	200.31
250.765	223.31
250.998	224.31
251.231	221.31
251.465	214.31
251.698	218.31
251.931	198.31
252.164	213.31
252.397	210.31
252.63	210.31
252.863	202.31
253.096	211.31
253.329	218.31
253.562	210.31
253.795	203.31
254.028	219.31
254.261	230.31
254.494	235.31
254.727	226.31
254.96	248.31
255.193	250.31
255.426	246.31
255.659	224.31
255.892	230.31
256.124	217.31
256.357	230.31
256.59	220.31
256.823	245.31
257.056	221.31
257.289	222.31
257.521	216.31
257.754	226.31
257.987	230.31
258.22	201.31
258.452	224.31
258.685	222.31
258.918	216.31
259.151	224.31
259.383	236.31
259.616	238.31
259.849	235.31
260.081	238.31
260.314	233.31
260.547	262.31
260.779	240.31
261.012	228.31
261.244	242.31
261.477	234.31
261.71	224.31
261.942	222.31
262.175	235.31
262.407	238.31
262.64	231.31
262.872	232.31
263.105	227.31
263.337	228.31
263.57	237.31
263.802	242.31
264.035	221.31
264.267	232.31
264.499	244.31
264.732	229.31
264.964	241.31
265.197	233.31
265.429	255.31
265.661	228.31
265.894	229.31
266.126	254.31
266.358	241.31
266.591	248.31
266.823	261.31
267.055	242.31
267.287	246.31
267.52	242.31
267.752	244.31
267.984	244.31
268.216	269.31
268.448	269.31
268.681	258.31
268.913	258.31
269.145	272.31
269.377	298.31
269.609	290.31
269.841	295.31
270.073	285.31
270.306	279.31
270.538	301.31
270.77	319.31
271.002	311.31
271.234	285.31
271.466	316.31
271.698	307.31
271.93	330.31
272.162	326.31
272.394	319.31
272.626	299.31
272.858	303.31
273.09	305.31
273.322	285.31
273.553	281.31
273.785	284.31
274.017	280.31
274.249	288.31
274.481	275.31
274.713	298.31
274.945	286.31
275.176	298.31
275.408	285.31
275.64	295.31
275.872	295.31
276.104	292.31
276.335	295.31
276.567	306.31
276.799	301.31
277.031	309.31
277.262	325.31
277.494	316.31
277.726	305.31
277.957	314.31
278.189	317.31
278.421	301.31
278.652	286.31
278.884	296.31
279.115	320.31
279.347	318.31
279.579	290.31
279.81	290.31
280.042	303.31
280.273	313.31
280.505	311.31
280.736	313.31
280.968	299.31
281.199	318.31
281.431	334.31
281.662	302.31
281.894	298.31
282.125	311.31
282.356	317.31
282.588	306.31
282.819	330.31
283.051	312.31
283.282	333.31
283.513	317.31
283.745	319.31
283.976	328.31
284.207	328.31
284.439	333.31
284.67	333.31
284.901	321.31
285.132	326.31
285.364	321.31
285.595	339.31
285.826	319.31
286.057	314.31
286.288	354.31
286.52	329.31
286.751	333.31
286.982	338.31
287.213	318.31
287.444	335.31
287.675	330.31
287.906	355.31
288.138	365.31
288.369	352.31
288.6	350.31
288.831	340.31
289.062	332.31
289.293	342.31
289.524	337.31
289.755	339.31
289.986	354.31
290.217	339.31
290.448	354.31
290.679	349.31
290.91	343.31
291.141	345.31
291.371	349.31
291.602	362.31
291.833	349.31
292.064	354.31
292.295	333.31
292.526	340.31
292.757	344.31
292.987	363.31
293.218	350.31
293.449	358.31
293.68	359.31
293.91	342.31
294.141	350.31
294.372	338.31
294.603	354.31
294.833	358.31
295.064	361.31
295.295	348.31
295.525	351.31
295.756	351.31
295.987	359.31
296.217	352.31
296.448	382.31
296.679	354.31
296.909	371.31
297.14	369.31
297.37	350.31
297.601	365.31
297.831	374.31
298.062	373.31
298.292	341.31
298.523	343.31
298.753	357.31
298.984	380.31
299.214	383.31
299.445	383.31
299.675	374.31
299.905	390.31
300.136	384.31
300.366	394.31
300.597	383.31
300.827	390.31
301.057	398.31
301.288	385.31
301.518	419.31
301.748	389.31
301.979	406.31
302.209	411.31
302.439	410.31
302.669	398.31
302.9	411.31
303.13	388.31
303.36	391.31
303.59	413.31
303.82	388.31
304.051	412.31
304.281	405.31
304.511	384.31
304.741	405.31
304.971	379.31
305.201	385.31
305.431	385.31
305.661	382.31
305.891	398.31
306.121	399.31
306.352	405.31
306.582	409.31
306.812	397.31
307.042	390.31
307.272	390.31
307.502	421.31
307.731	399.31
307.961	401.31
308.191	392.31
308.421	418.31
308.651	411.31
308.881	399.31
309.111	404.31
309.341	410.31
309.571	410.31
309.8	389.31
310.03	410.31
310.26	419.31
310.49	429.31
310.72	402.31
310.949	437.31
311.179	427.31
311.409	429.31
311.639	437.31
311.868	428.31
312.098	417.31
312.328	446.31
312.557	427.31
312.787	441.31
313.017	461.31
313.246	442.31
313.476	428.31
313.706	444.31
313.935	458.31
314.165	438.31
314.394	435.31
314.624	449.31
314.853	453.31
315.083	447.31
315.312	443.31
315.542	440.31
315.771	441.31
316.001	443.31
316.23	421.31
316.46	401.31
316.689	446.31
316.919	429.31
317.148	462.31
317.377	454.31
317.607	439.31
317.836	443.31
318.065	450.31
318.295	458.31
318.524	466.31
318.753	457.31
318.983	451.31
319.212	438.31
319.441	456.31
319.67	455.31
319.9	453.31
320.129	445.31
320.358	454.31
320.587	475.31
320.816	435.31
321.046	461.31
321.275	456.31
321.504	436.31
321.733	443.31
321.962	469.31
322.191	462.31
322.42	472.31
322.649	466.31
322.878	478.31
323.108	467.31
323.337	494.31
323.566	482.31
323.795	523.31
324.024	516.31
324.253	593.31
324.482	739.31
324.71	1022.31
324.939	1438.31
325.168	1268.31
325.397	740.31
325.626	590.31
325.855	535.31
326.084	503.31
326.313	512.31
326.542	504.31
326.77	513.31
326.999	548.31
327.228	717.31
327.457	977.31
327.686	1173.31
327.914	829.31
328.143	625.31
328.372	586.31
328.6	574.31
328.829	547.31
329.058	547.31
329.287	547.31
329.515	543.31
329.744	557.31
329.972	509.31
330.201	557.31
330.43	576.31
330.658	547.31
330.887	598.31
331.115	581.31
331.344	558.31
331.572	531.31
331.801	533.31
332.03	565.31
332.258	533.31
332.486	573.31
332.715	557.31
332.943	551.31
333.172	585.31
333.4	591.31
333.629	611.31
333.857	614.31
334.085	618.31
334.314	617.31
334.542	630.31
334.771	623.31
334.999	609.31
335.227	583.31
335.455	582.31
335.684	576.31
335.912	594.31
336.14	565.31
336.369	548.31
336.597	540.31
336.825	569.31
337.053	545.31
337.281	547.31
337.51	523.31
337.738	522.31
337.966	529.31
338.194	547.31
338.422	541.31
338.65	517.31
338.878	513.31
339.106	522.31
339.334	497.31
339.562	522.31
339.79	513.31
340.018	501.31
340.246	516.31
340.474	519.31
340.702	501.31
340.93	492.31
341.158	531.31
341.386	489.31
341.614	519.31
341.842	507.31
342.07	492.31
342.298	515.31
342.526	513.31
342.754	513.31
342.981	485.31
343.209	501.31
343.437	531.31
343.665	541.31
343.893	527.31
344.12	583.31
344.348	567.31
344.576	548.31
344.804	542.31
345.031	527.31
345.259	537.31
345.487	511.31
345.714	490.31
345.942	502.31
346.17	493.31
346.397	517.31
346.625	511.31
346.853	498.31
347.08	479.31
347.308	485.31
347.535	498.31
347.763	496.31
347.99	485.31
348.218	487.31
348.445	477.31
348.673	494.31
348.9	464.31
349.128	492.31
349.355	464.31
349.583	475.31
349.81	469.31
350.037	461.31
350.265	478.31
350.492	467.31
350.72	472.31
350.947	484.31
351.174	491.31
351.402	482.31
351.629	497.31
351.856	480.31
352.083	485.31
352.311	490.31
352.538	490.31
352.765	477.31
352.992	497.31
353.22	500.31
353.447	497.31
353.674	465.31
353.901	470.31
354.128	470.31
354.355	465.31
354.583	472.31
354.81	462.31
355.037	475.31
355.264	473.31
355.491	466.31
355.718	469.31
355.945	486.31
356.172	480.31
356.399	461.31
356.626	473.31
356.853	458.31
357.08	465.31
357.307	467.31
357.534	474.31
357.761	448.31
357.988	486.31
358.215	494.31
358.441	462.31
358.668	445.31
358.895	455.31
359.122	488.31
359.349	490.31
359.576	468.31
359.802	484.31
360.029	500.31
360.256	495.31
360.483	502.31
360.709	502.31
360.936	473.31
361.163	475.31
361.39	474.31
361.616	479.31
361.843	484.31
362.07	493.31
362.296	493.31
362.523	493.31
362.749	495.31
362.976	469.31
363.203	484.31
363.429	484.31
363.656	465.31
363.882	485.31
364.109	488.31
364.335	475.31
364.562	487.31
364.788	473.31
365.015	477.31
365.241	484.31
365.468	478.31
365.694	467.31
365.92	458.31
366.147	479.31
366.373	474.31
366.599	481.31
366.826	454.31
367.052	467.31
367.278	497.31
367.505	481.31
367.731	484.31
367.957	479.31
368.184	460.31
368.41	477.31
368.636	481.31
368.862	505.31
369.089	475.31
369.315	495.31
369.541	483.31
369.767	488.31
369.993	498.31
370.219	482.31
370.445	489.31
370.672	482.31
370.898	469.31
371.124	478.31
371.35	497.31
371.576	501.31
371.802	485.31
372.028	492.31
372.254	482.31
372.48	518.31
372.706	498.31
372.932	534.31
373.158	499.31
373.384	490.31
373.61	498.31
373.835	509.31
374.061	508.31
374.287	519.31
374.513	500.31
374.739	523.31
374.965	551.31
375.191	535.31
375.416	542.31
375.642	511.31
375.868	518.31
376.094	534.31
376.319	539.31
376.545	493.31
376.771	515.31
376.997	495.31
377.222	505.31
377.448	477.31
377.674	493.31
377.899	508.31
378.125	490.31
378.35	502.31
378.576	505.31
378.802	488.31
379.027	517.31
379.253	503.31
379.478	491.31
379.704	478.31
379.929	508.31
380.155	503.31
380.38	488.31
380.606	485.31
380.831	511.31
381.057	521.31
381.282	514.31
381.507	499.31
381.733	513.31
381.958	517.31
382.184	513.31
382.409	522.31
382.634	505.31
382.86	519.31
383.085	548.31
383.31	539.31
383.535	541.31
383.761	544.31
383.986	529.31
384.211	569.31
384.436	556.31
384.662	556.31
384.887	563.31
385.112	581.31
385.337	582.31
385.562	565.31
385.787	597.31
386.013	590.31
386.238	570.31
386.463	603.31
386.688	597.31
386.913	572.31
387.138	579.31
387.363	570.31
387.588	570.31
387.813	564.31
388.038	582.31
388.263	580.31
388.488	577.31
388.713	584.31
388.938	581.31
389.163	566.31
389.387	561.31
389.612	555.31
389.837	587.31
390.062	565.31
390.287	563.31
390.512	573.31
390.736	557.31
390.961	565.31
391.186	561.31
391.411	565.31
391.636	629.31
391.86	607.31
392.085	619.31
392.31	649.31
392.534	626.31
392.759	590.31
392.984	610.31
393.208	599.31
393.433	608.31
393.658	608.31
393.882	585.31
394.107	619.31
394.331	594.31
394.556	589.31
394.78	607.31
395.005	615.31
395.229	591.31
395.454	626.31
395.678	612.31
395.903	639.31
396.127	627.31
396.352	628.31
396.576	611.31
396.801	603.31
397.025	607.31
397.249	620.31
397.474	621.31
397.698	629.31
397.922	652.31
398.147	646.31
398.371	638.31
398.595	676.31
398.82	709.31
399.044	712.31
399.268	762.31
399.492	846.31
399.717	905.31
399.941	971.31
400.165	914.31
400.389	856.31
400.613	782.31
400.837	722.31
401.062	703.31
401.286	695.31
401.51	694.31
401.734	679.31
401.958	681.31
402.182	705.31
402.406	690.31
402.63	715.31
402.854	699.31
403.078	732.31
403.302	755.31
403.526	770.31
403.75	758.31
403.974	759.31
404.198	758.31
404.422	760.31
404.645	773.31
404.869	758.31
405.093	778.31
405.317	782.31
405.541	833.31
405.765	798.31
405.988	734.31
406.212	758.31
406.436	767.31
406.66	811.31
406.883	734.31
407.107	819.31
407.331	852.31
407.555	895.31
407.778	925.31
408.002	839.31
408.226	819.31
408.449	789.31
408.673	809.31
408.896	795.31
409.12	823.31
409.344	794.31
409.567	761.31
409.791	744.31
410.014	735.31
410.238	724.31
410.461	722.31
410.685	702.31
410.908	749.31
411.132	762.31
411.355	750.31
411.578	759.31
411.802	709.31
412.025	703.31
412.249	717.31
412.472	748.31
412.695	737.31
412.919	748.31
413.142	725.31
413.365	693.31
413.589	692.31
413.812	682.31
414.035	711.31
414.258	679.31
414.482	698.31
414.705	691.31
414.928	703.31
415.151	659.31
415.374	702.31
415.597	673.31
415.821	671.31
416.044	673.31
416.267	680.31
416.49	669.31
416.713	659.31
416.936	677.31
417.159	663.31
417.382	691.31
417.605	677.31
417.828	694.31
418.051	697.31
418.274	695.31
418.497	669.31
418.72	678.31
418.943	674.31
419.166	720.31
419.389	767.31
419.611	741.31
419.834	731.31
420.057	733.31
420.28	737.31
420.503	700.31
420.726	707.31
420.948	708.31
421.171	725.31
421.394	719.31
421.617	715.31
421.839	679.31
422.062	667.31
422.285	702.31
422.507	724.31
422.73	811.31
422.953	777.31
423.175	731.31
423.398	706.31
423.621	715.31
423.843	771.31
424.066	760.31
424.288	713.31
424.511	741.31
424.733	787.31
424.956	824.31
425.178	767.31
425.401	792.31
425.623	789.31
425.846	736.31
426.068	702.31
426.291	665.31
426.513	661.31
426.735	685.31
426.958	721.31
427.18	771.31
427.402	881.31
427.625	923.31
427.847	803.31
428.069	720.31
428.292	679.31
428.514	686.31
428.736	666.31
428.958	663.31
429.181	652.31
429.403	668.31
429.625	647.31
429.847	659.31
430.069	668.31
430.292	693.31
430.514	665.31
430.736	648.31
430.958	653.31
431.18	638.31
431.402	629.31
431.624	620.31
431.846	663.31
432.068	633.31
432.29	613.31
432.512	638.31
432.734	634.31
432.956	616.31
433.178	615.31
433.4	630.31
433.622	641.31
433.844	622.31
434.066	645.31
434.287	634.31
434.509	638.31
434.731	658.31
434.953	689.31
435.175	678.31
435.397	721.31
435.618	684.31
435.84	686.31
436.062	773.31
436.284	833.31
436.505	725.31
436.727	693.31
436.949	657.31
437.17	653.31
437.392	647.31
437.614	625.31
437.835	666.31
438.057	702.31
438.278	770.31
438.5	803.31
438.721	854.31
438.943	805.31
439.165	699.31
439.386	670.31
439.608	672.31
439.829	678.31
440.05	676.31
440.272	683.31
440.493	678.31
440.715	659.31
440.936	660.31
441.158	651.31
441.379	659.31
441.6	684.31
441.822	706.31
442.043	725.31
442.264	807.31
442.486	813.31
442.707	726.31
442.928	705.31
443.149	708.31
443.371	700.31
443.592	757.31
443.813	825.31
444.034	869.31
444.255	821.31
444.476	723.31
444.698	754.31
444.919	789.31
445.14	893.31
445.361	800.31
445.582	755.31
445.803	769.31
446.024	819.31
446.245	812.31
446.466	763.31
446.687	678.31
446.908	680.31
447.129	643.31
447.35	653.31
447.571	620.31
447.792	593.31
448.013	629.31
448.234	637.31
448.455	663.31
448.675	737.31
448.896	836.31
449.117	713.31
449.338	695.31
449.559	784.31
449.779	845.31
450	700.31
450.221	630.31
450.442	622.31
450.662	606.31
450.883	604.31
451.104	607.31
451.324	614.31
451.545	613.31
451.766	588.31
451.986	576.31
452.207	556.31
452.428	608.31
452.648	559.31
452.869	561.31
453.089	589.31
453.31	575.31
453.53	580.31
453.751	563.31
453.971	561.31
454.192	567.31
454.412	561.31
454.633	566.31
454.853	546.31
455.073	543.31
455.294	569.31
455.514	603.31
455.734	600.31
455.955	571.31
456.175	533.31
456.395	538.31
456.616	540.31
456.836	537.31
457.056	550.31
457.276	531.31
457.497	533.31
457.717	532.31
457.937	556.31
458.157	560.31
458.377	589.31
458.598	567.31
458.818	629.31
459.038	665.31
459.258	705.31
459.478	655.31
459.698	655.31
459.918	654.31
460.138	667.31
460.358	691.31
460.578	682.31
460.798	709.31
461.018	697.31
461.238	686.31
461.458	689.31
461.678	698.31
461.898	687.31
462.118	719.31
462.338	727.31
462.558	738.31
462.777	742.31
462.997	783.31
463.217	849.31
463.437	859.31
463.657	778.31
463.876	791.31
464.096	754.31
464.316	750.31
464.536	779.31
464.755	781.31
464.975	734.31
465.195	743.31
465.414	753.31
465.634	698.31
465.854	659.31
466.073	630.31
466.293	620.31
466.512	607.31
466.732	616.31
466.951	613.31
467.171	620.31
467.391	618.31
467.61	625.31
467.829	613.31
468.049	638.31
468.268	610.31
468.488	565.31
468.707	585.31
468.927	583.31
469.146	590.31
469.365	597.31
469.585	589.31
469.804	613.31
470.023	619.31
470.243	636.31
470.462	615.31
470.681	616.31
470.901	639.31
471.12	627.31
471.339	592.31
471.558	621.31
471.777	601.31
471.997	606.31
472.216	617.31
472.435	622.31
472.654	626.31
472.873	597.31
473.092	603.31
473.311	591.31
473.53	605.31
473.749	593.31
473.968	620.31
474.187	666.31
474.406	697.31
474.625	610.31
474.844	600.31
475.063	611.31
475.282	608.31
475.501	601.31
475.72	598.31
475.939	615.31
476.158	615.31
476.377	606.31
476.596	592.31
476.814	610.31
477.033	621.31
477.252	629.31
477.471	653.31
477.69	664.31
477.908	670.31
478.127	689.31
478.346	697.31
478.564	679.31
478.783	696.31
479.002	727.31
479.22	696.31
479.439	718.31
479.658	714.31
479.876	710.31
480.095	735.31
480.313	794.31
480.532	761.31
480.751	767.31
480.969	750.31
481.188	781.31
481.406	788.31
481.624	740.31
481.843	712.31
482.061	711.31
482.28	705.31
482.498	702.31
482.717	666.31
482.935	695.31
483.153	701.31
483.372	689.31
483.59	713.31
483.808	701.31
484.027	689.31
484.245	694.31
484.463	707.31
484.681	714.31
484.9	716.31
485.118	683.31
485.336	706.31
485.554	723.31
485.772	746.31
485.99	731.31
486.209	732.31
486.427	729.31
486.645	746.31
486.863	735.31
487.081	756.31
487.299	732.31
487.517	745.31
487.735	758.31
487.953	758.31
488.171	742.31
488.389	735.31
488.607	702.31
488.825	744.31
489.043	722.31
489.261	749.31
489.479	751.31
489.696	764.31
489.914	753.31
490.132	736.31
490.35	762.31
490.568	767.31
490.786	785.31
491.003	793.31
491.221	789.31
491.439	797.31
491.657	807.31
491.874	794.31
492.092	814.31
492.31	825.31
492.527	819.31
492.745	810.31
492.963	857.31
493.18	830.31
493.398	835.31
493.615	833.31
493.833	831.31
494.05	824.31
494.268	830.31
494.485	857.31
494.703	852.31
494.92	848.31
495.138	830.31
495.355	830.31
495.573	846.31
495.79	856.31
496.008	857.31
496.225	850.31
496.442	850.31
496.66	894.31
496.877	882.31
497.094	902.31
497.312	925.31
497.529	904.31
497.746	893.31
497.963	935.31
498.181	991.31
498.398	984.31
498.615	1031.31
498.832	1081.31
499.049	1140.31
499.267	1153.31
499.484	1269.31
499.701	1323.31
499.918	1454.31
500.135	1551.31
500.352	1691.31
500.569	1765.31
500.786	1726.31
501.003	1672.31
501.22	1561.31
501.437	1447.31
501.654	1349.31
