Data from 1963.PennyLincolnUp.Lamp.En5.5.200Scan.071719.P1._HRD10591_13-58-39-063.txt Node
Date: Thu Jul 18 13:58:39 EDT 2019
User: cochatt
Spectrometer: HR+D1059
Trigger mode: 1
Integration Time (sec): 1.000000E-1
Scans to average: 1
Electric dark correction enabled: true
Nonlinearity correction enabled: false
Boxcar width: 0
XAxis mode: Wavelengths
Number of Pixels in Spectrum: 2048
>>>>>Begin Spectral Data<<<<<
223.165	-22.81
223.4	-22.81
223.635	-22.81
223.869	-12.81
224.104	-11.81
224.338	-11.81
224.573	-14.81
224.808	-13.81
225.042	-8.81
225.277	-13.81
225.511	-5.81
225.746	2.19
225.98	4.19
226.215	4.19
226.449	11.19
226.683	27.19
226.918	30.19
227.152	37.19
227.387	38.19
227.621	47.19
227.856	27.19
228.09	42.19
228.324	58.19
228.559	58.19
228.793	63.19
229.027	90.19
229.262	109.19
229.496	134.19
229.73	126.19
229.964	130.19
230.199	118.19
230.433	122.19
230.667	116.19
230.901	110.19
231.136	116.19
231.37	106.19
231.604	132.19
231.838	119.19
232.072	112.19
232.306	116.19
232.541	120.19
232.775	127.19
233.009	112.19
233.243	118.19
233.477	111.19
233.711	118.19
233.945	120.19
234.179	137.19
234.413	124.19
234.647	127.19
234.881	127.19
235.115	125.19
235.349	127.19
235.583	131.19
235.817	126.19
236.051	137.19
236.285	132.19
236.519	128.19
236.753	126.19
236.987	135.19
237.221	162.19
237.455	202.19
237.689	185.19
237.922	135.19
238.156	134.19
238.39	139.19
238.624	119.19
238.858	121.19
239.091	128.19
239.325	128.19
239.559	134.19
239.793	144.19
240.027	141.19
240.26	154.19
240.494	145.19
240.728	151.19
240.961	151.19
241.195	159.19
241.429	155.19
241.662	154.19
241.896	167.19
242.13	140.19
242.363	153.19
242.597	142.19
242.83	150.19
243.064	140.19
243.298	140.19
243.531	155.19
243.765	156.19
243.998	148.19
244.232	157.19
244.465	139.19
244.699	155.19
244.932	171.19
245.166	144.19
245.399	158.19
245.633	181.19
245.866	152.19
246.099	167.19
246.333	190.19
246.566	160.19
246.8	161.19
247.033	164.19
247.266	171.19
247.5	165.19
247.733	184.19
247.966	174.19
248.2	182.19
248.433	178.19
248.666	201.19
248.899	213.19
249.133	208.19
249.366	221.19
249.599	204.19
249.832	201.19
250.066	176.19
250.299	187.19
250.532	205.19
250.765	227.19
250.998	231.19
251.231	215.19
251.465	231.19
251.698	208.19
251.931	208.19
252.164	203.19
252.397	229.19
252.63	217.19
252.863	209.19
253.096	214.19
253.329	243.19
253.562	233.19
253.795	234.19
254.028	245.19
254.261	231.19
254.494	233.19
254.727	220.19
254.96	273.19
255.193	271.19
255.426	247.19
255.659	237.19
255.892	258.19
256.124	255.19
256.357	237.19
256.59	235.19
256.823	229.19
257.056	239.19
257.289	243.19
257.521	225.19
257.754	217.19
257.987	215.19
258.22	220.19
258.452	217.19
258.685	227.19
258.918	219.19
259.151	225.19
259.383	234.19
259.616	249.19
259.849	244.19
260.081	242.19
260.314	262.19
260.547	272.19
260.779	260.19
261.012	251.19
261.244	244.19
261.477	238.19
261.71	239.19
261.942	242.19
262.175	232.19
262.407	246.19
262.64	242.19
262.872	238.19
263.105	228.19
263.337	234.19
263.57	247.19
263.802	244.19
264.035	235.19
264.267	224.19
264.499	237.19
264.732	248.19
264.964	250.19
265.197	255.19
265.429	250.19
265.661	244.19
265.894	242.19
266.126	240.19
266.358	244.19
266.591	248.19
266.823	261.19
267.055	264.19
267.287	250.19
267.52	238.19
267.752	266.19
267.984	252.19
268.216	258.19
268.448	258.19
268.681	257.19
268.913	285.19
269.145	271.19
269.377	302.19
269.609	312.19
269.841	288.19
270.073	300.19
270.306	311.19
270.538	317.19
270.77	319.19
271.002	324.19
271.234	303.19
271.466	319.19
271.698	317.19
271.93	345.19
272.162	307.19
272.394	333.19
272.626	341.19
272.858	308.19
273.09	308.19
273.322	299.19
273.553	294.19
273.785	302.19
274.017	298.19
274.249	296.19
274.481	293.19
274.713	308.19
274.945	308.19
275.176	289.19
275.408	293.19
275.64	298.19
275.872	290.19
276.104	312.19
276.335	287.19
276.567	297.19
276.799	296.19
277.031	335.19
277.262	349.19
277.494	328.19
277.726	312.19
277.957	304.19
278.189	310.19
278.421	300.19
278.652	312.19
278.884	328.19
279.115	324.19
279.347	320.19
279.579	312.19
279.81	312.19
280.042	290.19
280.273	318.19
280.505	314.19
280.736	331.19
280.968	316.19
281.199	319.19
281.431	322.19
281.662	318.19
281.894	311.19
282.125	331.19
282.356	344.19
282.588	349.19
282.819	351.19
283.051	327.19
283.282	314.19
283.513	327.19
283.745	335.19
283.976	333.19
284.207	338.19
284.439	326.19
284.67	354.19
284.901	331.19
285.132	320.19
285.364	326.19
285.595	350.19
285.826	351.19
286.057	333.19
286.288	340.19
286.52	346.19
286.751	343.19
286.982	341.19
287.213	355.19
287.444	344.19
287.675	337.19
287.906	354.19
288.138	349.19
288.369	364.19
288.6	346.19
288.831	356.19
289.062	380.19
289.293	355.19
289.524	371.19
289.755	343.19
289.986	351.19
290.217	362.19
290.448	363.19
290.679	357.19
290.91	360.19
291.141	334.19
291.371	341.19
291.602	365.19
291.833	345.19
292.064	367.19
292.295	349.19
292.526	371.19
292.757	370.19
292.987	347.19
293.218	348.19
293.449	375.19
293.68	360.19
293.91	355.19
294.141	374.19
294.372	365.19
294.603	362.19
294.833	366.19
295.064	369.19
295.295	374.19
295.525	368.19
295.756	373.19
295.987	348.19
296.217	380.19
296.448	376.19
296.679	400.19
296.909	346.19
297.14	372.19
297.37	367.19
297.601	388.19
297.831	372.19
298.062	360.19
298.292	380.19
298.523	390.19
298.753	394.19
298.984	385.19
299.214	379.19
299.445	380.19
299.675	398.19
299.905	400.19
300.136	381.19
300.366	389.19
300.597	390.19
300.827	398.19
301.057	418.19
301.288	402.19
301.518	409.19
301.748	411.19
301.979	396.19
302.209	433.19
302.439	418.19
302.669	400.19
302.9	400.19
303.13	393.19
303.36	401.19
303.59	406.19
303.82	418.19
304.051	417.19
304.281	398.19
304.511	404.19
304.741	413.19
304.971	416.19
305.201	398.19
305.431	405.19
305.661	418.19
305.891	403.19
306.121	418.19
306.352	428.19
306.582	401.19
306.812	408.19
307.042	407.19
307.272	405.19
307.502	402.19
307.731	417.19
307.961	438.19
308.191	412.19
308.421	399.19
308.651	404.19
308.881	408.19
309.111	437.19
309.341	445.19
309.571	437.19
309.8	420.19
310.03	418.19
310.26	449.19
310.49	440.19
310.72	440.19
310.949	432.19
311.179	444.19
311.409	447.19
311.639	455.19
311.868	438.19
312.098	445.19
312.328	434.19
312.557	465.19
312.787	462.19
313.017	464.19
313.246	451.19
313.476	435.19
313.706	448.19
313.935	451.19
314.165	456.19
314.394	464.19
314.624	456.19
314.853	435.19
315.083	444.19
315.312	462.19
315.542	454.19
315.771	423.19
316.001	444.19
316.23	447.19
316.46	441.19
316.689	440.19
316.919	442.19
317.148	473.19
317.377	448.19
317.607	473.19
317.836	460.19
318.065	466.19
318.295	467.19
318.524	452.19
318.753	438.19
318.983	442.19
319.212	435.19
319.441	447.19
319.67	456.19
319.9	437.19
320.129	459.19
320.358	451.19
320.587	464.19
320.816	464.19
321.046	456.19
321.275	463.19
321.504	451.19
321.733	458.19
321.962	481.19
322.191	483.19
322.42	496.19
322.649	499.19
322.878	498.19
323.108	503.19
323.337	490.19
323.566	511.19
323.795	502.19
324.024	532.19
324.253	610.19
324.482	771.19
324.71	1126.19
324.939	1537.19
325.168	1334.19
325.397	802.19
325.626	623.19
325.855	570.19
326.084	544.19
326.313	518.19
326.542	529.19
326.77	570.19
326.999	602.19
327.228	745.19
327.457	1027.19
327.686	1276.19
327.914	884.19
328.143	664.19
328.372	610.19
328.6	572.19
328.829	545.19
329.058	558.19
329.287	574.19
329.515	588.19
329.744	542.19
329.972	530.19
330.201	554.19
330.43	604.19
330.658	600.19
330.887	611.19
331.115	576.19
331.344	567.19
331.572	544.19
331.801	548.19
332.03	546.19
332.258	559.19
332.486	582.19
332.715	553.19
332.943	562.19
333.172	596.19
333.4	607.19
333.629	617.19
333.857	630.19
334.085	640.19
334.314	634.19
334.542	642.19
334.771	680.19
334.999	627.19
335.227	592.19
335.455	598.19
335.684	584.19
335.912	568.19
336.14	551.19
336.369	567.19
336.597	560.19
336.825	548.19
337.053	547.19
337.281	575.19
337.51	558.19
337.738	546.19
337.966	546.19
338.194	549.19
338.422	532.19
338.65	538.19
338.878	533.19
339.106	521.19
339.334	528.19
339.562	535.19
339.79	550.19
340.018	514.19
340.246	524.19
340.474	496.19
340.702	516.19
340.93	546.19
341.158	507.19
341.386	527.19
341.614	507.19
341.842	530.19
342.07	542.19
342.298	524.19
342.526	516.19
342.754	523.19
342.981	510.19
343.209	508.19
343.437	534.19
343.665	571.19
343.893	564.19
344.12	614.19
344.348	577.19
344.576	550.19
344.804	558.19
345.031	529.19
345.259	527.19
345.487	533.19
345.714	521.19
345.942	484.19
346.17	509.19
346.397	511.19
346.625	508.19
346.853	505.19
347.08	515.19
347.308	498.19
347.535	501.19
347.763	510.19
347.99	484.19
348.218	517.19
348.445	471.19
348.673	501.19
348.9	503.19
349.128	515.19
349.355	495.19
349.583	505.19
349.81	479.19
350.037	491.19
350.265	487.19
350.492	479.19
350.72	491.19
350.947	478.19
351.174	496.19
351.402	502.19
351.629	508.19
351.856	508.19
352.083	488.19
352.311	506.19
352.538	500.19
352.765	507.19
352.992	505.19
353.22	487.19
353.447	500.19
353.674	463.19
353.901	474.19
354.128	476.19
354.355	464.19
354.583	480.19
354.81	467.19
355.037	478.19
355.264	493.19
355.491	493.19
355.718	453.19
355.945	482.19
356.172	486.19
356.399	482.19
356.626	503.19
356.853	507.19
357.08	457.19
357.307	477.19
357.534	469.19
357.761	484.19
357.988	480.19
358.215	479.19
358.441	477.19
358.668	499.19
358.895	493.19
359.122	484.19
359.349	479.19
359.576	492.19
359.802	516.19
360.029	500.19
360.256	509.19
360.483	528.19
360.709	503.19
360.936	500.19
361.163	509.19
361.39	488.19
361.616	488.19
361.843	514.19
362.07	486.19
362.296	488.19
362.523	486.19
362.749	511.19
362.976	486.19
363.203	498.19
363.429	506.19
363.656	470.19
363.882	470.19
364.109	474.19
364.335	477.19
364.562	492.19
364.788	475.19
365.015	465.19
365.241	487.19
365.468	500.19
365.694	473.19
365.92	476.19
366.147	489.19
366.373	473.19
366.599	480.19
366.826	466.19
367.052	479.19
367.278	473.19
367.505	492.19
367.731	504.19
367.957	489.19
368.184	506.19
368.41	499.19
368.636	498.19
368.862	523.19
369.089	500.19
369.315	477.19
369.541	492.19
369.767	506.19
369.993	492.19
370.219	480.19
370.445	523.19
370.672	542.19
370.898	488.19
371.124	493.19
371.35	490.19
371.576	491.19
371.802	518.19
372.028	508.19
372.254	521.19
372.48	539.19
372.706	526.19
372.932	546.19
373.158	517.19
373.384	522.19
373.61	534.19
373.835	500.19
374.061	519.19
374.287	540.19
374.513	510.19
374.739	540.19
374.965	531.19
375.191	548.19
375.416	555.19
375.642	527.19
375.868	524.19
376.094	521.19
376.319	519.19
376.545	504.19
376.771	510.19
376.997	504.19
377.222	514.19
377.448	498.19
377.674	515.19
377.899	510.19
378.125	496.19
378.35	482.19
378.576	510.19
378.802	515.19
379.027	511.19
379.253	517.19
379.478	505.19
379.704	526.19
379.929	516.19
380.155	511.19
380.38	516.19
380.606	516.19
380.831	526.19
381.057	495.19
381.282	491.19
381.507	512.19
381.733	516.19
381.958	526.19
382.184	526.19
382.409	537.19
382.634	556.19
382.86	552.19
383.085	548.19
383.31	531.19
383.535	554.19
383.761	560.19
383.986	556.19
384.211	571.19
384.436	576.19
384.662	587.19
384.887	565.19
385.112	571.19
385.337	584.19
385.562	597.19
385.787	600.19
386.013	591.19
386.238	592.19
386.463	597.19
386.688	591.19
386.913	574.19
387.138	590.19
387.363	604.19
387.588	578.19
387.813	601.19
388.038	582.19
388.263	604.19
388.488	584.19
388.713	594.19
388.938	588.19
389.163	621.19
389.387	579.19
389.612	598.19
389.837	589.19
390.062	558.19
390.287	559.19
390.512	573.19
390.736	600.19
390.961	602.19
391.186	598.19
391.411	596.19
391.636	625.19
391.86	638.19
392.085	638.19
392.31	670.19
392.534	623.19
392.759	603.19
392.984	601.19
393.208	617.19
393.433	627.19
393.658	615.19
393.882	610.19
394.107	617.19
394.331	630.19
394.556	600.19
394.78	623.19
395.005	612.19
395.229	620.19
395.454	617.19
395.678	630.19
395.903	660.19
396.127	635.19
396.352	643.19
396.576	633.19
396.801	628.19
397.025	621.19
397.249	638.19
397.474	669.19
397.698	659.19
397.922	684.19
398.147	656.19
398.371	678.19
398.595	682.19
398.82	694.19
399.044	716.19
399.268	792.19
399.492	891.19
399.717	954.19
399.941	961.19
400.165	909.19
400.389	867.19
400.613	790.19
400.837	754.19
401.062	719.19
401.286	715.19
401.51	720.19
401.734	704.19
401.958	728.19
402.182	711.19
402.406	724.19
402.63	719.19
402.854	730.19
403.078	742.19
403.302	748.19
403.526	774.19
403.75	795.19
403.974	794.19
404.198	761.19
404.422	783.19
404.645	790.19
404.869	784.19
405.093	808.19
405.317	804.19
405.541	822.19
405.765	811.19
405.988	774.19
406.212	790.19
406.436	772.19
406.66	811.19
406.883	807.19
407.107	833.19
407.331	843.19
407.555	925.19
407.778	910.19
408.002	885.19
408.226	833.19
408.449	798.19
408.673	811.19
408.896	828.19
409.12	837.19
409.344	827.19
409.567	742.19
409.791	777.19
410.014	760.19
410.238	751.19
410.461	770.19
410.685	739.19
410.908	774.19
411.132	785.19
411.355	774.19
411.578	763.19
411.802	729.19
412.025	724.19
412.249	744.19
412.472	763.19
412.695	773.19
412.919	742.19
413.142	749.19
413.365	720.19
413.589	738.19
413.812	711.19
414.035	694.19
414.258	707.19
414.482	703.19
414.705	691.19
414.928	699.19
415.151	703.19
415.374	717.19
415.597	709.19
415.821	686.19
416.044	685.19
416.267	670.19
416.49	676.19
416.713	663.19
416.936	685.19
417.159	678.19
417.382	695.19
417.605	708.19
417.828	707.19
418.051	719.19
418.274	692.19
418.497	683.19
418.72	686.19
418.943	685.19
419.166	738.19
419.389	770.19
419.611	743.19
419.834	718.19
420.057	724.19
420.28	730.19
420.503	718.19
420.726	731.19
420.948	737.19
421.171	734.19
421.394	792.19
421.617	708.19
421.839	725.19
422.062	726.19
422.285	710.19
422.507	756.19
422.73	826.19
422.953	784.19
423.175	740.19
423.398	741.19
423.621	738.19
423.843	772.19
424.066	763.19
424.288	724.19
424.511	774.19
424.733	785.19
424.956	827.19
425.178	810.19
425.401	837.19
425.623	825.19
425.846	757.19
426.068	730.19
426.291	726.19
426.513	715.19
426.735	699.19
426.958	750.19
427.18	786.19
427.402	888.19
427.625	932.19
427.847	864.19
428.069	778.19
428.292	700.19
428.514	674.19
428.736	672.19
428.958	657.19
429.181	651.19
429.403	639.19
429.625	655.19
429.847	690.19
430.069	723.19
430.292	724.19
430.514	646.19
430.736	648.19
430.958	647.19
431.18	650.19
431.402	640.19
431.624	644.19
431.846	646.19
432.068	651.19
432.29	677.19
432.512	641.19
432.734	663.19
432.956	649.19
433.178	649.19
433.4	631.19
433.622	634.19
433.844	649.19
434.066	634.19
434.287	657.19
434.509	652.19
434.731	684.19
434.953	723.19
435.175	731.19
435.397	699.19
435.618	716.19
435.84	694.19
436.062	787.19
436.284	813.19
436.505	733.19
436.727	702.19
436.949	662.19
437.17	640.19
437.392	662.19
437.614	639.19
437.835	657.19
438.057	730.19
438.278	815.19
438.5	805.19
438.721	880.19
438.943	855.19
439.165	710.19
439.386	674.19
439.608	688.19
439.829	683.19
440.05	698.19
440.272	738.19
440.493	718.19
440.715	696.19
440.936	694.19
441.158	650.19
441.379	690.19
441.6	692.19
441.822	727.19
442.043	734.19
442.264	806.19
442.486	834.19
442.707	750.19
442.928	750.19
443.149	693.19
443.371	748.19
443.592	770.19
443.813	852.19
444.034	898.19
444.255	841.19
444.476	782.19
444.698	788.19
444.919	789.19
445.14	896.19
445.361	822.19
445.582	784.19
445.803	799.19
446.024	843.19
446.245	878.19
446.466	774.19
446.687	721.19
446.908	674.19
447.129	670.19
447.35	629.19
447.571	634.19
447.792	621.19
448.013	652.19
448.234	661.19
448.455	652.19
448.675	764.19
448.896	845.19
449.117	750.19
449.338	719.19
449.559	809.19
449.779	877.19
450	738.19
450.221	647.19
450.442	638.19
450.662	602.19
450.883	631.19
451.104	630.19
451.324	638.19
451.545	595.19
451.766	602.19
451.986	605.19
452.207	604.19
452.428	598.19
452.648	575.19
452.869	584.19
453.089	588.19
453.31	592.19
453.53	566.19
453.751	580.19
453.971	575.19
454.192	593.19
454.412	548.19
454.633	566.19
454.853	566.19
455.073	550.19
455.294	587.19
455.514	632.19
455.734	630.19
455.955	562.19
456.175	557.19
456.395	552.19
456.616	547.19
456.836	551.19
457.056	564.19
457.276	546.19
457.497	562.19
457.717	571.19
457.937	577.19
458.157	569.19
458.377	580.19
458.598	592.19
458.818	632.19
459.038	679.19
459.258	723.19
459.478	688.19
459.698	650.19
459.918	649.19
460.138	650.19
460.358	686.19
460.578	709.19
460.798	715.19
461.018	690.19
461.238	727.19
461.458	711.19
461.678	686.19
461.898	695.19
462.118	709.19
462.338	770.19
462.558	740.19
462.777	768.19
462.997	805.19
463.217	874.19
463.437	837.19
463.657	803.19
463.876	791.19
464.096	794.19
464.316	783.19
464.536	794.19
464.755	756.19
464.975	741.19
465.195	758.19
465.414	773.19
465.634	714.19
465.854	687.19
466.073	658.19
466.293	642.19
466.512	634.19
466.732	618.19
466.951	622.19
467.171	610.19
467.391	622.19
467.61	627.19
467.829	622.19
468.049	609.19
468.268	621.19
468.488	603.19
468.707	612.19
468.927	603.19
469.146	601.19
469.365	605.19
469.585	612.19
469.804	625.19
470.023	628.19
470.243	655.19
470.462	638.19
470.681	639.19
470.901	637.19
471.12	630.19
471.339	645.19
471.558	618.19
471.777	619.19
471.997	587.19
472.216	604.19
472.435	651.19
472.654	629.19
472.873	616.19
473.092	613.19
473.311	598.19
473.53	607.19
473.749	596.19
473.968	637.19
474.187	688.19
474.406	707.19
474.625	633.19
474.844	610.19
475.063	603.19
475.282	615.19
475.501	587.19
475.72	596.19
475.939	609.19
476.158	619.19
476.377	648.19
476.596	618.19
476.814	630.19
477.033	652.19
477.252	643.19
477.471	670.19
477.69	644.19
477.908	678.19
478.127	695.19
478.346	713.19
478.564	726.19
478.783	738.19
479.002	730.19
479.22	741.19
479.439	740.19
479.658	759.19
479.876	761.19
480.095	790.19
480.313	819.19
480.532	828.19
480.751	791.19
480.969	787.19
481.188	807.19
481.406	837.19
481.624	786.19
481.843	711.19
482.061	735.19
482.28	698.19
482.498	684.19
482.717	700.19
482.935	704.19
483.153	727.19
483.372	743.19
483.59	691.19
483.808	716.19
484.027	735.19
484.245	736.19
484.463	720.19
484.681	717.19
484.9	728.19
485.118	700.19
485.336	736.19
485.554	726.19
485.772	723.19
485.99	737.19
486.209	727.19
486.427	748.19
486.645	744.19
486.863	735.19
487.081	774.19
487.299	759.19
487.517	762.19
487.735	741.19
487.953	756.19
488.171	738.19
488.389	782.19
488.607	750.19
488.825	781.19
489.043	739.19
489.261	763.19
489.479	753.19
489.696	769.19
489.914	753.19
490.132	765.19
490.35	771.19
490.568	767.19
490.786	779.19
491.003	814.19
491.221	797.19
491.439	825.19
491.657	823.19
491.874	831.19
492.092	795.19
492.31	826.19
492.527	843.19
492.745	835.19
492.963	844.19
493.18	844.19
493.398	834.19
493.615	857.19
493.833	847.19
494.05	885.19
494.268	866.19
494.485	869.19
494.703	862.19
494.92	862.19
495.138	856.19
495.355	862.19
495.573	876.19
495.79	856.19
496.008	863.19
496.225	877.19
496.442	879.19
496.66	913.19
496.877	894.19
497.094	923.19
497.312	919.19
497.529	919.19
497.746	948.19
497.963	950.19
498.181	966.19
498.398	1024.19
498.615	1072.19
498.832	1127.19
499.049	1158.19
499.267	1253.19
499.484	1309.19
499.701	1368.19
499.918	1441.19
500.135	1594.19
500.352	1766.19
500.569	1775.19
500.786	1806.19
501.003	1705.19
501.22	1562.19
501.437	1485.19
501.654	1370.19
