Data from 1963.PennyLincolnUp.Lamp.En5.5.200Scan.071719.P1._HRD10591_13-58-15-063.txt Node
Date: Thu Jul 18 13:58:15 EDT 2019
User: cochatt
Spectrometer: HR+D1059
Trigger mode: 1
Integration Time (sec): 1.000000E-1
Scans to average: 1
Electric dark correction enabled: true
Nonlinearity correction enabled: false
Boxcar width: 0
XAxis mode: Wavelengths
Number of Pixels in Spectrum: 2048
>>>>>Begin Spectral Data<<<<<
223.165	-13.75
223.4	-13.75
223.635	-13.75
223.869	-19.75
224.104	-11.75
224.338	-24.75
224.573	-12.75
224.808	-27.75
225.042	-2.75
225.277	5.25
225.511	3.25
225.746	2.25
225.98	23.25
226.215	6.25
226.449	-1.75
226.683	21.25
226.918	20.25
227.152	33.25
227.387	23.25
227.621	31.25
227.856	39.25
228.09	44.25
228.324	36.25
228.559	63.25
228.793	58.25
229.027	95.25
229.262	106.25
229.496	122.25
229.73	119.25
229.964	143.25
230.199	121.25
230.433	107.25
230.667	111.25
230.901	116.25
231.136	106.25
231.37	113.25
231.604	97.25
231.838	125.25
232.072	123.25
232.306	120.25
232.541	118.25
232.775	119.25
233.009	125.25
233.243	120.25
233.477	124.25
233.711	122.25
233.945	125.25
234.179	121.25
234.413	145.25
234.647	132.25
234.881	119.25
235.115	120.25
235.349	114.25
235.583	118.25
235.817	121.25
236.051	119.25
236.285	131.25
236.519	124.25
236.753	139.25
236.987	146.25
237.221	162.25
237.455	200.25
237.689	157.25
237.922	127.25
238.156	127.25
238.39	125.25
238.624	131.25
238.858	138.25
239.091	123.25
239.325	131.25
239.559	127.25
239.793	127.25
240.027	147.25
240.26	151.25
240.494	157.25
240.728	143.25
240.961	153.25
241.195	162.25
241.429	145.25
241.662	143.25
241.896	144.25
242.13	139.25
242.363	133.25
242.597	149.25
242.83	148.25
243.064	146.25
243.298	139.25
243.531	139.25
243.765	142.25
243.998	159.25
244.232	149.25
244.465	143.25
244.699	178.25
244.932	172.25
245.166	141.25
245.399	156.25
245.633	173.25
245.866	152.25
246.099	162.25
246.333	156.25
246.566	150.25
246.8	161.25
247.033	161.25
247.266	179.25
247.5	176.25
247.733	159.25
247.966	175.25
248.2	179.25
248.433	186.25
248.666	171.25
248.899	185.25
249.133	192.25
249.366	200.25
249.599	196.25
249.832	192.25
250.066	186.25
250.299	208.25
250.532	202.25
250.765	211.25
250.998	224.25
251.231	228.25
251.465	228.25
251.698	213.25
251.931	210.25
252.164	202.25
252.397	214.25
252.63	197.25
252.863	206.25
253.096	222.25
253.329	234.25
253.562	226.25
253.795	210.25
254.028	231.25
254.261	210.25
254.494	236.25
254.727	246.25
254.96	257.25
255.193	257.25
255.426	235.25
255.659	237.25
255.892	251.25
256.124	243.25
256.357	243.25
256.59	236.25
256.823	249.25
257.056	221.25
257.289	226.25
257.521	242.25
257.754	210.25
257.987	212.25
258.22	212.25
258.452	230.25
258.685	228.25
258.918	212.25
259.151	221.25
259.383	239.25
259.616	234.25
259.849	223.25
260.081	261.25
260.314	245.25
260.547	243.25
260.779	259.25
261.012	244.25
261.244	241.25
261.477	258.25
261.71	229.25
261.942	231.25
262.175	232.25
262.407	247.25
262.64	207.25
262.872	231.25
263.105	235.25
263.337	243.25
263.57	215.25
263.802	239.25
264.035	225.25
264.267	234.25
264.499	256.25
264.732	243.25
264.964	222.25
265.197	223.25
265.429	237.25
265.661	248.25
265.894	246.25
266.126	257.25
266.358	231.25
266.591	247.25
266.823	264.25
267.055	252.25
267.287	258.25
267.52	256.25
267.752	249.25
267.984	259.25
268.216	255.25
268.448	261.25
268.681	269.25
268.913	273.25
269.145	283.25
269.377	307.25
269.609	305.25
269.841	279.25
270.073	286.25
270.306	292.25
270.538	315.25
270.77	326.25
271.002	296.25
271.234	298.25
271.466	309.25
271.698	301.25
271.93	318.25
272.162	345.25
272.394	305.25
272.626	290.25
272.858	300.25
273.09	292.25
273.322	295.25
273.553	281.25
273.785	293.25
274.017	296.25
274.249	294.25
274.481	279.25
274.713	298.25
274.945	306.25
275.176	288.25
275.408	290.25
275.64	295.25
275.872	284.25
276.104	276.25
276.335	296.25
276.567	307.25
276.799	308.25
277.031	329.25
277.262	336.25
277.494	311.25
277.726	334.25
277.957	312.25
278.189	306.25
278.421	290.25
278.652	310.25
278.884	312.25
279.115	317.25
279.347	300.25
279.579	298.25
279.81	281.25
280.042	309.25
280.273	308.25
280.505	298.25
280.736	319.25
280.968	305.25
281.199	328.25
281.431	332.25
281.662	323.25
281.894	321.25
282.125	300.25
282.356	315.25
282.588	338.25
282.819	329.25
283.051	315.25
283.282	319.25
283.513	293.25
283.745	320.25
283.976	326.25
284.207	321.25
284.439	316.25
284.67	329.25
284.901	332.25
285.132	330.25
285.364	339.25
285.595	336.25
285.826	319.25
286.057	328.25
286.288	330.25
286.52	340.25
286.751	322.25
286.982	320.25
287.213	334.25
287.444	346.25
287.675	338.25
287.906	344.25
288.138	352.25
288.369	349.25
288.6	358.25
288.831	328.25
289.062	347.25
289.293	354.25
289.524	344.25
289.755	330.25
289.986	331.25
290.217	343.25
290.448	329.25
290.679	353.25
290.91	348.25
291.141	354.25
291.371	346.25
291.602	326.25
291.833	340.25
292.064	354.25
292.295	344.25
292.526	343.25
292.757	368.25
292.987	351.25
293.218	357.25
293.449	347.25
293.68	336.25
293.91	364.25
294.141	363.25
294.372	352.25
294.603	367.25
294.833	364.25
295.064	357.25
295.295	355.25
295.525	341.25
295.756	363.25
295.987	344.25
296.217	376.25
296.448	355.25
296.679	381.25
296.909	357.25
297.14	355.25
297.37	380.25
297.601	364.25
297.831	369.25
298.062	373.25
298.292	356.25
298.523	409.25
298.753	401.25
298.984	397.25
299.214	382.25
299.445	385.25
299.675	375.25
299.905	374.25
300.136	385.25
300.366	385.25
300.597	390.25
300.827	389.25
301.057	390.25
301.288	390.25
301.518	405.25
301.748	399.25
301.979	409.25
302.209	401.25
302.439	405.25
302.669	403.25
302.9	395.25
303.13	393.25
303.36	403.25
303.59	379.25
303.82	390.25
304.051	396.25
304.281	406.25
304.511	405.25
304.741	379.25
304.971	394.25
305.201	417.25
305.431	416.25
305.661	422.25
305.891	404.25
306.121	408.25
306.352	404.25
306.582	385.25
306.812	408.25
307.042	409.25
307.272	389.25
307.502	388.25
307.731	395.25
307.961	398.25
308.191	392.25
308.421	407.25
308.651	403.25
308.881	405.25
309.111	404.25
309.341	411.25
309.571	429.25
309.8	426.25
310.03	428.25
310.26	433.25
310.49	401.25
310.72	422.25
310.949	450.25
311.179	440.25
311.409	417.25
311.639	408.25
311.868	431.25
312.098	435.25
312.328	431.25
312.557	449.25
312.787	456.25
313.017	458.25
313.246	445.25
313.476	441.25
313.706	422.25
313.935	458.25
314.165	451.25
314.394	461.25
314.624	468.25
314.853	467.25
315.083	456.25
315.312	437.25
315.542	441.25
315.771	439.25
316.001	464.25
316.23	447.25
316.46	441.25
316.689	441.25
316.919	445.25
317.148	444.25
317.377	441.25
317.607	441.25
317.836	440.25
318.065	446.25
318.295	440.25
318.524	439.25
318.753	441.25
318.983	451.25
319.212	428.25
319.441	449.25
319.67	436.25
319.9	430.25
320.129	448.25
320.358	420.25
320.587	441.25
320.816	463.25
321.046	473.25
321.275	465.25
321.504	444.25
321.733	454.25
321.962	461.25
322.191	473.25
322.42	463.25
322.649	464.25
322.878	503.25
323.108	481.25
323.337	485.25
323.566	498.25
323.795	511.25
324.024	535.25
324.253	577.25
324.482	752.25
324.71	1087.25
324.939	1496.25
325.168	1293.25
325.397	740.25
325.626	547.25
325.855	515.25
326.084	507.25
326.313	517.25
326.542	511.25
326.77	540.25
326.999	570.25
327.228	703.25
327.457	1003.25
327.686	1203.25
327.914	870.25
328.143	645.25
328.372	593.25
328.6	567.25
328.829	535.25
329.058	576.25
329.287	555.25
329.515	544.25
329.744	515.25
329.972	524.25
330.201	541.25
330.43	568.25
330.658	576.25
330.887	585.25
331.115	588.25
331.344	533.25
331.572	540.25
331.801	543.25
332.03	551.25
332.258	545.25
332.486	556.25
332.715	554.25
332.943	564.25
333.172	566.25
333.4	590.25
333.629	602.25
333.857	600.25
334.085	618.25
334.314	652.25
334.542	643.25
334.771	655.25
334.999	617.25
335.227	585.25
335.455	598.25
335.684	559.25
335.912	579.25
336.14	559.25
336.369	549.25
336.597	555.25
336.825	579.25
337.053	557.25
337.281	547.25
337.51	538.25
337.738	534.25
337.966	545.25
338.194	528.25
338.422	529.25
338.65	550.25
338.878	526.25
339.106	525.25
339.334	533.25
339.562	526.25
339.79	513.25
340.018	507.25
340.246	509.25
340.474	505.25
340.702	514.25
340.93	518.25
341.158	518.25
341.386	499.25
341.614	521.25
341.842	492.25
342.07	506.25
342.298	495.25
342.526	522.25
342.754	501.25
342.981	515.25
343.209	520.25
343.437	540.25
343.665	543.25
343.893	548.25
344.12	593.25
344.348	568.25
344.576	579.25
344.804	541.25
345.031	538.25
345.259	529.25
345.487	522.25
345.714	520.25
345.942	465.25
346.17	490.25
346.397	500.25
346.625	491.25
346.853	509.25
347.08	498.25
347.308	468.25
347.535	469.25
347.763	487.25
347.99	513.25
348.218	483.25
348.445	519.25
348.673	493.25
348.9	495.25
349.128	484.25
349.355	472.25
349.583	461.25
349.81	501.25
350.037	480.25
350.265	455.25
350.492	463.25
350.72	487.25
350.947	496.25
351.174	487.25
351.402	497.25
351.629	487.25
351.856	498.25
352.083	484.25
352.311	507.25
352.538	486.25
352.765	482.25
352.992	475.25
353.22	481.25
353.447	482.25
353.674	487.25
353.901	463.25
354.128	453.25
354.355	455.25
354.583	470.25
354.81	473.25
355.037	483.25
355.264	471.25
355.491	500.25
355.718	482.25
355.945	465.25
356.172	473.25
356.399	470.25
356.626	465.25
356.853	480.25
357.08	470.25
357.307	456.25
357.534	471.25
357.761	455.25
357.988	473.25
358.215	455.25
358.441	490.25
358.668	472.25
358.895	474.25
359.122	485.25
359.349	491.25
359.576	497.25
359.802	498.25
360.029	503.25
360.256	515.25
360.483	520.25
360.709	495.25
360.936	519.25
361.163	493.25
361.39	480.25
361.616	502.25
361.843	489.25
362.07	511.25
362.296	485.25
362.523	496.25
362.749	485.25
362.976	493.25
363.203	478.25
363.429	481.25
363.656	484.25
363.882	479.25
364.109	483.25
364.335	489.25
364.562	501.25
364.788	457.25
365.015	476.25
365.241	471.25
365.468	477.25
365.694	460.25
365.92	490.25
366.147	474.25
366.373	469.25
366.599	481.25
366.826	466.25
367.052	459.25
367.278	457.25
367.505	483.25
367.731	477.25
367.957	479.25
368.184	467.25
368.41	483.25
368.636	477.25
368.862	508.25
369.089	507.25
369.315	500.25
369.541	501.25
369.767	491.25
369.993	483.25
370.219	488.25
370.445	508.25
370.672	496.25
370.898	490.25
371.124	499.25
371.35	484.25
371.576	481.25
371.802	511.25
372.028	515.25
372.254	491.25
372.48	505.25
372.706	517.25
372.932	517.25
373.158	510.25
373.384	513.25
373.61	533.25
373.835	524.25
374.061	525.25
374.287	504.25
374.513	508.25
374.739	508.25
374.965	528.25
375.191	542.25
375.416	525.25
375.642	511.25
375.868	539.25
376.094	524.25
376.319	509.25
376.545	484.25
376.771	505.25
376.997	498.25
377.222	497.25
377.448	492.25
377.674	495.25
377.899	492.25
378.125	498.25
378.35	484.25
378.576	501.25
378.802	491.25
379.027	507.25
379.253	513.25
379.478	492.25
379.704	502.25
379.929	497.25
380.155	495.25
380.38	487.25
380.606	516.25
380.831	493.25
381.057	511.25
381.282	509.25
381.507	490.25
381.733	498.25
381.958	504.25
382.184	499.25
382.409	527.25
382.634	544.25
382.86	557.25
383.085	538.25
383.31	540.25
383.535	547.25
383.761	533.25
383.986	544.25
384.211	553.25
384.436	548.25
384.662	579.25
384.887	569.25
385.112	583.25
385.337	585.25
385.562	572.25
385.787	576.25
386.013	577.25
386.238	599.25
386.463	582.25
386.688	588.25
386.913	597.25
387.138	595.25
387.363	561.25
387.588	577.25
387.813	577.25
388.038	593.25
388.263	569.25
388.488	596.25
388.713	609.25
388.938	593.25
389.163	559.25
389.387	564.25
389.612	590.25
389.837	574.25
390.062	567.25
390.287	556.25
390.512	593.25
390.736	573.25
390.961	576.25
391.186	577.25
391.411	615.25
391.636	621.25
391.86	636.25
392.085	618.25
392.31	632.25
392.534	634.25
392.759	593.25
392.984	612.25
393.208	612.25
393.433	601.25
393.658	613.25
393.882	612.25
394.107	610.25
394.331	597.25
394.556	595.25
394.78	601.25
395.005	617.25
395.229	593.25
395.454	607.25
395.678	641.25
395.903	628.25
396.127	637.25
396.352	651.25
396.576	626.25
396.801	595.25
397.025	604.25
397.249	633.25
397.474	631.25
397.698	636.25
397.922	642.25
398.147	631.25
398.371	665.25
398.595	650.25
398.82	683.25
399.044	711.25
399.268	753.25
399.492	838.25
399.717	894.25
399.941	952.25
400.165	893.25
400.389	881.25
400.613	777.25
400.837	762.25
401.062	713.25
401.286	695.25
401.51	709.25
401.734	681.25
401.958	704.25
402.182	724.25
402.406	693.25
402.63	727.25
402.854	722.25
403.078	734.25
403.302	740.25
403.526	747.25
403.75	772.25
403.974	764.25
404.198	755.25
404.422	773.25
404.645	764.25
404.869	775.25
405.093	779.25
405.317	784.25
405.541	804.25
405.765	769.25
405.988	788.25
406.212	769.25
406.436	771.25
406.66	779.25
406.883	778.25
407.107	815.25
407.331	827.25
407.555	922.25
407.778	907.25
408.002	869.25
408.226	822.25
408.449	799.25
408.673	793.25
408.896	800.25
409.12	817.25
409.344	826.25
409.567	747.25
409.791	744.25
410.014	746.25
410.238	736.25
410.461	720.25
410.685	728.25
410.908	752.25
411.132	760.25
411.355	775.25
411.578	753.25
411.802	713.25
412.025	735.25
412.249	723.25
412.472	738.25
412.695	767.25
412.919	751.25
413.142	733.25
413.365	705.25
413.589	697.25
413.812	707.25
414.035	681.25
414.258	677.25
414.482	691.25
414.705	707.25
414.928	673.25
415.151	697.25
415.374	685.25
415.597	699.25
415.821	647.25
416.044	693.25
416.267	677.25
416.49	673.25
416.713	645.25
416.936	684.25
417.159	658.25
417.382	673.25
417.605	714.25
417.828	695.25
418.051	705.25
418.274	717.25
418.497	676.25
418.72	691.25
418.943	689.25
419.166	738.25
419.389	794.25
419.611	759.25
419.834	735.25
420.057	721.25
420.28	705.25
420.503	699.25
420.726	703.25
420.948	727.25
421.171	756.25
421.394	763.25
421.617	704.25
421.839	702.25
422.062	697.25
422.285	706.25
422.507	761.25
422.73	838.25
422.953	769.25
423.175	696.25
423.398	742.25
423.621	729.25
423.843	759.25
424.066	757.25
424.288	731.25
424.511	729.25
424.733	779.25
424.956	828.25
425.178	820.25
425.401	818.25
425.623	817.25
425.846	747.25
426.068	687.25
426.291	694.25
426.513	684.25
426.735	715.25
426.958	710.25
427.18	775.25
427.402	884.25
427.625	929.25
427.847	845.25
428.069	753.25
428.292	706.25
428.514	669.25
428.736	663.25
428.958	661.25
429.181	649.25
429.403	639.25
429.625	635.25
429.847	687.25
430.069	699.25
430.292	694.25
430.514	652.25
430.736	639.25
430.958	659.25
431.18	641.25
431.402	624.25
431.624	623.25
431.846	623.25
432.068	628.25
432.29	629.25
432.512	636.25
432.734	651.25
432.956	654.25
433.178	649.25
433.4	625.25
433.622	627.25
433.844	634.25
434.066	654.25
434.287	659.25
434.509	664.25
434.731	659.25
434.953	677.25
435.175	704.25
435.397	729.25
435.618	698.25
435.84	728.25
436.062	780.25
436.284	826.25
436.505	712.25
436.727	695.25
436.949	659.25
437.17	647.25
437.392	638.25
437.614	627.25
437.835	661.25
438.057	731.25
438.278	816.25
438.5	807.25
438.721	859.25
438.943	839.25
439.165	709.25
439.386	665.25
439.608	660.25
439.829	687.25
440.05	677.25
440.272	727.25
440.493	694.25
440.715	686.25
440.936	700.25
441.158	683.25
441.379	673.25
441.6	699.25
441.822	699.25
442.043	741.25
442.264	793.25
442.486	783.25
442.707	736.25
442.928	709.25
443.149	702.25
443.371	781.25
443.592	770.25
443.813	849.25
444.034	892.25
444.255	807.25
444.476	789.25
444.698	764.25
444.919	772.25
445.14	909.25
445.361	831.25
445.582	762.25
445.803	787.25
446.024	812.25
446.245	843.25
446.466	775.25
446.687	689.25
446.908	677.25
447.129	636.25
447.35	631.25
447.571	641.25
447.792	634.25
448.013	632.25
448.234	630.25
448.455	660.25
448.675	722.25
448.896	845.25
449.117	726.25
449.338	700.25
449.559	767.25
449.779	812.25
450	726.25
450.221	631.25
450.442	620.25
450.662	598.25
450.883	620.25
451.104	620.25
451.324	608.25
451.545	587.25
451.766	595.25
451.986	589.25
452.207	606.25
452.428	581.25
452.648	564.25
452.869	584.25
453.089	569.25
453.31	597.25
453.53	573.25
453.751	584.25
453.971	580.25
454.192	584.25
454.412	586.25
454.633	553.25
454.853	582.25
455.073	577.25
455.294	579.25
455.514	614.25
455.734	627.25
455.955	573.25
456.175	530.25
456.395	530.25
456.616	542.25
456.836	549.25
457.056	547.25
457.276	546.25
457.497	554.25
457.717	548.25
457.937	552.25
458.157	588.25
458.377	568.25
458.598	583.25
458.818	623.25
459.038	689.25
459.258	706.25
459.478	669.25
459.698	643.25
459.918	646.25
460.138	653.25
460.358	680.25
460.578	703.25
460.798	718.25
461.018	693.25
461.238	700.25
461.458	711.25
461.678	673.25
461.898	701.25
462.118	695.25
462.338	733.25
462.558	735.25
462.777	766.25
462.997	814.25
463.217	827.25
463.437	860.25
463.657	789.25
463.876	794.25
464.096	786.25
464.316	794.25
464.536	773.25
464.755	784.25
464.975	751.25
465.195	751.25
465.414	788.25
465.634	716.25
465.854	666.25
466.073	662.25
466.293	644.25
466.512	604.25
466.732	608.25
466.951	624.25
467.171	612.25
467.391	621.25
467.61	585.25
467.829	625.25
468.049	594.25
468.268	579.25
468.488	590.25
468.707	584.25
468.927	586.25
469.146	552.25
469.365	611.25
469.585	585.25
469.804	613.25
470.023	620.25
470.243	615.25
470.462	643.25
470.681	646.25
470.901	659.25
471.12	619.25
471.339	609.25
471.558	605.25
471.777	602.25
471.997	597.25
472.216	592.25
472.435	654.25
472.654	604.25
472.873	582.25
473.092	600.25
473.311	614.25
473.53	595.25
473.749	619.25
473.968	612.25
474.187	687.25
474.406	703.25
474.625	623.25
474.844	595.25
475.063	589.25
475.282	591.25
475.501	620.25
475.72	618.25
475.939	599.25
476.158	609.25
476.377	617.25
476.596	628.25
476.814	603.25
477.033	626.25
477.252	655.25
477.471	651.25
477.69	641.25
477.908	681.25
478.127	680.25
478.346	693.25
478.564	715.25
478.783	712.25
479.002	714.25
479.22	731.25
479.439	717.25
479.658	731.25
479.876	738.25
480.095	736.25
480.313	788.25
480.532	806.25
480.751	779.25
480.969	767.25
481.188	805.25
481.406	827.25
481.624	751.25
481.843	724.25
482.061	719.25
482.28	707.25
482.498	700.25
482.717	708.25
482.935	709.25
483.153	705.25
483.372	685.25
483.59	677.25
483.808	688.25
484.027	732.25
484.245	690.25
484.463	706.25
484.681	723.25
484.9	729.25
485.118	734.25
485.336	719.25
485.554	745.25
485.772	752.25
485.99	735.25
486.209	722.25
486.427	728.25
486.645	765.25
486.863	716.25
487.081	732.25
487.299	774.25
487.517	746.25
487.735	746.25
487.953	759.25
488.171	753.25
488.389	736.25
488.607	745.25
488.825	738.25
489.043	731.25
489.261	744.25
489.479	780.25
489.696	768.25
489.914	785.25
490.132	736.25
490.35	781.25
490.568	761.25
490.786	793.25
491.003	777.25
491.221	808.25
491.439	818.25
491.657	785.25
491.874	820.25
492.092	822.25
492.31	835.25
492.527	829.25
492.745	827.25
492.963	817.25
493.18	861.25
493.398	832.25
493.615	842.25
493.833	868.25
494.05	864.25
494.268	849.25
494.485	849.25
494.703	849.25
494.92	844.25
495.138	865.25
495.355	851.25
495.573	839.25
495.79	855.25
496.008	838.25
496.225	854.25
496.442	844.25
496.66	884.25
496.877	885.25
497.094	879.25
497.312	903.25
497.529	918.25
497.746	916.25
497.963	961.25
498.181	1016.25
498.398	1011.25
498.615	1037.25
498.832	1080.25
499.049	1137.25
499.267	1203.25
499.484	1301.25
499.701	1374.25
499.918	1465.25
500.135	1601.25
500.352	1712.25
500.569	1808.25
500.786	1757.25
501.003	1699.25
501.22	1557.25
501.437	1460.25
501.654	1380.25
