Data from 1963.PennyLincolnUp.Lamp.En5.5.200Scan.071719.P1._HRD10591_13-57-46-063.txt Node
Date: Thu Jul 18 13:57:46 EDT 2019
User: cochatt
Spectrometer: HR+D1059
Trigger mode: 1
Integration Time (sec): 1.000000E-1
Scans to average: 1
Electric dark correction enabled: true
Nonlinearity correction enabled: false
Boxcar width: 0
XAxis mode: Wavelengths
Number of Pixels in Spectrum: 2048
>>>>>Begin Spectral Data<<<<<
223.165	-16.31
223.4	-16.31
223.635	-16.31
223.869	-20.31
224.104	-21.31
224.338	-18.31
224.573	-23.31
224.808	-17.31
225.042	-14.31
225.277	7.69
225.511	14.69
225.746	2.69
225.98	11.69
226.215	11.69
226.449	13.69
226.683	23.69
226.918	13.69
227.152	31.69
227.387	41.69
227.621	43.69
227.856	54.69
228.09	43.69
228.324	48.69
228.559	68.69
228.793	52.69
229.027	92.69
229.262	96.69
229.496	106.69
229.73	135.69
229.964	133.69
230.199	132.69
230.433	103.69
230.667	119.69
230.901	106.69
231.136	129.69
231.37	115.69
231.604	109.69
231.838	115.69
232.072	115.69
232.306	113.69
232.541	119.69
232.775	141.69
233.009	112.69
233.243	114.69
233.477	112.69
233.711	126.69
233.945	127.69
234.179	117.69
234.413	117.69
234.647	119.69
234.881	119.69
235.115	124.69
235.349	120.69
235.583	127.69
235.817	126.69
236.051	130.69
236.285	138.69
236.519	138.69
236.753	136.69
236.987	133.69
237.221	169.69
237.455	184.69
237.689	175.69
237.922	163.69
238.156	134.69
238.39	112.69
238.624	128.69
238.858	141.69
239.091	136.69
239.325	128.69
239.559	135.69
239.793	140.69
240.027	133.69
240.26	148.69
240.494	144.69
240.728	162.69
240.961	159.69
241.195	144.69
241.429	146.69
241.662	149.69
241.896	151.69
242.13	160.69
242.363	155.69
242.597	161.69
242.83	144.69
243.064	145.69
243.298	142.69
243.531	149.69
243.765	156.69
243.998	164.69
244.232	157.69
244.465	162.69
244.699	165.69
244.932	161.69
245.166	167.69
245.399	161.69
245.633	164.69
245.866	179.69
246.099	162.69
246.333	174.69
246.566	169.69
246.8	173.69
247.033	185.69
247.266	179.69
247.5	182.69
247.733	168.69
247.966	164.69
248.2	183.69
248.433	175.69
248.666	190.69
248.899	187.69
249.133	197.69
249.366	199.69
249.599	203.69
249.832	184.69
250.066	183.69
250.299	177.69
250.532	200.69
250.765	210.69
250.998	225.69
251.231	223.69
251.465	238.69
251.698	214.69
251.931	197.69
252.164	213.69
252.397	208.69
252.63	212.69
252.863	187.69
253.096	220.69
253.329	217.69
253.562	224.69
253.795	232.69
254.028	215.69
254.261	218.69
254.494	241.69
254.727	245.69
254.96	256.69
255.193	243.69
255.426	240.69
255.659	236.69
255.892	228.69
256.124	235.69
256.357	224.69
256.59	236.69
256.823	236.69
257.056	215.69
257.289	223.69
257.521	220.69
257.754	204.69
257.987	227.69
258.22	229.69
258.452	258.69
258.685	226.69
258.918	226.69
259.151	225.69
259.383	231.69
259.616	234.69
259.849	249.69
260.081	251.69
260.314	272.69
260.547	256.69
260.779	244.69
261.012	237.69
261.244	234.69
261.477	243.69
261.71	236.69
261.942	246.69
262.175	249.69
262.407	250.69
262.64	244.69
262.872	237.69
263.105	232.69
263.337	228.69
263.57	219.69
263.802	222.69
264.035	246.69
264.267	248.69
264.499	235.69
264.732	247.69
264.964	238.69
265.197	227.69
265.429	232.69
265.661	231.69
265.894	248.69
266.126	245.69
266.358	235.69
266.591	240.69
266.823	235.69
267.055	256.69
267.287	259.69
267.52	249.69
267.752	270.69
267.984	252.69
268.216	265.69
268.448	256.69
268.681	246.69
268.913	248.69
269.145	293.69
269.377	303.69
269.609	288.69
269.841	285.69
270.073	288.69
270.306	286.69
270.538	298.69
270.77	308.69
271.002	312.69
271.234	301.69
271.466	316.69
271.698	324.69
271.93	315.69
272.162	332.69
272.394	329.69
272.626	307.69
272.858	315.69
273.09	302.69
273.322	289.69
273.553	307.69
273.785	293.69
274.017	288.69
274.249	279.69
274.481	292.69
274.713	287.69
274.945	309.69
275.176	270.69
275.408	295.69
275.64	292.69
275.872	267.69
276.104	286.69
276.335	299.69
276.567	302.69
276.799	322.69
277.031	327.69
277.262	332.69
277.494	348.69
277.726	324.69
277.957	313.69
278.189	320.69
278.421	303.69
278.652	314.69
278.884	302.69
279.115	296.69
279.347	312.69
279.579	309.69
279.81	300.69
280.042	311.69
280.273	319.69
280.505	298.69
280.736	293.69
280.968	295.69
281.199	307.69
281.431	311.69
281.662	310.69
281.894	327.69
282.125	318.69
282.356	315.69
282.588	333.69
282.819	318.69
283.051	332.69
283.282	331.69
283.513	329.69
283.745	337.69
283.976	325.69
284.207	314.69
284.439	336.69
284.67	342.69
284.901	321.69
285.132	333.69
285.364	336.69
285.595	335.69
285.826	334.69
286.057	351.69
286.288	350.69
286.52	343.69
286.751	333.69
286.982	346.69
287.213	335.69
287.444	346.69
287.675	348.69
287.906	355.69
288.138	364.69
288.369	352.69
288.6	352.69
288.831	342.69
289.062	343.69
289.293	353.69
289.524	359.69
289.755	348.69
289.986	360.69
290.217	356.69
290.448	338.69
290.679	354.69
290.91	341.69
291.141	339.69
291.371	344.69
291.602	352.69
291.833	352.69
292.064	341.69
292.295	346.69
292.526	358.69
292.757	358.69
292.987	352.69
293.218	351.69
293.449	351.69
293.68	343.69
293.91	371.69
294.141	357.69
294.372	355.69
294.603	371.69
294.833	376.69
295.064	354.69
295.295	359.69
295.525	339.69
295.756	377.69
295.987	371.69
296.217	362.69
296.448	377.69
296.679	370.69
296.909	358.69
297.14	369.69
297.37	364.69
297.601	360.69
297.831	357.69
298.062	384.69
298.292	379.69
298.523	378.69
298.753	391.69
298.984	389.69
299.214	387.69
299.445	391.69
299.675	376.69
299.905	375.69
300.136	397.69
300.366	373.69
300.597	393.69
300.827	404.69
301.057	385.69
301.288	394.69
301.518	393.69
301.748	406.69
301.979	396.69
302.209	385.69
302.439	398.69
302.669	411.69
302.9	430.69
303.13	419.69
303.36	400.69
303.59	401.69
303.82	408.69
304.051	417.69
304.281	387.69
304.511	408.69
304.741	401.69
304.971	383.69
305.201	396.69
305.431	398.69
305.661	395.69
305.891	395.69
306.121	394.69
306.352	384.69
306.582	419.69
306.812	400.69
307.042	412.69
307.272	416.69
307.502	396.69
307.731	403.69
307.961	391.69
308.191	388.69
308.421	407.69
308.651	409.69
308.881	389.69
309.111	395.69
309.341	413.69
309.571	420.69
309.8	428.69
310.03	427.69
310.26	419.69
310.49	425.69
310.72	419.69
310.949	408.69
311.179	433.69
311.409	426.69
311.639	433.69
311.868	413.69
312.098	430.69
312.328	459.69
312.557	443.69
312.787	430.69
313.017	425.69
313.246	428.69
313.476	425.69
313.706	437.69
313.935	439.69
314.165	462.69
314.394	454.69
314.624	456.69
314.853	447.69
315.083	449.69
315.312	460.69
315.542	435.69
315.771	440.69
316.001	433.69
316.23	444.69
316.46	425.69
316.689	441.69
316.919	444.69
317.148	444.69
317.377	456.69
317.607	452.69
317.836	437.69
318.065	436.69
318.295	442.69
318.524	436.69
318.753	430.69
318.983	450.69
319.212	452.69
319.441	447.69
319.67	444.69
319.9	441.69
320.129	454.69
320.358	449.69
320.587	454.69
320.816	437.69
321.046	447.69
321.275	442.69
321.504	467.69
321.733	461.69
321.962	454.69
322.191	451.69
322.42	460.69
322.649	485.69
322.878	473.69
323.108	483.69
323.337	472.69
323.566	495.69
323.795	511.69
324.024	529.69
324.253	575.69
324.482	739.69
324.71	1014.69
324.939	1424.69
325.168	1300.69
325.397	746.69
325.626	592.69
325.855	541.69
326.084	517.69
326.313	522.69
326.542	517.69
326.77	522.69
326.999	567.69
327.228	680.69
327.457	958.69
327.686	1211.69
327.914	815.69
328.143	612.69
328.372	607.69
328.6	565.69
328.829	548.69
329.058	552.69
329.287	556.69
329.515	565.69
329.744	529.69
329.972	516.69
330.201	540.69
330.43	575.69
330.658	570.69
330.887	575.69
331.115	598.69
331.344	567.69
331.572	535.69
331.801	538.69
332.03	541.69
332.258	543.69
332.486	544.69
332.715	567.69
332.943	545.69
333.172	573.69
333.4	573.69
333.629	620.69
333.857	612.69
334.085	621.69
334.314	617.69
334.542	649.69
334.771	659.69
334.999	617.69
335.227	588.69
335.455	584.69
335.684	570.69
335.912	579.69
336.14	558.69
336.369	524.69
336.597	541.69
336.825	554.69
337.053	553.69
337.281	561.69
337.51	552.69
337.738	545.69
337.966	532.69
338.194	523.69
338.422	528.69
338.65	533.69
338.878	523.69
339.106	517.69
339.334	539.69
339.562	533.69
339.79	516.69
340.018	520.69
340.246	520.69
340.474	509.69
340.702	509.69
340.93	513.69
341.158	509.69
341.386	525.69
341.614	508.69
341.842	521.69
342.07	492.69
342.298	507.69
342.526	517.69
342.754	516.69
342.981	490.69
343.209	495.69
343.437	535.69
343.665	537.69
343.893	572.69
344.12	571.69
344.348	566.69
344.576	551.69
344.804	526.69
345.031	526.69
345.259	529.69
345.487	522.69
345.714	503.69
345.942	494.69
346.17	509.69
346.397	510.69
346.625	519.69
346.853	491.69
347.08	477.69
347.308	489.69
347.535	489.69
347.763	497.69
347.99	496.69
348.218	483.69
348.445	512.69
348.673	481.69
348.9	502.69
349.128	489.69
349.355	476.69
349.583	479.69
349.81	480.69
350.037	463.69
350.265	468.69
350.492	471.69
350.72	477.69
350.947	493.69
351.174	501.69
351.402	515.69
351.629	493.69
351.856	496.69
352.083	499.69
352.311	485.69
352.538	483.69
352.765	499.69
352.992	469.69
353.22	477.69
353.447	480.69
353.674	456.69
353.901	465.69
354.128	487.69
354.355	466.69
354.583	472.69
354.81	451.69
355.037	467.69
355.264	471.69
355.491	452.69
355.718	460.69
355.945	489.69
356.172	464.69
356.399	450.69
356.626	462.69
356.853	471.69
357.08	448.69
357.307	477.69
357.534	473.69
357.761	481.69
357.988	463.69
358.215	477.69
358.441	504.69
358.668	469.69
358.895	477.69
359.122	486.69
359.349	497.69
359.576	499.69
359.802	490.69
360.029	533.69
360.256	505.69
360.483	521.69
360.709	486.69
360.936	485.69
361.163	492.69
361.39	470.69
361.616	508.69
361.843	499.69
362.07	499.69
362.296	497.69
362.523	486.69
362.749	488.69
362.976	491.69
363.203	476.69
363.429	491.69
363.656	486.69
363.882	478.69
364.109	492.69
364.335	461.69
364.562	478.69
364.788	481.69
365.015	490.69
365.241	470.69
365.468	479.69
365.694	473.69
365.92	486.69
366.147	478.69
366.373	484.69
366.599	492.69
366.826	478.69
367.052	500.69
367.278	489.69
367.505	495.69
367.731	475.69
367.957	485.69
368.184	482.69
368.41	489.69
368.636	481.69
368.862	515.69
369.089	491.69
369.315	503.69
369.541	475.69
369.767	488.69
369.993	503.69
370.219	496.69
370.445	503.69
370.672	485.69
370.898	491.69
371.124	500.69
371.35	497.69
371.576	503.69
371.802	510.69
372.028	489.69
372.254	479.69
372.48	507.69
372.706	525.69
372.932	516.69
373.158	520.69
373.384	542.69
373.61	525.69
373.835	497.69
374.061	513.69
374.287	510.69
374.513	526.69
374.739	534.69
374.965	532.69
375.191	555.69
375.416	543.69
375.642	520.69
375.868	525.69
376.094	532.69
376.319	535.69
376.545	512.69
376.771	514.69
376.997	510.69
377.222	519.69
377.448	500.69
377.674	519.69
377.899	510.69
378.125	510.69
378.35	483.69
378.576	515.69
378.802	493.69
379.027	495.69
379.253	522.69
379.478	528.69
379.704	515.69
379.929	486.69
380.155	508.69
380.38	489.69
380.606	493.69
380.831	521.69
381.057	515.69
381.282	507.69
381.507	499.69
381.733	491.69
381.958	507.69
382.184	518.69
382.409	528.69
382.634	518.69
382.86	515.69
383.085	517.69
383.31	511.69
383.535	540.69
383.761	560.69
383.986	534.69
384.211	558.69
384.436	550.69
384.662	585.69
384.887	568.69
385.112	587.69
385.337	564.69
385.562	570.69
385.787	581.69
386.013	604.69
386.238	608.69
386.463	605.69
386.688	602.69
386.913	583.69
387.138	600.69
387.363	602.69
387.588	605.69
387.813	596.69
388.038	592.69
388.263	585.69
388.488	591.69
388.713	582.69
388.938	569.69
389.163	604.69
389.387	581.69
389.612	553.69
389.837	569.69
390.062	593.69
390.287	576.69
390.512	553.69
390.736	567.69
390.961	583.69
391.186	592.69
391.411	574.69
391.636	623.69
391.86	621.69
392.085	635.69
392.31	628.69
392.534	608.69
392.759	633.69
392.984	593.69
393.208	595.69
393.433	613.69
393.658	609.69
393.882	604.69
394.107	612.69
394.331	607.69
394.556	613.69
394.78	611.69
395.005	611.69
395.229	604.69
395.454	622.69
395.678	635.69
395.903	641.69
396.127	641.69
396.352	620.69
396.576	622.69
396.801	614.69
397.025	614.69
397.249	625.69
397.474	640.69
397.698	639.69
397.922	650.69
398.147	664.69
398.371	663.69
398.595	679.69
398.82	684.69
399.044	722.69
399.268	748.69
399.492	842.69
399.717	893.69
399.941	896.69
400.165	922.69
400.389	873.69
400.613	793.69
400.837	736.69
401.062	728.69
401.286	700.69
401.51	686.69
401.734	683.69
401.958	697.69
402.182	707.69
402.406	712.69
402.63	712.69
402.854	729.69
403.078	734.69
403.302	759.69
403.526	740.69
403.75	760.69
403.974	757.69
404.198	755.69
404.422	721.69
404.645	766.69
404.869	785.69
405.093	792.69
405.317	816.69
405.541	831.69
405.765	783.69
405.988	752.69
406.212	771.69
406.436	777.69
406.66	777.69
406.883	797.69
407.107	821.69
407.331	871.69
407.555	913.69
407.778	905.69
408.002	859.69
408.226	807.69
408.449	801.69
408.673	781.69
408.896	803.69
409.12	801.69
409.344	816.69
409.567	769.69
409.791	771.69
410.014	729.69
410.238	743.69
410.461	736.69
410.685	732.69
410.908	725.69
411.132	760.69
411.355	759.69
411.578	772.69
411.802	719.69
412.025	705.69
412.249	730.69
412.472	733.69
412.695	751.69
412.919	744.69
413.142	755.69
413.365	697.69
413.589	693.69
413.812	673.69
414.035	680.69
414.258	678.69
414.482	709.69
414.705	709.69
414.928	684.69
415.151	681.69
415.374	693.69
415.597	709.69
415.821	679.69
416.044	680.69
416.267	674.69
416.49	697.69
416.713	681.69
416.936	663.69
417.159	689.69
417.382	700.69
417.605	655.69
417.828	691.69
418.051	701.69
418.274	709.69
418.497	703.69
418.72	672.69
418.943	695.69
419.166	727.69
419.389	756.69
419.611	759.69
419.834	734.69
420.057	717.69
420.28	695.69
420.503	691.69
420.726	685.69
420.948	694.69
421.171	735.69
421.394	748.69
421.617	703.69
421.839	673.69
422.062	714.69
422.285	671.69
422.507	730.69
422.73	790.69
422.953	806.69
423.175	721.69
423.398	726.69
423.621	709.69
423.843	723.69
424.066	739.69
424.288	735.69
424.511	746.69
424.733	774.69
424.956	816.69
425.178	814.69
425.401	814.69
425.623	808.69
425.846	761.69
426.068	717.69
426.291	701.69
426.513	715.69
426.735	692.69
426.958	720.69
427.18	778.69
427.402	860.69
427.625	947.69
427.847	803.69
428.069	752.69
428.292	691.69
428.514	692.69
428.736	656.69
428.958	650.69
429.181	622.69
429.403	631.69
429.625	653.69
429.847	660.69
430.069	725.69
430.292	681.69
430.514	643.69
430.736	638.69
430.958	621.69
431.18	641.69
431.402	628.69
431.624	649.69
431.846	653.69
432.068	638.69
432.29	641.69
432.512	634.69
432.734	632.69
432.956	644.69
433.178	637.69
433.4	644.69
433.622	649.69
433.844	660.69
434.066	619.69
434.287	616.69
434.509	669.69
434.731	680.69
434.953	687.69
435.175	718.69
435.397	739.69
435.618	696.69
435.84	691.69
436.062	767.69
436.284	807.69
436.505	738.69
436.727	664.69
436.949	667.69
437.17	617.69
437.392	632.69
437.614	655.69
437.835	665.69
438.057	736.69
438.278	809.69
438.5	789.69
438.721	838.69
438.943	839.69
439.165	677.69
439.386	651.69
439.608	699.69
439.829	675.69
440.05	703.69
440.272	732.69
440.493	695.69
440.715	658.69
440.936	663.69
441.158	651.69
441.379	675.69
441.6	702.69
441.822	723.69
442.043	748.69
442.264	785.69
442.486	806.69
442.707	742.69
442.928	704.69
443.149	707.69
443.371	757.69
443.592	776.69
443.813	810.69
444.034	891.69
444.255	775.69
444.476	745.69
444.698	781.69
444.919	784.69
445.14	899.69
445.361	805.69
445.582	741.69
445.803	766.69
446.024	819.69
446.245	834.69
446.466	789.69
446.687	702.69
446.908	664.69
447.129	644.69
447.35	636.69
447.571	647.69
447.792	614.69
448.013	618.69
448.234	648.69
448.455	647.69
448.675	720.69
448.896	815.69
449.117	700.69
449.338	691.69
449.559	759.69
449.779	843.69
450	718.69
450.221	648.69
450.442	633.69
450.662	605.69
450.883	612.69
451.104	615.69
451.324	621.69
451.545	592.69
451.766	595.69
451.986	567.69
452.207	589.69
452.428	575.69
452.648	575.69
452.869	582.69
453.089	581.69
453.31	587.69
453.53	604.69
453.751	575.69
453.971	549.69
454.192	586.69
454.412	565.69
454.633	573.69
454.853	573.69
455.073	565.69
455.294	586.69
455.514	605.69
455.734	609.69
455.955	557.69
456.175	562.69
456.395	519.69
456.616	536.69
456.836	551.69
457.056	559.69
457.276	525.69
457.497	551.69
457.717	547.69
457.937	550.69
458.157	561.69
458.377	565.69
458.598	585.69
458.818	603.69
459.038	688.69
459.258	701.69
459.478	665.69
459.698	655.69
459.918	668.69
460.138	655.69
460.358	684.69
460.578	698.69
460.798	717.69
461.018	704.69
461.238	711.69
461.458	683.69
461.678	687.69
461.898	702.69
462.118	688.69
462.338	741.69
462.558	756.69
462.777	775.69
462.997	776.69
463.217	851.69
463.437	835.69
463.657	772.69
463.876	799.69
464.096	763.69
464.316	776.69
464.536	793.69
464.755	790.69
464.975	773.69
465.195	751.69
465.414	765.69
465.634	703.69
465.854	679.69
466.073	665.69
466.293	623.69
466.512	632.69
466.732	623.69
466.951	622.69
467.171	585.69
467.391	618.69
467.61	612.69
467.829	625.69
468.049	631.69
468.268	603.69
468.488	607.69
468.707	593.69
468.927	577.69
469.146	602.69
469.365	604.69
469.585	586.69
469.804	622.69
470.023	612.69
470.243	637.69
470.462	625.69
470.681	634.69
470.901	639.69
471.12	635.69
471.339	610.69
471.558	599.69
471.777	628.69
471.997	619.69
472.216	602.69
472.435	631.69
472.654	624.69
472.873	622.69
473.092	584.69
473.311	612.69
473.53	581.69
473.749	586.69
473.968	624.69
474.187	684.69
474.406	676.69
474.625	648.69
474.844	605.69
475.063	615.69
475.282	593.69
475.501	595.69
475.72	611.69
475.939	596.69
476.158	619.69
476.377	622.69
476.596	605.69
476.814	634.69
477.033	642.69
477.252	654.69
477.471	653.69
477.69	647.69
477.908	662.69
478.127	686.69
478.346	664.69
478.564	670.69
478.783	693.69
479.002	750.69
479.22	719.69
479.439	702.69
479.658	733.69
479.876	717.69
480.095	740.69
480.313	791.69
480.532	777.69
480.751	773.69
480.969	796.69
481.188	785.69
481.406	808.69
481.624	775.69
481.843	701.69
482.061	707.69
482.28	700.69
482.498	698.69
482.717	700.69
482.935	731.69
483.153	692.69
483.372	712.69
483.59	715.69
483.808	728.69
484.027	703.69
484.245	697.69
484.463	708.69
484.681	721.69
484.9	703.69
485.118	739.69
485.336	694.69
485.554	717.69
485.772	731.69
485.99	734.69
486.209	736.69
486.427	748.69
486.645	751.69
486.863	732.69
487.081	753.69
487.299	751.69
487.517	739.69
487.735	739.69
487.953	735.69
488.171	757.69
488.389	737.69
488.607	740.69
488.825	731.69
489.043	750.69
489.261	748.69
489.479	742.69
489.696	746.69
489.914	756.69
490.132	784.69
490.35	741.69
490.568	777.69
490.786	776.69
491.003	793.69
491.221	792.69
491.439	789.69
491.657	811.69
491.874	800.69
492.092	808.69
492.31	810.69
492.527	825.69
492.745	825.69
492.963	834.69
493.18	836.69
493.398	850.69
493.615	851.69
493.833	841.69
494.05	855.69
494.268	853.69
494.485	860.69
494.703	846.69
494.92	853.69
495.138	859.69
495.355	854.69
495.573	846.69
495.79	853.69
496.008	862.69
496.225	847.69
496.442	874.69
496.66	887.69
496.877	872.69
497.094	904.69
497.312	895.69
497.529	903.69
497.746	924.69
497.963	965.69
498.181	975.69
498.398	999.69
498.615	1045.69
498.832	1098.69
499.049	1137.69
499.267	1232.69
499.484	1267.69
499.701	1353.69
499.918	1436.69
500.135	1547.69
500.352	1682.69
500.569	1823.69
500.786	1754.69
501.003	1715.69
501.22	1567.69
501.437	1435.69
501.654	1347.69
