Data from 1963.PennyLincolnUp.Lamp.En5.5.200Scan.071719.P1._HRD10591_13-59-14-063.txt Node
Date: Thu Jul 18 13:59:14 EDT 2019
User: cochatt
Spectrometer: HR+D1059
Trigger mode: 1
Integration Time (sec): 1.000000E-1
Scans to average: 1
Electric dark correction enabled: true
Nonlinearity correction enabled: false
Boxcar width: 0
XAxis mode: Wavelengths
Number of Pixels in Spectrum: 2048
>>>>>Begin Spectral Data<<<<<
223.165	-17.88
223.4	-17.88
223.635	-17.88
223.869	-13.88
224.104	-13.88
224.338	-19.88
224.573	-23.88
224.808	-24.88
225.042	8.12
225.277	10.12
225.511	0.12
225.746	-2.88
225.98	16.12
226.215	13.12
226.449	9.12
226.683	13.12
226.918	23.12
227.152	24.12
227.387	32.12
227.621	28.12
227.856	28.12
228.09	54.12
228.324	47.12
228.559	50.12
228.793	68.12
229.027	102.12
229.262	83.12
229.496	113.12
229.73	120.12
229.964	136.12
230.199	117.12
230.433	118.12
230.667	110.12
230.901	113.12
231.136	101.12
231.37	120.12
231.604	112.12
231.838	113.12
232.072	110.12
232.306	108.12
232.541	116.12
232.775	125.12
233.009	111.12
233.243	106.12
233.477	124.12
233.711	123.12
233.945	115.12
234.179	120.12
234.413	130.12
234.647	125.12
234.881	122.12
235.115	130.12
235.349	130.12
235.583	135.12
235.817	126.12
236.051	120.12
236.285	137.12
236.519	128.12
236.753	138.12
236.987	135.12
237.221	179.12
237.455	188.12
237.689	174.12
237.922	140.12
238.156	132.12
238.39	123.12
238.624	113.12
238.858	130.12
239.091	124.12
239.325	134.12
239.559	142.12
239.793	140.12
240.027	147.12
240.26	144.12
240.494	148.12
240.728	143.12
240.961	150.12
241.195	148.12
241.429	155.12
241.662	134.12
241.896	135.12
242.13	147.12
242.363	158.12
242.597	143.12
242.83	162.12
243.064	148.12
243.298	155.12
243.531	147.12
243.765	163.12
243.998	152.12
244.232	147.12
244.465	159.12
244.699	164.12
244.932	154.12
245.166	154.12
245.399	164.12
245.633	155.12
245.866	160.12
246.099	155.12
246.333	169.12
246.566	167.12
246.8	165.12
247.033	167.12
247.266	175.12
247.5	169.12
247.733	184.12
247.966	183.12
248.2	191.12
248.433	186.12
248.666	180.12
248.899	199.12
249.133	189.12
249.366	213.12
249.599	210.12
249.832	191.12
250.066	197.12
250.299	194.12
250.532	200.12
250.765	204.12
250.998	217.12
251.231	220.12
251.465	205.12
251.698	216.12
251.931	219.12
252.164	199.12
252.397	209.12
252.63	218.12
252.863	224.12
253.096	218.12
253.329	230.12
253.562	230.12
253.795	233.12
254.028	211.12
254.261	235.12
254.494	238.12
254.727	240.12
254.96	265.12
255.193	255.12
255.426	243.12
255.659	243.12
255.892	244.12
256.124	235.12
256.357	245.12
256.59	227.12
256.823	220.12
257.056	228.12
257.289	226.12
257.521	230.12
257.754	231.12
257.987	222.12
258.22	228.12
258.452	220.12
258.685	218.12
258.918	214.12
259.151	242.12
259.383	239.12
259.616	247.12
259.849	263.12
260.081	243.12
260.314	268.12
260.547	267.12
260.779	265.12
261.012	241.12
261.244	241.12
261.477	248.12
261.71	235.12
261.942	231.12
262.175	264.12
262.407	262.12
262.64	258.12
262.872	232.12
263.105	224.12
263.337	245.12
263.57	252.12
263.802	234.12
264.035	243.12
264.267	243.12
264.499	249.12
264.732	224.12
264.964	248.12
265.197	256.12
265.429	244.12
265.661	250.12
265.894	221.12
266.126	246.12
266.358	252.12
266.591	239.12
266.823	236.12
267.055	262.12
267.287	256.12
267.52	260.12
267.752	264.12
267.984	260.12
268.216	246.12
268.448	246.12
268.681	267.12
268.913	282.12
269.145	291.12
269.377	290.12
269.609	295.12
269.841	296.12
270.073	274.12
270.306	322.12
270.538	322.12
270.77	332.12
271.002	322.12
271.234	304.12
271.466	307.12
271.698	351.12
271.93	314.12
272.162	337.12
272.394	312.12
272.626	326.12
272.858	315.12
273.09	310.12
273.322	297.12
273.553	288.12
273.785	292.12
274.017	285.12
274.249	299.12
274.481	287.12
274.713	323.12
274.945	294.12
275.176	310.12
275.408	287.12
275.64	298.12
275.872	315.12
276.104	315.12
276.335	311.12
276.567	316.12
276.799	299.12
277.031	342.12
277.262	343.12
277.494	340.12
277.726	342.12
277.957	330.12
278.189	326.12
278.421	331.12
278.652	317.12
278.884	306.12
279.115	310.12
279.347	322.12
279.579	314.12
279.81	324.12
280.042	329.12
280.273	336.12
280.505	334.12
280.736	322.12
280.968	315.12
281.199	326.12
281.431	325.12
281.662	306.12
281.894	307.12
282.125	310.12
282.356	336.12
282.588	347.12
282.819	346.12
283.051	340.12
283.282	335.12
283.513	334.12
283.745	340.12
283.976	339.12
284.207	343.12
284.439	359.12
284.67	336.12
284.901	333.12
285.132	346.12
285.364	352.12
285.595	325.12
285.826	333.12
286.057	330.12
286.288	354.12
286.52	331.12
286.751	351.12
286.982	364.12
287.213	345.12
287.444	331.12
287.675	331.12
287.906	371.12
288.138	382.12
288.369	363.12
288.6	341.12
288.831	358.12
289.062	376.12
289.293	356.12
289.524	358.12
289.755	360.12
289.986	353.12
290.217	363.12
290.448	370.12
290.679	366.12
290.91	361.12
291.141	356.12
291.371	360.12
291.602	367.12
291.833	362.12
292.064	357.12
292.295	352.12
292.526	352.12
292.757	360.12
292.987	367.12
293.218	366.12
293.449	363.12
293.68	353.12
293.91	355.12
294.141	370.12
294.372	363.12
294.603	371.12
294.833	366.12
295.064	382.12
295.295	359.12
295.525	355.12
295.756	375.12
295.987	382.12
296.217	384.12
296.448	389.12
296.679	382.12
296.909	379.12
297.14	373.12
297.37	391.12
297.601	363.12
297.831	358.12
298.062	399.12
298.292	376.12
298.523	378.12
298.753	383.12
298.984	401.12
299.214	405.12
299.445	374.12
299.675	375.12
299.905	377.12
300.136	391.12
300.366	388.12
300.597	392.12
300.827	390.12
301.057	392.12
301.288	397.12
301.518	410.12
301.748	400.12
301.979	438.12
302.209	416.12
302.439	427.12
302.669	417.12
302.9	427.12
303.13	390.12
303.36	417.12
303.59	432.12
303.82	408.12
304.051	409.12
304.281	414.12
304.511	394.12
304.741	410.12
304.971	390.12
305.201	418.12
305.431	438.12
305.661	418.12
305.891	408.12
306.121	405.12
306.352	426.12
306.582	411.12
306.812	395.12
307.042	412.12
307.272	422.12
307.502	393.12
307.731	423.12
307.961	404.12
308.191	414.12
308.421	404.12
308.651	423.12
308.881	397.12
309.111	428.12
309.341	411.12
309.571	443.12
309.8	430.12
310.03	444.12
310.26	436.12
310.49	442.12
310.72	433.12
310.949	446.12
311.179	444.12
311.409	453.12
311.639	431.12
311.868	451.12
312.098	439.12
312.328	435.12
312.557	463.12
312.787	489.12
313.017	480.12
313.246	472.12
313.476	458.12
313.706	461.12
313.935	443.12
314.165	454.12
314.394	471.12
314.624	482.12
314.853	448.12
315.083	457.12
315.312	459.12
315.542	436.12
315.771	450.12
316.001	447.12
316.23	427.12
316.46	456.12
316.689	456.12
316.919	455.12
317.148	465.12
317.377	446.12
317.607	455.12
317.836	446.12
318.065	447.12
318.295	452.12
318.524	456.12
318.753	459.12
318.983	450.12
319.212	440.12
319.441	470.12
319.67	475.12
319.9	468.12
320.129	467.12
320.358	468.12
320.587	456.12
320.816	455.12
321.046	456.12
321.275	485.12
321.504	472.12
321.733	479.12
321.962	480.12
322.191	461.12
322.42	490.12
322.649	514.12
322.878	512.12
323.108	503.12
323.337	502.12
323.566	519.12
323.795	555.12
324.024	601.12
324.253	645.12
324.482	832.12
324.71	1194.12
324.939	1721.12
325.168	1517.12
325.397	826.12
325.626	638.12
325.855	576.12
326.084	574.12
326.313	554.12
326.542	555.12
326.77	584.12
326.999	645.12
327.228	818.12
327.457	1129.12
327.686	1399.12
327.914	948.12
328.143	688.12
328.372	626.12
328.6	625.12
328.829	585.12
329.058	583.12
329.287	591.12
329.515	571.12
329.744	553.12
329.972	551.12
330.201	574.12
330.43	610.12
330.658	633.12
330.887	628.12
331.115	623.12
331.344	578.12
331.572	562.12
331.801	570.12
332.03	595.12
332.258	571.12
332.486	575.12
332.715	582.12
332.943	593.12
333.172	592.12
333.4	588.12
333.629	642.12
333.857	617.12
334.085	630.12
334.314	649.12
334.542	651.12
334.771	682.12
334.999	641.12
335.227	616.12
335.455	582.12
335.684	605.12
335.912	600.12
336.14	575.12
336.369	595.12
336.597	578.12
336.825	587.12
337.053	576.12
337.281	560.12
337.51	571.12
337.738	569.12
337.966	554.12
338.194	555.12
338.422	568.12
338.65	542.12
338.878	522.12
339.106	579.12
339.334	548.12
339.562	528.12
339.79	527.12
340.018	521.12
340.246	532.12
340.474	527.12
340.702	543.12
340.93	553.12
341.158	532.12
341.386	515.12
341.614	522.12
341.842	542.12
342.07	535.12
342.298	515.12
342.526	522.12
342.754	495.12
342.981	528.12
343.209	492.12
343.437	551.12
343.665	555.12
343.893	572.12
344.12	589.12
344.348	600.12
344.576	575.12
344.804	557.12
345.031	553.12
345.259	549.12
345.487	530.12
345.714	514.12
345.942	504.12
346.17	490.12
346.397	504.12
346.625	514.12
346.853	519.12
347.08	509.12
347.308	505.12
347.535	527.12
347.763	536.12
347.99	514.12
348.218	507.12
348.445	522.12
348.673	518.12
348.9	507.12
349.128	520.12
349.355	510.12
349.583	507.12
349.81	489.12
350.037	513.12
350.265	500.12
350.492	491.12
350.72	502.12
350.947	503.12
351.174	507.12
351.402	515.12
351.629	510.12
351.856	505.12
352.083	504.12
352.311	502.12
352.538	501.12
352.765	496.12
352.992	484.12
353.22	486.12
353.447	487.12
353.674	496.12
353.901	487.12
354.128	497.12
354.355	489.12
354.583	477.12
354.81	483.12
355.037	480.12
355.264	483.12
355.491	475.12
355.718	479.12
355.945	465.12
356.172	453.12
356.399	476.12
356.626	499.12
356.853	495.12
357.08	472.12
357.307	467.12
357.534	468.12
357.761	499.12
357.988	499.12
358.215	492.12
358.441	489.12
358.668	483.12
358.895	491.12
359.122	507.12
359.349	509.12
359.576	512.12
359.802	503.12
360.029	531.12
360.256	537.12
360.483	530.12
360.709	495.12
360.936	500.12
361.163	503.12
361.39	495.12
361.616	496.12
361.843	502.12
362.07	497.12
362.296	508.12
362.523	503.12
362.749	470.12
362.976	486.12
363.203	484.12
363.429	491.12
363.656	504.12
363.882	474.12
364.109	491.12
364.335	495.12
364.562	503.12
364.788	494.12
365.015	498.12
365.241	490.12
365.468	484.12
365.694	479.12
365.92	507.12
366.147	493.12
366.373	497.12
366.599	473.12
366.826	465.12
367.052	489.12
367.278	500.12
367.505	499.12
367.731	519.12
367.957	479.12
368.184	494.12
368.41	482.12
368.636	484.12
368.862	504.12
369.089	539.12
369.315	488.12
369.541	494.12
369.767	480.12
369.993	500.12
370.219	502.12
370.445	521.12
370.672	530.12
370.898	503.12
371.124	511.12
371.35	514.12
371.576	507.12
371.802	544.12
372.028	492.12
372.254	508.12
372.48	504.12
372.706	534.12
372.932	539.12
373.158	514.12
373.384	522.12
373.61	517.12
373.835	525.12
374.061	518.12
374.287	512.12
374.513	521.12
374.739	554.12
374.965	566.12
375.191	567.12
375.416	527.12
375.642	563.12
375.868	560.12
376.094	544.12
376.319	531.12
376.545	516.12
376.771	515.12
376.997	512.12
377.222	501.12
377.448	506.12
377.674	511.12
377.899	491.12
378.125	509.12
378.35	502.12
378.576	538.12
378.802	528.12
379.027	526.12
379.253	507.12
379.478	511.12
379.704	529.12
379.929	495.12
380.155	521.12
380.38	528.12
380.606	510.12
380.831	529.12
381.057	520.12
381.282	534.12
381.507	544.12
381.733	538.12
381.958	532.12
382.184	515.12
382.409	538.12
382.634	529.12
382.86	531.12
383.085	525.12
383.31	552.12
383.535	545.12
383.761	547.12
383.986	555.12
384.211	556.12
384.436	569.12
384.662	584.12
384.887	576.12
385.112	594.12
385.337	600.12
385.562	599.12
385.787	592.12
386.013	633.12
386.238	604.12
386.463	591.12
386.688	615.12
386.913	614.12
387.138	565.12
387.363	602.12
387.588	604.12
387.813	600.12
388.038	584.12
388.263	590.12
388.488	604.12
388.713	598.12
388.938	582.12
389.163	585.12
389.387	575.12
389.612	574.12
389.837	582.12
390.062	587.12
390.287	586.12
390.512	587.12
390.736	576.12
390.961	592.12
391.186	625.12
391.411	628.12
391.636	627.12
391.86	627.12
392.085	632.12
392.31	639.12
392.534	636.12
392.759	628.12
392.984	631.12
393.208	632.12
393.433	609.12
393.658	617.12
393.882	609.12
394.107	609.12
394.331	619.12
394.556	641.12
394.78	618.12
395.005	624.12
395.229	613.12
395.454	631.12
395.678	647.12
395.903	658.12
396.127	654.12
396.352	650.12
396.576	635.12
396.801	619.12
397.025	624.12
397.249	627.12
397.474	661.12
397.698	654.12
397.922	649.12
398.147	670.12
398.371	694.12
398.595	665.12
398.82	696.12
399.044	742.12
399.268	773.12
399.492	840.12
399.717	922.12
399.941	966.12
400.165	922.12
400.389	888.12
400.613	821.12
400.837	750.12
401.062	733.12
401.286	732.12
401.51	720.12
401.734	715.12
401.958	718.12
402.182	706.12
402.406	706.12
402.63	745.12
402.854	752.12
403.078	742.12
403.302	771.12
403.526	775.12
403.75	790.12
403.974	778.12
404.198	774.12
404.422	786.12
404.645	804.12
404.869	781.12
405.093	837.12
405.317	820.12
405.541	834.12
405.765	819.12
405.988	796.12
406.212	788.12
406.436	832.12
406.66	815.12
406.883	800.12
407.107	866.12
407.331	882.12
407.555	966.12
407.778	931.12
408.002	881.12
408.226	859.12
408.449	818.12
408.673	807.12
408.896	833.12
409.12	856.12
409.344	830.12
409.567	770.12
409.791	775.12
410.014	763.12
410.238	748.12
410.461	759.12
410.685	761.12
410.908	754.12
411.132	758.12
411.355	786.12
411.578	777.12
411.802	754.12
412.025	730.12
412.249	773.12
412.472	809.12
412.695	797.12
412.919	784.12
413.142	730.12
413.365	735.12
413.589	733.12
413.812	699.12
414.035	732.12
414.258	712.12
414.482	703.12
414.705	715.12
414.928	708.12
415.151	716.12
415.374	706.12
415.597	664.12
415.821	670.12
416.044	731.12
416.267	702.12
416.49	692.12
416.713	692.12
416.936	699.12
417.159	706.12
417.382	732.12
417.605	707.12
417.828	716.12
418.051	710.12
418.274	747.12
418.497	706.12
418.72	720.12
418.943	700.12
419.166	748.12
419.389	809.12
419.611	772.12
419.834	770.12
420.057	747.12
420.28	716.12
420.503	754.12
420.726	730.12
420.948	731.12
421.171	754.12
421.394	774.12
421.617	728.12
421.839	718.12
422.062	717.12
422.285	713.12
422.507	795.12
422.73	806.12
422.953	851.12
423.175	752.12
423.398	763.12
423.621	755.12
423.843	766.12
424.066	747.12
424.288	772.12
424.511	767.12
424.733	822.12
424.956	871.12
425.178	827.12
425.401	821.12
425.623	828.12
425.846	777.12
426.068	741.12
426.291	728.12
426.513	729.12
426.735	727.12
426.958	751.12
427.18	803.12
427.402	920.12
427.625	985.12
427.847	857.12
428.069	825.12
428.292	740.12
428.514	724.12
428.736	709.12
428.958	694.12
429.181	661.12
429.403	660.12
429.625	666.12
429.847	714.12
430.069	739.12
430.292	740.12
430.514	663.12
430.736	660.12
430.958	684.12
431.18	667.12
431.402	665.12
431.624	647.12
431.846	672.12
432.068	668.12
432.29	685.12
432.512	647.12
432.734	651.12
432.956	646.12
433.178	635.12
433.4	667.12
433.622	671.12
433.844	655.12
434.066	677.12
434.287	684.12
434.509	658.12
434.731	698.12
434.953	706.12
435.175	721.12
435.397	754.12
435.618	714.12
435.84	753.12
436.062	830.12
436.284	871.12
436.505	743.12
436.727	729.12
436.949	690.12
437.17	683.12
437.392	657.12
437.614	684.12
437.835	702.12
438.057	786.12
438.278	836.12
438.5	842.12
438.721	908.12
438.943	882.12
439.165	731.12
439.386	699.12
439.608	708.12
439.829	711.12
440.05	738.12
440.272	751.12
440.493	727.12
440.715	705.12
440.936	704.12
441.158	707.12
441.379	696.12
441.6	737.12
441.822	742.12
442.043	767.12
442.264	826.12
442.486	858.12
442.707	783.12
442.928	740.12
443.149	747.12
443.371	771.12
443.592	794.12
443.813	889.12
444.034	939.12
444.255	816.12
444.476	786.12
444.698	796.12
444.919	807.12
445.14	921.12
445.361	822.12
445.582	791.12
445.803	824.12
446.024	882.12
446.245	881.12
446.466	839.12
446.687	753.12
446.908	704.12
447.129	667.12
447.35	680.12
447.571	660.12
447.792	642.12
448.013	646.12
448.234	662.12
448.455	695.12
448.675	770.12
448.896	882.12
449.117	766.12
449.338	734.12
449.559	836.12
449.779	931.12
450	747.12
450.221	638.12
450.442	629.12
450.662	625.12
450.883	628.12
451.104	647.12
451.324	631.12
451.545	615.12
451.766	606.12
451.986	612.12
452.207	599.12
452.428	605.12
452.648	583.12
452.869	566.12
453.089	611.12
453.31	600.12
453.53	612.12
453.751	597.12
453.971	597.12
454.192	599.12
454.412	600.12
454.633	576.12
454.853	562.12
455.073	607.12
455.294	609.12
455.514	643.12
455.734	635.12
455.955	614.12
456.175	575.12
456.395	553.12
456.616	564.12
456.836	554.12
457.056	546.12
457.276	544.12
457.497	579.12
457.717	553.12
457.937	581.12
458.157	595.12
458.377	586.12
458.598	606.12
458.818	645.12
459.038	722.12
459.258	746.12
459.478	699.12
459.698	686.12
459.918	688.12
460.138	687.12
460.358	708.12
460.578	713.12
460.798	730.12
461.018	707.12
461.238	700.12
461.458	737.12
461.678	708.12
461.898	722.12
462.118	723.12
462.338	724.12
462.558	773.12
462.777	770.12
462.997	853.12
463.217	876.12
463.437	867.12
463.657	810.12
463.876	791.12
464.096	811.12
464.316	784.12
464.536	805.12
464.755	814.12
464.975	781.12
465.195	771.12
465.414	795.12
465.634	739.12
465.854	701.12
466.073	657.12
466.293	634.12
466.512	649.12
466.732	614.12
466.951	630.12
467.171	628.12
467.391	617.12
467.61	619.12
467.829	630.12
468.049	637.12
468.268	625.12
468.488	597.12
468.707	602.12
468.927	596.12
469.146	606.12
469.365	618.12
469.585	590.12
469.804	627.12
470.023	631.12
470.243	644.12
470.462	674.12
470.681	669.12
470.901	683.12
471.12	637.12
471.339	633.12
471.558	642.12
471.777	656.12
471.997	634.12
472.216	609.12
472.435	665.12
472.654	639.12
472.873	619.12
473.092	601.12
473.311	614.12
473.53	608.12
473.749	626.12
473.968	662.12
474.187	695.12
474.406	722.12
474.625	646.12
474.844	633.12
475.063	617.12
475.282	614.12
475.501	622.12
475.72	646.12
475.939	636.12
476.158	640.12
476.377	626.12
476.596	614.12
476.814	644.12
477.033	672.12
477.252	679.12
477.471	696.12
477.69	658.12
477.908	706.12
478.127	724.12
478.346	703.12
478.564	730.12
478.783	718.12
479.002	750.12
479.22	745.12
479.439	753.12
479.658	773.12
479.876	780.12
480.095	779.12
480.313	837.12
480.532	815.12
480.751	831.12
480.969	804.12
481.188	816.12
481.406	871.12
481.624	786.12
481.843	756.12
482.061	740.12
482.28	734.12
482.498	715.12
482.717	732.12
482.935	734.12
483.153	737.12
483.372	724.12
483.59	743.12
483.808	719.12
484.027	721.12
484.245	734.12
484.463	727.12
484.681	762.12
484.9	770.12
485.118	754.12
485.336	724.12
485.554	757.12
485.772	759.12
485.99	768.12
486.209	761.12
486.427	774.12
486.645	763.12
486.863	771.12
487.081	791.12
487.299	753.12
487.517	783.12
487.735	781.12
487.953	785.12
488.171	764.12
488.389	783.12
488.607	772.12
488.825	756.12
489.043	778.12
489.261	758.12
489.479	767.12
489.696	773.12
489.914	791.12
490.132	804.12
490.35	811.12
490.568	801.12
490.786	803.12
491.003	807.12
491.221	822.12
491.439	836.12
491.657	838.12
491.874	839.12
492.092	854.12
492.31	840.12
492.527	858.12
492.745	876.12
492.963	882.12
493.18	887.12
493.398	874.12
493.615	889.12
493.833	866.12
494.05	887.12
494.268	884.12
494.485	874.12
494.703	874.12
494.92	914.12
495.138	890.12
495.355	875.12
495.573	900.12
495.79	904.12
496.008	874.12
496.225	914.12
496.442	914.12
496.66	908.12
496.877	917.12
497.094	920.12
497.312	938.12
497.529	964.12
497.746	967.12
497.963	990.12
498.181	1027.12
498.398	1081.12
498.615	1081.12
498.832	1134.12
499.049	1155.12
499.267	1270.12
499.484	1324.12
499.701	1434.12
499.918	1484.12
500.135	1623.12
500.352	1835.12
500.569	1825.12
500.786	1862.12
501.003	1778.12
501.22	1592.12
501.437	1526.12
501.654	1383.12
