Data from 1963.PennyLincolnUp.Lamp.En5.5.200Scan.071719.P1._HRD10591_13-57-55-063.txt Node
Date: Thu Jul 18 13:57:55 EDT 2019
User: cochatt
Spectrometer: HR+D1059
Trigger mode: 1
Integration Time (sec): 1.000000E-1
Scans to average: 1
Electric dark correction enabled: true
Nonlinearity correction enabled: false
Boxcar width: 0
XAxis mode: Wavelengths
Number of Pixels in Spectrum: 2048
>>>>>Begin Spectral Data<<<<<
223.165	-10.06
223.4	-10.06
223.635	-10.06
223.869	-23.06
224.104	-23.06
224.338	-10.06
224.573	-17.06
224.808	-2.06
225.042	-8.06
225.277	-10.06
225.511	-0.06
225.746	0.94
225.98	15.94
226.215	-4.06
226.449	20.94
226.683	3.94
226.918	26.94
227.152	38.94
227.387	25.94
227.621	35.94
227.856	36.94
228.09	47.94
228.324	65.94
228.559	63.94
228.793	71.94
229.027	96.94
229.262	87.94
229.496	97.94
229.73	104.94
229.964	116.94
230.199	123.94
230.433	115.94
230.667	115.94
230.901	105.94
231.136	104.94
231.37	119.94
231.604	119.94
231.838	108.94
232.072	99.94
232.306	118.94
232.541	120.94
232.775	106.94
233.009	122.94
233.243	120.94
233.477	120.94
233.711	126.94
233.945	99.94
234.179	119.94
234.413	131.94
234.647	126.94
234.881	125.94
235.115	125.94
235.349	122.94
235.583	116.94
235.817	144.94
236.051	133.94
236.285	119.94
236.519	126.94
236.753	125.94
236.987	132.94
237.221	145.94
237.455	190.94
237.689	148.94
237.922	133.94
238.156	130.94
238.39	123.94
238.624	122.94
238.858	124.94
239.091	131.94
239.325	129.94
239.559	126.94
239.793	152.94
240.027	135.94
240.26	136.94
240.494	147.94
240.728	135.94
240.961	150.94
241.195	146.94
241.429	133.94
241.662	142.94
241.896	127.94
242.13	137.94
242.363	150.94
242.597	146.94
242.83	145.94
243.064	133.94
243.298	138.94
243.531	152.94
243.765	160.94
243.998	155.94
244.232	159.94
244.465	143.94
244.699	161.94
244.932	149.94
245.166	173.94
245.399	151.94
245.633	162.94
245.866	169.94
246.099	159.94
246.333	155.94
246.566	172.94
246.8	156.94
247.033	160.94
247.266	160.94
247.5	164.94
247.733	164.94
247.966	170.94
248.2	186.94
248.433	187.94
248.666	194.94
248.899	191.94
249.133	193.94
249.366	207.94
249.599	211.94
249.832	208.94
250.066	201.94
250.299	194.94
250.532	191.94
250.765	208.94
250.998	217.94
251.231	211.94
251.465	206.94
251.698	199.94
251.931	203.94
252.164	194.94
252.397	209.94
252.63	216.94
252.863	215.94
253.096	221.94
253.329	231.94
253.562	227.94
253.795	227.94
254.028	217.94
254.261	215.94
254.494	222.94
254.727	243.94
254.96	256.94
255.193	242.94
255.426	248.94
255.659	235.94
255.892	207.94
256.124	228.94
256.357	228.94
256.59	236.94
256.823	205.94
257.056	207.94
257.289	219.94
257.521	221.94
257.754	207.94
257.987	226.94
258.22	206.94
258.452	235.94
258.685	211.94
258.918	210.94
259.151	219.94
259.383	227.94
259.616	239.94
259.849	236.94
260.081	237.94
260.314	245.94
260.547	244.94
260.779	230.94
261.012	243.94
261.244	230.94
261.477	220.94
261.71	229.94
261.942	245.94
262.175	243.94
262.407	235.94
262.64	217.94
262.872	233.94
263.105	227.94
263.337	226.94
263.57	229.94
263.802	232.94
264.035	220.94
264.267	242.94
264.499	204.94
264.732	237.94
264.964	234.94
265.197	247.94
265.429	231.94
265.661	235.94
265.894	245.94
266.126	255.94
266.358	245.94
266.591	253.94
266.823	233.94
267.055	262.94
267.287	269.94
267.52	244.94
267.752	231.94
267.984	261.94
268.216	248.94
268.448	277.94
268.681	246.94
268.913	269.94
269.145	277.94
269.377	277.94
269.609	287.94
269.841	265.94
270.073	272.94
270.306	273.94
270.538	295.94
270.77	308.94
271.002	279.94
271.234	300.94
271.466	298.94
271.698	284.94
271.93	305.94
272.162	323.94
272.394	313.94
272.626	290.94
272.858	289.94
273.09	298.94
273.322	294.94
273.553	286.94
273.785	293.94
274.017	276.94
274.249	295.94
274.481	296.94
274.713	295.94
274.945	283.94
275.176	299.94
275.408	274.94
275.64	275.94
275.872	289.94
276.104	308.94
276.335	295.94
276.567	296.94
276.799	298.94
277.031	327.94
277.262	316.94
277.494	320.94
277.726	317.94
277.957	298.94
278.189	313.94
278.421	303.94
278.652	305.94
278.884	285.94
279.115	312.94
279.347	314.94
279.579	285.94
279.81	291.94
280.042	303.94
280.273	313.94
280.505	293.94
280.736	303.94
280.968	301.94
281.199	295.94
281.431	304.94
281.662	271.94
281.894	300.94
282.125	303.94
282.356	322.94
282.588	311.94
282.819	327.94
283.051	323.94
283.282	323.94
283.513	331.94
283.745	330.94
283.976	315.94
284.207	333.94
284.439	316.94
284.67	308.94
284.901	328.94
285.132	326.94
285.364	330.94
285.595	341.94
285.826	328.94
286.057	327.94
286.288	322.94
286.52	318.94
286.751	329.94
286.982	311.94
287.213	335.94
287.444	323.94
287.675	325.94
287.906	337.94
288.138	338.94
288.369	324.94
288.6	343.94
288.831	343.94
289.062	325.94
289.293	311.94
289.524	343.94
289.755	342.94
289.986	346.94
290.217	325.94
290.448	330.94
290.679	353.94
290.91	336.94
291.141	356.94
291.371	339.94
291.602	369.94
291.833	361.94
292.064	352.94
292.295	344.94
292.526	371.94
292.757	351.94
292.987	341.94
293.218	370.94
293.449	352.94
293.68	352.94
293.91	347.94
294.141	341.94
294.372	325.94
294.603	340.94
294.833	349.94
295.064	355.94
295.295	338.94
295.525	330.94
295.756	333.94
295.987	352.94
296.217	379.94
296.448	372.94
296.679	364.94
296.909	343.94
297.14	360.94
297.37	367.94
297.601	361.94
297.831	357.94
298.062	359.94
298.292	365.94
298.523	368.94
298.753	382.94
298.984	381.94
299.214	371.94
299.445	372.94
299.675	381.94
299.905	373.94
300.136	361.94
300.366	389.94
300.597	393.94
300.827	405.94
301.057	397.94
301.288	384.94
301.518	374.94
301.748	386.94
301.979	395.94
302.209	383.94
302.439	402.94
302.669	411.94
302.9	384.94
303.13	367.94
303.36	392.94
303.59	383.94
303.82	407.94
304.051	397.94
304.281	403.94
304.511	398.94
304.741	395.94
304.971	406.94
305.201	402.94
305.431	398.94
305.661	405.94
305.891	390.94
306.121	385.94
306.352	397.94
306.582	391.94
306.812	384.94
307.042	407.94
307.272	403.94
307.502	396.94
307.731	390.94
307.961	385.94
308.191	405.94
308.421	398.94
308.651	405.94
308.881	400.94
309.111	387.94
309.341	401.94
309.571	396.94
309.8	405.94
310.03	427.94
310.26	411.94
310.49	404.94
310.72	429.94
310.949	445.94
311.179	444.94
311.409	436.94
311.639	409.94
311.868	427.94
312.098	431.94
312.328	436.94
312.557	422.94
312.787	443.94
313.017	442.94
313.246	444.94
313.476	431.94
313.706	428.94
313.935	433.94
314.165	411.94
314.394	464.94
314.624	428.94
314.853	453.94
315.083	439.94
315.312	418.94
315.542	443.94
315.771	431.94
316.001	423.94
316.23	431.94
316.46	427.94
316.689	428.94
316.919	428.94
317.148	445.94
317.377	440.94
317.607	436.94
317.836	434.94
318.065	426.94
318.295	429.94
318.524	411.94
318.753	447.94
318.983	427.94
319.212	433.94
319.441	441.94
319.67	426.94
319.9	435.94
320.129	420.94
320.358	435.94
320.587	428.94
320.816	432.94
321.046	439.94
321.275	441.94
321.504	432.94
321.733	451.94
321.962	440.94
322.191	433.94
322.42	442.94
322.649	446.94
322.878	458.94
323.108	468.94
323.337	468.94
323.566	457.94
323.795	502.94
324.024	517.94
324.253	570.94
324.482	709.94
324.71	992.94
324.939	1419.94
325.168	1250.94
325.397	724.94
325.626	554.94
325.855	522.94
326.084	504.94
326.313	514.94
326.542	501.94
326.77	530.94
326.999	589.94
327.228	674.94
327.457	948.94
327.686	1104.94
327.914	803.94
328.143	635.94
328.372	564.94
328.6	542.94
328.829	518.94
329.058	532.94
329.287	555.94
329.515	545.94
329.744	531.94
329.972	516.94
330.201	529.94
330.43	540.94
330.658	567.94
330.887	565.94
331.115	547.94
331.344	541.94
331.572	511.94
331.801	519.94
332.03	556.94
332.258	523.94
332.486	531.94
332.715	545.94
332.943	544.94
333.172	573.94
333.4	572.94
333.629	587.94
333.857	603.94
334.085	606.94
334.314	609.94
334.542	615.94
334.771	628.94
334.999	615.94
335.227	557.94
335.455	585.94
335.684	546.94
335.912	527.94
336.14	532.94
336.369	516.94
336.597	534.94
336.825	555.94
337.053	528.94
337.281	514.94
337.51	516.94
337.738	542.94
337.966	503.94
338.194	509.94
338.422	537.94
338.65	495.94
338.878	518.94
339.106	500.94
339.334	509.94
339.562	502.94
339.79	518.94
340.018	482.94
340.246	505.94
340.474	491.94
340.702	508.94
340.93	489.94
341.158	488.94
341.386	499.94
341.614	501.94
341.842	526.94
342.07	487.94
342.298	491.94
342.526	509.94
342.754	500.94
342.981	485.94
343.209	501.94
343.437	521.94
343.665	542.94
343.893	556.94
344.12	581.94
344.348	577.94
344.576	557.94
344.804	523.94
345.031	516.94
345.259	504.94
345.487	515.94
345.714	487.94
345.942	496.94
346.17	468.94
346.397	473.94
346.625	475.94
346.853	490.94
347.08	478.94
347.308	488.94
347.535	478.94
347.763	498.94
347.99	457.94
348.218	471.94
348.445	470.94
348.673	473.94
348.9	475.94
349.128	477.94
349.355	470.94
349.583	461.94
349.81	462.94
350.037	469.94
350.265	468.94
350.492	462.94
350.72	471.94
350.947	470.94
351.174	489.94
351.402	453.94
351.629	465.94
351.856	467.94
352.083	476.94
352.311	466.94
352.538	474.94
352.765	472.94
352.992	480.94
353.22	459.94
353.447	486.94
353.674	474.94
353.901	473.94
354.128	459.94
354.355	459.94
354.583	460.94
354.81	465.94
355.037	466.94
355.264	435.94
355.491	461.94
355.718	456.94
355.945	460.94
356.172	472.94
356.399	473.94
356.626	459.94
356.853	452.94
357.08	467.94
357.307	470.94
357.534	460.94
357.761	467.94
357.988	457.94
358.215	450.94
358.441	466.94
358.668	470.94
358.895	482.94
359.122	468.94
359.349	494.94
359.576	484.94
359.802	487.94
360.029	465.94
360.256	500.94
360.483	483.94
360.709	465.94
360.936	473.94
361.163	469.94
361.39	488.94
361.616	483.94
361.843	473.94
362.07	476.94
362.296	454.94
362.523	493.94
362.749	474.94
362.976	475.94
363.203	461.94
363.429	480.94
363.656	458.94
363.882	471.94
364.109	462.94
364.335	474.94
364.562	463.94
364.788	470.94
365.015	480.94
365.241	483.94
365.468	470.94
365.694	471.94
365.92	453.94
366.147	451.94
366.373	480.94
366.599	472.94
366.826	460.94
367.052	467.94
367.278	462.94
367.505	467.94
367.731	478.94
367.957	456.94
368.184	464.94
368.41	497.94
368.636	459.94
368.862	487.94
369.089	479.94
369.315	481.94
369.541	470.94
369.767	465.94
369.993	482.94
370.219	474.94
370.445	463.94
370.672	480.94
370.898	492.94
371.124	513.94
371.35	487.94
371.576	487.94
371.802	515.94
372.028	479.94
372.254	490.94
372.48	501.94
372.706	509.94
372.932	505.94
373.158	517.94
373.384	490.94
373.61	509.94
373.835	506.94
374.061	491.94
374.287	488.94
374.513	511.94
374.739	515.94
374.965	513.94
375.191	524.94
375.416	540.94
375.642	525.94
375.868	517.94
376.094	504.94
376.319	488.94
376.545	499.94
376.771	483.94
376.997	458.94
377.222	506.94
377.448	477.94
377.674	511.94
377.899	513.94
378.125	500.94
378.35	493.94
378.576	470.94
378.802	480.94
379.027	489.94
379.253	491.94
379.478	492.94
379.704	489.94
379.929	485.94
380.155	496.94
380.38	500.94
380.606	484.94
380.831	492.94
381.057	479.94
381.282	461.94
381.507	490.94
381.733	495.94
381.958	503.94
382.184	513.94
382.409	514.94
382.634	528.94
382.86	509.94
383.085	540.94
383.31	518.94
383.535	545.94
383.761	529.94
383.986	559.94
384.211	543.94
384.436	549.94
384.662	534.94
384.887	561.94
385.112	600.94
385.337	568.94
385.562	555.94
385.787	593.94
386.013	568.94
386.238	588.94
386.463	578.94
386.688	577.94
386.913	575.94
387.138	582.94
387.363	568.94
387.588	580.94
387.813	557.94
388.038	569.94
388.263	554.94
388.488	593.94
388.713	563.94
388.938	572.94
389.163	539.94
389.387	564.94
389.612	561.94
389.837	568.94
390.062	570.94
390.287	559.94
390.512	562.94
390.736	565.94
390.961	589.94
391.186	576.94
391.411	598.94
391.636	585.94
391.86	613.94
392.085	607.94
392.31	587.94
392.534	621.94
392.759	595.94
392.984	589.94
393.208	594.94
393.433	596.94
393.658	600.94
393.882	579.94
394.107	568.94
394.331	612.94
394.556	589.94
394.78	589.94
395.005	623.94
395.229	635.94
395.454	631.94
395.678	622.94
395.903	634.94
396.127	637.94
396.352	629.94
396.576	611.94
396.801	593.94
397.025	610.94
397.249	613.94
397.474	635.94
397.698	643.94
397.922	653.94
398.147	658.94
398.371	652.94
398.595	670.94
398.82	679.94
399.044	715.94
399.268	757.94
399.492	837.94
399.717	922.94
399.941	928.94
400.165	880.94
400.389	884.94
400.613	784.94
400.837	741.94
401.062	705.94
401.286	684.94
401.51	687.94
401.734	693.94
401.958	671.94
402.182	695.94
402.406	714.94
402.63	726.94
402.854	715.94
403.078	725.94
403.302	731.94
403.526	758.94
403.75	753.94
403.974	741.94
404.198	749.94
404.422	760.94
404.645	729.94
404.869	747.94
405.093	762.94
405.317	777.94
405.541	802.94
405.765	747.94
405.988	778.94
406.212	765.94
406.436	771.94
406.66	756.94
406.883	785.94
407.107	796.94
407.331	860.94
407.555	918.94
407.778	878.94
408.002	844.94
408.226	803.94
408.449	793.94
408.673	774.94
408.896	788.94
409.12	806.94
409.344	775.94
409.567	743.94
409.791	739.94
410.014	732.94
410.238	720.94
410.461	724.94
410.685	700.94
410.908	706.94
411.132	752.94
411.355	765.94
411.578	739.94
411.802	703.94
412.025	700.94
412.249	716.94
412.472	733.94
412.695	743.94
412.919	757.94
413.142	700.94
413.365	672.94
413.589	702.94
413.812	677.94
414.035	691.94
414.258	669.94
414.482	683.94
414.705	697.94
414.928	693.94
415.151	660.94
415.374	684.94
415.597	671.94
415.821	668.94
416.044	663.94
416.267	680.94
416.49	664.94
416.713	670.94
416.936	689.94
417.159	670.94
417.382	667.94
417.605	670.94
417.828	697.94
418.051	672.94
418.274	670.94
418.497	678.94
418.72	704.94
418.943	691.94
419.166	728.94
419.389	738.94
419.611	734.94
419.834	724.94
420.057	698.94
420.28	703.94
420.503	678.94
420.726	685.94
420.948	701.94
421.171	702.94
421.394	748.94
421.617	682.94
421.839	692.94
422.062	693.94
422.285	676.94
422.507	713.94
422.73	793.94
422.953	782.94
423.175	709.94
423.398	729.94
423.621	707.94
423.843	736.94
424.066	723.94
424.288	726.94
424.511	747.94
424.733	740.94
424.956	805.94
425.178	781.94
425.401	779.94
425.623	779.94
425.846	701.94
426.068	693.94
426.291	700.94
426.513	689.94
426.735	689.94
426.958	706.94
427.18	765.94
427.402	849.94
427.625	879.94
427.847	801.94
428.069	724.94
428.292	698.94
428.514	673.94
428.736	652.94
428.958	649.94
429.181	631.94
429.403	627.94
429.625	649.94
429.847	643.94
430.069	689.94
430.292	695.94
430.514	643.94
430.736	629.94
430.958	604.94
431.18	592.94
431.402	605.94
431.624	607.94
431.846	624.94
432.068	617.94
432.29	636.94
432.512	627.94
432.734	649.94
432.956	633.94
433.178	624.94
433.4	609.94
433.622	623.94
433.844	624.94
434.066	609.94
434.287	620.94
434.509	660.94
434.731	647.94
434.953	679.94
435.175	701.94
435.397	705.94
435.618	680.94
435.84	704.94
436.062	725.94
436.284	763.94
436.505	701.94
436.727	669.94
436.949	645.94
437.17	648.94
437.392	619.94
437.614	639.94
437.835	665.94
438.057	729.94
438.278	786.94
438.5	761.94
438.721	804.94
438.943	798.94
439.165	706.94
439.386	651.94
439.608	673.94
439.829	637.94
440.05	645.94
440.272	687.94
440.493	681.94
440.715	648.94
440.936	643.94
441.158	667.94
441.379	663.94
441.6	663.94
441.822	717.94
442.043	724.94
442.264	753.94
442.486	785.94
442.707	727.94
442.928	693.94
443.149	726.94
443.371	732.94
443.592	713.94
443.813	807.94
444.034	843.94
444.255	794.94
444.476	735.94
444.698	775.94
444.919	775.94
445.14	887.94
445.361	803.94
445.582	749.94
445.803	756.94
446.024	791.94
446.245	817.94
446.466	772.94
446.687	723.94
446.908	652.94
447.129	659.94
447.35	628.94
447.571	614.94
447.792	620.94
448.013	633.94
448.234	627.94
448.455	657.94
448.675	732.94
448.896	804.94
449.117	691.94
449.338	668.94
449.559	727.94
449.779	824.94
450	695.94
450.221	632.94
450.442	589.94
450.662	597.94
450.883	587.94
451.104	595.94
451.324	577.94
451.545	600.94
451.766	574.94
451.986	563.94
452.207	543.94
452.428	587.94
452.648	580.94
452.869	543.94
453.089	559.94
453.31	577.94
453.53	567.94
453.751	561.94
453.971	568.94
454.192	552.94
454.412	547.94
454.633	539.94
454.853	547.94
455.073	520.94
455.294	565.94
455.514	601.94
455.734	605.94
455.955	532.94
456.175	545.94
456.395	535.94
456.616	513.94
456.836	521.94
457.056	540.94
457.276	515.94
457.497	540.94
457.717	532.94
457.937	531.94
458.157	543.94
458.377	546.94
458.598	589.94
458.818	603.94
459.038	652.94
459.258	691.94
459.478	641.94
459.698	629.94
459.918	654.94
460.138	663.94
460.358	660.94
460.578	674.94
460.798	691.94
461.018	701.94
461.238	690.94
461.458	666.94
461.678	713.94
461.898	698.94
462.118	711.94
462.338	723.94
462.558	743.94
462.777	772.94
462.997	803.94
463.217	841.94
463.437	841.94
463.657	796.94
463.876	767.94
464.096	773.94
464.316	792.94
464.536	744.94
464.755	735.94
464.975	746.94
465.195	724.94
465.414	728.94
465.634	672.94
465.854	663.94
466.073	620.94
466.293	628.94
466.512	613.94
466.732	616.94
466.951	596.94
467.171	615.94
467.391	597.94
467.61	584.94
467.829	607.94
468.049	595.94
468.268	596.94
468.488	563.94
468.707	564.94
468.927	573.94
469.146	572.94
469.365	582.94
469.585	595.94
469.804	621.94
470.023	612.94
470.243	614.94
470.462	643.94
470.681	634.94
470.901	669.94
471.12	612.94
471.339	605.94
471.558	628.94
471.777	618.94
471.997	623.94
472.216	601.94
472.435	630.94
472.654	612.94
472.873	570.94
473.092	581.94
473.311	570.94
473.53	602.94
473.749	585.94
473.968	625.94
474.187	665.94
474.406	657.94
474.625	612.94
474.844	595.94
475.063	576.94
475.282	600.94
475.501	601.94
475.72	593.94
475.939	614.94
476.158	606.94
476.377	607.94
476.596	591.94
476.814	628.94
477.033	617.94
477.252	644.94
477.471	629.94
477.69	635.94
477.908	647.94
478.127	680.94
478.346	670.94
478.564	682.94
478.783	690.94
479.002	694.94
479.22	705.94
479.439	701.94
479.658	715.94
479.876	737.94
480.095	746.94
480.313	787.94
480.532	789.94
480.751	768.94
480.969	756.94
481.188	787.94
481.406	808.94
481.624	719.94
481.843	721.94
482.061	717.94
482.28	692.94
482.498	699.94
482.717	685.94
482.935	688.94
483.153	691.94
483.372	684.94
483.59	665.94
483.808	694.94
484.027	673.94
484.245	691.94
484.463	672.94
484.681	708.94
484.9	694.94
485.118	710.94
485.336	701.94
485.554	699.94
485.772	708.94
485.99	737.94
486.209	733.94
486.427	716.94
486.645	721.94
486.863	730.94
487.081	723.94
487.299	732.94
487.517	731.94
487.735	716.94
487.953	723.94
488.171	752.94
488.389	713.94
488.607	730.94
488.825	723.94
489.043	735.94
489.261	721.94
489.479	753.94
489.696	731.94
489.914	758.94
490.132	755.94
490.35	775.94
490.568	741.94
490.786	764.94
491.003	762.94
491.221	781.94
491.439	768.94
491.657	791.94
491.874	785.94
492.092	785.94
492.31	786.94
492.527	809.94
492.745	809.94
492.963	854.94
493.18	781.94
493.398	817.94
493.615	839.94
493.833	847.94
494.05	847.94
494.268	833.94
494.485	828.94
494.703	832.94
494.92	855.94
495.138	837.94
495.355	823.94
495.573	843.94
495.79	825.94
496.008	819.94
496.225	854.94
496.442	829.94
496.66	879.94
496.877	879.94
497.094	866.94
497.312	897.94
497.529	903.94
497.746	906.94
497.963	933.94
498.181	998.94
498.398	988.94
498.615	1025.94
498.832	1062.94
499.049	1119.94
499.267	1187.94
499.484	1229.94
499.701	1372.94
499.918	1415.94
500.135	1527.94
500.352	1691.94
500.569	1758.94
500.786	1723.94
501.003	1665.94
501.22	1580.94
501.437	1444.94
501.654	1333.94
501.871	1270.94
