Data from 1963.PennyLincolnUp.Lamp.En5.5.200Scan.071719.P1._HRD10591_13-58-07-063.txt Node
Date: Thu Jul 18 13:58:07 EDT 2019
User: cochatt
Spectrometer: HR+D1059
Trigger mode: 1
Integration Time (sec): 1.000000E-1
Scans to average: 1
Electric dark correction enabled: true
Nonlinearity correction enabled: false
Boxcar width: 0
XAxis mode: Wavelengths
Number of Pixels in Spectrum: 2048
>>>>>Begin Spectral Data<<<<<
223.165	-23.88
223.4	-23.88
223.635	-23.88
223.869	-12.88
224.104	-17.88
224.338	-24.88
224.573	-9.88
224.808	-1.88
225.042	-1.88
225.277	-5.88
225.511	-4.88
225.746	-8.88
225.98	25.12
226.215	8.12
226.449	13.12
226.683	23.12
226.918	19.12
227.152	24.12
227.387	32.12
227.621	44.12
227.856	33.12
228.09	34.12
228.324	46.12
228.559	48.12
228.793	68.12
229.027	95.12
229.262	115.12
229.496	108.12
229.73	102.12
229.964	128.12
230.199	119.12
230.433	111.12
230.667	125.12
230.901	101.12
231.136	104.12
231.37	114.12
231.604	119.12
231.838	115.12
232.072	116.12
232.306	115.12
232.541	121.12
232.775	121.12
233.009	126.12
233.243	110.12
233.477	126.12
233.711	129.12
233.945	127.12
234.179	136.12
234.413	130.12
234.647	114.12
234.881	109.12
235.115	135.12
235.349	126.12
235.583	120.12
235.817	128.12
236.051	129.12
236.285	134.12
236.519	123.12
236.753	120.12
236.987	153.12
237.221	162.12
237.455	190.12
237.689	173.12
237.922	141.12
238.156	133.12
238.39	130.12
238.624	132.12
238.858	133.12
239.091	122.12
239.325	142.12
239.559	129.12
239.793	132.12
240.027	139.12
240.26	138.12
240.494	160.12
240.728	155.12
240.961	162.12
241.195	150.12
241.429	154.12
241.662	160.12
241.896	131.12
242.13	149.12
242.363	144.12
242.597	157.12
242.83	172.12
243.064	158.12
243.298	144.12
243.531	164.12
243.765	153.12
243.998	155.12
244.232	154.12
244.465	152.12
244.699	163.12
244.932	167.12
245.166	175.12
245.399	167.12
245.633	155.12
245.866	156.12
246.099	157.12
246.333	154.12
246.566	183.12
246.8	165.12
247.033	187.12
247.266	174.12
247.5	189.12
247.733	174.12
247.966	186.12
248.2	183.12
248.433	179.12
248.666	178.12
248.899	185.12
249.133	219.12
249.366	191.12
249.599	193.12
249.832	202.12
250.066	189.12
250.299	195.12
250.532	194.12
250.765	213.12
250.998	233.12
251.231	220.12
251.465	202.12
251.698	203.12
251.931	220.12
252.164	209.12
252.397	211.12
252.63	219.12
252.863	222.12
253.096	198.12
253.329	232.12
253.562	237.12
253.795	237.12
254.028	222.12
254.261	236.12
254.494	253.12
254.727	248.12
254.96	258.12
255.193	249.12
255.426	248.12
255.659	240.12
255.892	225.12
256.124	235.12
256.357	232.12
256.59	236.12
256.823	236.12
257.056	222.12
257.289	217.12
257.521	221.12
257.754	235.12
257.987	225.12
258.22	223.12
258.452	212.12
258.685	224.12
258.918	219.12
259.151	235.12
259.383	252.12
259.616	236.12
259.849	260.12
260.081	232.12
260.314	253.12
260.547	251.12
260.779	239.12
261.012	261.12
261.244	232.12
261.477	250.12
261.71	254.12
261.942	231.12
262.175	243.12
262.407	259.12
262.64	240.12
262.872	247.12
263.105	222.12
263.337	229.12
263.57	223.12
263.802	240.12
264.035	245.12
264.267	237.12
264.499	229.12
264.732	238.12
264.964	234.12
265.197	240.12
265.429	257.12
265.661	239.12
265.894	253.12
266.126	259.12
266.358	238.12
266.591	243.12
266.823	275.12
267.055	264.12
267.287	273.12
267.52	266.12
267.752	239.12
267.984	259.12
268.216	267.12
268.448	240.12
268.681	257.12
268.913	259.12
269.145	291.12
269.377	307.12
269.609	276.12
269.841	280.12
270.073	285.12
270.306	313.12
270.538	320.12
270.77	296.12
271.002	307.12
271.234	295.12
271.466	319.12
271.698	311.12
271.93	332.12
272.162	307.12
272.394	320.12
272.626	317.12
272.858	307.12
273.09	292.12
273.322	313.12
273.553	283.12
273.785	296.12
274.017	281.12
274.249	276.12
274.481	289.12
274.713	286.12
274.945	298.12
275.176	294.12
275.408	296.12
275.64	299.12
275.872	285.12
276.104	299.12
276.335	289.12
276.567	299.12
276.799	316.12
277.031	325.12
277.262	320.12
277.494	320.12
277.726	334.12
277.957	308.12
278.189	294.12
278.421	297.12
278.652	303.12
278.884	326.12
279.115	309.12
279.347	316.12
279.579	315.12
279.81	325.12
280.042	320.12
280.273	321.12
280.505	315.12
280.736	311.12
280.968	318.12
281.199	324.12
281.431	337.12
281.662	301.12
281.894	297.12
282.125	312.12
282.356	324.12
282.588	328.12
282.819	335.12
283.051	330.12
283.282	309.12
283.513	333.12
283.745	340.12
283.976	317.12
284.207	336.12
284.439	325.12
284.67	358.12
284.901	330.12
285.132	326.12
285.364	333.12
285.595	315.12
285.826	327.12
286.057	323.12
286.288	336.12
286.52	327.12
286.751	341.12
286.982	349.12
287.213	338.12
287.444	340.12
287.675	340.12
287.906	352.12
288.138	349.12
288.369	380.12
288.6	345.12
288.831	352.12
289.062	334.12
289.293	362.12
289.524	359.12
289.755	347.12
289.986	352.12
290.217	334.12
290.448	355.12
290.679	341.12
290.91	356.12
291.141	359.12
291.371	361.12
291.602	346.12
291.833	351.12
292.064	361.12
292.295	355.12
292.526	349.12
292.757	331.12
292.987	362.12
293.218	357.12
293.449	367.12
293.68	337.12
293.91	380.12
294.141	368.12
294.372	355.12
294.603	360.12
294.833	356.12
295.064	361.12
295.295	367.12
295.525	348.12
295.756	349.12
295.987	351.12
296.217	372.12
296.448	373.12
296.679	387.12
296.909	366.12
297.14	377.12
297.37	377.12
297.601	380.12
297.831	372.12
298.062	371.12
298.292	371.12
298.523	391.12
298.753	388.12
298.984	377.12
299.214	383.12
299.445	392.12
299.675	397.12
299.905	398.12
300.136	387.12
300.366	381.12
300.597	395.12
300.827	405.12
301.057	411.12
301.288	407.12
301.518	395.12
301.748	401.12
301.979	404.12
302.209	400.12
302.439	425.12
302.669	408.12
302.9	388.12
303.13	394.12
303.36	411.12
303.59	391.12
303.82	392.12
304.051	406.12
304.281	395.12
304.511	419.12
304.741	404.12
304.971	416.12
305.201	394.12
305.431	379.12
305.661	398.12
305.891	410.12
306.121	387.12
306.352	419.12
306.582	433.12
306.812	402.12
307.042	403.12
307.272	395.12
307.502	393.12
307.731	389.12
307.961	403.12
308.191	396.12
308.421	418.12
308.651	412.12
308.881	417.12
309.111	411.12
309.341	390.12
309.571	413.12
309.8	419.12
310.03	424.12
310.26	431.12
310.49	420.12
310.72	425.12
310.949	445.12
311.179	447.12
311.409	414.12
311.639	445.12
311.868	438.12
312.098	443.12
312.328	419.12
312.557	424.12
312.787	436.12
313.017	445.12
313.246	470.12
313.476	447.12
313.706	441.12
313.935	455.12
314.165	457.12
314.394	444.12
314.624	447.12
314.853	464.12
315.083	447.12
315.312	468.12
315.542	445.12
315.771	460.12
316.001	437.12
316.23	426.12
316.46	459.12
316.689	439.12
316.919	428.12
317.148	485.12
317.377	476.12
317.607	454.12
317.836	444.12
318.065	439.12
318.295	447.12
318.524	443.12
318.753	428.12
318.983	439.12
319.212	431.12
319.441	443.12
319.67	455.12
319.9	447.12
320.129	441.12
320.358	438.12
320.587	456.12
320.816	445.12
321.046	451.12
321.275	458.12
321.504	456.12
321.733	470.12
321.962	453.12
322.191	492.12
322.42	480.12
322.649	464.12
322.878	483.12
323.108	480.12
323.337	495.12
323.566	493.12
323.795	520.12
324.024	558.12
324.253	574.12
324.482	737.12
324.71	1051.12
324.939	1445.12
325.168	1303.12
325.397	734.12
325.626	583.12
325.855	518.12
326.084	521.12
326.313	531.12
326.542	522.12
326.77	546.12
326.999	576.12
327.228	699.12
327.457	973.12
327.686	1168.12
327.914	867.12
328.143	624.12
328.372	592.12
328.6	573.12
328.829	563.12
329.058	563.12
329.287	573.12
329.515	549.12
329.744	539.12
329.972	541.12
330.201	563.12
330.43	575.12
330.658	591.12
330.887	596.12
331.115	585.12
331.344	562.12
331.572	528.12
331.801	551.12
332.03	558.12
332.258	562.12
332.486	563.12
332.715	538.12
332.943	565.12
333.172	567.12
333.4	600.12
333.629	609.12
333.857	597.12
334.085	611.12
334.314	628.12
334.542	617.12
334.771	647.12
334.999	603.12
335.227	595.12
335.455	589.12
335.684	591.12
335.912	552.12
336.14	564.12
336.369	542.12
336.597	574.12
336.825	571.12
337.053	526.12
337.281	558.12
337.51	557.12
337.738	525.12
337.966	529.12
338.194	530.12
338.422	529.12
338.65	527.12
338.878	526.12
339.106	534.12
339.334	514.12
339.562	531.12
339.79	510.12
340.018	524.12
340.246	503.12
340.474	519.12
340.702	526.12
340.93	513.12
341.158	524.12
341.386	517.12
341.614	522.12
341.842	528.12
342.07	531.12
342.298	534.12
342.526	499.12
342.754	517.12
342.981	491.12
343.209	504.12
343.437	524.12
343.665	564.12
343.893	579.12
344.12	593.12
344.348	574.12
344.576	554.12
344.804	552.12
345.031	548.12
345.259	555.12
345.487	505.12
345.714	527.12
345.942	521.12
346.17	508.12
346.397	488.12
346.625	492.12
346.853	481.12
347.08	481.12
347.308	494.12
347.535	494.12
347.763	487.12
347.99	484.12
348.218	493.12
348.445	504.12
348.673	487.12
348.9	493.12
349.128	470.12
349.355	458.12
349.583	486.12
349.81	478.12
350.037	459.12
350.265	463.12
350.492	463.12
350.72	487.12
350.947	476.12
351.174	490.12
351.402	499.12
351.629	488.12
351.856	481.12
352.083	509.12
352.311	477.12
352.538	480.12
352.765	494.12
352.992	507.12
353.22	483.12
353.447	483.12
353.674	501.12
353.901	465.12
354.128	486.12
354.355	459.12
354.583	487.12
354.81	477.12
355.037	467.12
355.264	472.12
355.491	472.12
355.718	474.12
355.945	500.12
356.172	474.12
356.399	479.12
356.626	492.12
356.853	471.12
357.08	475.12
357.307	481.12
357.534	484.12
357.761	487.12
357.988	499.12
358.215	478.12
358.441	477.12
358.668	469.12
358.895	483.12
359.122	471.12
359.349	493.12
359.576	478.12
359.802	490.12
360.029	488.12
360.256	521.12
360.483	531.12
360.709	496.12
360.936	492.12
361.163	496.12
361.39	487.12
361.616	506.12
361.843	491.12
362.07	483.12
362.296	503.12
362.523	497.12
362.749	489.12
362.976	493.12
363.203	487.12
363.429	472.12
363.656	478.12
363.882	493.12
364.109	459.12
364.335	474.12
364.562	508.12
364.788	493.12
365.015	478.12
365.241	474.12
365.468	460.12
365.694	484.12
365.92	491.12
366.147	481.12
366.373	483.12
366.599	491.12
366.826	476.12
367.052	482.12
367.278	471.12
367.505	485.12
367.731	472.12
367.957	493.12
368.184	485.12
368.41	493.12
368.636	477.12
368.862	502.12
369.089	495.12
369.315	492.12
369.541	487.12
369.767	491.12
369.993	481.12
370.219	501.12
370.445	522.12
370.672	486.12
370.898	503.12
371.124	502.12
371.35	496.12
371.576	513.12
371.802	505.12
372.028	506.12
372.254	515.12
372.48	514.12
372.706	506.12
372.932	513.12
373.158	528.12
373.384	537.12
373.61	513.12
373.835	529.12
374.061	525.12
374.287	504.12
374.513	517.12
374.739	549.12
374.965	528.12
375.191	551.12
375.416	551.12
375.642	519.12
375.868	524.12
376.094	524.12
376.319	510.12
376.545	502.12
376.771	515.12
376.997	515.12
377.222	489.12
377.448	501.12
377.674	508.12
377.899	492.12
378.125	525.12
378.35	495.12
378.576	518.12
378.802	504.12
379.027	499.12
379.253	477.12
379.478	494.12
379.704	481.12
379.929	519.12
380.155	512.12
380.38	503.12
380.606	518.12
380.831	503.12
381.057	499.12
381.282	513.12
381.507	499.12
381.733	528.12
381.958	508.12
382.184	512.12
382.409	527.12
382.634	527.12
382.86	526.12
383.085	538.12
383.31	536.12
383.535	547.12
383.761	563.12
383.986	558.12
384.211	540.12
384.436	558.12
384.662	557.12
384.887	577.12
385.112	578.12
385.337	565.12
385.562	570.12
385.787	603.12
386.013	597.12
386.238	591.12
386.463	608.12
386.688	596.12
386.913	570.12
387.138	580.12
387.363	566.12
387.588	583.12
387.813	571.12
388.038	589.12
388.263	569.12
388.488	574.12
388.713	601.12
388.938	581.12
389.163	597.12
389.387	585.12
389.612	593.12
389.837	553.12
390.062	559.12
390.287	585.12
390.512	567.12
390.736	576.12
390.961	591.12
391.186	584.12
391.411	598.12
391.636	603.12
391.86	608.12
392.085	631.12
392.31	617.12
392.534	625.12
392.759	639.12
392.984	598.12
393.208	614.12
393.433	605.12
393.658	609.12
393.882	595.12
394.107	598.12
394.331	594.12
394.556	604.12
394.78	607.12
395.005	623.12
395.229	597.12
395.454	631.12
395.678	633.12
395.903	637.12
396.127	645.12
396.352	631.12
396.576	635.12
396.801	605.12
397.025	601.12
397.249	611.12
397.474	645.12
397.698	640.12
397.922	644.12
398.147	641.12
398.371	672.12
398.595	676.12
398.82	685.12
399.044	716.12
399.268	775.12
399.492	833.12
399.717	917.12
399.941	939.12
400.165	899.12
400.389	880.12
400.613	808.12
400.837	752.12
401.062	713.12
401.286	710.12
401.51	717.12
401.734	693.12
401.958	698.12
402.182	714.12
402.406	719.12
402.63	709.12
402.854	727.12
403.078	704.12
403.302	747.12
403.526	742.12
403.75	760.12
403.974	733.12
404.198	769.12
404.422	759.12
404.645	764.12
404.869	789.12
405.093	792.12
405.317	821.12
405.541	836.12
405.765	786.12
405.988	759.12
406.212	761.12
406.436	780.12
406.66	779.12
406.883	772.12
407.107	839.12
407.331	865.12
407.555	963.12
407.778	929.12
408.002	871.12
408.226	856.12
408.449	791.12
408.673	787.12
408.896	788.12
409.12	837.12
409.344	809.12
409.567	768.12
409.791	763.12
410.014	739.12
410.238	736.12
410.461	716.12
410.685	734.12
410.908	744.12
411.132	751.12
411.355	779.12
411.578	766.12
411.802	732.12
412.025	712.12
412.249	760.12
412.472	781.12
412.695	753.12
412.919	751.12
413.142	713.12
413.365	713.12
413.589	708.12
413.812	701.12
414.035	686.12
414.258	683.12
414.482	696.12
414.705	695.12
414.928	678.12
415.151	658.12
415.374	702.12
415.597	689.12
415.821	688.12
416.044	676.12
416.267	688.12
416.49	681.12
416.713	678.12
416.936	686.12
417.159	669.12
417.382	678.12
417.605	695.12
417.828	699.12
418.051	703.12
418.274	677.12
418.497	682.12
418.72	704.12
418.943	687.12
419.166	717.12
419.389	771.12
419.611	760.12
419.834	728.12
420.057	731.12
420.28	711.12
420.503	707.12
420.726	731.12
420.948	713.12
421.171	726.12
421.394	718.12
421.617	701.12
421.839	710.12
422.062	694.12
422.285	697.12
422.507	740.12
422.73	809.12
422.953	799.12
423.175	748.12
423.398	731.12
423.621	720.12
423.843	744.12
424.066	747.12
424.288	746.12
424.511	753.12
424.733	787.12
424.956	823.12
425.178	818.12
425.401	810.12
425.623	827.12
425.846	744.12
426.068	705.12
426.291	709.12
426.513	696.12
426.735	693.12
426.958	730.12
427.18	801.12
427.402	870.12
427.625	935.12
427.847	823.12
428.069	765.12
428.292	695.12
428.514	701.12
428.736	644.12
428.958	647.12
429.181	618.12
429.403	639.12
429.625	635.12
429.847	679.12
430.069	727.12
430.292	708.12
430.514	665.12
430.736	651.12
430.958	674.12
431.18	644.12
431.402	633.12
431.624	606.12
431.846	642.12
432.068	651.12
432.29	650.12
432.512	648.12
432.734	655.12
432.956	638.12
433.178	634.12
433.4	657.12
433.622	636.12
433.844	638.12
434.066	645.12
434.287	640.12
434.509	660.12
434.731	683.12
434.953	663.12
435.175	671.12
435.397	735.12
435.618	705.12
435.84	712.12
436.062	743.12
436.284	798.12
436.505	721.12
436.727	676.12
436.949	674.12
437.17	637.12
437.392	661.12
437.614	660.12
437.835	653.12
438.057	722.12
438.278	758.12
438.5	789.12
438.721	849.12
438.943	827.12
439.165	714.12
439.386	665.12
439.608	676.12
439.829	688.12
440.05	652.12
440.272	731.12
440.493	693.12
440.715	669.12
440.936	669.12
441.158	685.12
441.379	683.12
441.6	727.12
441.822	713.12
442.043	751.12
442.264	784.12
442.486	810.12
442.707	734.12
442.928	685.12
443.149	707.12
443.371	730.12
443.592	759.12
443.813	818.12
444.034	870.12
444.255	807.12
444.476	790.12
444.698	774.12
444.919	798.12
445.14	878.12
445.361	814.12
445.582	773.12
445.803	782.12
446.024	835.12
446.245	830.12
446.466	750.12
446.687	688.12
446.908	699.12
447.129	623.12
447.35	624.12
447.571	635.12
447.792	623.12
448.013	639.12
448.234	632.12
448.455	676.12
448.675	720.12
448.896	835.12
449.117	745.12
449.338	702.12
449.559	758.12
449.779	845.12
450	739.12
450.221	631.12
450.442	627.12
450.662	609.12
450.883	597.12
451.104	620.12
451.324	603.12
451.545	624.12
451.766	579.12
451.986	578.12
452.207	579.12
452.428	557.12
452.648	585.12
452.869	569.12
453.089	576.12
453.31	587.12
453.53	569.12
453.751	559.12
453.971	574.12
454.192	567.12
454.412	577.12
454.633	582.12
454.853	560.12
455.073	565.12
455.294	602.12
455.514	637.12
455.734	600.12
455.955	551.12
456.175	549.12
456.395	559.12
456.616	556.12
456.836	561.12
457.056	538.12
457.276	527.12
457.497	540.12
457.717	576.12
457.937	556.12
458.157	561.12
458.377	574.12
458.598	557.12
458.818	640.12
459.038	636.12
459.258	711.12
459.478	695.12
459.698	645.12
459.918	655.12
460.138	675.12
460.358	693.12
460.578	700.12
460.798	691.12
461.018	704.12
461.238	680.12
461.458	705.12
461.678	699.12
461.898	679.12
462.118	689.12
462.338	732.12
462.558	742.12
462.777	764.12
462.997	805.12
463.217	852.12
463.437	832.12
463.657	796.12
463.876	781.12
464.096	764.12
464.316	799.12
464.536	802.12
464.755	786.12
464.975	748.12
465.195	720.12
465.414	738.12
465.634	715.12
465.854	650.12
466.073	632.12
466.293	630.12
466.512	641.12
466.732	628.12
466.951	635.12
467.171	599.12
467.391	604.12
467.61	619.12
467.829	656.12
468.049	609.12
468.268	607.12
468.488	592.12
468.707	603.12
468.927	584.12
469.146	601.12
469.365	596.12
469.585	591.12
469.804	598.12
470.023	603.12
470.243	634.12
470.462	633.12
470.681	648.12
470.901	646.12
471.12	614.12
471.339	628.12
471.558	604.12
471.777	621.12
471.997	604.12
472.216	613.12
472.435	650.12
472.654	629.12
472.873	607.12
473.092	597.12
473.311	582.12
473.53	599.12
473.749	601.12
473.968	622.12
474.187	668.12
474.406	696.12
474.625	620.12
474.844	590.12
475.063	592.12
475.282	600.12
475.501	625.12
475.72	619.12
475.939	604.12
476.158	619.12
476.377	630.12
476.596	621.12
476.814	623.12
477.033	621.12
477.252	662.12
477.471	652.12
477.69	665.12
477.908	663.12
478.127	684.12
478.346	681.12
478.564	684.12
478.783	699.12
479.002	734.12
479.22	732.12
479.439	742.12
479.658	735.12
479.876	765.12
480.095	764.12
480.313	782.12
480.532	779.12
480.751	791.12
480.969	758.12
481.188	800.12
481.406	824.12
481.624	741.12
481.843	740.12
482.061	722.12
482.28	708.12
482.498	672.12
482.717	691.12
482.935	697.12
483.153	698.12
483.372	694.12
483.59	710.12
483.808	689.12
484.027	705.12
484.245	707.12
484.463	722.12
484.681	711.12
484.9	721.12
485.118	703.12
485.336	707.12
485.554	738.12
485.772	715.12
485.99	741.12
486.209	737.12
486.427	743.12
486.645	742.12
486.863	781.12
487.081	735.12
487.299	779.12
487.517	751.12
487.735	764.12
487.953	767.12
488.171	737.12
488.389	750.12
488.607	733.12
488.825	745.12
489.043	740.12
489.261	736.12
489.479	758.12
489.696	753.12
489.914	749.12
490.132	764.12
490.35	752.12
490.568	757.12
490.786	792.12
491.003	794.12
491.221	797.12
491.439	808.12
491.657	816.12
491.874	800.12
492.092	818.12
492.31	814.12
492.527	837.12
492.745	828.12
492.963	820.12
493.18	849.12
493.398	837.12
493.615	841.12
493.833	849.12
494.05	865.12
494.268	865.12
494.485	847.12
494.703	834.12
494.92	835.12
495.138	844.12
495.355	873.12
495.573	842.12
495.79	861.12
496.008	861.12
496.225	877.12
496.442	868.12
496.66	873.12
496.877	870.12
497.094	892.12
497.312	885.12
497.529	922.12
497.746	961.12
497.963	947.12
498.181	997.12
498.398	1027.12
498.615	1024.12
498.832	1067.12
499.049	1133.12
499.267	1200.12
499.484	1292.12
499.701	1375.12
499.918	1448.12
500.135	1609.12
500.352	1727.12
500.569	1790.12
500.786	1779.12
501.003	1711.12
501.22	1591.12
501.437	1464.12
501.654	1354.12
