Data from 1963.PennyLincolnUp.Lamp.En5.5.200Scan.071719.P1._HRD10591_13-58-35-063.txt Node
Date: Thu Jul 18 13:58:35 EDT 2019
User: cochatt
Spectrometer: HR+D1059
Trigger mode: 1
Integration Time (sec): 1.000000E-1
Scans to average: 1
Electric dark correction enabled: true
Nonlinearity correction enabled: false
Boxcar width: 0
XAxis mode: Wavelengths
Number of Pixels in Spectrum: 2048
>>>>>Begin Spectral Data<<<<<
223.165	-4.81
223.4	-4.81
223.635	-4.81
223.869	-8.81
224.104	-13.81
224.338	-15.81
224.573	-17.81
224.808	-13.81
225.042	-5.81
225.277	7.19
225.511	-11.81
225.746	1.19
225.98	-2.81
226.215	2.19
226.449	15.19
226.683	11.19
226.918	16.19
227.152	42.19
227.387	23.19
227.621	35.19
227.856	36.19
228.09	59.19
228.324	59.19
228.559	57.19
228.793	79.19
229.027	120.19
229.262	106.19
229.496	113.19
229.73	127.19
229.964	141.19
230.199	130.19
230.433	107.19
230.667	113.19
230.901	108.19
231.136	120.19
231.37	122.19
231.604	114.19
231.838	120.19
232.072	119.19
232.306	124.19
232.541	126.19
232.775	124.19
233.009	118.19
233.243	122.19
233.477	116.19
233.711	130.19
233.945	139.19
234.179	115.19
234.413	125.19
234.647	128.19
234.881	140.19
235.115	124.19
235.349	117.19
235.583	130.19
235.817	123.19
236.051	128.19
236.285	135.19
236.519	132.19
236.753	122.19
236.987	147.19
237.221	182.19
237.455	203.19
237.689	172.19
237.922	141.19
238.156	140.19
238.39	140.19
238.624	125.19
238.858	135.19
239.091	126.19
239.325	136.19
239.559	139.19
239.793	131.19
240.027	144.19
240.26	150.19
240.494	163.19
240.728	156.19
240.961	150.19
241.195	157.19
241.429	154.19
241.662	142.19
241.896	164.19
242.13	136.19
242.363	165.19
242.597	167.19
242.83	156.19
243.064	154.19
243.298	149.19
243.531	150.19
243.765	150.19
243.998	151.19
244.232	160.19
244.465	169.19
244.699	148.19
244.932	173.19
245.166	148.19
245.399	172.19
245.633	175.19
245.866	164.19
246.099	170.19
246.333	165.19
246.566	170.19
246.8	173.19
247.033	181.19
247.266	184.19
247.5	164.19
247.733	199.19
247.966	198.19
248.2	190.19
248.433	192.19
248.666	196.19
248.899	202.19
249.133	197.19
249.366	216.19
249.599	233.19
249.832	210.19
250.066	192.19
250.299	190.19
250.532	202.19
250.765	238.19
250.998	229.19
251.231	244.19
251.465	215.19
251.698	221.19
251.931	219.19
252.164	232.19
252.397	211.19
252.63	230.19
252.863	217.19
253.096	239.19
253.329	238.19
253.562	223.19
253.795	219.19
254.028	227.19
254.261	239.19
254.494	243.19
254.727	260.19
254.96	256.19
255.193	276.19
255.426	262.19
255.659	249.19
255.892	258.19
256.124	271.19
256.357	266.19
256.59	252.19
256.823	228.19
257.056	231.19
257.289	227.19
257.521	230.19
257.754	237.19
257.987	230.19
258.22	232.19
258.452	218.19
258.685	237.19
258.918	239.19
259.151	240.19
259.383	243.19
259.616	233.19
259.849	253.19
260.081	256.19
260.314	280.19
260.547	269.19
260.779	276.19
261.012	254.19
261.244	256.19
261.477	253.19
261.71	243.19
261.942	238.19
262.175	260.19
262.407	242.19
262.64	238.19
262.872	242.19
263.105	240.19
263.337	253.19
263.57	236.19
263.802	238.19
264.035	219.19
264.267	231.19
264.499	224.19
264.732	237.19
264.964	247.19
265.197	251.19
265.429	247.19
265.661	247.19
265.894	247.19
266.126	233.19
266.358	255.19
266.591	254.19
266.823	243.19
267.055	266.19
267.287	261.19
267.52	253.19
267.752	272.19
267.984	268.19
268.216	273.19
268.448	262.19
268.681	291.19
268.913	270.19
269.145	305.19
269.377	318.19
269.609	299.19
269.841	306.19
270.073	287.19
270.306	306.19
270.538	338.19
270.77	334.19
271.002	324.19
271.234	310.19
271.466	323.19
271.698	340.19
271.93	339.19
272.162	336.19
272.394	337.19
272.626	312.19
272.858	308.19
273.09	297.19
273.322	304.19
273.553	322.19
273.785	295.19
274.017	299.19
274.249	304.19
274.481	302.19
274.713	333.19
274.945	309.19
275.176	307.19
275.408	309.19
275.64	282.19
275.872	328.19
276.104	307.19
276.335	326.19
276.567	315.19
276.799	318.19
277.031	335.19
277.262	344.19
277.494	335.19
277.726	341.19
277.957	331.19
278.189	299.19
278.421	322.19
278.652	314.19
278.884	314.19
279.115	314.19
279.347	314.19
279.579	311.19
279.81	324.19
280.042	323.19
280.273	314.19
280.505	321.19
280.736	324.19
280.968	308.19
281.199	326.19
281.431	310.19
281.662	321.19
281.894	320.19
282.125	334.19
282.356	345.19
282.588	341.19
282.819	357.19
283.051	353.19
283.282	318.19
283.513	337.19
283.745	332.19
283.976	330.19
284.207	340.19
284.439	321.19
284.67	361.19
284.901	351.19
285.132	343.19
285.364	325.19
285.595	343.19
285.826	331.19
286.057	348.19
286.288	340.19
286.52	340.19
286.751	340.19
286.982	346.19
287.213	339.19
287.444	341.19
287.675	346.19
287.906	354.19
288.138	365.19
288.369	356.19
288.6	366.19
288.831	363.19
289.062	356.19
289.293	351.19
289.524	375.19
289.755	353.19
289.986	366.19
290.217	359.19
290.448	376.19
290.679	359.19
290.91	354.19
291.141	376.19
291.371	347.19
291.602	366.19
291.833	356.19
292.064	357.19
292.295	355.19
292.526	352.19
292.757	381.19
292.987	351.19
293.218	359.19
293.449	370.19
293.68	380.19
293.91	359.19
294.141	354.19
294.372	364.19
294.603	367.19
294.833	364.19
295.064	384.19
295.295	369.19
295.525	369.19
295.756	377.19
295.987	378.19
296.217	392.19
296.448	392.19
296.679	374.19
296.909	383.19
297.14	361.19
297.37	381.19
297.601	394.19
297.831	387.19
298.062	373.19
298.292	390.19
298.523	400.19
298.753	388.19
298.984	385.19
299.214	400.19
299.445	359.19
299.675	400.19
299.905	420.19
300.136	392.19
300.366	387.19
300.597	390.19
300.827	407.19
301.057	416.19
301.288	435.19
301.518	405.19
301.748	400.19
301.979	413.19
302.209	406.19
302.439	422.19
302.669	404.19
302.9	411.19
303.13	410.19
303.36	411.19
303.59	433.19
303.82	410.19
304.051	409.19
304.281	415.19
304.511	427.19
304.741	394.19
304.971	413.19
305.201	409.19
305.431	383.19
305.661	400.19
305.891	420.19
306.121	410.19
306.352	419.19
306.582	421.19
306.812	426.19
307.042	416.19
307.272	409.19
307.502	415.19
307.731	412.19
307.961	406.19
308.191	415.19
308.421	418.19
308.651	422.19
308.881	403.19
309.111	410.19
309.341	425.19
309.571	428.19
309.8	435.19
310.03	424.19
310.26	454.19
310.49	434.19
310.72	449.19
310.949	441.19
311.179	478.19
311.409	440.19
311.639	458.19
311.868	448.19
312.098	462.19
312.328	457.19
312.557	463.19
312.787	474.19
313.017	477.19
313.246	461.19
313.476	460.19
313.706	471.19
313.935	451.19
314.165	468.19
314.394	480.19
314.624	484.19
314.853	460.19
315.083	464.19
315.312	461.19
315.542	463.19
315.771	468.19
316.001	455.19
316.23	454.19
316.46	442.19
316.689	462.19
316.919	470.19
317.148	455.19
317.377	463.19
317.607	463.19
317.836	461.19
318.065	455.19
318.295	460.19
318.524	449.19
318.753	441.19
318.983	473.19
319.212	440.19
319.441	452.19
319.67	465.19
319.9	462.19
320.129	436.19
320.358	458.19
320.587	453.19
320.816	451.19
321.046	463.19
321.275	482.19
321.504	482.19
321.733	474.19
321.962	497.19
322.191	482.19
322.42	478.19
322.649	498.19
322.878	492.19
323.108	500.19
323.337	520.19
323.566	529.19
323.795	555.19
324.024	564.19
324.253	620.19
324.482	816.19
324.71	1182.19
324.939	1654.19
325.168	1446.19
325.397	807.19
325.626	616.19
325.855	549.19
326.084	551.19
326.313	526.19
326.542	540.19
326.77	561.19
326.999	641.19
327.228	792.19
327.457	1079.19
327.686	1325.19
327.914	916.19
328.143	692.19
328.372	623.19
328.6	611.19
328.829	580.19
329.058	591.19
329.287	599.19
329.515	586.19
329.744	578.19
329.972	555.19
330.201	562.19
330.43	612.19
330.658	622.19
330.887	619.19
331.115	625.19
331.344	582.19
331.572	566.19
331.801	571.19
332.03	578.19
332.258	563.19
332.486	568.19
332.715	572.19
332.943	578.19
333.172	603.19
333.4	579.19
333.629	630.19
333.857	626.19
334.085	611.19
334.314	633.19
334.542	659.19
334.771	656.19
334.999	647.19
335.227	568.19
335.455	604.19
335.684	590.19
335.912	586.19
336.14	599.19
336.369	562.19
336.597	592.19
336.825	590.19
337.053	581.19
337.281	574.19
337.51	559.19
337.738	569.19
337.966	551.19
338.194	556.19
338.422	556.19
338.65	547.19
338.878	554.19
339.106	532.19
339.334	548.19
339.562	545.19
339.79	508.19
340.018	546.19
340.246	534.19
340.474	544.19
340.702	532.19
340.93	517.19
341.158	515.19
341.386	520.19
341.614	516.19
341.842	523.19
342.07	521.19
342.298	515.19
342.526	510.19
342.754	518.19
342.981	518.19
343.209	550.19
343.437	554.19
343.665	563.19
343.893	575.19
344.12	575.19
344.348	612.19
344.576	591.19
344.804	571.19
345.031	549.19
345.259	540.19
345.487	571.19
345.714	503.19
345.942	538.19
346.17	530.19
346.397	519.19
346.625	495.19
346.853	504.19
347.08	503.19
347.308	509.19
347.535	523.19
347.763	536.19
347.99	521.19
348.218	517.19
348.445	516.19
348.673	488.19
348.9	515.19
349.128	512.19
349.355	496.19
349.583	519.19
349.81	487.19
350.037	491.19
350.265	497.19
350.492	480.19
350.72	491.19
350.947	516.19
351.174	511.19
351.402	500.19
351.629	508.19
351.856	492.19
352.083	495.19
352.311	526.19
352.538	507.19
352.765	537.19
352.992	495.19
353.22	485.19
353.447	494.19
353.674	501.19
353.901	492.19
354.128	488.19
354.355	477.19
354.583	506.19
354.81	486.19
355.037	495.19
355.264	478.19
355.491	472.19
355.718	485.19
355.945	466.19
356.172	489.19
356.399	494.19
356.626	481.19
356.853	474.19
357.08	484.19
357.307	482.19
357.534	468.19
357.761	472.19
357.988	484.19
358.215	482.19
358.441	488.19
358.668	495.19
358.895	480.19
359.122	506.19
359.349	476.19
359.576	491.19
359.802	506.19
360.029	518.19
360.256	519.19
360.483	535.19
360.709	491.19
360.936	495.19
361.163	499.19
361.39	490.19
361.616	511.19
361.843	481.19
362.07	493.19
362.296	508.19
362.523	483.19
362.749	515.19
362.976	500.19
363.203	495.19
363.429	510.19
363.656	499.19
363.882	471.19
364.109	504.19
364.335	492.19
364.562	498.19
364.788	479.19
365.015	487.19
365.241	511.19
365.468	484.19
365.694	488.19
365.92	506.19
366.147	490.19
366.373	514.19
366.599	486.19
366.826	489.19
367.052	491.19
367.278	483.19
367.505	503.19
367.731	484.19
367.957	481.19
368.184	514.19
368.41	506.19
368.636	502.19
368.862	531.19
369.089	495.19
369.315	522.19
369.541	509.19
369.767	508.19
369.993	488.19
370.219	521.19
370.445	522.19
370.672	533.19
370.898	507.19
371.124	491.19
371.35	501.19
371.576	527.19
371.802	520.19
372.028	520.19
372.254	519.19
372.48	525.19
372.706	539.19
372.932	533.19
373.158	536.19
373.384	516.19
373.61	536.19
373.835	523.19
374.061	555.19
374.287	516.19
374.513	541.19
374.739	532.19
374.965	536.19
375.191	541.19
375.416	559.19
375.642	533.19
375.868	559.19
376.094	546.19
376.319	542.19
376.545	518.19
376.771	514.19
376.997	511.19
377.222	503.19
377.448	512.19
377.674	526.19
377.899	533.19
378.125	549.19
378.35	515.19
378.576	520.19
378.802	527.19
379.027	531.19
379.253	524.19
379.478	516.19
379.704	494.19
379.929	515.19
380.155	521.19
380.38	524.19
380.606	518.19
380.831	490.19
381.057	522.19
381.282	546.19
381.507	521.19
381.733	515.19
381.958	526.19
382.184	533.19
382.409	528.19
382.634	539.19
382.86	527.19
383.085	522.19
383.31	540.19
383.535	566.19
383.761	568.19
383.986	560.19
384.211	583.19
384.436	572.19
384.662	580.19
384.887	594.19
385.112	574.19
385.337	579.19
385.562	578.19
385.787	592.19
386.013	597.19
386.238	614.19
386.463	607.19
386.688	601.19
386.913	615.19
387.138	608.19
387.363	618.19
387.588	581.19
387.813	591.19
388.038	588.19
388.263	578.19
388.488	598.19
388.713	590.19
388.938	610.19
389.163	584.19
389.387	578.19
389.612	568.19
389.837	579.19
390.062	572.19
390.287	589.19
390.512	608.19
390.736	575.19
390.961	603.19
391.186	608.19
391.411	613.19
391.636	628.19
391.86	654.19
392.085	636.19
392.31	635.19
392.534	612.19
392.759	640.19
392.984	603.19
393.208	614.19
393.433	621.19
393.658	609.19
393.882	600.19
394.107	607.19
394.331	589.19
394.556	634.19
394.78	607.19
395.005	618.19
395.229	618.19
395.454	642.19
395.678	654.19
395.903	650.19
396.127	676.19
396.352	642.19
396.576	630.19
396.801	629.19
397.025	622.19
397.249	610.19
397.474	641.19
397.698	660.19
397.922	664.19
398.147	651.19
398.371	684.19
398.595	697.19
398.82	704.19
399.044	732.19
399.268	782.19
399.492	867.19
399.717	970.19
399.941	950.19
400.165	917.19
400.389	872.19
400.613	785.19
400.837	765.19
401.062	735.19
401.286	730.19
401.51	702.19
401.734	687.19
401.958	727.19
402.182	707.19
402.406	714.19
402.63	760.19
402.854	765.19
403.078	748.19
403.302	759.19
403.526	754.19
403.75	808.19
403.974	775.19
404.198	764.19
404.422	793.19
404.645	799.19
404.869	779.19
405.093	807.19
405.317	822.19
405.541	810.19
405.765	808.19
405.988	800.19
406.212	797.19
406.436	796.19
406.66	797.19
406.883	831.19
407.107	844.19
407.331	873.19
407.555	964.19
407.778	965.19
408.002	870.19
408.226	846.19
408.449	846.19
408.673	845.19
408.896	814.19
409.12	852.19
409.344	833.19
409.567	770.19
409.791	776.19
410.014	756.19
410.238	736.19
410.461	714.19
410.685	770.19
410.908	764.19
411.132	762.19
411.355	783.19
411.578	776.19
411.802	740.19
412.025	742.19
412.249	734.19
412.472	779.19
412.695	790.19
412.919	734.19
413.142	735.19
413.365	719.19
413.589	699.19
413.812	704.19
414.035	711.19
414.258	682.19
414.482	717.19
414.705	711.19
414.928	716.19
415.151	710.19
415.374	702.19
415.597	694.19
415.821	666.19
416.044	694.19
416.267	694.19
416.49	715.19
416.713	664.19
416.936	703.19
417.159	719.19
417.382	724.19
417.605	724.19
417.828	724.19
418.051	716.19
418.274	726.19
418.497	702.19
418.72	704.19
418.943	712.19
419.166	748.19
419.389	809.19
419.611	763.19
419.834	736.19
420.057	752.19
420.28	746.19
420.503	719.19
420.726	711.19
420.948	725.19
421.171	774.19
421.394	773.19
421.617	722.19
421.839	724.19
422.062	695.19
422.285	715.19
422.507	778.19
422.73	838.19
422.953	819.19
423.175	766.19
423.398	752.19
423.621	778.19
423.843	774.19
424.066	744.19
424.288	783.19
424.511	777.19
424.733	802.19
424.956	837.19
425.178	834.19
425.401	845.19
425.623	834.19
425.846	761.19
426.068	746.19
426.291	730.19
426.513	718.19
426.735	749.19
426.958	761.19
427.18	812.19
427.402	909.19
427.625	980.19
427.847	882.19
428.069	785.19
428.292	725.19
428.514	684.19
428.736	672.19
428.958	685.19
429.181	675.19
429.403	677.19
429.625	674.19
429.847	676.19
430.069	754.19
430.292	748.19
430.514	688.19
430.736	651.19
430.958	683.19
431.18	636.19
431.402	653.19
431.624	634.19
431.846	644.19
432.068	646.19
432.29	628.19
432.512	638.19
432.734	669.19
432.956	646.19
433.178	676.19
433.4	652.19
433.622	672.19
433.844	649.19
434.066	644.19
434.287	653.19
434.509	696.19
434.731	684.19
434.953	706.19
435.175	716.19
435.397	765.19
435.618	748.19
435.84	749.19
436.062	805.19
436.284	861.19
436.505	726.19
436.727	712.19
436.949	654.19
437.17	672.19
437.392	646.19
437.614	678.19
437.835	701.19
438.057	788.19
438.278	828.19
438.5	842.19
438.721	891.19
438.943	874.19
439.165	746.19
439.386	688.19
439.608	669.19
439.829	700.19
440.05	737.19
440.272	760.19
440.493	715.19
440.715	684.19
440.936	686.19
441.158	675.19
441.379	698.19
441.6	731.19
441.822	732.19
442.043	762.19
442.264	851.19
442.486	853.19
442.707	772.19
442.928	767.19
443.149	739.19
443.371	751.19
443.592	768.19
443.813	869.19
444.034	927.19
444.255	815.19
444.476	807.19
444.698	791.19
444.919	793.19
445.14	933.19
445.361	848.19
445.582	798.19
445.803	806.19
446.024	893.19
446.245	875.19
446.466	783.19
446.687	739.19
446.908	703.19
447.129	679.19
447.35	642.19
447.571	674.19
447.792	632.19
448.013	655.19
448.234	647.19
448.455	672.19
448.675	773.19
448.896	858.19
449.117	759.19
449.338	733.19
449.559	820.19
449.779	890.19
450	770.19
450.221	700.19
450.442	623.19
450.662	625.19
450.883	620.19
451.104	632.19
451.324	618.19
451.545	620.19
451.766	620.19
451.986	592.19
452.207	602.19
452.428	591.19
452.648	603.19
452.869	612.19
453.089	607.19
453.31	617.19
453.53	599.19
453.751	574.19
453.971	598.19
454.192	587.19
454.412	608.19
454.633	594.19
454.853	574.19
455.073	583.19
455.294	594.19
455.514	635.19
455.734	668.19
455.955	572.19
456.175	583.19
456.395	553.19
456.616	556.19
456.836	568.19
457.056	568.19
457.276	559.19
457.497	571.19
457.717	556.19
457.937	593.19
458.157	582.19
458.377	586.19
458.598	604.19
458.818	646.19
459.038	724.19
459.258	751.19
459.478	695.19
459.698	666.19
459.918	638.19
460.138	667.19
460.358	694.19
460.578	720.19
460.798	699.19
461.018	721.19
461.238	717.19
461.458	712.19
461.678	714.19
461.898	720.19
462.118	723.19
462.338	742.19
462.558	757.19
462.777	778.19
462.997	835.19
463.217	862.19
463.437	887.19
463.657	831.19
463.876	819.19
464.096	814.19
464.316	774.19
464.536	804.19
464.755	798.19
464.975	741.19
465.195	774.19
465.414	778.19
465.634	745.19
465.854	683.19
466.073	677.19
466.293	634.19
466.512	634.19
466.732	636.19
466.951	620.19
467.171	623.19
467.391	631.19
467.61	609.19
467.829	646.19
468.049	614.19
468.268	627.19
468.488	623.19
468.707	596.19
468.927	612.19
469.146	605.19
469.365	620.19
469.585	582.19
469.804	655.19
470.023	644.19
470.243	651.19
470.462	656.19
470.681	661.19
470.901	663.19
471.12	642.19
471.339	638.19
471.558	628.19
471.777	610.19
471.997	602.19
472.216	639.19
472.435	638.19
472.654	655.19
472.873	622.19
473.092	605.19
473.311	604.19
473.53	606.19
473.749	605.19
473.968	636.19
474.187	723.19
474.406	755.19
474.625	661.19
474.844	654.19
475.063	618.19
475.282	605.19
475.501	636.19
475.72	637.19
475.939	621.19
476.158	636.19
476.377	631.19
476.596	643.19
476.814	655.19
477.033	655.19
477.252	679.19
477.471	674.19
477.69	670.19
477.908	712.19
478.127	743.19
478.346	710.19
478.564	695.19
478.783	749.19
479.002	760.19
479.22	758.19
479.439	749.19
479.658	765.19
479.876	813.19
480.095	758.19
480.313	807.19
480.532	822.19
480.751	812.19
480.969	786.19
481.188	808.19
481.406	865.19
481.624	783.19
481.843	768.19
482.061	738.19
482.28	734.19
482.498	721.19
482.717	725.19
482.935	718.19
483.153	723.19
483.372	695.19
483.59	723.19
483.808	698.19
484.027	700.19
484.245	746.19
484.463	749.19
484.681	746.19
484.9	723.19
485.118	757.19
485.336	772.19
485.554	766.19
485.772	741.19
485.99	740.19
486.209	767.19
486.427	761.19
486.645	764.19
486.863	763.19
487.081	750.19
487.299	756.19
487.517	774.19
487.735	762.19
487.953	761.19
488.171	761.19
488.389	761.19
488.607	771.19
488.825	756.19
489.043	759.19
489.261	778.19
489.479	776.19
489.696	751.19
489.914	771.19
490.132	795.19
490.35	790.19
490.568	801.19
490.786	813.19
491.003	786.19
491.221	847.19
491.439	832.19
491.657	833.19
491.874	804.19
492.092	854.19
492.31	868.19
492.527	863.19
492.745	844.19
492.963	864.19
493.18	849.19
493.398	889.19
493.615	879.19
493.833	869.19
494.05	883.19
494.268	863.19
494.485	881.19
494.703	901.19
494.92	894.19
495.138	879.19
495.355	889.19
495.573	894.19
495.79	868.19
496.008	890.19
496.225	892.19
496.442	897.19
496.66	923.19
496.877	914.19
497.094	898.19
497.312	937.19
497.529	943.19
497.746	956.19
497.963	991.19
498.181	1019.19
498.398	1035.19
498.615	1068.19
498.832	1170.19
499.049	1203.19
499.267	1257.19
499.484	1330.19
499.701	1414.19
499.918	1498.19
500.135	1618.19
500.352	1771.19
500.569	1821.19
500.786	1837.19
501.003	1739.19
501.22	1606.19
501.437	1474.19
501.654	1409.19
