Data from 1963.PennyLincolnUp.Lamp.En5.5.200Scan.071719.P1._HRD10591_13-57-11-064.txt Node
Date: Thu Jul 18 13:57:11 EDT 2019
User: cochatt
Spectrometer: HR+D1059
Trigger mode: 1
Integration Time (sec): 1.000000E-1
Scans to average: 1
Electric dark correction enabled: true
Nonlinearity correction enabled: false
Boxcar width: 0
XAxis mode: Wavelengths
Number of Pixels in Spectrum: 2048
>>>>>Begin Spectral Data<<<<<
223.165	-13.62
223.4	-13.62
223.635	-13.62
223.869	-1.62
224.104	-4.62
224.338	-15.62
224.573	-7.62
224.808	-15.62
225.042	-12.62
225.277	-5.62
225.511	3.38
225.746	-2.62
225.98	-3.62
226.215	-6.62
226.449	13.38
226.683	11.38
226.918	35.38
227.152	26.38
227.387	45.38
227.621	25.38
227.856	28.38
228.09	38.38
228.324	54.38
228.559	50.38
228.793	61.38
229.027	88.38
229.262	101.38
229.496	101.38
229.73	120.38
229.964	136.38
230.199	131.38
230.433	110.38
230.667	109.38
230.901	96.38
231.136	97.38
231.37	100.38
231.604	111.38
231.838	115.38
232.072	114.38
232.306	114.38
232.541	107.38
232.775	115.38
233.009	117.38
233.243	121.38
233.477	126.38
233.711	127.38
233.945	114.38
234.179	121.38
234.413	113.38
234.647	126.38
234.881	124.38
235.115	106.38
235.349	137.38
235.583	127.38
235.817	115.38
236.051	114.38
236.285	118.38
236.519	113.38
236.753	142.38
236.987	159.38
237.221	175.38
237.455	211.38
237.689	167.38
237.922	137.38
238.156	131.38
238.39	131.38
238.624	138.38
238.858	134.38
239.091	126.38
239.325	127.38
239.559	133.38
239.793	147.38
240.027	131.38
240.26	145.38
240.494	142.38
240.728	151.38
240.961	155.38
241.195	149.38
241.429	151.38
241.662	134.38
241.896	155.38
242.13	135.38
242.363	156.38
242.597	127.38
242.83	147.38
243.064	144.38
243.298	142.38
243.531	149.38
243.765	152.38
243.998	141.38
244.232	163.38
244.465	152.38
244.699	159.38
244.932	169.38
245.166	163.38
245.399	176.38
245.633	162.38
245.866	179.38
246.099	156.38
246.333	172.38
246.566	181.38
246.8	161.38
247.033	162.38
247.266	161.38
247.5	178.38
247.733	169.38
247.966	162.38
248.2	187.38
248.433	183.38
248.666	200.38
248.899	189.38
249.133	202.38
249.366	219.38
249.599	211.38
249.832	189.38
250.066	195.38
250.299	197.38
250.532	194.38
250.765	195.38
250.998	220.38
251.231	230.38
251.465	219.38
251.698	218.38
251.931	204.38
252.164	207.38
252.397	197.38
252.63	196.38
252.863	210.38
253.096	226.38
253.329	229.38
253.562	234.38
253.795	213.38
254.028	225.38
254.261	228.38
254.494	241.38
254.727	257.38
254.96	258.38
255.193	257.38
255.426	243.38
255.659	226.38
255.892	234.38
256.124	226.38
256.357	239.38
256.59	214.38
256.823	222.38
257.056	207.38
257.289	207.38
257.521	233.38
257.754	219.38
257.987	219.38
258.22	226.38
258.452	213.38
258.685	220.38
258.918	226.38
259.151	214.38
259.383	233.38
259.616	237.38
259.849	222.38
260.081	231.38
260.314	253.38
260.547	259.38
260.779	229.38
261.012	254.38
261.244	251.38
261.477	264.38
261.71	248.38
261.942	231.38
262.175	242.38
262.407	273.38
262.64	228.38
262.872	233.38
263.105	233.38
263.337	234.38
263.57	240.38
263.802	243.38
264.035	234.38
264.267	241.38
264.499	239.38
264.732	235.38
264.964	231.38
265.197	224.38
265.429	233.38
265.661	226.38
265.894	244.38
266.126	248.38
266.358	250.38
266.591	247.38
266.823	239.38
267.055	266.38
267.287	259.38
267.52	254.38
267.752	273.38
267.984	255.38
268.216	254.38
268.448	251.38
268.681	265.38
268.913	266.38
269.145	265.38
269.377	289.38
269.609	306.38
269.841	272.38
270.073	283.38
270.306	290.38
270.538	305.38
270.77	301.38
271.002	310.38
271.234	312.38
271.466	289.38
271.698	321.38
271.93	316.38
272.162	329.38
272.394	316.38
272.626	289.38
272.858	308.38
273.09	287.38
273.322	281.38
273.553	263.38
273.785	286.38
274.017	293.38
274.249	295.38
274.481	299.38
274.713	306.38
274.945	284.38
275.176	310.38
275.408	289.38
275.64	298.38
275.872	305.38
276.104	296.38
276.335	283.38
276.567	303.38
276.799	293.38
277.031	325.38
277.262	333.38
277.494	351.38
277.726	325.38
277.957	319.38
278.189	303.38
278.421	312.38
278.652	311.38
278.884	307.38
279.115	305.38
279.347	335.38
279.579	328.38
279.81	333.38
280.042	335.38
280.273	333.38
280.505	322.38
280.736	312.38
280.968	323.38
281.199	314.38
281.431	313.38
281.662	328.38
281.894	299.38
282.125	333.38
282.356	338.38
282.588	354.38
282.819	363.38
283.051	323.38
283.282	337.38
283.513	333.38
283.745	353.38
283.976	338.38
284.207	314.38
284.439	339.38
284.67	323.38
284.901	324.38
285.132	322.38
285.364	345.38
285.595	346.38
285.826	325.38
286.057	326.38
286.288	329.38
286.52	356.38
286.751	326.38
286.982	351.38
287.213	326.38
287.444	324.38
287.675	340.38
287.906	357.38
288.138	352.38
288.369	345.38
288.6	364.38
288.831	365.38
289.062	353.38
289.293	352.38
289.524	330.38
289.755	356.38
289.986	355.38
290.217	359.38
290.448	346.38
290.679	353.38
290.91	349.38
291.141	354.38
291.371	365.38
291.602	345.38
291.833	358.38
292.064	344.38
292.295	353.38
292.526	350.38
292.757	374.38
292.987	349.38
293.218	357.38
293.449	353.38
293.68	363.38
293.91	349.38
294.141	356.38
294.372	354.38
294.603	342.38
294.833	369.38
295.064	362.38
295.295	362.38
295.525	361.38
295.756	354.38
295.987	361.38
296.217	386.38
296.448	391.38
296.679	392.38
296.909	349.38
297.14	369.38
297.37	379.38
297.601	380.38
297.831	360.38
298.062	362.38
298.292	378.38
298.523	383.38
298.753	371.38
298.984	366.38
299.214	364.38
299.445	372.38
299.675	380.38
299.905	389.38
300.136	391.38
300.366	387.38
300.597	370.38
300.827	403.38
301.057	405.38
301.288	410.38
301.518	427.38
301.748	414.38
301.979	393.38
302.209	409.38
302.439	422.38
302.669	415.38
302.9	394.38
303.13	401.38
303.36	405.38
303.59	403.38
303.82	419.38
304.051	403.38
304.281	400.38
304.511	406.38
304.741	393.38
304.971	390.38
305.201	422.38
305.431	408.38
305.661	392.38
305.891	387.38
306.121	405.38
306.352	400.38
306.582	431.38
306.812	385.38
307.042	407.38
307.272	405.38
307.502	402.38
307.731	417.38
307.961	410.38
308.191	409.38
308.421	406.38
308.651	410.38
308.881	388.38
309.111	410.38
309.341	409.38
309.571	414.38
309.8	431.38
310.03	422.38
310.26	409.38
310.49	443.38
310.72	437.38
310.949	429.38
311.179	446.38
311.409	451.38
311.639	440.38
311.868	428.38
312.098	433.38
312.328	446.38
312.557	453.38
312.787	461.38
313.017	460.38
313.246	470.38
313.476	447.38
313.706	437.38
313.935	450.38
314.165	481.38
314.394	485.38
314.624	479.38
314.853	455.38
315.083	449.38
315.312	464.38
315.542	448.38
315.771	440.38
316.001	446.38
316.23	435.38
316.46	435.38
316.689	440.38
316.919	448.38
317.148	464.38
317.377	468.38
317.607	453.38
317.836	457.38
318.065	456.38
318.295	450.38
318.524	454.38
318.753	433.38
318.983	450.38
319.212	466.38
319.441	465.38
319.67	469.38
319.9	428.38
320.129	451.38
320.358	452.38
320.587	441.38
320.816	469.38
321.046	475.38
321.275	491.38
321.504	449.38
321.733	474.38
321.962	465.38
322.191	463.38
322.42	498.38
322.649	500.38
322.878	493.38
323.108	510.38
323.337	527.38
323.566	532.38
323.795	569.38
324.024	602.38
324.253	711.38
324.482	949.38
324.71	1424.38
324.939	2097.38
325.168	1782.38
325.397	911.38
325.626	641.38
325.855	555.38
326.084	587.38
326.313	538.38
326.542	554.38
326.77	583.38
326.999	661.38
327.228	859.38
327.457	1305.38
327.686	1627.38
327.914	1085.38
328.143	735.38
328.372	675.38
328.6	622.38
328.829	607.38
329.058	598.38
329.287	606.38
329.515	600.38
329.744	541.38
329.972	568.38
330.201	578.38
330.43	597.38
330.658	606.38
330.887	630.38
331.115	623.38
331.344	604.38
331.572	555.38
331.801	565.38
332.03	563.38
332.258	568.38
332.486	552.38
332.715	567.38
332.943	559.38
333.172	586.38
333.4	592.38
333.629	615.38
333.857	652.38
334.085	624.38
334.314	647.38
334.542	637.38
334.771	669.38
334.999	633.38
335.227	610.38
335.455	573.38
335.684	557.38
335.912	562.38
336.14	571.38
336.369	574.38
336.597	561.38
336.825	577.38
337.053	563.38
337.281	557.38
337.51	563.38
337.738	561.38
337.966	543.38
338.194	547.38
338.422	573.38
338.65	559.38
338.878	524.38
339.106	527.38
339.334	527.38
339.562	532.38
339.79	530.38
340.018	531.38
340.246	516.38
340.474	513.38
340.702	513.38
340.93	520.38
341.158	529.38
341.386	509.38
341.614	538.38
341.842	509.38
342.07	499.38
342.298	515.38
342.526	516.38
342.754	505.38
342.981	490.38
343.209	522.38
343.437	539.38
343.665	535.38
343.893	547.38
344.12	596.38
344.348	562.38
344.576	551.38
344.804	561.38
345.031	550.38
345.259	550.38
345.487	535.38
345.714	535.38
345.942	511.38
346.17	490.38
346.397	483.38
346.625	494.38
346.853	493.38
347.08	491.38
347.308	499.38
347.535	516.38
347.763	493.38
347.99	532.38
348.218	503.38
348.445	503.38
348.673	502.38
348.9	503.38
349.128	484.38
349.355	508.38
349.583	487.38
349.81	469.38
350.037	493.38
350.265	487.38
350.492	486.38
350.72	502.38
350.947	487.38
351.174	495.38
351.402	490.38
351.629	487.38
351.856	494.38
352.083	509.38
352.311	516.38
352.538	522.38
352.765	514.38
352.992	487.38
353.22	497.38
353.447	495.38
353.674	470.38
353.901	481.38
354.128	478.38
354.355	460.38
354.583	482.38
354.81	465.38
355.037	458.38
355.264	479.38
355.491	490.38
355.718	473.38
355.945	476.38
356.172	475.38
356.399	480.38
356.626	474.38
356.853	493.38
357.08	461.38
357.307	478.38
357.534	487.38
357.761	483.38
357.988	472.38
358.215	479.38
358.441	509.38
358.668	488.38
358.895	483.38
359.122	481.38
359.349	488.38
359.576	517.38
359.802	500.38
360.029	540.38
360.256	541.38
360.483	501.38
360.709	484.38
360.936	507.38
361.163	494.38
361.39	509.38
361.616	515.38
361.843	499.38
362.07	479.38
362.296	496.38
362.523	505.38
362.749	505.38
362.976	509.38
363.203	488.38
363.429	478.38
363.656	513.38
363.882	477.38
364.109	489.38
364.335	459.38
364.562	461.38
364.788	501.38
365.015	494.38
365.241	477.38
365.468	497.38
365.694	504.38
365.92	493.38
366.147	462.38
366.373	495.38
366.599	485.38
366.826	480.38
367.052	499.38
367.278	490.38
367.505	502.38
367.731	488.38
367.957	487.38
368.184	502.38
368.41	512.38
368.636	489.38
368.862	516.38
369.089	501.38
369.315	505.38
369.541	485.38
369.767	499.38
369.993	471.38
370.219	502.38
370.445	504.38
370.672	516.38
370.898	522.38
371.124	518.38
371.35	493.38
371.576	528.38
371.802	515.38
372.028	515.38
372.254	505.38
372.48	506.38
372.706	510.38
372.932	526.38
373.158	503.38
373.384	520.38
373.61	508.38
373.835	524.38
374.061	517.38
374.287	535.38
374.513	507.38
374.739	514.38
374.965	540.38
375.191	545.38
375.416	581.38
375.642	537.38
375.868	515.38
376.094	537.38
376.319	519.38
376.545	481.38
376.771	521.38
376.997	515.38
377.222	516.38
377.448	512.38
377.674	515.38
377.899	511.38
378.125	503.38
378.35	512.38
378.576	488.38
378.802	505.38
379.027	503.38
379.253	500.38
379.478	499.38
379.704	499.38
379.929	488.38
380.155	512.38
380.38	502.38
380.606	531.38
380.831	523.38
381.057	526.38
381.282	519.38
381.507	522.38
381.733	514.38
381.958	533.38
382.184	529.38
382.409	545.38
382.634	537.38
382.86	527.38
383.085	536.38
383.31	543.38
383.535	534.38
383.761	581.38
383.986	577.38
384.211	585.38
384.436	580.38
384.662	587.38
384.887	624.38
385.112	603.38
385.337	623.38
385.562	614.38
385.787	605.38
386.013	641.38
386.238	611.38
386.463	621.38
386.688	609.38
386.913	616.38
387.138	614.38
387.363	598.38
387.588	622.38
387.813	603.38
388.038	596.38
388.263	623.38
388.488	653.38
388.713	621.38
388.938	594.38
389.163	577.38
389.387	587.38
389.612	584.38
389.837	579.38
390.062	583.38
390.287	570.38
390.512	590.38
390.736	597.38
390.961	576.38
391.186	602.38
391.411	607.38
391.636	626.38
391.86	591.38
392.085	637.38
392.31	612.38
392.534	629.38
392.759	651.38
392.984	623.38
393.208	659.38
393.433	742.38
393.658	779.38
393.882	648.38
394.107	623.38
394.331	617.38
394.556	614.38
394.78	612.38
395.005	607.38
395.229	603.38
395.454	591.38
395.678	655.38
395.903	652.38
396.127	666.38
396.352	672.38
396.576	647.38
396.801	675.38
397.025	711.38
397.249	693.38
397.474	669.38
397.698	660.38
397.922	650.38
398.147	659.38
398.371	665.38
398.595	664.38
398.82	683.38
399.044	706.38
399.268	769.38
399.492	856.38
399.717	921.38
399.941	941.38
400.165	937.38
400.389	863.38
400.613	797.38
400.837	752.38
401.062	726.38
401.286	712.38
401.51	715.38
401.734	707.38
401.958	690.38
402.182	714.38
402.406	737.38
402.63	731.38
402.854	712.38
403.078	721.38
403.302	749.38
403.526	775.38
403.75	782.38
403.974	787.38
404.198	774.38
404.422	764.38
404.645	773.38
404.869	762.38
405.093	810.38
405.317	829.38
405.541	856.38
405.765	813.38
405.988	771.38
406.212	778.38
406.436	803.38
406.66	831.38
406.883	828.38
407.107	835.38
407.331	895.38
407.555	906.38
407.778	937.38
408.002	891.38
408.226	848.38
408.449	837.38
408.673	807.38
408.896	818.38
409.12	830.38
409.344	810.38
409.567	788.38
409.791	769.38
410.014	747.38
410.238	745.38
410.461	745.38
410.685	755.38
410.908	735.38
411.132	778.38
411.355	789.38
411.578	797.38
411.802	733.38
412.025	719.38
412.249	734.38
412.472	765.38
412.695	783.38
412.919	760.38
413.142	727.38
413.365	729.38
413.589	720.38
413.812	692.38
414.035	713.38
414.258	693.38
414.482	695.38
414.705	688.38
414.928	721.38
415.151	687.38
415.374	711.38
415.597	691.38
415.821	697.38
416.044	682.38
416.267	678.38
416.49	706.38
416.713	665.38
416.936	673.38
417.159	685.38
417.382	693.38
417.605	680.38
417.828	715.38
418.051	717.38
418.274	715.38
418.497	715.38
418.72	709.38
418.943	704.38
419.166	746.38
419.389	777.38
419.611	777.38
419.834	749.38
420.057	739.38
420.28	733.38
420.503	718.38
420.726	712.38
420.948	736.38
421.171	743.38
421.394	768.38
421.617	703.38
421.839	705.38
422.062	704.38
422.285	728.38
422.507	785.38
422.73	859.38
422.953	832.38
423.175	759.38
423.398	714.38
423.621	738.38
423.843	773.38
424.066	761.38
424.288	766.38
424.511	785.38
424.733	811.38
424.956	862.38
425.178	825.38
425.401	823.38
425.623	880.38
425.846	727.38
426.068	710.38
426.291	711.38
426.513	718.38
426.735	726.38
426.958	751.38
427.18	841.38
427.402	949.38
427.625	1021.38
427.847	913.38
428.069	806.38
428.292	737.38
428.514	703.38
428.736	682.38
428.958	687.38
429.181	641.38
429.403	642.38
429.625	663.38
429.847	689.38
430.069	739.38
430.292	739.38
430.514	655.38
430.736	674.38
430.958	649.38
431.18	650.38
431.402	650.38
431.624	643.38
431.846	625.38
432.068	638.38
432.29	667.38
432.512	655.38
432.734	645.38
432.956	613.38
433.178	651.38
433.4	675.38
433.622	635.38
433.844	657.38
434.066	653.38
434.287	648.38
434.509	663.38
434.731	723.38
434.953	720.38
435.175	703.38
435.397	736.38
435.618	719.38
435.84	751.38
436.062	801.38
436.284	832.38
436.505	758.38
436.727	717.38
436.949	669.38
437.17	666.38
437.392	657.38
437.614	670.38
437.835	676.38
438.057	749.38
438.278	863.38
438.5	842.38
438.721	897.38
438.943	864.38
439.165	735.38
439.386	703.38
439.608	688.38
439.829	703.38
440.05	727.38
440.272	786.38
440.493	742.38
440.715	687.38
440.936	689.38
441.158	681.38
441.379	695.38
441.6	699.38
441.822	734.38
442.043	730.38
442.264	823.38
442.486	880.38
442.707	769.38
442.928	752.38
443.149	725.38
443.371	757.38
443.592	783.38
443.813	904.38
444.034	947.38
444.255	831.38
444.476	785.38
444.698	795.38
444.919	796.38
445.14	902.38
445.361	827.38
445.582	799.38
445.803	803.38
446.024	921.38
446.245	878.38
446.466	829.38
446.687	727.38
446.908	701.38
447.129	660.38
447.35	660.38
447.571	642.38
447.792	643.38
448.013	653.38
448.234	643.38
448.455	710.38
448.675	767.38
448.896	882.38
449.117	743.38
449.338	744.38
449.559	821.38
449.779	913.38
450	789.38
450.221	645.38
450.442	647.38
450.662	606.38
450.883	639.38
451.104	653.38
451.324	607.38
451.545	618.38
451.766	587.38
451.986	590.38
452.207	586.38
452.428	597.38
452.648	589.38
452.869	603.38
453.089	602.38
453.31	629.38
453.53	596.38
453.751	601.38
453.971	589.38
454.192	612.38
454.412	598.38
454.633	608.38
454.853	590.38
455.073	582.38
455.294	591.38
455.514	645.38
455.734	659.38
455.955	569.38
456.175	563.38
456.395	554.38
456.616	541.38
456.836	569.38
457.056	551.38
457.276	567.38
457.497	558.38
457.717	560.38
457.937	574.38
458.157	573.38
458.377	592.38
458.598	600.38
458.818	677.38
459.038	743.38
459.258	758.38
459.478	706.38
459.698	659.38
459.918	675.38
460.138	679.38
460.358	723.38
460.578	720.38
460.798	740.38
461.018	721.38
461.238	719.38
461.458	718.38
461.678	701.38
461.898	702.38
462.118	722.38
462.338	723.38
462.558	775.38
462.777	787.38
462.997	848.38
463.217	835.38
463.437	854.38
463.657	802.38
463.876	803.38
464.096	773.38
464.316	787.38
464.536	801.38
464.755	788.38
464.975	797.38
465.195	791.38
465.414	837.38
465.634	736.38
465.854	703.38
466.073	680.38
466.293	685.38
466.512	651.38
466.732	638.38
466.951	610.38
467.171	651.38
467.391	657.38
467.61	645.38
467.829	643.38
468.049	639.38
468.268	618.38
468.488	629.38
468.707	586.38
468.927	607.38
469.146	618.38
469.365	631.38
469.585	599.38
469.804	640.38
470.023	660.38
470.243	634.38
470.462	652.38
470.681	674.38
470.901	675.38
471.12	665.38
471.339	651.38
471.558	635.38
471.777	635.38
471.997	627.38
472.216	650.38
472.435	672.38
472.654	642.38
472.873	646.38
473.092	617.38
473.311	641.38
473.53	615.38
473.749	613.38
473.968	650.38
474.187	734.38
474.406	738.38
474.625	657.38
474.844	637.38
475.063	626.38
475.282	629.38
475.501	612.38
475.72	640.38
475.939	637.38
476.158	633.38
476.377	642.38
476.596	641.38
476.814	701.38
477.033	687.38
477.252	665.38
477.471	701.38
477.69	682.38
477.908	693.38
478.127	743.38
478.346	721.38
478.564	732.38
478.783	730.38
479.002	762.38
479.22	785.38
479.439	787.38
479.658	773.38
479.876	805.38
480.095	801.38
480.313	829.38
480.532	825.38
480.751	816.38
480.969	817.38
481.188	841.38
481.406	887.38
481.624	802.38
481.843	785.38
482.061	779.38
482.28	726.38
482.498	752.38
482.717	730.38
482.935	742.38
483.153	744.38
483.372	743.38
483.59	731.38
483.808	755.38
484.027	731.38
484.245	744.38
484.463	742.38
484.681	735.38
484.9	781.38
485.118	769.38
485.336	788.38
485.554	759.38
485.772	784.38
485.99	783.38
486.209	753.38
486.427	801.38
486.645	813.38
486.863	798.38
487.081	794.38
487.299	797.38
487.517	781.38
487.735	763.38
487.953	793.38
488.171	803.38
488.389	783.38
488.607	817.38
488.825	789.38
489.043	786.38
489.261	773.38
489.479	788.38
489.696	797.38
489.914	789.38
490.132	791.38
490.35	802.38
490.568	802.38
490.786	813.38
491.003	840.38
491.221	833.38
491.439	831.38
491.657	853.38
491.874	849.38
492.092	820.38
492.31	841.38
492.527	865.38
492.745	858.38
492.963	864.38
493.18	862.38
493.398	873.38
493.615	909.38
493.833	895.38
494.05	921.38
494.268	923.38
494.485	882.38
494.703	879.38
494.92	882.38
495.138	871.38
495.355	905.38
495.573	895.38
495.79	904.38
496.008	942.38
496.225	910.38
496.442	920.38
496.66	939.38
496.877	931.38
497.094	903.38
497.312	970.38
497.529	944.38
497.746	998.38
497.963	1012.38
498.181	1036.38
498.398	1072.38
498.615	1097.38
498.832	1117.38
499.049	1198.38
499.267	1250.38
499.484	1332.38
499.701	1429.38
499.918	1510.38
500.135	1619.38
500.352	1767.38
500.569	1842.38
500.786	1805.38
501.003	1781.38
501.22	1679.38
501.437	1524.38
501.654	1417.38
