Data from 1963.PennyLincolnUp.Lamp.En5.5.200Scan.071719.P1._HRD10591_13-57-22-062.txt Node
Date: Thu Jul 18 13:57:22 EDT 2019
User: cochatt
Spectrometer: HR+D1059
Trigger mode: 1
Integration Time (sec): 1.000000E-1
Scans to average: 1
Electric dark correction enabled: true
Nonlinearity correction enabled: false
Boxcar width: 0
XAxis mode: Wavelengths
Number of Pixels in Spectrum: 2048
>>>>>Begin Spectral Data<<<<<
223.165	-8.19
223.4	-8.19
223.635	-8.19
223.869	-24.19
224.104	-11.19
224.338	-10.19
224.573	-18.19
224.808	-20.19
225.042	-28.19
225.277	-16.19
225.511	-4.19
225.746	-8.19
225.98	28.81
226.215	19.81
226.449	21.81
226.683	21.81
226.918	28.81
227.152	27.81
227.387	31.81
227.621	36.81
227.856	43.81
228.09	30.81
228.324	45.81
228.559	60.81
228.793	61.81
229.027	82.81
229.262	93.81
229.496	122.81
229.73	103.81
229.964	123.81
230.199	110.81
230.433	105.81
230.667	104.81
230.901	106.81
231.136	130.81
231.37	112.81
231.604	99.81
231.838	113.81
232.072	107.81
232.306	119.81
232.541	116.81
232.775	103.81
233.009	115.81
233.243	109.81
233.477	112.81
233.711	118.81
233.945	106.81
234.179	101.81
234.413	114.81
234.647	118.81
234.881	117.81
235.115	133.81
235.349	96.81
235.583	118.81
235.817	134.81
236.051	132.81
236.285	123.81
236.519	125.81
236.753	115.81
236.987	135.81
237.221	132.81
237.455	170.81
237.689	148.81
237.922	112.81
238.156	122.81
238.39	121.81
238.624	118.81
238.858	122.81
239.091	131.81
239.325	124.81
239.559	141.81
239.793	146.81
240.027	124.81
240.26	123.81
240.494	142.81
240.728	138.81
240.961	149.81
241.195	141.81
241.429	142.81
241.662	147.81
241.896	140.81
242.13	134.81
242.363	137.81
242.597	137.81
242.83	139.81
243.064	152.81
243.298	133.81
243.531	132.81
243.765	141.81
243.998	143.81
244.232	125.81
244.465	159.81
244.699	147.81
244.932	157.81
245.166	146.81
245.399	148.81
245.633	155.81
245.866	149.81
246.099	136.81
246.333	160.81
246.566	150.81
246.8	140.81
247.033	150.81
247.266	163.81
247.5	164.81
247.733	171.81
247.966	175.81
248.2	175.81
248.433	169.81
248.666	186.81
248.899	160.81
249.133	199.81
249.366	189.81
249.599	178.81
249.832	175.81
250.066	169.81
250.299	176.81
250.532	199.81
250.765	210.81
250.998	197.81
251.231	192.81
251.465	205.81
251.698	194.81
251.931	199.81
252.164	193.81
252.397	185.81
252.63	194.81
252.863	209.81
253.096	207.81
253.329	193.81
253.562	195.81
253.795	207.81
254.028	209.81
254.261	214.81
254.494	211.81
254.727	236.81
254.96	223.81
255.193	221.81
255.426	232.81
255.659	231.81
255.892	216.81
256.124	212.81
256.357	208.81
256.59	211.81
256.823	221.81
257.056	214.81
257.289	199.81
257.521	206.81
257.754	202.81
257.987	193.81
258.22	219.81
258.452	214.81
258.685	223.81
258.918	199.81
259.151	218.81
259.383	224.81
259.616	212.81
259.849	227.81
260.081	230.81
260.314	218.81
260.547	245.81
260.779	239.81
261.012	233.81
261.244	217.81
261.477	215.81
261.71	222.81
261.942	228.81
262.175	228.81
262.407	216.81
262.64	214.81
262.872	208.81
263.105	214.81
263.337	221.81
263.57	230.81
263.802	231.81
264.035	220.81
264.267	232.81
264.499	223.81
264.732	240.81
264.964	230.81
265.197	231.81
265.429	231.81
265.661	221.81
265.894	231.81
266.126	228.81
266.358	231.81
266.591	231.81
266.823	236.81
267.055	216.81
267.287	263.81
267.52	251.81
267.752	244.81
267.984	255.81
268.216	223.81
268.448	242.81
268.681	231.81
268.913	253.81
269.145	278.81
269.377	273.81
269.609	261.81
269.841	262.81
270.073	260.81
270.306	266.81
270.538	292.81
270.77	276.81
271.002	294.81
271.234	277.81
271.466	291.81
271.698	282.81
271.93	283.81
272.162	280.81
272.394	285.81
272.626	288.81
272.858	284.81
273.09	287.81
273.322	268.81
273.553	257.81
273.785	274.81
274.017	273.81
274.249	281.81
274.481	278.81
274.713	264.81
274.945	269.81
275.176	291.81
275.408	267.81
275.64	268.81
275.872	288.81
276.104	305.81
276.335	278.81
276.567	277.81
276.799	285.81
277.031	307.81
277.262	309.81
277.494	291.81
277.726	293.81
277.957	287.81
278.189	290.81
278.421	292.81
278.652	284.81
278.884	271.81
279.115	298.81
279.347	284.81
279.579	289.81
279.81	310.81
280.042	284.81
280.273	296.81
280.505	297.81
280.736	288.81
280.968	282.81
281.199	267.81
281.431	291.81
281.662	299.81
281.894	293.81
282.125	295.81
282.356	297.81
282.588	309.81
282.819	293.81
283.051	279.81
283.282	305.81
283.513	291.81
283.745	319.81
283.976	327.81
284.207	336.81
284.439	305.81
284.67	314.81
284.901	303.81
285.132	306.81
285.364	313.81
285.595	323.81
285.826	300.81
286.057	313.81
286.288	316.81
286.52	329.81
286.751	302.81
286.982	329.81
287.213	331.81
287.444	323.81
287.675	337.81
287.906	319.81
288.138	330.81
288.369	313.81
288.6	336.81
288.831	328.81
289.062	314.81
289.293	327.81
289.524	349.81
289.755	333.81
289.986	319.81
290.217	319.81
290.448	320.81
290.679	329.81
290.91	341.81
291.141	328.81
291.371	330.81
291.602	339.81
291.833	341.81
292.064	318.81
292.295	330.81
292.526	319.81
292.757	313.81
292.987	342.81
293.218	331.81
293.449	343.81
293.68	331.81
293.91	330.81
294.141	332.81
294.372	316.81
294.603	349.81
294.833	326.81
295.064	338.81
295.295	341.81
295.525	327.81
295.756	337.81
295.987	329.81
296.217	359.81
296.448	334.81
296.679	340.81
296.909	325.81
297.14	345.81
297.37	352.81
297.601	369.81
297.831	345.81
298.062	364.81
298.292	366.81
298.523	387.81
298.753	373.81
298.984	364.81
299.214	365.81
299.445	358.81
299.675	351.81
299.905	345.81
300.136	345.81
300.366	362.81
300.597	374.81
300.827	404.81
301.057	372.81
301.288	376.81
301.518	363.81
301.748	383.81
301.979	397.81
302.209	391.81
302.439	392.81
302.669	381.81
302.9	357.81
303.13	356.81
303.36	364.81
303.59	388.81
303.82	373.81
304.051	372.81
304.281	369.81
304.511	385.81
304.741	360.81
304.971	375.81
305.201	379.81
305.431	381.81
305.661	387.81
305.891	389.81
306.121	372.81
306.352	374.81
306.582	379.81
306.812	364.81
307.042	391.81
307.272	391.81
307.502	395.81
307.731	373.81
307.961	353.81
308.191	399.81
308.421	396.81
308.651	392.81
308.881	392.81
309.111	382.81
309.341	363.81
309.571	380.81
309.8	409.81
310.03	385.81
310.26	405.81
310.49	398.81
310.72	389.81
310.949	391.81
311.179	394.81
311.409	400.81
311.639	399.81
311.868	400.81
312.098	395.81
312.328	411.81
312.557	408.81
312.787	433.81
313.017	425.81
313.246	415.81
313.476	401.81
313.706	389.81
313.935	398.81
314.165	426.81
314.394	437.81
314.624	415.81
314.853	402.81
315.083	413.81
315.312	422.81
315.542	423.81
315.771	409.81
316.001	411.81
316.23	424.81
316.46	418.81
316.689	403.81
316.919	398.81
317.148	409.81
317.377	414.81
317.607	405.81
317.836	411.81
318.065	407.81
318.295	409.81
318.524	439.81
318.753	407.81
318.983	423.81
319.212	418.81
319.441	419.81
319.67	442.81
319.9	431.81
320.129	433.81
320.358	409.81
320.587	415.81
320.816	418.81
321.046	411.81
321.275	410.81
321.504	411.81
321.733	420.81
321.962	445.81
322.191	413.81
322.42	420.81
322.649	411.81
322.878	453.81
323.108	435.81
323.337	446.81
323.566	444.81
323.795	447.81
324.024	469.81
324.253	519.81
324.482	623.81
324.71	819.81
324.939	1105.81
325.168	981.81
325.397	608.81
325.626	520.81
325.855	462.81
326.084	474.81
326.313	468.81
326.542	471.81
326.77	511.81
326.999	528.81
327.228	592.81
327.457	811.81
327.686	958.81
327.914	681.81
328.143	531.81
328.372	510.81
328.6	493.81
328.829	490.81
329.058	515.81
329.287	483.81
329.515	489.81
329.744	484.81
329.972	492.81
330.201	493.81
330.43	495.81
330.658	524.81
330.887	525.81
331.115	522.81
331.344	507.81
331.572	501.81
331.801	481.81
332.03	517.81
332.258	492.81
332.486	511.81
332.715	506.81
332.943	523.81
333.172	532.81
333.4	561.81
333.629	548.81
333.857	573.81
334.085	553.81
334.314	561.81
334.542	570.81
334.771	585.81
334.999	564.81
335.227	560.81
335.455	549.81
335.684	545.81
335.912	547.81
336.14	550.81
336.369	519.81
336.597	507.81
336.825	535.81
337.053	512.81
337.281	521.81
337.51	523.81
337.738	516.81
337.966	500.81
338.194	497.81
338.422	501.81
338.65	483.81
338.878	485.81
339.106	496.81
339.334	495.81
339.562	501.81
339.79	490.81
340.018	476.81
340.246	492.81
340.474	488.81
340.702	496.81
340.93	478.81
341.158	478.81
341.386	484.81
341.614	478.81
341.842	474.81
342.07	472.81
342.298	483.81
342.526	464.81
342.754	452.81
342.981	457.81
343.209	468.81
343.437	497.81
343.665	540.81
343.893	553.81
344.12	564.81
344.348	525.81
344.576	521.81
344.804	515.81
345.031	497.81
345.259	496.81
345.487	465.81
345.714	479.81
345.942	455.81
346.17	480.81
346.397	463.81
346.625	460.81
346.853	456.81
347.08	463.81
347.308	471.81
347.535	463.81
347.763	465.81
347.99	471.81
348.218	452.81
348.445	464.81
348.673	479.81
348.9	467.81
349.128	473.81
349.355	452.81
349.583	455.81
349.81	455.81
350.037	453.81
350.265	455.81
350.492	460.81
350.72	456.81
350.947	439.81
351.174	465.81
351.402	439.81
351.629	441.81
351.856	469.81
352.083	455.81
352.311	471.81
352.538	451.81
352.765	452.81
352.992	453.81
353.22	442.81
353.447	430.81
353.674	442.81
353.901	441.81
354.128	433.81
354.355	456.81
354.583	458.81
354.81	425.81
355.037	432.81
355.264	434.81
355.491	427.81
355.718	456.81
355.945	472.81
356.172	440.81
356.399	444.81
356.626	422.81
356.853	427.81
357.08	448.81
357.307	472.81
357.534	456.81
357.761	453.81
357.988	442.81
358.215	454.81
358.441	468.81
358.668	431.81
358.895	441.81
359.122	441.81
359.349	460.81
359.576	468.81
359.802	458.81
360.029	457.81
360.256	457.81
360.483	466.81
360.709	461.81
360.936	461.81
361.163	454.81
361.39	456.81
361.616	454.81
361.843	470.81
362.07	458.81
362.296	467.81
362.523	447.81
362.749	444.81
362.976	435.81
363.203	465.81
363.429	445.81
363.656	451.81
363.882	448.81
364.109	467.81
364.335	421.81
364.562	456.81
364.788	446.81
365.015	456.81
365.241	453.81
365.468	459.81
365.694	449.81
365.92	439.81
366.147	457.81
366.373	477.81
366.599	431.81
366.826	459.81
367.052	440.81
367.278	447.81
367.505	445.81
367.731	454.81
367.957	463.81
368.184	467.81
368.41	469.81
368.636	465.81
368.862	451.81
369.089	453.81
369.315	450.81
369.541	479.81
369.767	455.81
369.993	459.81
370.219	478.81
370.445	465.81
370.672	474.81
370.898	470.81
371.124	458.81
371.35	471.81
371.576	476.81
371.802	477.81
372.028	470.81
372.254	481.81
372.48	473.81
372.706	475.81
372.932	498.81
373.158	467.81
373.384	471.81
373.61	471.81
373.835	492.81
374.061	463.81
374.287	479.81
374.513	476.81
374.739	513.81
374.965	511.81
375.191	492.81
375.416	513.81
375.642	499.81
375.868	504.81
376.094	473.81
376.319	479.81
376.545	487.81
376.771	490.81
376.997	474.81
377.222	476.81
377.448	477.81
377.674	482.81
377.899	482.81
378.125	481.81
378.35	488.81
378.576	483.81
378.802	465.81
379.027	467.81
379.253	471.81
379.478	467.81
379.704	475.81
379.929	491.81
380.155	484.81
380.38	468.81
380.606	473.81
380.831	477.81
381.057	495.81
381.282	470.81
381.507	473.81
381.733	488.81
381.958	476.81
382.184	489.81
382.409	486.81
382.634	483.81
382.86	512.81
383.085	486.81
383.31	526.81
383.535	503.81
383.761	520.81
383.986	524.81
384.211	516.81
384.436	559.81
384.662	545.81
384.887	562.81
385.112	553.81
385.337	541.81
385.562	554.81
385.787	560.81
386.013	561.81
386.238	560.81
386.463	551.81
386.688	541.81
386.913	551.81
387.138	559.81
387.363	575.81
387.588	556.81
387.813	537.81
388.038	549.81
388.263	547.81
388.488	581.81
388.713	549.81
388.938	556.81
389.163	527.81
389.387	535.81
389.612	547.81
389.837	535.81
390.062	530.81
390.287	553.81
390.512	524.81
390.736	540.81
390.961	555.81
391.186	581.81
391.411	561.81
391.636	581.81
391.86	571.81
392.085	599.81
392.31	595.81
392.534	573.81
392.759	577.81
392.984	575.81
393.208	543.81
393.433	575.81
393.658	606.81
393.882	570.81
394.107	571.81
394.331	574.81
394.556	573.81
394.78	592.81
395.005	592.81
395.229	565.81
395.454	596.81
395.678	595.81
395.903	596.81
396.127	596.81
396.352	605.81
396.576	587.81
396.801	573.81
397.025	588.81
397.249	617.81
397.474	595.81
397.698	587.81
397.922	617.81
398.147	602.81
398.371	633.81
398.595	639.81
398.82	631.81
399.044	663.81
399.268	727.81
399.492	792.81
399.717	869.81
399.941	888.81
400.165	848.81
400.389	808.81
400.613	741.81
400.837	701.81
401.062	664.81
401.286	679.81
401.51	645.81
401.734	671.81
401.958	655.81
402.182	655.81
402.406	668.81
402.63	702.81
402.854	703.81
403.078	685.81
403.302	667.81
403.526	709.81
403.75	694.81
403.974	716.81
404.198	713.81
404.422	698.81
404.645	710.81
404.869	724.81
405.093	742.81
405.317	757.81
405.541	783.81
405.765	755.81
405.988	734.81
406.212	719.81
406.436	711.81
406.66	736.81
406.883	739.81
407.107	773.81
407.331	825.81
407.555	864.81
407.778	832.81
408.002	803.81
408.226	778.81
408.449	762.81
408.673	712.81
408.896	753.81
409.12	770.81
409.344	762.81
409.567	722.81
409.791	701.81
410.014	676.81
410.238	700.81
410.461	708.81
410.685	716.81
410.908	684.81
411.132	704.81
411.355	709.81
411.578	698.81
411.802	689.81
412.025	698.81
412.249	693.81
412.472	711.81
412.695	718.81
412.919	694.81
413.142	659.81
413.365	652.81
413.589	693.81
413.812	656.81
414.035	667.81
414.258	659.81
414.482	632.81
414.705	660.81
414.928	663.81
415.151	659.81
415.374	654.81
415.597	646.81
415.821	654.81
416.044	613.81
416.267	627.81
416.49	641.81
416.713	656.81
416.936	682.81
417.159	645.81
417.382	637.81
417.605	627.81
417.828	661.81
418.051	647.81
418.274	655.81
418.497	632.81
418.72	657.81
418.943	660.81
419.166	684.81
419.389	711.81
419.611	717.81
419.834	683.81
420.057	678.81
420.28	685.81
420.503	656.81
420.726	650.81
420.948	659.81
421.171	678.81
421.394	714.81
421.617	650.81
421.839	643.81
422.062	648.81
422.285	665.81
422.507	698.81
422.73	723.81
422.953	730.81
423.175	676.81
423.398	689.81
423.621	677.81
423.843	715.81
424.066	685.81
424.288	704.81
424.511	717.81
424.733	760.81
424.956	774.81
425.178	731.81
425.401	690.81
425.623	759.81
425.846	680.81
426.068	671.81
426.291	632.81
426.513	654.81
426.735	657.81
426.958	653.81
427.18	719.81
427.402	760.81
427.625	821.81
427.847	746.81
428.069	679.81
428.292	636.81
428.514	617.81
428.736	603.81
428.958	609.81
429.181	580.81
429.403	589.81
429.625	589.81
429.847	625.81
430.069	663.81
430.292	637.81
430.514	607.81
430.736	609.81
430.958	608.81
431.18	603.81
431.402	596.81
431.624	579.81
431.846	607.81
432.068	594.81
432.29	586.81
432.512	583.81
432.734	569.81
432.956	604.81
433.178	594.81
433.4	586.81
433.622	575.81
433.844	596.81
434.066	597.81
434.287	605.81
434.509	632.81
434.731	657.81
434.953	655.81
435.175	659.81
435.397	647.81
435.618	673.81
435.84	672.81
436.062	720.81
436.284	712.81
436.505	658.81
436.727	636.81
436.949	624.81
437.17	606.81
437.392	635.81
437.614	620.81
437.835	611.81
438.057	654.81
438.278	709.81
438.5	744.81
438.721	752.81
438.943	751.81
439.165	657.81
439.386	632.81
439.608	623.81
439.829	632.81
440.05	632.81
440.272	656.81
440.493	626.81
440.715	597.81
440.936	622.81
441.158	623.81
441.379	642.81
441.6	649.81
441.822	663.81
442.043	660.81
442.264	727.81
442.486	733.81
442.707	673.81
442.928	641.81
443.149	643.81
443.371	637.81
443.592	682.81
443.813	741.81
444.034	779.81
444.255	706.81
444.476	711.81
444.698	723.81
444.919	712.81
445.14	828.81
445.361	748.81
445.582	693.81
445.803	698.81
446.024	742.81
446.245	736.81
446.466	694.81
446.687	643.81
446.908	646.81
447.129	597.81
447.35	583.81
447.571	573.81
447.792	575.81
448.013	597.81
448.234	592.81
448.455	615.81
448.675	663.81
448.896	706.81
449.117	671.81
449.338	627.81
449.559	706.81
449.779	771.81
450	643.81
450.221	574.81
450.442	585.81
450.662	546.81
450.883	572.81
451.104	564.81
451.324	561.81
451.545	544.81
451.766	539.81
451.986	542.81
452.207	532.81
452.428	523.81
452.648	544.81
452.869	557.81
453.089	535.81
453.31	526.81
453.53	553.81
453.751	528.81
453.971	555.81
454.192	531.81
454.412	520.81
454.633	520.81
454.853	525.81
455.073	531.81
455.294	546.81
455.514	582.81
455.734	562.81
455.955	510.81
456.175	507.81
456.395	499.81
456.616	498.81
456.836	514.81
457.056	512.81
457.276	508.81
457.497	504.81
457.717	507.81
457.937	513.81
458.157	523.81
458.377	542.81
458.598	575.81
458.818	569.81
459.038	599.81
459.258	649.81
459.478	613.81
459.698	612.81
459.918	619.81
460.138	632.81
460.358	659.81
460.578	665.81
460.798	667.81
461.018	670.81
461.238	685.81
461.458	651.81
461.678	664.81
461.898	645.81
462.118	653.81
462.338	690.81
462.558	735.81
462.777	719.81
462.997	765.81
463.217	801.81
463.437	813.81
463.657	774.81
463.876	736.81
464.096	736.81
464.316	749.81
464.536	725.81
464.755	722.81
464.975	702.81
465.195	682.81
465.414	707.81
465.634	639.81
465.854	613.81
466.073	620.81
466.293	586.81
466.512	569.81
466.732	608.81
466.951	577.81
467.171	574.81
467.391	569.81
467.61	574.81
467.829	575.81
468.049	559.81
468.268	587.81
468.488	564.81
468.707	568.81
468.927	563.81
469.146	559.81
469.365	553.81
469.585	572.81
469.804	577.81
470.023	575.81
470.243	588.81
470.462	594.81
470.681	598.81
470.901	593.81
471.12	599.81
471.339	591.81
471.558	563.81
471.777	572.81
471.997	578.81
472.216	575.81
472.435	586.81
472.654	553.81
472.873	572.81
473.092	577.81
473.311	551.81
473.53	565.81
473.749	571.81
473.968	578.81
474.187	626.81
474.406	620.81
474.625	578.81
474.844	566.81
475.063	583.81
475.282	573.81
475.501	547.81
475.72	568.81
475.939	589.81
476.158	584.81
476.377	598.81
476.596	586.81
476.814	596.81
477.033	608.81
477.252	607.81
477.471	633.81
477.69	616.81
477.908	611.81
478.127	639.81
478.346	655.81
478.564	674.81
478.783	673.81
479.002	676.81
479.22	685.81
479.439	689.81
479.658	667.81
479.876	699.81
480.095	694.81
480.313	723.81
480.532	753.81
480.751	748.81
480.969	724.81
481.188	726.81
481.406	748.81
481.624	693.81
481.843	654.81
482.061	648.81
482.28	662.81
482.498	637.81
482.717	635.81
482.935	670.81
483.153	659.81
483.372	648.81
483.59	654.81
483.808	681.81
484.027	656.81
484.245	651.81
484.463	669.81
484.681	671.81
484.9	675.81
485.118	673.81
485.336	677.81
485.554	657.81
485.772	681.81
485.99	679.81
486.209	673.81
486.427	704.81
486.645	707.81
486.863	698.81
487.081	700.81
487.299	696.81
487.517	686.81
487.735	719.81
487.953	709.81
488.171	699.81
488.389	711.81
488.607	692.81
488.825	701.81
489.043	707.81
489.261	713.81
489.479	688.81
489.696	703.81
489.914	718.81
490.132	707.81
490.35	684.81
490.568	717.81
490.786	725.81
491.003	732.81
491.221	747.81
491.439	722.81
491.657	723.81
491.874	745.81
492.092	736.81
492.31	751.81
492.527	753.81
492.745	743.81
492.963	753.81
493.18	763.81
493.398	784.81
493.615	792.81
493.833	772.81
494.05	769.81
494.268	771.81
494.485	778.81
494.703	788.81
494.92	792.81
495.138	781.81
495.355	785.81
495.573	769.81
495.79	809.81
496.008	807.81
496.225	805.81
496.442	804.81
496.66	821.81
496.877	837.81
497.094	829.81
497.312	827.81
497.529	861.81
497.746	868.81
497.963	896.81
498.181	896.81
498.398	938.81
498.615	989.81
498.832	1016.81
499.049	1076.81
499.267	1126.81
499.484	1205.81
499.701	1277.81
499.918	1335.81
500.135	1468.81
500.352	1651.81
500.569	1692.81
500.786	1660.81
501.003	1602.81
501.22	1484.81
501.437	1394.81
501.654	1309.81
501.871	1196.81
