Data from 1963.PennyLincolnUp.Lamp.En5.5.200Scan.071719.P1._HRD10591_13-59-15-063.txt Node
Date: Thu Jul 18 13:59:15 EDT 2019
User: cochatt
Spectrometer: HR+D1059
Trigger mode: 1
Integration Time (sec): 1.000000E-1
Scans to average: 1
Electric dark correction enabled: true
Nonlinearity correction enabled: false
Boxcar width: 0
XAxis mode: Wavelengths
Number of Pixels in Spectrum: 2048
>>>>>Begin Spectral Data<<<<<
223.165	-10.38
223.4	-10.38
223.635	-10.38
223.869	-10.38
224.104	-12.38
224.338	-25.38
224.573	-10.38
224.808	-24.38
225.042	-18.38
225.277	-5.38
225.511	-8.38
225.746	20.62
225.98	9.62
226.215	19.62
226.449	10.62
226.683	17.62
226.918	24.62
227.152	22.62
227.387	33.62
227.621	39.62
227.856	58.62
228.09	42.62
228.324	59.62
228.559	50.62
228.793	83.62
229.027	95.62
229.262	86.62
229.496	109.62
229.73	117.62
229.964	133.62
230.199	128.62
230.433	137.62
230.667	123.62
230.901	125.62
231.136	130.62
231.37	114.62
231.604	104.62
231.838	125.62
232.072	139.62
232.306	121.62
232.541	119.62
232.775	136.62
233.009	139.62
233.243	128.62
233.477	129.62
233.711	123.62
233.945	125.62
234.179	128.62
234.413	129.62
234.647	126.62
234.881	126.62
235.115	129.62
235.349	135.62
235.583	125.62
235.817	120.62
236.051	120.62
236.285	123.62
236.519	135.62
236.753	142.62
236.987	154.62
237.221	168.62
237.455	191.62
237.689	172.62
237.922	149.62
238.156	144.62
238.39	139.62
238.624	140.62
238.858	151.62
239.091	136.62
239.325	131.62
239.559	151.62
239.793	133.62
240.027	151.62
240.26	144.62
240.494	159.62
240.728	149.62
240.961	175.62
241.195	161.62
241.429	165.62
241.662	152.62
241.896	157.62
242.13	141.62
242.363	147.62
242.597	149.62
242.83	139.62
243.064	149.62
243.298	150.62
243.531	165.62
243.765	155.62
243.998	160.62
244.232	155.62
244.465	155.62
244.699	161.62
244.932	174.62
245.166	166.62
245.399	158.62
245.633	163.62
245.866	169.62
246.099	167.62
246.333	167.62
246.566	162.62
246.8	164.62
247.033	189.62
247.266	177.62
247.5	172.62
247.733	172.62
247.966	185.62
248.2	187.62
248.433	190.62
248.666	194.62
248.899	187.62
249.133	216.62
249.366	218.62
249.599	221.62
249.832	190.62
250.066	198.62
250.299	187.62
250.532	197.62
250.765	229.62
250.998	221.62
251.231	253.62
251.465	220.62
251.698	213.62
251.931	221.62
252.164	232.62
252.397	207.62
252.63	216.62
252.863	216.62
253.096	235.62
253.329	231.62
253.562	224.62
253.795	239.62
254.028	236.62
254.261	240.62
254.494	249.62
254.727	248.62
254.96	279.62
255.193	272.62
255.426	251.62
255.659	250.62
255.892	227.62
256.124	214.62
256.357	244.62
256.59	245.62
256.823	235.62
257.056	244.62
257.289	239.62
257.521	231.62
257.754	254.62
257.987	227.62
258.22	253.62
258.452	240.62
258.685	232.62
258.918	220.62
259.151	234.62
259.383	250.62
259.616	223.62
259.849	237.62
260.081	252.62
260.314	271.62
260.547	269.62
260.779	261.62
261.012	249.62
261.244	250.62
261.477	263.62
261.71	235.62
261.942	249.62
262.175	251.62
262.407	238.62
262.64	245.62
262.872	236.62
263.105	248.62
263.337	238.62
263.57	229.62
263.802	247.62
264.035	236.62
264.267	236.62
264.499	250.62
264.732	255.62
264.964	254.62
265.197	255.62
265.429	249.62
265.661	235.62
265.894	277.62
266.126	251.62
266.358	278.62
266.591	263.62
266.823	276.62
267.055	251.62
267.287	251.62
267.52	265.62
267.752	258.62
267.984	249.62
268.216	252.62
268.448	265.62
268.681	279.62
268.913	271.62
269.145	280.62
269.377	295.62
269.609	295.62
269.841	308.62
270.073	302.62
270.306	291.62
270.538	328.62
270.77	343.62
271.002	307.62
271.234	329.62
271.466	324.62
271.698	336.62
271.93	341.62
272.162	323.62
272.394	348.62
272.626	332.62
272.858	320.62
273.09	328.62
273.322	300.62
273.553	308.62
273.785	292.62
274.017	317.62
274.249	303.62
274.481	309.62
274.713	300.62
274.945	317.62
275.176	298.62
275.408	316.62
275.64	303.62
275.872	314.62
276.104	313.62
276.335	297.62
276.567	303.62
276.799	307.62
277.031	345.62
277.262	343.62
277.494	333.62
277.726	348.62
277.957	332.62
278.189	334.62
278.421	317.62
278.652	304.62
278.884	312.62
279.115	318.62
279.347	324.62
279.579	317.62
279.81	317.62
280.042	335.62
280.273	325.62
280.505	319.62
280.736	335.62
280.968	324.62
281.199	333.62
281.431	305.62
281.662	301.62
281.894	324.62
282.125	345.62
282.356	328.62
282.588	339.62
282.819	356.62
283.051	335.62
283.282	329.62
283.513	340.62
283.745	321.62
283.976	348.62
284.207	334.62
284.439	349.62
284.67	359.62
284.901	350.62
285.132	342.62
285.364	333.62
285.595	350.62
285.826	337.62
286.057	349.62
286.288	334.62
286.52	331.62
286.751	346.62
286.982	344.62
287.213	350.62
287.444	337.62
287.675	373.62
287.906	370.62
288.138	368.62
288.369	373.62
288.6	365.62
288.831	349.62
289.062	353.62
289.293	357.62
289.524	346.62
289.755	350.62
289.986	354.62
290.217	352.62
290.448	357.62
290.679	361.62
290.91	350.62
291.141	361.62
291.371	353.62
291.602	365.62
291.833	368.62
292.064	372.62
292.295	372.62
292.526	374.62
292.757	367.62
292.987	376.62
293.218	366.62
293.449	357.62
293.68	366.62
293.91	373.62
294.141	391.62
294.372	360.62
294.603	381.62
294.833	377.62
295.064	364.62
295.295	377.62
295.525	363.62
295.756	367.62
295.987	382.62
296.217	387.62
296.448	399.62
296.679	398.62
296.909	382.62
297.14	381.62
297.37	382.62
297.601	373.62
297.831	373.62
298.062	388.62
298.292	384.62
298.523	399.62
298.753	391.62
298.984	388.62
299.214	375.62
299.445	400.62
299.675	381.62
299.905	402.62
300.136	397.62
300.366	387.62
300.597	379.62
300.827	409.62
301.057	402.62
301.288	416.62
301.518	416.62
301.748	414.62
301.979	402.62
302.209	426.62
302.439	412.62
302.669	405.62
302.9	405.62
303.13	393.62
303.36	421.62
303.59	396.62
303.82	429.62
304.051	417.62
304.281	438.62
304.511	391.62
304.741	417.62
304.971	440.62
305.201	416.62
305.431	410.62
305.661	432.62
305.891	422.62
306.121	411.62
306.352	414.62
306.582	414.62
306.812	426.62
307.042	401.62
307.272	409.62
307.502	413.62
307.731	421.62
307.961	413.62
308.191	418.62
308.421	428.62
308.651	406.62
308.881	432.62
309.111	445.62
309.341	419.62
309.571	424.62
309.8	432.62
310.03	438.62
310.26	440.62
310.49	450.62
310.72	453.62
310.949	453.62
311.179	439.62
311.409	430.62
311.639	454.62
311.868	459.62
312.098	448.62
312.328	448.62
312.557	446.62
312.787	483.62
313.017	473.62
313.246	452.62
313.476	464.62
313.706	473.62
313.935	466.62
314.165	460.62
314.394	479.62
314.624	494.62
314.853	480.62
315.083	459.62
315.312	477.62
315.542	475.62
315.771	439.62
316.001	439.62
316.23	464.62
316.46	443.62
316.689	440.62
316.919	445.62
317.148	479.62
317.377	471.62
317.607	467.62
317.836	473.62
318.065	449.62
318.295	458.62
318.524	455.62
318.753	457.62
318.983	461.62
319.212	451.62
319.441	462.62
319.67	457.62
319.9	472.62
320.129	460.62
320.358	463.62
320.587	460.62
320.816	476.62
321.046	471.62
321.275	473.62
321.504	470.62
321.733	480.62
321.962	496.62
322.191	495.62
322.42	467.62
322.649	491.62
322.878	482.62
323.108	494.62
323.337	527.62
323.566	525.62
323.795	548.62
324.024	575.62
324.253	663.62
324.482	864.62
324.71	1195.62
324.939	1705.62
325.168	1448.62
325.397	857.62
325.626	629.62
325.855	580.62
326.084	566.62
326.313	552.62
326.542	526.62
326.77	599.62
326.999	641.62
327.228	753.62
327.457	1109.62
327.686	1335.62
327.914	940.62
328.143	685.62
328.372	618.62
328.6	600.62
328.829	571.62
329.058	596.62
329.287	583.62
329.515	585.62
329.744	574.62
329.972	560.62
330.201	557.62
330.43	629.62
330.658	616.62
330.887	622.62
331.115	622.62
331.344	558.62
331.572	537.62
331.801	577.62
332.03	574.62
332.258	567.62
332.486	569.62
332.715	587.62
332.943	562.62
333.172	612.62
333.4	619.62
333.629	641.62
333.857	641.62
334.085	660.62
334.314	647.62
334.542	678.62
334.771	695.62
334.999	653.62
335.227	635.62
335.455	606.62
335.684	624.62
335.912	604.62
336.14	580.62
336.369	588.62
336.597	584.62
336.825	576.62
337.053	576.62
337.281	565.62
337.51	573.62
337.738	549.62
337.966	552.62
338.194	557.62
338.422	551.62
338.65	538.62
338.878	540.62
339.106	524.62
339.334	548.62
339.562	541.62
339.79	508.62
340.018	533.62
340.246	527.62
340.474	529.62
340.702	529.62
340.93	540.62
341.158	515.62
341.386	507.62
341.614	523.62
341.842	536.62
342.07	513.62
342.298	502.62
342.526	533.62
342.754	533.62
342.981	518.62
343.209	503.62
343.437	556.62
343.665	568.62
343.893	595.62
344.12	592.62
344.348	605.62
344.576	588.62
344.804	575.62
345.031	549.62
345.259	566.62
345.487	549.62
345.714	535.62
345.942	527.62
346.17	501.62
346.397	527.62
346.625	534.62
346.853	503.62
347.08	498.62
347.308	494.62
347.535	488.62
347.763	516.62
347.99	505.62
348.218	514.62
348.445	532.62
348.673	519.62
348.9	494.62
349.128	495.62
349.355	495.62
349.583	488.62
349.81	499.62
350.037	495.62
350.265	496.62
350.492	495.62
350.72	500.62
350.947	502.62
351.174	525.62
351.402	500.62
351.629	501.62
351.856	497.62
352.083	484.62
352.311	490.62
352.538	516.62
352.765	511.62
352.992	503.62
353.22	494.62
353.447	485.62
353.674	500.62
353.901	504.62
354.128	479.62
354.355	476.62
354.583	480.62
354.81	516.62
355.037	478.62
355.264	515.62
355.491	499.62
355.718	500.62
355.945	494.62
356.172	477.62
356.399	501.62
356.626	470.62
356.853	485.62
357.08	477.62
357.307	490.62
357.534	490.62
357.761	495.62
357.988	501.62
358.215	486.62
358.441	499.62
358.668	472.62
358.895	491.62
359.122	492.62
359.349	496.62
359.576	505.62
359.802	519.62
360.029	537.62
360.256	559.62
360.483	529.62
360.709	513.62
360.936	525.62
361.163	499.62
361.39	508.62
361.616	524.62
361.843	504.62
362.07	499.62
362.296	511.62
362.523	507.62
362.749	511.62
362.976	503.62
363.203	507.62
363.429	483.62
363.656	522.62
363.882	508.62
364.109	507.62
364.335	493.62
364.562	489.62
364.788	490.62
365.015	498.62
365.241	488.62
365.468	524.62
365.694	487.62
365.92	508.62
366.147	505.62
366.373	522.62
366.599	484.62
366.826	507.62
367.052	509.62
367.278	470.62
367.505	507.62
367.731	493.62
367.957	499.62
368.184	510.62
368.41	508.62
368.636	505.62
368.862	516.62
369.089	499.62
369.315	489.62
369.541	499.62
369.767	511.62
369.993	527.62
370.219	489.62
370.445	519.62
370.672	533.62
370.898	521.62
371.124	508.62
371.35	533.62
371.576	519.62
371.802	521.62
372.028	498.62
372.254	532.62
372.48	519.62
372.706	534.62
372.932	549.62
373.158	568.62
373.384	535.62
373.61	528.62
373.835	527.62
374.061	505.62
374.287	523.62
374.513	534.62
374.739	511.62
374.965	551.62
375.191	543.62
375.416	558.62
375.642	541.62
375.868	556.62
376.094	529.62
376.319	540.62
376.545	509.62
376.771	537.62
376.997	534.62
377.222	527.62
377.448	529.62
377.674	512.62
377.899	512.62
378.125	501.62
378.35	496.62
378.576	516.62
378.802	517.62
379.027	526.62
379.253	515.62
379.478	523.62
379.704	503.62
379.929	540.62
380.155	525.62
380.38	518.62
380.606	536.62
380.831	493.62
381.057	505.62
381.282	522.62
381.507	514.62
381.733	524.62
381.958	528.62
382.184	534.62
382.409	535.62
382.634	527.62
382.86	528.62
383.085	536.62
383.31	541.62
383.535	550.62
383.761	555.62
383.986	569.62
384.211	566.62
384.436	571.62
384.662	565.62
384.887	586.62
385.112	582.62
385.337	573.62
385.562	583.62
385.787	604.62
386.013	604.62
386.238	603.62
386.463	615.62
386.688	594.62
386.913	597.62
387.138	581.62
387.363	592.62
387.588	584.62
387.813	639.62
388.038	587.62
388.263	569.62
388.488	615.62
388.713	588.62
388.938	577.62
389.163	596.62
389.387	617.62
389.612	582.62
389.837	580.62
390.062	587.62
390.287	596.62
390.512	613.62
390.736	586.62
390.961	611.62
391.186	627.62
391.411	629.62
391.636	631.62
391.86	637.62
392.085	644.62
392.31	646.62
392.534	654.62
392.759	640.62
392.984	625.62
393.208	619.62
393.433	656.62
393.658	631.62
393.882	621.62
394.107	615.62
394.331	631.62
394.556	617.62
394.78	608.62
395.005	636.62
395.229	621.62
395.454	645.62
395.678	631.62
395.903	664.62
396.127	647.62
396.352	655.62
396.576	645.62
396.801	600.62
397.025	647.62
397.249	649.62
397.474	675.62
397.698	664.62
397.922	669.62
398.147	662.62
398.371	710.62
398.595	677.62
398.82	711.62
399.044	727.62
399.268	796.62
399.492	875.62
399.717	936.62
399.941	976.62
400.165	906.62
400.389	866.62
400.613	813.62
400.837	771.62
401.062	740.62
401.286	709.62
401.51	708.62
401.734	708.62
401.958	741.62
402.182	749.62
402.406	735.62
402.63	733.62
402.854	734.62
403.078	731.62
403.302	775.62
403.526	774.62
403.75	792.62
403.974	796.62
404.198	749.62
404.422	779.62
404.645	780.62
404.869	784.62
405.093	809.62
405.317	842.62
405.541	871.62
405.765	801.62
405.988	792.62
406.212	789.62
406.436	823.62
406.66	826.62
406.883	815.62
407.107	841.62
407.331	904.62
407.555	953.62
407.778	942.62
408.002	895.62
408.226	841.62
408.449	833.62
408.673	803.62
408.896	801.62
409.12	864.62
409.344	841.62
409.567	761.62
409.791	783.62
410.014	772.62
410.238	772.62
410.461	786.62
410.685	783.62
410.908	771.62
411.132	786.62
411.355	803.62
411.578	787.62
411.802	747.62
412.025	743.62
412.249	751.62
412.472	764.62
412.695	792.62
412.919	778.62
413.142	741.62
413.365	722.62
413.589	732.62
413.812	726.62
414.035	719.62
414.258	721.62
414.482	710.62
414.705	712.62
414.928	716.62
415.151	699.62
415.374	691.62
415.597	711.62
415.821	698.62
416.044	709.62
416.267	719.62
416.49	712.62
416.713	679.62
416.936	697.62
417.159	693.62
417.382	702.62
417.605	693.62
417.828	725.62
418.051	727.62
418.274	725.62
418.497	713.62
418.72	719.62
418.943	711.62
419.166	745.62
419.389	772.62
419.611	779.62
419.834	784.62
420.057	724.62
420.28	742.62
420.503	732.62
420.726	707.62
420.948	717.62
421.171	751.62
421.394	785.62
421.617	737.62
421.839	722.62
422.062	720.62
422.285	721.62
422.507	756.62
422.73	840.62
422.953	836.62
423.175	743.62
423.398	743.62
423.621	741.62
423.843	780.62
424.066	800.62
424.288	773.62
424.511	799.62
424.733	813.62
424.956	897.62
425.178	841.62
425.401	839.62
425.623	849.62
425.846	765.62
426.068	739.62
426.291	719.62
426.513	721.62
426.735	717.62
426.958	770.62
427.18	818.62
427.402	895.62
427.625	972.62
427.847	852.62
428.069	779.62
428.292	744.62
428.514	701.62
428.736	671.62
428.958	684.62
429.181	693.62
429.403	655.62
429.625	648.62
429.847	699.62
430.069	751.62
430.292	735.62
430.514	656.62
430.736	661.62
430.958	675.62
431.18	638.62
431.402	665.62
431.624	629.62
431.846	661.62
432.068	638.62
432.29	664.62
432.512	654.62
432.734	654.62
432.956	643.62
433.178	667.62
433.4	667.62
433.622	676.62
433.844	649.62
434.066	683.62
434.287	688.62
434.509	661.62
434.731	719.62
434.953	723.62
435.175	737.62
435.397	731.62
435.618	715.62
435.84	755.62
436.062	792.62
436.284	871.62
436.505	740.62
436.727	731.62
436.949	688.62
437.17	674.62
437.392	645.62
437.614	673.62
437.835	688.62
438.057	751.62
438.278	825.62
438.5	832.62
438.721	921.62
438.943	867.62
439.165	748.62
439.386	701.62
439.608	705.62
439.829	715.62
440.05	714.62
440.272	736.62
440.493	726.62
440.715	700.62
440.936	680.62
441.158	674.62
441.379	694.62
441.6	715.62
441.822	737.62
442.043	751.62
442.264	807.62
442.486	841.62
442.707	782.62
442.928	761.62
443.149	739.62
443.371	773.62
443.592	833.62
443.813	900.62
444.034	923.62
444.255	812.62
444.476	788.62
444.698	808.62
444.919	808.62
445.14	917.62
445.361	856.62
445.582	779.62
445.803	806.62
446.024	867.62
446.245	886.62
446.466	799.62
446.687	715.62
446.908	710.62
447.129	681.62
447.35	675.62
447.571	655.62
447.792	662.62
448.013	651.62
448.234	653.62
448.455	696.62
448.675	764.62
448.896	878.62
449.117	782.62
449.338	718.62
449.559	809.62
449.779	913.62
450	752.62
450.221	662.62
450.442	622.62
450.662	630.62
450.883	636.62
451.104	652.62
451.324	624.62
451.545	626.62
451.766	601.62
451.986	615.62
452.207	588.62
452.428	608.62
452.648	584.62
452.869	606.62
453.089	606.62
453.31	608.62
453.53	593.62
453.751	567.62
453.971	577.62
454.192	585.62
454.412	595.62
454.633	566.62
454.853	574.62
455.073	577.62
455.294	607.62
455.514	615.62
455.734	629.62
455.955	570.62
456.175	565.62
456.395	568.62
456.616	550.62
456.836	572.62
457.056	559.62
457.276	546.62
457.497	565.62
457.717	557.62
457.937	568.62
458.157	571.62
458.377	602.62
458.598	583.62
458.818	677.62
459.038	709.62
459.258	741.62
459.478	700.62
459.698	672.62
459.918	663.62
460.138	687.62
460.358	715.62
460.578	719.62
460.798	721.62
461.018	710.62
461.238	694.62
461.458	713.62
461.678	710.62
461.898	717.62
462.118	733.62
462.338	775.62
462.558	771.62
462.777	776.62
462.997	830.62
463.217	859.62
463.437	875.62
463.657	839.62
463.876	812.62
464.096	816.62
464.316	811.62
464.536	825.62
464.755	786.62
464.975	773.62
465.195	788.62
465.414	792.62
465.634	732.62
465.854	694.62
466.073	661.62
466.293	665.62
466.512	658.62
466.732	616.62
466.951	628.62
467.171	627.62
467.391	627.62
467.61	648.62
467.829	636.62
468.049	623.62
468.268	651.62
468.488	608.62
468.707	590.62
468.927	605.62
469.146	606.62
469.365	634.62
469.585	616.62
469.804	639.62
470.023	639.62
470.243	624.62
470.462	645.62
470.681	665.62
470.901	658.62
471.12	656.62
471.339	647.62
471.558	633.62
471.777	622.62
471.997	639.62
472.216	618.62
472.435	667.62
472.654	655.62
472.873	632.62
473.092	627.62
473.311	627.62
473.53	619.62
473.749	610.62
473.968	630.62
474.187	730.62
474.406	711.62
474.625	681.62
474.844	612.62
475.063	611.62
475.282	637.62
475.501	638.62
475.72	623.62
475.939	645.62
476.158	627.62
476.377	619.62
476.596	624.62
476.814	660.62
477.033	653.62
477.252	646.62
477.471	675.62
477.69	671.62
477.908	720.62
478.127	714.62
478.346	709.62
478.564	750.62
478.783	730.62
479.002	757.62
479.22	767.62
479.439	761.62
479.658	779.62
479.876	764.62
480.095	778.62
480.313	822.62
480.532	815.62
480.751	832.62
480.969	783.62
481.188	835.62
481.406	841.62
481.624	776.62
481.843	760.62
482.061	708.62
482.28	725.62
482.498	734.62
482.717	705.62
482.935	733.62
483.153	740.62
483.372	726.62
483.59	733.62
483.808	711.62
484.027	719.62
484.245	717.62
484.463	724.62
484.681	749.62
484.9	726.62
485.118	733.62
485.336	716.62
485.554	731.62
485.772	768.62
485.99	759.62
486.209	762.62
486.427	780.62
486.645	775.62
486.863	761.62
487.081	786.62
487.299	761.62
487.517	767.62
487.735	792.62
487.953	797.62
488.171	764.62
488.389	792.62
488.607	751.62
488.825	772.62
489.043	771.62
489.261	781.62
489.479	767.62
489.696	776.62
489.914	782.62
490.132	792.62
490.35	816.62
490.568	796.62
490.786	788.62
491.003	808.62
491.221	817.62
491.439	829.62
491.657	821.62
491.874	873.62
492.092	846.62
492.31	846.62
492.527	870.62
492.745	844.62
492.963	889.62
493.18	895.62
493.398	875.62
493.615	894.62
493.833	863.62
494.05	893.62
494.268	877.62
494.485	893.62
494.703	886.62
494.92	874.62
495.138	892.62
495.355	894.62
495.573	908.62
495.79	889.62
496.008	875.62
496.225	893.62
496.442	889.62
496.66	897.62
496.877	903.62
497.094	894.62
497.312	935.62
497.529	953.62
497.746	966.62
497.963	1013.62
498.181	1042.62
498.398	1044.62
498.615	1111.62
498.832	1100.62
499.049	1191.62
499.267	1218.62
499.484	1302.62
499.701	1395.62
499.918	1475.62
500.135	1621.62
500.352	1796.62
500.569	1856.62
500.786	1837.62
501.003	1737.62
501.22	1594.62
501.437	1488.62
501.654	1401.62
