Data from 1963.PennyLincolnUp.Lamp.En5.5.200Scan.071719.P1._HRD10591_13-59-12-064.txt Node
Date: Thu Jul 18 13:59:12 EDT 2019
User: cochatt
Spectrometer: HR+D1059
Trigger mode: 1
Integration Time (sec): 1.000000E-1
Scans to average: 1
Electric dark correction enabled: true
Nonlinearity correction enabled: false
Boxcar width: 0
XAxis mode: Wavelengths
Number of Pixels in Spectrum: 2048
>>>>>Begin Spectral Data<<<<<
223.165	-23.81
223.4	-23.81
223.635	-23.81
223.869	-2.81
224.104	-6.81
224.338	-15.81
224.573	-12.81
224.808	-21.81
225.042	-11.81
225.277	-5.81
225.511	-0.81
225.746	-6.81
225.98	-1.81
226.215	8.19
226.449	31.19
226.683	15.19
226.918	32.19
227.152	24.19
227.387	24.19
227.621	30.19
227.856	45.19
228.09	33.19
228.324	53.19
228.559	49.19
228.793	62.19
229.027	84.19
229.262	126.19
229.496	104.19
229.73	120.19
229.964	140.19
230.199	113.19
230.433	118.19
230.667	112.19
230.901	103.19
231.136	116.19
231.37	116.19
231.604	122.19
231.838	104.19
232.072	104.19
232.306	115.19
232.541	114.19
232.775	126.19
233.009	121.19
233.243	127.19
233.477	118.19
233.711	114.19
233.945	131.19
234.179	113.19
234.413	128.19
234.647	116.19
234.881	116.19
235.115	130.19
235.349	128.19
235.583	116.19
235.817	126.19
236.051	139.19
236.285	128.19
236.519	104.19
236.753	146.19
236.987	142.19
237.221	173.19
237.455	205.19
237.689	174.19
237.922	157.19
238.156	153.19
238.39	149.19
238.624	134.19
238.858	134.19
239.091	122.19
239.325	132.19
239.559	130.19
239.793	142.19
240.027	132.19
240.26	137.19
240.494	162.19
240.728	178.19
240.961	168.19
241.195	153.19
241.429	151.19
241.662	132.19
241.896	137.19
242.13	142.19
242.363	140.19
242.597	150.19
242.83	148.19
243.064	145.19
243.298	145.19
243.531	159.19
243.765	142.19
243.998	150.19
244.232	150.19
244.465	160.19
244.699	163.19
244.932	155.19
245.166	163.19
245.399	165.19
245.633	159.19
245.866	158.19
246.099	149.19
246.333	175.19
246.566	163.19
246.8	172.19
247.033	168.19
247.266	156.19
247.5	181.19
247.733	175.19
247.966	188.19
248.2	187.19
248.433	186.19
248.666	204.19
248.899	202.19
249.133	217.19
249.366	206.19
249.599	199.19
249.832	184.19
250.066	192.19
250.299	189.19
250.532	215.19
250.765	212.19
250.998	217.19
251.231	240.19
251.465	210.19
251.698	231.19
251.931	217.19
252.164	206.19
252.397	188.19
252.63	201.19
252.863	220.19
253.096	231.19
253.329	236.19
253.562	246.19
253.795	232.19
254.028	224.19
254.261	211.19
254.494	236.19
254.727	262.19
254.96	276.19
255.193	265.19
255.426	258.19
255.659	261.19
255.892	238.19
256.124	251.19
256.357	248.19
256.59	247.19
256.823	239.19
257.056	229.19
257.289	258.19
257.521	220.19
257.754	225.19
257.987	226.19
258.22	225.19
258.452	241.19
258.685	232.19
258.918	217.19
259.151	228.19
259.383	244.19
259.616	243.19
259.849	249.19
260.081	265.19
260.314	252.19
260.547	266.19
260.779	261.19
261.012	262.19
261.244	238.19
261.477	255.19
261.71	234.19
261.942	240.19
262.175	243.19
262.407	272.19
262.64	249.19
262.872	252.19
263.105	223.19
263.337	230.19
263.57	244.19
263.802	233.19
264.035	238.19
264.267	245.19
264.499	238.19
264.732	251.19
264.964	224.19
265.197	260.19
265.429	262.19
265.661	249.19
265.894	233.19
266.126	249.19
266.358	264.19
266.591	258.19
266.823	247.19
267.055	262.19
267.287	256.19
267.52	240.19
267.752	264.19
267.984	256.19
268.216	260.19
268.448	282.19
268.681	264.19
268.913	286.19
269.145	285.19
269.377	310.19
269.609	312.19
269.841	294.19
270.073	316.19
270.306	311.19
270.538	326.19
270.77	332.19
271.002	330.19
271.234	301.19
271.466	328.19
271.698	325.19
271.93	327.19
272.162	326.19
272.394	348.19
272.626	335.19
272.858	330.19
273.09	309.19
273.322	322.19
273.553	308.19
273.785	316.19
274.017	300.19
274.249	306.19
274.481	318.19
274.713	304.19
274.945	308.19
275.176	320.19
275.408	291.19
275.64	270.19
275.872	306.19
276.104	313.19
276.335	313.19
276.567	321.19
276.799	338.19
277.031	351.19
277.262	346.19
277.494	349.19
277.726	346.19
277.957	354.19
278.189	312.19
278.421	311.19
278.652	321.19
278.884	320.19
279.115	324.19
279.347	340.19
279.579	327.19
279.81	316.19
280.042	313.19
280.273	314.19
280.505	316.19
280.736	317.19
280.968	310.19
281.199	326.19
281.431	321.19
281.662	337.19
281.894	314.19
282.125	327.19
282.356	350.19
282.588	340.19
282.819	366.19
283.051	357.19
283.282	323.19
283.513	337.19
283.745	334.19
283.976	341.19
284.207	344.19
284.439	329.19
284.67	335.19
284.901	346.19
285.132	346.19
285.364	325.19
285.595	348.19
285.826	324.19
286.057	326.19
286.288	337.19
286.52	350.19
286.751	357.19
286.982	338.19
287.213	332.19
287.444	336.19
287.675	353.19
287.906	369.19
288.138	370.19
288.369	357.19
288.6	374.19
288.831	362.19
289.062	367.19
289.293	349.19
289.524	338.19
289.755	367.19
289.986	364.19
290.217	364.19
290.448	346.19
290.679	366.19
290.91	368.19
291.141	337.19
291.371	370.19
291.602	359.19
291.833	362.19
292.064	361.19
292.295	365.19
292.526	358.19
292.757	346.19
292.987	364.19
293.218	348.19
293.449	367.19
293.68	350.19
293.91	356.19
294.141	376.19
294.372	381.19
294.603	375.19
294.833	366.19
295.064	376.19
295.295	371.19
295.525	380.19
295.756	381.19
295.987	387.19
296.217	410.19
296.448	415.19
296.679	378.19
296.909	370.19
297.14	371.19
297.37	391.19
297.601	376.19
297.831	402.19
298.062	383.19
298.292	387.19
298.523	403.19
298.753	378.19
298.984	408.19
299.214	376.19
299.445	391.19
299.675	392.19
299.905	393.19
300.136	398.19
300.366	410.19
300.597	380.19
300.827	400.19
301.057	414.19
301.288	424.19
301.518	417.19
301.748	424.19
301.979	427.19
302.209	420.19
302.439	424.19
302.669	451.19
302.9	414.19
303.13	400.19
303.36	404.19
303.59	420.19
303.82	432.19
304.051	416.19
304.281	415.19
304.511	429.19
304.741	423.19
304.971	414.19
305.201	418.19
305.431	426.19
305.661	435.19
305.891	415.19
306.121	424.19
306.352	434.19
306.582	415.19
306.812	410.19
307.042	416.19
307.272	432.19
307.502	412.19
307.731	402.19
307.961	418.19
308.191	418.19
308.421	410.19
308.651	421.19
308.881	416.19
309.111	421.19
309.341	417.19
309.571	439.19
309.8	423.19
310.03	418.19
310.26	446.19
310.49	434.19
310.72	463.19
310.949	466.19
311.179	465.19
311.409	472.19
311.639	450.19
311.868	441.19
312.098	461.19
312.328	452.19
312.557	480.19
312.787	470.19
313.017	484.19
313.246	444.19
313.476	458.19
313.706	457.19
313.935	477.19
314.165	464.19
314.394	467.19
314.624	489.19
314.853	457.19
315.083	465.19
315.312	470.19
315.542	463.19
315.771	450.19
316.001	450.19
316.23	462.19
316.46	433.19
316.689	458.19
316.919	448.19
317.148	485.19
317.377	455.19
317.607	485.19
317.836	462.19
318.065	453.19
318.295	461.19
318.524	461.19
318.753	443.19
318.983	468.19
319.212	445.19
319.441	468.19
319.67	461.19
319.9	461.19
320.129	456.19
320.358	458.19
320.587	454.19
320.816	449.19
321.046	478.19
321.275	464.19
321.504	457.19
321.733	471.19
321.962	500.19
322.191	485.19
322.42	501.19
322.649	522.19
322.878	517.19
323.108	483.19
323.337	508.19
323.566	543.19
323.795	561.19
324.024	593.19
324.253	619.19
324.482	832.19
324.71	1204.19
324.939	1758.19
325.168	1524.19
325.397	840.19
325.626	650.19
325.855	580.19
326.084	574.19
326.313	551.19
326.542	548.19
326.77	596.19
326.999	669.19
327.228	818.19
327.457	1152.19
327.686	1367.19
327.914	963.19
328.143	690.19
328.372	666.19
328.6	614.19
328.829	602.19
329.058	599.19
329.287	597.19
329.515	597.19
329.744	548.19
329.972	583.19
330.201	584.19
330.43	638.19
330.658	642.19
330.887	645.19
331.115	634.19
331.344	602.19
331.572	586.19
331.801	577.19
332.03	568.19
332.258	578.19
332.486	582.19
332.715	589.19
332.943	583.19
333.172	608.19
333.4	618.19
333.629	632.19
333.857	646.19
334.085	645.19
334.314	675.19
334.542	658.19
334.771	684.19
334.999	627.19
335.227	608.19
335.455	595.19
335.684	608.19
335.912	585.19
336.14	590.19
336.369	575.19
336.597	589.19
336.825	569.19
337.053	569.19
337.281	561.19
337.51	562.19
337.738	591.19
337.966	560.19
338.194	567.19
338.422	562.19
338.65	542.19
338.878	552.19
339.106	554.19
339.334	561.19
339.562	534.19
339.79	557.19
340.018	524.19
340.246	536.19
340.474	521.19
340.702	542.19
340.93	538.19
341.158	522.19
341.386	537.19
341.614	556.19
341.842	536.19
342.07	524.19
342.298	542.19
342.526	533.19
342.754	535.19
342.981	521.19
343.209	519.19
343.437	546.19
343.665	563.19
343.893	597.19
344.12	588.19
344.348	569.19
344.576	572.19
344.804	573.19
345.031	530.19
345.259	545.19
345.487	532.19
345.714	529.19
345.942	532.19
346.17	529.19
346.397	510.19
346.625	518.19
346.853	508.19
347.08	500.19
347.308	521.19
347.535	519.19
347.763	521.19
347.99	526.19
348.218	512.19
348.445	494.19
348.673	524.19
348.9	511.19
349.128	513.19
349.355	502.19
349.583	508.19
349.81	497.19
350.037	512.19
350.265	486.19
350.492	528.19
350.72	522.19
350.947	519.19
351.174	506.19
351.402	514.19
351.629	510.19
351.856	493.19
352.083	512.19
352.311	497.19
352.538	507.19
352.765	511.19
352.992	518.19
353.22	510.19
353.447	501.19
353.674	486.19
353.901	508.19
354.128	485.19
354.355	490.19
354.583	497.19
354.81	471.19
355.037	486.19
355.264	500.19
355.491	471.19
355.718	490.19
355.945	512.19
356.172	514.19
356.399	499.19
356.626	493.19
356.853	476.19
357.08	492.19
357.307	484.19
357.534	470.19
357.761	510.19
357.988	481.19
358.215	512.19
358.441	508.19
358.668	494.19
358.895	490.19
359.122	509.19
359.349	480.19
359.576	513.19
359.802	520.19
360.029	521.19
360.256	537.19
360.483	517.19
360.709	511.19
360.936	522.19
361.163	519.19
361.39	518.19
361.616	502.19
361.843	497.19
362.07	510.19
362.296	511.19
362.523	511.19
362.749	516.19
362.976	507.19
363.203	484.19
363.429	481.19
363.656	524.19
363.882	516.19
364.109	489.19
364.335	492.19
364.562	484.19
364.788	497.19
365.015	489.19
365.241	504.19
365.468	497.19
365.694	530.19
365.92	487.19
366.147	489.19
366.373	501.19
366.599	488.19
366.826	492.19
367.052	498.19
367.278	506.19
367.505	504.19
367.731	498.19
367.957	487.19
368.184	482.19
368.41	485.19
368.636	520.19
368.862	529.19
369.089	529.19
369.315	505.19
369.541	499.19
369.767	510.19
369.993	517.19
370.219	520.19
370.445	513.19
370.672	519.19
370.898	527.19
371.124	513.19
371.35	524.19
371.576	535.19
371.802	523.19
372.028	503.19
372.254	535.19
372.48	527.19
372.706	521.19
372.932	546.19
373.158	530.19
373.384	549.19
373.61	511.19
373.835	547.19
374.061	548.19
374.287	537.19
374.513	522.19
374.739	574.19
374.965	563.19
375.191	538.19
375.416	567.19
375.642	573.19
375.868	529.19
376.094	538.19
376.319	520.19
376.545	535.19
376.771	517.19
376.997	538.19
377.222	518.19
377.448	537.19
377.674	517.19
377.899	501.19
378.125	524.19
378.35	493.19
378.576	510.19
378.802	526.19
379.027	511.19
379.253	519.19
379.478	504.19
379.704	507.19
379.929	508.19
380.155	503.19
380.38	536.19
380.606	505.19
380.831	548.19
381.057	494.19
381.282	519.19
381.507	501.19
381.733	539.19
381.958	525.19
382.184	527.19
382.409	519.19
382.634	552.19
382.86	551.19
383.085	525.19
383.31	538.19
383.535	578.19
383.761	576.19
383.986	574.19
384.211	579.19
384.436	589.19
384.662	576.19
384.887	585.19
385.112	595.19
385.337	589.19
385.562	592.19
385.787	589.19
386.013	599.19
386.238	606.19
386.463	620.19
386.688	604.19
386.913	610.19
387.138	594.19
387.363	585.19
387.588	617.19
387.813	623.19
388.038	569.19
388.263	589.19
388.488	615.19
388.713	588.19
388.938	621.19
389.163	613.19
389.387	610.19
389.612	586.19
389.837	586.19
390.062	594.19
390.287	596.19
390.512	594.19
390.736	592.19
390.961	605.19
391.186	606.19
391.411	631.19
391.636	630.19
391.86	629.19
392.085	655.19
392.31	642.19
392.534	626.19
392.759	637.19
392.984	627.19
393.208	608.19
393.433	615.19
393.658	605.19
393.882	623.19
394.107	590.19
394.331	619.19
394.556	629.19
394.78	628.19
395.005	621.19
395.229	626.19
395.454	631.19
395.678	649.19
395.903	664.19
396.127	660.19
396.352	666.19
396.576	642.19
396.801	612.19
397.025	619.19
397.249	660.19
397.474	650.19
397.698	654.19
397.922	668.19
398.147	693.19
398.371	674.19
398.595	700.19
398.82	720.19
399.044	757.19
399.268	793.19
399.492	889.19
399.717	974.19
399.941	986.19
400.165	936.19
400.389	871.19
400.613	814.19
400.837	768.19
401.062	727.19
401.286	741.19
401.51	732.19
401.734	731.19
401.958	722.19
402.182	712.19
402.406	722.19
402.63	740.19
402.854	762.19
403.078	767.19
403.302	748.19
403.526	823.19
403.75	800.19
403.974	793.19
404.198	781.19
404.422	787.19
404.645	788.19
404.869	791.19
405.093	827.19
405.317	828.19
405.541	861.19
405.765	816.19
405.988	782.19
406.212	787.19
406.436	816.19
406.66	835.19
406.883	821.19
407.107	850.19
407.331	888.19
407.555	965.19
407.778	980.19
408.002	910.19
408.226	854.19
408.449	808.19
408.673	836.19
408.896	814.19
409.12	853.19
409.344	816.19
409.567	784.19
409.791	784.19
410.014	762.19
410.238	754.19
410.461	745.19
410.685	756.19
410.908	724.19
411.132	793.19
411.355	806.19
411.578	797.19
411.802	748.19
412.025	742.19
412.249	766.19
412.472	787.19
412.695	790.19
412.919	795.19
413.142	728.19
413.365	742.19
413.589	734.19
413.812	750.19
414.035	729.19
414.258	723.19
414.482	705.19
414.705	712.19
414.928	691.19
415.151	710.19
415.374	675.19
415.597	706.19
415.821	697.19
416.044	684.19
416.267	703.19
416.49	707.19
416.713	688.19
416.936	708.19
417.159	699.19
417.382	700.19
417.605	710.19
417.828	689.19
418.051	725.19
418.274	752.19
418.497	721.19
418.72	726.19
418.943	706.19
419.166	732.19
419.389	792.19
419.611	785.19
419.834	748.19
420.057	739.19
420.28	732.19
420.503	729.19
420.726	707.19
420.948	717.19
421.171	753.19
421.394	753.19
421.617	726.19
421.839	718.19
422.062	740.19
422.285	711.19
422.507	805.19
422.73	844.19
422.953	845.19
423.175	802.19
423.398	782.19
423.621	734.19
423.843	769.19
424.066	792.19
424.288	782.19
424.511	806.19
424.733	837.19
424.956	860.19
425.178	853.19
425.401	838.19
425.623	858.19
425.846	767.19
426.068	747.19
426.291	725.19
426.513	718.19
426.735	714.19
426.958	764.19
427.18	796.19
427.402	924.19
427.625	999.19
427.847	872.19
428.069	781.19
428.292	751.19
428.514	684.19
428.736	689.19
428.958	717.19
429.181	672.19
429.403	677.19
429.625	679.19
429.847	676.19
430.069	753.19
430.292	744.19
430.514	678.19
430.736	670.19
430.958	661.19
431.18	657.19
431.402	638.19
431.624	666.19
431.846	660.19
432.068	659.19
432.29	676.19
432.512	652.19
432.734	674.19
432.956	689.19
433.178	677.19
433.4	669.19
433.622	656.19
433.844	670.19
434.066	664.19
434.287	660.19
434.509	680.19
434.731	693.19
434.953	720.19
435.175	727.19
435.397	738.19
435.618	735.19
435.84	742.19
436.062	830.19
436.284	863.19
436.505	797.19
436.727	701.19
436.949	689.19
437.17	689.19
437.392	683.19
437.614	676.19
437.835	694.19
438.057	781.19
438.278	852.19
438.5	865.19
438.721	916.19
438.943	873.19
439.165	748.19
439.386	713.19
439.608	714.19
439.829	701.19
440.05	726.19
440.272	746.19
440.493	734.19
440.715	686.19
440.936	686.19
441.158	691.19
441.379	714.19
441.6	727.19
441.822	750.19
442.043	794.19
442.264	821.19
442.486	857.19
442.707	781.19
442.928	761.19
443.149	753.19
443.371	783.19
443.592	798.19
443.813	880.19
444.034	957.19
444.255	829.19
444.476	830.19
444.698	799.19
444.919	832.19
445.14	922.19
445.361	836.19
445.582	777.19
445.803	823.19
446.024	888.19
446.245	905.19
446.466	849.19
446.687	750.19
446.908	697.19
447.129	680.19
447.35	638.19
447.571	651.19
447.792	666.19
448.013	660.19
448.234	656.19
448.455	688.19
448.675	786.19
448.896	900.19
449.117	776.19
449.338	738.19
449.559	840.19
449.779	914.19
450	767.19
450.221	662.19
450.442	664.19
450.662	636.19
450.883	623.19
451.104	655.19
451.324	647.19
451.545	631.19
451.766	597.19
451.986	602.19
452.207	607.19
452.428	605.19
452.648	588.19
452.869	586.19
453.089	613.19
453.31	616.19
453.53	608.19
453.751	604.19
453.971	575.19
454.192	613.19
454.412	598.19
454.633	610.19
454.853	602.19
455.073	613.19
455.294	570.19
455.514	632.19
455.734	636.19
455.955	589.19
456.175	567.19
456.395	600.19
456.616	574.19
456.836	557.19
457.056	542.19
457.276	576.19
457.497	585.19
457.717	569.19
457.937	586.19
458.157	588.19
458.377	567.19
458.598	617.19
458.818	668.19
459.038	713.19
459.258	774.19
459.478	700.19
459.698	669.19
459.918	692.19
460.138	680.19
460.358	729.19
460.578	718.19
460.798	748.19
461.018	735.19
461.238	718.19
461.458	718.19
461.678	713.19
461.898	734.19
462.118	708.19
462.338	760.19
462.558	799.19
462.777	796.19
462.997	856.19
463.217	898.19
463.437	873.19
463.657	841.19
463.876	821.19
464.096	790.19
464.316	800.19
464.536	796.19
464.755	775.19
464.975	795.19
465.195	787.19
465.414	805.19
465.634	719.19
465.854	697.19
466.073	695.19
466.293	673.19
466.512	636.19
466.732	640.19
466.951	639.19
467.171	622.19
467.391	637.19
467.61	641.19
467.829	639.19
468.049	625.19
468.268	632.19
468.488	608.19
468.707	617.19
468.927	608.19
469.146	585.19
469.365	628.19
469.585	612.19
469.804	627.19
470.023	657.19
470.243	628.19
470.462	647.19
470.681	646.19
470.901	668.19
471.12	640.19
471.339	631.19
471.558	640.19
471.777	641.19
471.997	644.19
472.216	647.19
472.435	654.19
472.654	644.19
472.873	614.19
473.092	627.19
473.311	644.19
473.53	600.19
473.749	608.19
473.968	630.19
474.187	726.19
474.406	753.19
474.625	675.19
474.844	629.19
475.063	613.19
475.282	632.19
475.501	628.19
475.72	628.19
475.939	634.19
476.158	652.19
476.377	636.19
476.596	647.19
476.814	657.19
477.033	665.19
477.252	669.19
477.471	669.19
477.69	669.19
477.908	689.19
478.127	725.19
478.346	713.19
478.564	718.19
478.783	724.19
479.002	754.19
479.22	732.19
479.439	769.19
479.658	763.19
479.876	784.19
480.095	790.19
480.313	806.19
480.532	851.19
480.751	829.19
480.969	809.19
481.188	828.19
481.406	900.19
481.624	787.19
481.843	749.19
482.061	739.19
482.28	732.19
482.498	741.19
482.717	729.19
482.935	728.19
483.153	706.19
483.372	736.19
483.59	737.19
483.808	734.19
484.027	730.19
484.245	752.19
484.463	735.19
484.681	724.19
484.9	712.19
485.118	740.19
485.336	741.19
485.554	761.19
485.772	755.19
485.99	737.19
486.209	754.19
486.427	756.19
486.645	774.19
486.863	787.19
487.081	785.19
487.299	785.19
487.517	778.19
487.735	783.19
487.953	795.19
488.171	752.19
488.389	765.19
488.607	787.19
488.825	800.19
489.043	777.19
489.261	777.19
489.479	789.19
489.696	786.19
489.914	807.19
490.132	804.19
490.35	788.19
490.568	809.19
490.786	808.19
491.003	815.19
491.221	834.19
491.439	855.19
491.657	864.19
491.874	872.19
492.092	834.19
492.31	876.19
492.527	856.19
492.745	878.19
492.963	876.19
493.18	883.19
493.398	877.19
493.615	905.19
493.833	905.19
494.05	886.19
494.268	881.19
494.485	900.19
494.703	907.19
494.92	907.19
495.138	881.19
495.355	914.19
495.573	889.19
495.79	915.19
496.008	915.19
496.225	900.19
496.442	916.19
496.66	906.19
496.877	931.19
497.094	946.19
497.312	922.19
497.529	971.19
497.746	994.19
497.963	1006.19
498.181	1041.19
498.398	1039.19
498.615	1078.19
498.832	1137.19
499.049	1188.19
499.267	1233.19
499.484	1319.19
499.701	1419.19
499.918	1526.19
500.135	1644.19
500.352	1782.19
500.569	1828.19
500.786	1858.19
501.003	1744.19
501.22	1671.19
501.437	1524.19
501.654	1393.19
