Data from 1963.PennyLincolnUp.Lamp.En5.5.200Scan.071719.P1._HRD10591_13-59-18-063.txt Node
Date: Thu Jul 18 13:59:18 EDT 2019
User: cochatt
Spectrometer: HR+D1059
Trigger mode: 1
Integration Time (sec): 1.000000E-1
Scans to average: 1
Electric dark correction enabled: true
Nonlinearity correction enabled: false
Boxcar width: 0
XAxis mode: Wavelengths
Number of Pixels in Spectrum: 2048
>>>>>Begin Spectral Data<<<<<
223.165	-5.69
223.4	-5.69
223.635	-5.69
223.869	-19.69
224.104	-17.69
224.338	-12.69
224.573	-14.69
224.808	-9.69
225.042	-5.69
225.277	-8.69
225.511	-5.69
225.746	0.31
225.98	14.31
226.215	6.31
226.449	11.31
226.683	13.31
226.918	27.31
227.152	27.31
227.387	26.31
227.621	36.31
227.856	44.31
228.09	44.31
228.324	42.31
228.559	41.31
228.793	59.31
229.027	95.31
229.262	95.31
229.496	120.31
229.73	127.31
229.964	153.31
230.199	134.31
230.433	103.31
230.667	110.31
230.901	124.31
231.136	119.31
231.37	121.31
231.604	131.31
231.838	118.31
232.072	114.31
232.306	132.31
232.541	114.31
232.775	114.31
233.009	122.31
233.243	120.31
233.477	121.31
233.711	120.31
233.945	108.31
234.179	122.31
234.413	119.31
234.647	133.31
234.881	125.31
235.115	119.31
235.349	117.31
235.583	124.31
235.817	118.31
236.051	127.31
236.285	120.31
236.519	132.31
236.753	131.31
236.987	137.31
237.221	162.31
237.455	211.31
237.689	176.31
237.922	135.31
238.156	139.31
238.39	134.31
238.624	124.31
238.858	133.31
239.091	133.31
239.325	135.31
239.559	147.31
239.793	136.31
240.027	152.31
240.26	146.31
240.494	166.31
240.728	145.31
240.961	148.31
241.195	171.31
241.429	153.31
241.662	148.31
241.896	155.31
242.13	152.31
242.363	143.31
242.597	132.31
242.83	153.31
243.064	157.31
243.298	159.31
243.531	157.31
243.765	151.31
243.998	157.31
244.232	172.31
244.465	159.31
244.699	160.31
244.932	167.31
245.166	171.31
245.399	171.31
245.633	168.31
245.866	162.31
246.099	159.31
246.333	167.31
246.566	171.31
246.8	165.31
247.033	166.31
247.266	185.31
247.5	161.31
247.733	183.31
247.966	200.31
248.2	173.31
248.433	177.31
248.666	180.31
248.899	189.31
249.133	200.31
249.366	211.31
249.599	215.31
249.832	192.31
250.066	205.31
250.299	197.31
250.532	202.31
250.765	225.31
250.998	232.31
251.231	248.31
251.465	224.31
251.698	208.31
251.931	218.31
252.164	223.31
252.397	215.31
252.63	215.31
252.863	210.31
253.096	211.31
253.329	239.31
253.562	230.31
253.795	221.31
254.028	244.31
254.261	241.31
254.494	249.31
254.727	248.31
254.96	277.31
255.193	271.31
255.426	239.31
255.659	259.31
255.892	232.31
256.124	255.31
256.357	247.31
256.59	236.31
256.823	227.31
257.056	224.31
257.289	205.31
257.521	241.31
257.754	244.31
257.987	236.31
258.22	232.31
258.452	228.31
258.685	224.31
258.918	219.31
259.151	243.31
259.383	216.31
259.616	247.31
259.849	257.31
260.081	250.31
260.314	262.31
260.547	242.31
260.779	275.31
261.012	261.31
261.244	249.31
261.477	243.31
261.71	242.31
261.942	248.31
262.175	256.31
262.407	247.31
262.64	253.31
262.872	223.31
263.105	229.31
263.337	245.31
263.57	236.31
263.802	247.31
264.035	236.31
264.267	232.31
264.499	232.31
264.732	269.31
264.964	269.31
265.197	233.31
265.429	233.31
265.661	239.31
265.894	247.31
266.126	242.31
266.358	241.31
266.591	224.31
266.823	280.31
267.055	243.31
267.287	279.31
267.52	273.31
267.752	258.31
267.984	261.31
268.216	275.31
268.448	256.31
268.681	257.31
268.913	283.31
269.145	296.31
269.377	289.31
269.609	285.31
269.841	297.31
270.073	268.31
270.306	294.31
270.538	333.31
270.77	316.31
271.002	296.31
271.234	317.31
271.466	305.31
271.698	349.31
271.93	311.31
272.162	328.31
272.394	332.31
272.626	313.31
272.858	317.31
273.09	300.31
273.322	298.31
273.553	313.31
273.785	290.31
274.017	311.31
274.249	306.31
274.481	304.31
274.713	293.31
274.945	315.31
275.176	292.31
275.408	305.31
275.64	299.31
275.872	297.31
276.104	294.31
276.335	305.31
276.567	299.31
276.799	318.31
277.031	337.31
277.262	357.31
277.494	363.31
277.726	351.31
277.957	325.31
278.189	324.31
278.421	332.31
278.652	309.31
278.884	313.31
279.115	314.31
279.347	298.31
279.579	328.31
279.81	295.31
280.042	324.31
280.273	315.31
280.505	307.31
280.736	317.31
280.968	326.31
281.199	320.31
281.431	307.31
281.662	321.31
281.894	309.31
282.125	324.31
282.356	327.31
282.588	336.31
282.819	370.31
283.051	328.31
283.282	322.31
283.513	335.31
283.745	329.31
283.976	336.31
284.207	328.31
284.439	343.31
284.67	321.31
284.901	325.31
285.132	336.31
285.364	323.31
285.595	336.31
285.826	316.31
286.057	327.31
286.288	331.31
286.52	330.31
286.751	344.31
286.982	355.31
287.213	340.31
287.444	359.31
287.675	354.31
287.906	359.31
288.138	371.31
288.369	364.31
288.6	375.31
288.831	356.31
289.062	345.31
289.293	358.31
289.524	359.31
289.755	340.31
289.986	373.31
290.217	361.31
290.448	353.31
290.679	361.31
290.91	360.31
291.141	342.31
291.371	369.31
291.602	360.31
291.833	361.31
292.064	360.31
292.295	355.31
292.526	346.31
292.757	371.31
292.987	356.31
293.218	361.31
293.449	359.31
293.68	332.31
293.91	366.31
294.141	379.31
294.372	373.31
294.603	385.31
294.833	385.31
295.064	355.31
295.295	374.31
295.525	365.31
295.756	371.31
295.987	383.31
296.217	376.31
296.448	394.31
296.679	404.31
296.909	379.31
297.14	372.31
297.37	389.31
297.601	366.31
297.831	404.31
298.062	375.31
298.292	381.31
298.523	395.31
298.753	387.31
298.984	374.31
299.214	397.31
299.445	391.31
299.675	379.31
299.905	386.31
300.136	378.31
300.366	389.31
300.597	390.31
300.827	405.31
301.057	402.31
301.288	411.31
301.518	405.31
301.748	421.31
301.979	413.31
302.209	402.31
302.439	412.31
302.669	434.31
302.9	415.31
303.13	411.31
303.36	427.31
303.59	403.31
303.82	423.31
304.051	421.31
304.281	403.31
304.511	409.31
304.741	419.31
304.971	412.31
305.201	416.31
305.431	407.31
305.661	421.31
305.891	423.31
306.121	431.31
306.352	411.31
306.582	411.31
306.812	411.31
307.042	401.31
307.272	405.31
307.502	416.31
307.731	411.31
307.961	388.31
308.191	407.31
308.421	413.31
308.651	410.31
308.881	410.31
309.111	418.31
309.341	406.31
309.571	410.31
309.8	411.31
310.03	447.31
310.26	436.31
310.49	466.31
310.72	439.31
310.949	457.31
311.179	457.31
311.409	460.31
311.639	454.31
311.868	459.31
312.098	447.31
312.328	469.31
312.557	456.31
312.787	472.31
313.017	477.31
313.246	466.31
313.476	439.31
313.706	459.31
313.935	470.31
314.165	456.31
314.394	455.31
314.624	467.31
314.853	478.31
315.083	457.31
315.312	449.31
315.542	449.31
315.771	455.31
316.001	448.31
316.23	445.31
316.46	449.31
316.689	455.31
316.919	458.31
317.148	468.31
317.377	467.31
317.607	461.31
317.836	457.31
318.065	464.31
318.295	436.31
318.524	452.31
318.753	467.31
318.983	460.31
319.212	457.31
319.441	445.31
319.67	438.31
319.9	453.31
320.129	457.31
320.358	452.31
320.587	454.31
320.816	458.31
321.046	468.31
321.275	467.31
321.504	455.31
321.733	470.31
321.962	475.31
322.191	452.31
322.42	493.31
322.649	502.31
322.878	504.31
323.108	506.31
323.337	516.31
323.566	533.31
323.795	540.31
324.024	560.31
324.253	669.31
324.482	825.31
324.71	1199.31
324.939	1705.31
325.168	1524.31
325.397	826.31
325.626	662.31
325.855	570.31
326.084	556.31
326.313	550.31
326.542	537.31
326.77	580.31
326.999	643.31
327.228	779.31
327.457	1153.31
327.686	1380.31
327.914	953.31
328.143	699.31
328.372	639.31
328.6	597.31
328.829	561.31
329.058	596.31
329.287	612.31
329.515	584.31
329.744	566.31
329.972	569.31
330.201	563.31
330.43	598.31
330.658	634.31
330.887	636.31
331.115	614.31
331.344	579.31
331.572	577.31
331.801	578.31
332.03	568.31
332.258	567.31
332.486	582.31
332.715	578.31
332.943	576.31
333.172	594.31
333.4	611.31
333.629	615.31
333.857	625.31
334.085	641.31
334.314	640.31
334.542	664.31
334.771	661.31
334.999	627.31
335.227	596.31
335.455	609.31
335.684	591.31
335.912	600.31
336.14	571.31
336.369	576.31
336.597	601.31
336.825	566.31
337.053	568.31
337.281	562.31
337.51	564.31
337.738	557.31
337.966	553.31
338.194	548.31
338.422	548.31
338.65	547.31
338.878	532.31
339.106	550.31
339.334	519.31
339.562	551.31
339.79	536.31
340.018	544.31
340.246	550.31
340.474	526.31
340.702	544.31
340.93	538.31
341.158	513.31
341.386	531.31
341.614	537.31
341.842	525.31
342.07	509.31
342.298	548.31
342.526	495.31
342.754	495.31
342.981	508.31
343.209	526.31
343.437	533.31
343.665	557.31
343.893	563.31
344.12	602.31
344.348	579.31
344.576	549.31
344.804	559.31
345.031	554.31
345.259	549.31
345.487	544.31
345.714	527.31
345.942	511.31
346.17	515.31
346.397	499.31
346.625	517.31
346.853	508.31
347.08	490.31
347.308	507.31
347.535	512.31
347.763	511.31
347.99	518.31
348.218	529.31
348.445	490.31
348.673	495.31
348.9	514.31
349.128	507.31
349.355	483.31
349.583	498.31
349.81	478.31
350.037	495.31
350.265	507.31
350.492	490.31
350.72	501.31
350.947	494.31
351.174	517.31
351.402	501.31
351.629	497.31
351.856	498.31
352.083	492.31
352.311	496.31
352.538	501.31
352.765	518.31
352.992	501.31
353.22	512.31
353.447	509.31
353.674	492.31
353.901	480.31
354.128	501.31
354.355	457.31
354.583	488.31
354.81	505.31
355.037	508.31
355.264	497.31
355.491	473.31
355.718	506.31
355.945	478.31
356.172	475.31
356.399	492.31
356.626	482.31
356.853	480.31
357.08	457.31
357.307	496.31
357.534	495.31
357.761	478.31
357.988	483.31
358.215	479.31
358.441	494.31
358.668	502.31
358.895	485.31
359.122	499.31
359.349	493.31
359.576	515.31
359.802	508.31
360.029	540.31
360.256	524.31
360.483	513.31
360.709	517.31
360.936	493.31
361.163	474.31
361.39	492.31
361.616	519.31
361.843	498.31
362.07	513.31
362.296	526.31
362.523	511.31
362.749	490.31
362.976	488.31
363.203	495.31
363.429	499.31
363.656	501.31
363.882	513.31
364.109	500.31
364.335	497.31
364.562	478.31
364.788	480.31
365.015	523.31
365.241	476.31
365.468	478.31
365.694	509.31
365.92	503.31
366.147	488.31
366.373	482.31
366.599	509.31
366.826	477.31
367.052	489.31
367.278	482.31
367.505	499.31
367.731	487.31
367.957	503.31
368.184	498.31
368.41	499.31
368.636	517.31
368.862	538.31
369.089	499.31
369.315	500.31
369.541	499.31
369.767	504.31
369.993	497.31
370.219	505.31
370.445	513.31
370.672	501.31
370.898	501.31
371.124	520.31
371.35	535.31
371.576	543.31
371.802	498.31
372.028	503.31
372.254	502.31
372.48	513.31
372.706	521.31
372.932	535.31
373.158	533.31
373.384	536.31
373.61	533.31
373.835	533.31
374.061	512.31
374.287	531.31
374.513	529.31
374.739	549.31
374.965	549.31
375.191	560.31
375.416	554.31
375.642	517.31
375.868	516.31
376.094	516.31
376.319	517.31
376.545	511.31
376.771	505.31
376.997	488.31
377.222	521.31
377.448	521.31
377.674	515.31
377.899	519.31
378.125	521.31
378.35	502.31
378.576	509.31
378.802	503.31
379.027	516.31
379.253	522.31
379.478	508.31
379.704	501.31
379.929	517.31
380.155	503.31
380.38	523.31
380.606	526.31
380.831	500.31
381.057	515.31
381.282	528.31
381.507	496.31
381.733	512.31
381.958	512.31
382.184	521.31
382.409	539.31
382.634	523.31
382.86	521.31
383.085	542.31
383.31	552.31
383.535	546.31
383.761	547.31
383.986	543.31
384.211	570.31
384.436	587.31
384.662	553.31
384.887	569.31
385.112	606.31
385.337	568.31
385.562	595.31
385.787	607.31
386.013	610.31
386.238	589.31
386.463	613.31
386.688	582.31
386.913	583.31
387.138	574.31
387.363	587.31
387.588	596.31
387.813	598.31
388.038	585.31
388.263	581.31
388.488	589.31
388.713	587.31
388.938	561.31
389.163	594.31
389.387	577.31
389.612	565.31
389.837	591.31
390.062	565.31
390.287	571.31
390.512	588.31
390.736	577.31
390.961	587.31
391.186	611.31
391.411	620.31
391.636	626.31
391.86	619.31
392.085	645.31
392.31	631.31
392.534	644.31
392.759	615.31
392.984	626.31
393.208	606.31
393.433	608.31
393.658	605.31
393.882	615.31
394.107	614.31
394.331	624.31
394.556	598.31
394.78	616.31
395.005	624.31
395.229	617.31
395.454	649.31
395.678	675.31
395.903	641.31
396.127	662.31
396.352	641.31
396.576	633.31
396.801	618.31
397.025	637.31
397.249	641.31
397.474	659.31
397.698	670.31
397.922	659.31
398.147	660.31
398.371	684.31
398.595	675.31
398.82	683.31
399.044	714.31
399.268	791.31
399.492	856.31
399.717	953.31
399.941	984.31
400.165	950.31
400.389	862.31
400.613	786.31
400.837	758.31
401.062	728.31
401.286	714.31
401.51	711.31
401.734	699.31
401.958	728.31
402.182	721.31
402.406	715.31
402.63	748.31
402.854	739.31
403.078	738.31
403.302	752.31
403.526	749.31
403.75	774.31
403.974	783.31
404.198	777.31
404.422	756.31
404.645	769.31
404.869	794.31
405.093	809.31
405.317	803.31
405.541	857.31
405.765	826.31
405.988	775.31
406.212	786.31
406.436	781.31
406.66	827.31
406.883	797.31
407.107	851.31
407.331	889.31
407.555	961.31
407.778	955.31
408.002	880.31
408.226	865.31
408.449	833.31
408.673	834.31
408.896	835.31
409.12	845.31
409.344	807.31
409.567	784.31
409.791	775.31
410.014	744.31
410.238	727.31
410.461	749.31
410.685	778.31
410.908	751.31
411.132	782.31
411.355	806.31
411.578	773.31
411.802	736.31
412.025	743.31
412.249	704.31
412.472	765.31
412.695	803.31
412.919	785.31
413.142	737.31
413.365	725.31
413.589	718.31
413.812	703.31
414.035	706.31
414.258	684.31
414.482	673.31
414.705	731.31
414.928	732.31
415.151	713.31
415.374	689.31
415.597	707.31
415.821	698.31
416.044	689.31
416.267	677.31
416.49	691.31
416.713	679.31
416.936	676.31
417.159	701.31
417.382	706.31
417.605	693.31
417.828	699.31
418.051	728.31
418.274	708.31
418.497	713.31
418.72	708.31
418.943	706.31
419.166	765.31
419.389	781.31
419.611	758.31
419.834	766.31
420.057	746.31
420.28	743.31
420.503	740.31
420.726	714.31
420.948	739.31
421.171	757.31
421.394	767.31
421.617	715.31
421.839	718.31
422.062	704.31
422.285	723.31
422.507	763.31
422.73	834.31
422.953	804.31
423.175	755.31
423.398	752.31
423.621	749.31
423.843	771.31
424.066	781.31
424.288	755.31
424.511	770.31
424.733	835.31
424.956	865.31
425.178	845.31
425.401	828.31
425.623	865.31
425.846	755.31
426.068	745.31
426.291	723.31
426.513	716.31
426.735	724.31
426.958	747.31
427.18	805.31
427.402	918.31
427.625	957.31
427.847	875.31
428.069	785.31
428.292	731.31
428.514	705.31
428.736	677.31
428.958	682.31
429.181	669.31
429.403	648.31
429.625	649.31
429.847	677.31
430.069	742.31
430.292	722.31
430.514	680.31
430.736	663.31
430.958	645.31
431.18	619.31
431.402	659.31
431.624	639.31
431.846	665.31
432.068	656.31
432.29	658.31
432.512	648.31
432.734	660.31
432.956	657.31
433.178	677.31
433.4	658.31
433.622	656.31
433.844	668.31
434.066	682.31
434.287	638.31
434.509	668.31
434.731	683.31
434.953	715.31
435.175	717.31
435.397	735.31
435.618	743.31
435.84	771.31
436.062	805.31
436.284	887.31
436.505	735.31
436.727	694.31
436.949	675.31
437.17	673.31
437.392	653.31
437.614	680.31
437.835	708.31
438.057	753.31
438.278	827.31
438.5	816.31
438.721	877.31
438.943	864.31
439.165	714.31
439.386	699.31
439.608	723.31
439.829	704.31
440.05	713.31
440.272	780.31
440.493	726.31
440.715	696.31
440.936	674.31
441.158	676.31
441.379	682.31
441.6	704.31
441.822	725.31
442.043	742.31
442.264	815.31
442.486	839.31
442.707	771.31
442.928	731.31
443.149	748.31
443.371	765.31
443.592	795.31
443.813	867.31
444.034	929.31
444.255	823.31
444.476	802.31
444.698	791.31
444.919	801.31
445.14	932.31
445.361	838.31
445.582	781.31
445.803	806.31
446.024	867.31
446.245	858.31
446.466	797.31
446.687	729.31
446.908	687.31
447.129	671.31
447.35	672.31
447.571	662.31
447.792	643.31
448.013	651.31
448.234	659.31
448.455	681.31
448.675	809.31
448.896	897.31
449.117	759.31
449.338	721.31
449.559	835.31
449.779	915.31
450	746.31
450.221	669.31
450.442	626.31
450.662	630.31
450.883	627.31
451.104	640.31
451.324	647.31
451.545	594.31
451.766	620.31
451.986	597.31
452.207	576.31
452.428	578.31
452.648	590.31
452.869	608.31
453.089	596.31
453.31	615.31
453.53	609.31
453.751	607.31
453.971	584.31
454.192	592.31
454.412	568.31
454.633	576.31
454.853	568.31
455.073	595.31
455.294	602.31
455.514	636.31
455.734	616.31
455.955	583.31
456.175	561.31
456.395	567.31
456.616	556.31
456.836	565.31
457.056	583.31
457.276	536.31
457.497	571.31
457.717	569.31
457.937	578.31
458.157	591.31
458.377	596.31
458.598	605.31
458.818	647.31
459.038	716.31
459.258	746.31
459.478	705.31
459.698	675.31
459.918	657.31
460.138	676.31
460.358	690.31
460.578	709.31
460.798	740.31
461.018	717.31
461.238	708.31
461.458	733.31
461.678	720.31
461.898	708.31
462.118	721.31
462.338	728.31
462.558	760.31
462.777	794.31
462.997	813.31
463.217	895.31
463.437	873.31
463.657	817.31
463.876	785.31
464.096	803.31
464.316	791.31
464.536	787.31
464.755	784.31
464.975	767.31
465.195	779.31
465.414	786.31
465.634	730.31
465.854	654.31
466.073	683.31
466.293	633.31
466.512	648.31
466.732	625.31
466.951	621.31
467.171	639.31
467.391	632.31
467.61	626.31
467.829	636.31
468.049	627.31
468.268	626.31
468.488	620.31
468.707	595.31
468.927	599.31
469.146	616.31
469.365	615.31
469.585	588.31
469.804	609.31
470.023	637.31
470.243	631.31
470.462	637.31
470.681	673.31
470.901	664.31
471.12	647.31
471.339	616.31
471.558	635.31
471.777	637.31
471.997	610.31
472.216	625.31
472.435	648.31
472.654	634.31
472.873	614.31
473.092	614.31
473.311	591.31
473.53	614.31
473.749	631.31
473.968	632.31
474.187	710.31
474.406	761.31
474.625	650.31
474.844	628.31
475.063	602.31
475.282	633.31
475.501	629.31
475.72	653.31
475.939	635.31
476.158	654.31
476.377	635.31
476.596	627.31
476.814	659.31
477.033	628.31
477.252	661.31
477.471	651.31
477.69	675.31
477.908	669.31
478.127	700.31
478.346	701.31
478.564	703.31
478.783	708.31
479.002	746.31
479.22	760.31
479.439	747.31
479.658	735.31
479.876	751.31
480.095	778.31
480.313	815.31
480.532	811.31
480.751	833.31
480.969	811.31
481.188	819.31
481.406	836.31
481.624	771.31
481.843	737.31
482.061	725.31
482.28	722.31
482.498	715.31
482.717	737.31
482.935	725.31
483.153	691.31
483.372	702.31
483.59	705.31
483.808	713.31
484.027	725.31
484.245	723.31
484.463	703.31
484.681	748.31
484.9	730.31
485.118	729.31
485.336	745.31
485.554	738.31
485.772	759.31
485.99	735.31
486.209	739.31
486.427	759.31
486.645	757.31
486.863	773.31
487.081	767.31
487.299	771.31
487.517	779.31
487.735	760.31
487.953	760.31
488.171	748.31
488.389	772.31
488.607	773.31
488.825	796.31
489.043	752.31
489.261	768.31
489.479	757.31
489.696	772.31
489.914	763.31
490.132	780.31
490.35	784.31
490.568	804.31
490.786	799.31
491.003	808.31
491.221	824.31
491.439	854.31
491.657	829.31
491.874	826.31
492.092	845.31
492.31	856.31
492.527	891.31
492.745	867.31
492.963	872.31
493.18	888.31
493.398	860.31
493.615	852.31
493.833	863.31
494.05	887.31
494.268	887.31
494.485	904.31
494.703	873.31
494.92	863.31
495.138	887.31
495.355	879.31
495.573	892.31
495.79	911.31
496.008	907.31
496.225	895.31
496.442	923.31
496.66	905.31
496.877	889.31
497.094	937.31
497.312	969.31
497.529	951.31
497.746	959.31
497.963	979.31
498.181	1036.31
498.398	1055.31
498.615	1093.31
498.832	1134.31
499.049	1175.31
499.267	1216.31
499.484	1294.31
499.701	1429.31
499.918	1490.31
500.135	1596.31
500.352	1790.31
500.569	1833.31
500.786	1796.31
501.003	1723.31
501.22	1638.31
501.437	1497.31
501.654	1387.31
