Data from 1963.PennyLincolnUp.Lamp.En5.5.200Scan.071719.P1._HRD10591_13-58-48-063.txt Node
Date: Thu Jul 18 13:58:48 EDT 2019
User: cochatt
Spectrometer: HR+D1059
Trigger mode: 1
Integration Time (sec): 1.000000E-1
Scans to average: 1
Electric dark correction enabled: true
Nonlinearity correction enabled: false
Boxcar width: 0
XAxis mode: Wavelengths
Number of Pixels in Spectrum: 2048
>>>>>Begin Spectral Data<<<<<
223.165	-5.56
223.4	-5.56
223.635	-5.56
223.869	-6.56
224.104	-4.56
224.338	-10.56
224.573	-22.56
224.808	-17.56
225.042	-4.56
225.277	-17.56
225.511	-5.56
225.746	-6.56
225.98	0.44
226.215	6.44
226.449	15.44
226.683	25.44
226.918	18.44
227.152	35.44
227.387	24.44
227.621	19.44
227.856	35.44
228.09	34.44
228.324	40.44
228.559	60.44
228.793	69.44
229.027	88.44
229.262	99.44
229.496	101.44
229.73	137.44
229.964	122.44
230.199	116.44
230.433	111.44
230.667	127.44
230.901	106.44
231.136	112.44
231.37	120.44
231.604	104.44
231.838	118.44
232.072	114.44
232.306	110.44
232.541	121.44
232.775	106.44
233.009	112.44
233.243	123.44
233.477	111.44
233.711	121.44
233.945	117.44
234.179	121.44
234.413	134.44
234.647	99.44
234.881	97.44
235.115	124.44
235.349	123.44
235.583	128.44
235.817	111.44
236.051	142.44
236.285	116.44
236.519	137.44
236.753	124.44
236.987	141.44
237.221	160.44
237.455	189.44
237.689	159.44
237.922	141.44
238.156	137.44
238.39	130.44
238.624	125.44
238.858	124.44
239.091	131.44
239.325	142.44
239.559	121.44
239.793	129.44
240.027	135.44
240.26	131.44
240.494	152.44
240.728	146.44
240.961	165.44
241.195	145.44
241.429	138.44
241.662	125.44
241.896	143.44
242.13	148.44
242.363	149.44
242.597	144.44
242.83	152.44
243.064	138.44
243.298	145.44
243.531	146.44
243.765	161.44
243.998	166.44
244.232	140.44
244.465	149.44
244.699	157.44
244.932	153.44
245.166	159.44
245.399	163.44
245.633	170.44
245.866	165.44
246.099	157.44
246.333	158.44
246.566	157.44
246.8	168.44
247.033	180.44
247.266	150.44
247.5	163.44
247.733	177.44
247.966	193.44
248.2	190.44
248.433	181.44
248.666	179.44
248.899	191.44
249.133	201.44
249.366	206.44
249.599	200.44
249.832	183.44
250.066	189.44
250.299	188.44
250.532	199.44
250.765	205.44
250.998	215.44
251.231	231.44
251.465	213.44
251.698	205.44
251.931	195.44
252.164	209.44
252.397	212.44
252.63	215.44
252.863	210.44
253.096	219.44
253.329	229.44
253.562	221.44
253.795	225.44
254.028	239.44
254.261	222.44
254.494	225.44
254.727	233.44
254.96	268.44
255.193	275.44
255.426	250.44
255.659	239.44
255.892	237.44
256.124	237.44
256.357	232.44
256.59	244.44
256.823	224.44
257.056	213.44
257.289	221.44
257.521	232.44
257.754	227.44
257.987	221.44
258.22	212.44
258.452	233.44
258.685	231.44
258.918	230.44
259.151	246.44
259.383	228.44
259.616	259.44
259.849	237.44
260.081	240.44
260.314	246.44
260.547	277.44
260.779	262.44
261.012	237.44
261.244	262.44
261.477	228.44
261.71	234.44
261.942	261.44
262.175	253.44
262.407	249.44
262.64	228.44
262.872	232.44
263.105	233.44
263.337	238.44
263.57	237.44
263.802	246.44
264.035	235.44
264.267	241.44
264.499	244.44
264.732	244.44
264.964	237.44
265.197	223.44
265.429	235.44
265.661	251.44
265.894	237.44
266.126	256.44
266.358	244.44
266.591	262.44
266.823	250.44
267.055	230.44
267.287	253.44
267.52	240.44
267.752	255.44
267.984	272.44
268.216	257.44
268.448	261.44
268.681	261.44
268.913	267.44
269.145	302.44
269.377	292.44
269.609	295.44
269.841	287.44
270.073	291.44
270.306	299.44
270.538	327.44
270.77	325.44
271.002	306.44
271.234	304.44
271.466	315.44
271.698	327.44
271.93	331.44
272.162	322.44
272.394	337.44
272.626	312.44
272.858	309.44
273.09	309.44
273.322	301.44
273.553	274.44
273.785	289.44
274.017	278.44
274.249	293.44
274.481	289.44
274.713	280.44
274.945	304.44
275.176	288.44
275.408	282.44
275.64	306.44
275.872	297.44
276.104	290.44
276.335	322.44
276.567	297.44
276.799	305.44
277.031	340.44
277.262	323.44
277.494	349.44
277.726	345.44
277.957	326.44
278.189	312.44
278.421	306.44
278.652	305.44
278.884	310.44
279.115	309.44
279.347	298.44
279.579	307.44
279.81	327.44
280.042	306.44
280.273	321.44
280.505	313.44
280.736	312.44
280.968	298.44
281.199	331.44
281.431	325.44
281.662	317.44
281.894	325.44
282.125	324.44
282.356	335.44
282.588	339.44
282.819	345.44
283.051	340.44
283.282	335.44
283.513	319.44
283.745	321.44
283.976	336.44
284.207	326.44
284.439	335.44
284.67	325.44
284.901	335.44
285.132	336.44
285.364	325.44
285.595	316.44
285.826	336.44
286.057	339.44
286.288	342.44
286.52	338.44
286.751	335.44
286.982	350.44
287.213	353.44
287.444	348.44
287.675	345.44
287.906	335.44
288.138	355.44
288.369	361.44
288.6	360.44
288.831	351.44
289.062	349.44
289.293	352.44
289.524	360.44
289.755	375.44
289.986	365.44
290.217	339.44
290.448	337.44
290.679	373.44
290.91	371.44
291.141	362.44
291.371	348.44
291.602	350.44
291.833	353.44
292.064	368.44
292.295	333.44
292.526	366.44
292.757	354.44
292.987	364.44
293.218	358.44
293.449	358.44
293.68	372.44
293.91	359.44
294.141	359.44
294.372	348.44
294.603	377.44
294.833	349.44
295.064	381.44
295.295	372.44
295.525	358.44
295.756	381.44
295.987	378.44
296.217	385.44
296.448	378.44
296.679	403.44
296.909	370.44
297.14	375.44
297.37	374.44
297.601	378.44
297.831	375.44
298.062	382.44
298.292	394.44
298.523	380.44
298.753	382.44
298.984	385.44
299.214	376.44
299.445	355.44
299.675	377.44
299.905	387.44
300.136	405.44
300.366	372.44
300.597	411.44
300.827	406.44
301.057	403.44
301.288	425.44
301.518	399.44
301.748	404.44
301.979	410.44
302.209	407.44
302.439	426.44
302.669	411.44
302.9	407.44
303.13	385.44
303.36	413.44
303.59	411.44
303.82	417.44
304.051	432.44
304.281	408.44
304.511	400.44
304.741	415.44
304.971	394.44
305.201	425.44
305.431	410.44
305.661	401.44
305.891	414.44
306.121	380.44
306.352	400.44
306.582	407.44
306.812	423.44
307.042	411.44
307.272	405.44
307.502	402.44
307.731	414.44
307.961	387.44
308.191	409.44
308.421	421.44
308.651	421.44
308.881	412.44
309.111	411.44
309.341	390.44
309.571	409.44
309.8	427.44
310.03	423.44
310.26	446.44
310.49	434.44
310.72	443.44
310.949	434.44
311.179	442.44
311.409	440.44
311.639	431.44
311.868	428.44
312.098	437.44
312.328	445.44
312.557	469.44
312.787	469.44
313.017	454.44
313.246	455.44
313.476	432.44
313.706	442.44
313.935	442.44
314.165	440.44
314.394	470.44
314.624	463.44
314.853	448.44
315.083	464.44
315.312	466.44
315.542	453.44
315.771	445.44
316.001	439.44
316.23	440.44
316.46	452.44
316.689	438.44
316.919	438.44
317.148	450.44
317.377	445.44
317.607	441.44
317.836	439.44
318.065	456.44
318.295	459.44
318.524	435.44
318.753	454.44
318.983	451.44
319.212	428.44
319.441	465.44
319.67	459.44
319.9	431.44
320.129	438.44
320.358	449.44
320.587	455.44
320.816	470.44
321.046	473.44
321.275	457.44
321.504	464.44
321.733	458.44
321.962	458.44
322.191	472.44
322.42	457.44
322.649	487.44
322.878	490.44
323.108	497.44
323.337	505.44
323.566	512.44
323.795	521.44
324.024	564.44
324.253	637.44
324.482	804.44
324.71	1117.44
324.939	1619.44
325.168	1441.44
325.397	817.44
325.626	616.44
325.855	554.44
326.084	561.44
326.313	561.44
326.542	530.44
326.77	543.44
326.999	613.44
327.228	760.44
327.457	1071.44
327.686	1304.44
327.914	906.44
328.143	660.44
328.372	611.44
328.6	605.44
328.829	569.44
329.058	580.44
329.287	594.44
329.515	573.44
329.744	543.44
329.972	576.44
330.201	567.44
330.43	606.44
330.658	609.44
330.887	621.44
331.115	621.44
331.344	576.44
331.572	548.44
331.801	566.44
332.03	570.44
332.258	589.44
332.486	555.44
332.715	572.44
332.943	570.44
333.172	608.44
333.4	611.44
333.629	629.44
333.857	637.44
334.085	625.44
334.314	631.44
334.542	627.44
334.771	653.44
334.999	643.44
335.227	591.44
335.455	574.44
335.684	569.44
335.912	578.44
336.14	572.44
336.369	555.44
336.597	571.44
336.825	582.44
337.053	579.44
337.281	567.44
337.51	553.44
337.738	561.44
337.966	533.44
338.194	547.44
338.422	543.44
338.65	534.44
338.878	557.44
339.106	537.44
339.334	540.44
339.562	545.44
339.79	541.44
340.018	526.44
340.246	547.44
340.474	513.44
340.702	521.44
340.93	512.44
341.158	513.44
341.386	520.44
341.614	508.44
341.842	501.44
342.07	516.44
342.298	504.44
342.526	508.44
342.754	513.44
342.981	518.44
343.209	531.44
343.437	514.44
343.665	552.44
343.893	578.44
344.12	599.44
344.348	587.44
344.576	591.44
344.804	545.44
345.031	536.44
345.259	552.44
345.487	533.44
345.714	536.44
345.942	521.44
346.17	509.44
346.397	484.44
346.625	493.44
346.853	495.44
347.08	515.44
347.308	504.44
347.535	515.44
347.763	497.44
347.99	490.44
348.218	519.44
348.445	495.44
348.673	495.44
348.9	475.44
349.128	499.44
349.355	495.44
349.583	497.44
349.81	466.44
350.037	493.44
350.265	497.44
350.492	465.44
350.72	472.44
350.947	487.44
351.174	500.44
351.402	516.44
351.629	488.44
351.856	511.44
352.083	493.44
352.311	493.44
352.538	536.44
352.765	479.44
352.992	498.44
353.22	485.44
353.447	500.44
353.674	511.44
353.901	477.44
354.128	452.44
354.355	457.44
354.583	471.44
354.81	479.44
355.037	485.44
355.264	494.44
355.491	454.44
355.718	489.44
355.945	477.44
356.172	485.44
356.399	467.44
356.626	487.44
356.853	479.44
357.08	490.44
357.307	505.44
357.534	474.44
357.761	467.44
357.988	485.44
358.215	479.44
358.441	495.44
358.668	490.44
358.895	479.44
359.122	490.44
359.349	496.44
359.576	483.44
359.802	495.44
360.029	513.44
360.256	522.44
360.483	543.44
360.709	507.44
360.936	518.44
361.163	514.44
361.39	514.44
361.616	509.44
361.843	520.44
362.07	509.44
362.296	490.44
362.523	494.44
362.749	497.44
362.976	477.44
363.203	466.44
363.429	495.44
363.656	498.44
363.882	464.44
364.109	482.44
364.335	485.44
364.562	463.44
364.788	465.44
365.015	463.44
365.241	478.44
365.468	498.44
365.694	496.44
365.92	516.44
366.147	499.44
366.373	493.44
366.599	477.44
366.826	485.44
367.052	466.44
367.278	470.44
367.505	498.44
367.731	490.44
367.957	497.44
368.184	500.44
368.41	497.44
368.636	509.44
368.862	518.44
369.089	506.44
369.315	484.44
369.541	502.44
369.767	491.44
369.993	491.44
370.219	506.44
370.445	498.44
370.672	508.44
370.898	533.44
371.124	509.44
371.35	516.44
371.576	509.44
371.802	503.44
372.028	512.44
372.254	509.44
372.48	505.44
372.706	539.44
372.932	521.44
373.158	562.44
373.384	499.44
373.61	511.44
373.835	510.44
374.061	523.44
374.287	518.44
374.513	531.44
374.739	519.44
374.965	541.44
375.191	531.44
375.416	534.44
375.642	539.44
375.868	519.44
376.094	513.44
376.319	549.44
376.545	531.44
376.771	509.44
376.997	506.44
377.222	515.44
377.448	536.44
377.674	516.44
377.899	485.44
378.125	513.44
378.35	526.44
378.576	510.44
378.802	506.44
379.027	494.44
379.253	521.44
379.478	522.44
379.704	522.44
379.929	526.44
380.155	504.44
380.38	511.44
380.606	491.44
380.831	537.44
381.057	530.44
381.282	511.44
381.507	497.44
381.733	511.44
381.958	520.44
382.184	525.44
382.409	519.44
382.634	533.44
382.86	522.44
383.085	547.44
383.31	538.44
383.535	569.44
383.761	527.44
383.986	563.44
384.211	551.44
384.436	589.44
384.662	565.44
384.887	601.44
385.112	592.44
385.337	580.44
385.562	600.44
385.787	571.44
386.013	593.44
386.238	593.44
386.463	585.44
386.688	596.44
386.913	577.44
387.138	600.44
387.363	591.44
387.588	590.44
387.813	576.44
388.038	594.44
388.263	584.44
388.488	594.44
388.713	614.44
388.938	603.44
389.163	576.44
389.387	579.44
389.612	579.44
389.837	576.44
390.062	569.44
390.287	589.44
390.512	571.44
390.736	591.44
390.961	587.44
391.186	601.44
391.411	618.44
391.636	614.44
391.86	637.44
392.085	629.44
392.31	642.44
392.534	643.44
392.759	616.44
392.984	632.44
393.208	601.44
393.433	607.44
393.658	627.44
393.882	585.44
394.107	604.44
394.331	635.44
394.556	605.44
394.78	623.44
395.005	617.44
395.229	619.44
395.454	613.44
395.678	631.44
395.903	656.44
396.127	637.44
396.352	663.44
396.576	636.44
396.801	609.44
397.025	623.44
397.249	622.44
397.474	642.44
397.698	643.44
397.922	661.44
398.147	659.44
398.371	676.44
398.595	691.44
398.82	699.44
399.044	710.44
399.268	801.44
399.492	857.44
399.717	941.44
399.941	967.44
400.165	932.44
400.389	854.44
400.613	807.44
400.837	753.44
401.062	743.44
401.286	711.44
401.51	719.44
401.734	726.44
401.958	717.44
402.182	704.44
402.406	709.44
402.63	724.44
402.854	751.44
403.078	742.44
403.302	745.44
403.526	757.44
403.75	789.44
403.974	779.44
404.198	766.44
404.422	766.44
404.645	774.44
404.869	769.44
405.093	805.44
405.317	865.44
405.541	842.44
405.765	781.44
405.988	754.44
406.212	817.44
406.436	775.44
406.66	799.44
406.883	806.44
407.107	844.44
407.331	873.44
407.555	955.44
407.778	935.44
408.002	900.44
408.226	845.44
408.449	838.44
408.673	810.44
408.896	815.44
409.12	842.44
409.344	822.44
409.567	777.44
409.791	778.44
410.014	727.44
410.238	757.44
410.461	746.44
410.685	770.44
410.908	739.44
411.132	759.44
411.355	794.44
411.578	799.44
411.802	749.44
412.025	739.44
412.249	735.44
412.472	764.44
412.695	800.44
412.919	783.44
413.142	735.44
413.365	699.44
413.589	719.44
413.812	703.44
414.035	677.44
414.258	711.44
414.482	698.44
414.705	711.44
414.928	706.44
415.151	701.44
415.374	690.44
415.597	686.44
415.821	659.44
416.044	687.44
416.267	721.44
416.49	709.44
416.713	691.44
416.936	688.44
417.159	687.44
417.382	675.44
417.605	701.44
417.828	706.44
418.051	711.44
418.274	712.44
418.497	688.44
418.72	721.44
418.943	694.44
419.166	735.44
419.389	790.44
419.611	759.44
419.834	743.44
420.057	723.44
420.28	719.44
420.503	710.44
420.726	733.44
420.948	726.44
421.171	731.44
421.394	802.44
421.617	711.44
421.839	717.44
422.062	716.44
422.285	706.44
422.507	778.44
422.73	822.44
422.953	807.44
423.175	778.44
423.398	735.44
423.621	757.44
423.843	743.44
424.066	782.44
424.288	743.44
424.511	749.44
424.733	791.44
424.956	862.44
425.178	853.44
425.401	818.44
425.623	838.44
425.846	745.44
426.068	721.44
426.291	727.44
426.513	702.44
426.735	708.44
426.958	759.44
427.18	819.44
427.402	917.44
427.625	965.44
427.847	841.44
428.069	754.44
428.292	719.44
428.514	705.44
428.736	669.44
428.958	689.44
429.181	648.44
429.403	668.44
429.625	654.44
429.847	679.44
430.069	727.44
430.292	715.44
430.514	659.44
430.736	671.44
430.958	648.44
431.18	641.44
431.402	637.44
431.624	653.44
431.846	655.44
432.068	648.44
432.29	669.44
432.512	634.44
432.734	648.44
432.956	651.44
433.178	657.44
433.4	662.44
433.622	638.44
433.844	667.44
434.066	653.44
434.287	634.44
434.509	643.44
434.731	680.44
434.953	685.44
435.175	715.44
435.397	721.44
435.618	705.44
435.84	740.44
436.062	807.44
436.284	869.44
436.505	749.44
436.727	691.44
436.949	661.44
437.17	667.44
437.392	655.44
437.614	703.44
437.835	673.44
438.057	783.44
438.278	805.44
438.5	818.44
438.721	870.44
438.943	858.44
439.165	709.44
439.386	694.44
439.608	709.44
439.829	697.44
440.05	708.44
440.272	743.44
440.493	731.44
440.715	689.44
440.936	705.44
441.158	693.44
441.379	696.44
441.6	730.44
441.822	743.44
442.043	751.44
442.264	801.44
442.486	859.44
442.707	771.44
442.928	719.44
443.149	741.44
443.371	757.44
443.592	765.44
443.813	861.44
444.034	921.44
444.255	815.44
444.476	792.44
444.698	802.44
444.919	800.44
445.14	894.44
445.361	837.44
445.582	791.44
445.803	805.44
446.024	868.44
446.245	845.44
446.466	806.44
446.687	757.44
446.908	685.44
447.129	669.44
447.35	660.44
447.571	648.44
447.792	665.44
448.013	649.44
448.234	662.44
448.455	683.44
448.675	779.44
448.896	862.44
449.117	749.44
449.338	719.44
449.559	823.44
449.779	910.44
450	778.44
450.221	673.44
450.442	658.44
450.662	614.44
450.883	641.44
451.104	633.44
451.324	628.44
451.545	617.44
451.766	606.44
451.986	591.44
452.207	576.44
452.428	581.44
452.648	594.44
452.869	583.44
453.089	604.44
453.31	588.44
453.53	597.44
453.751	585.44
453.971	603.44
454.192	585.44
454.412	592.44
454.633	573.44
454.853	544.44
455.073	568.44
455.294	621.44
455.514	626.44
455.734	619.44
455.955	573.44
456.175	548.44
456.395	564.44
456.616	539.44
456.836	561.44
457.056	553.44
457.276	558.44
457.497	549.44
457.717	550.44
457.937	571.44
458.157	550.44
458.377	569.44
458.598	601.44
458.818	631.44
459.038	699.44
459.258	711.44
459.478	677.44
459.698	648.44
459.918	666.44
460.138	669.44
460.358	707.44
460.578	692.44
460.798	721.44
461.018	702.44
461.238	712.44
461.458	718.44
461.678	721.44
461.898	722.44
462.118	732.44
462.338	749.44
462.558	761.44
462.777	766.44
462.997	802.44
463.217	866.44
463.437	875.44
463.657	811.44
463.876	789.44
464.096	806.44
464.316	806.44
464.536	786.44
464.755	742.44
464.975	775.44
465.195	756.44
465.414	781.44
465.634	713.44
465.854	677.44
466.073	648.44
466.293	649.44
466.512	616.44
466.732	628.44
466.951	628.44
467.171	619.44
467.391	621.44
467.61	620.44
467.829	618.44
468.049	609.44
468.268	599.44
468.488	611.44
468.707	609.44
468.927	612.44
469.146	589.44
469.365	579.44
469.585	608.44
469.804	616.44
470.023	647.44
470.243	644.44
470.462	657.44
470.681	666.44
470.901	653.44
471.12	648.44
471.339	633.44
471.558	610.44
471.777	635.44
471.997	601.44
472.216	617.44
472.435	659.44
472.654	633.44
472.873	601.44
473.092	629.44
473.311	610.44
473.53	601.44
473.749	615.44
473.968	634.44
474.187	701.44
474.406	702.44
474.625	655.44
474.844	604.44
475.063	609.44
475.282	619.44
475.501	610.44
475.72	625.44
475.939	629.44
476.158	599.44
476.377	616.44
476.596	613.44
476.814	644.44
477.033	652.44
477.252	674.44
477.471	672.44
477.69	653.44
477.908	705.44
478.127	683.44
478.346	702.44
478.564	682.44
478.783	727.44
479.002	741.44
479.22	734.44
479.439	766.44
479.658	743.44
479.876	742.44
480.095	778.44
480.313	793.44
480.532	833.44
480.751	805.44
480.969	776.44
481.188	831.44
481.406	833.44
481.624	761.44
481.843	744.44
482.061	723.44
482.28	713.44
482.498	719.44
482.717	700.44
482.935	700.44
483.153	707.44
483.372	695.44
483.59	706.44
483.808	704.44
484.027	709.44
484.245	712.44
484.463	716.44
484.681	737.44
484.9	727.44
485.118	742.44
485.336	726.44
485.554	766.44
485.772	741.44
485.99	736.44
486.209	745.44
486.427	757.44
486.645	756.44
486.863	767.44
487.081	801.44
487.299	746.44
487.517	767.44
487.735	763.44
487.953	772.44
488.171	760.44
488.389	734.44
488.607	759.44
488.825	754.44
489.043	757.44
489.261	767.44
489.479	776.44
489.696	778.44
489.914	776.44
490.132	796.44
490.35	767.44
490.568	769.44
490.786	822.44
491.003	804.44
491.221	809.44
491.439	801.44
491.657	837.44
491.874	809.44
492.092	852.44
492.31	868.44
492.527	856.44
492.745	854.44
492.963	850.44
493.18	857.44
493.398	865.44
493.615	869.44
493.833	875.44
494.05	884.44
494.268	875.44
494.485	867.44
494.703	881.44
494.92	885.44
495.138	889.44
495.355	878.44
495.573	875.44
495.79	889.44
496.008	893.44
496.225	884.44
496.442	891.44
496.66	891.44
496.877	939.44
497.094	922.44
497.312	908.44
497.529	971.44
497.746	973.44
497.963	1007.44
498.181	1009.44
498.398	1045.44
498.615	1095.44
498.832	1125.44
499.049	1158.44
499.267	1236.44
499.484	1320.44
499.701	1403.44
499.918	1466.44
500.135	1612.44
500.352	1750.44
500.569	1803.44
500.786	1823.44
501.003	1741.44
501.22	1586.44
501.437	1507.44
501.654	1404.44
501.871	1310.44
